Dividing Wavelength (nm)	Counts (n)	Blue Motor Position (mm): 11.300000	Red Motor Position (mm): 0.000000	
326.493990	2160.121820
326.888308	2160.121820
327.282561	2160.121820
327.676750	2123.472632
328.070874	2119.212857
328.464933	2121.113372
328.858929	2121.796448
329.252859	2127.654269
329.646726	2133.285238
330.040528	2147.627320
330.434265	2160.683909
330.827938	2178.610252
331.221547	2198.031297
331.615091	2214.906560
332.008571	2232.790053
332.401986	2252.500964
332.795338	2270.250867
333.188625	2287.489093
333.581847	2306.068265
333.975006	2327.130206
334.368100	2342.684686
334.761129	2361.969620
335.154095	2377.917310
335.546996	2396.869528
335.939833	2421.334248
336.332606	2436.561053
336.725315	2449.358022
337.117960	2461.565176
337.510540	2473.661425
337.903056	2485.508136
338.295508	2492.903509
338.687896	2503.734428
339.080220	2509.551920
339.472480	2514.693897
339.864676	2523.185720
340.256807	2526.283509
340.648875	2530.384488
341.040879	2533.245343
341.432818	2536.610313
341.824694	2541.832948
342.216506	2538.962011
342.608253	2541.603576
342.999937	2543.957795
343.391557	2540.983514
343.783113	2540.895294
344.174605	2541.545603
344.566033	2540.030736
344.957397	2540.338246
345.348697	2535.740714
345.739934	2536.227185
346.131106	2535.118131
346.522215	2531.687626
346.913260	2529.461957
347.304241	2525.867614
347.695159	2525.449198
348.086012	2525.736544
348.476802	2520.796213
348.867528	2518.399145
349.258191	2514.686335
349.648789	2516.783455
350.039324	2509.514111
350.429796	2515.959226
350.820203	2512.798423
351.210548	2513.819256
351.600828	2511.490243
351.991045	2510.615603
352.381198	2507.099398
352.771288	2508.848679
353.161314	2507.898421
353.551276	2508.455469
353.941175	2506.413801
354.331010	2506.015550
354.720782	2503.091681
355.110490	2508.200890
355.500135	2506.103770
355.889717	2507.979080
356.279235	2506.136538
356.668689	2506.970849
357.058080	2504.939264
357.447408	2505.904645
357.836672	2508.140397
358.225873	2506.799450
358.615010	2508.374810
359.004084	2508.420181
359.393095	2507.175016
359.782043	2510.595438
360.170927	2510.240037
360.559748	2510.550068
360.948505	2511.845645
361.337199	2511.462517
361.725830	2510.943278
362.114398	2512.253978
362.502903	2513.000069
362.891344	2511.555778
363.279722	2511.391941
363.668037	2515.820594
364.056289	2514.333454
364.444478	2514.887981
364.832603	2516.506191
365.220665	2514.124246
365.608665	2517.920235
365.996601	2515.278670
366.384474	2520.435771
366.772284	2519.084742
367.160031	2517.985770
367.547715	2519.964423
367.935336	2517.811850
368.322893	2518.447036
368.710388	2513.877230
369.097820	2517.504340
369.485189	2514.346057
369.872495	2519.606501
370.259738	2517.360667
370.646918	2520.672705
371.034035	2520.778569
371.421090	2521.955679
371.808081	2519.422499
372.195010	2520.458456
372.581875	2519.493075
372.968678	2520.806296
373.355418	2523.576410
373.742096	2522.726975
374.128710	2525.434075
374.515262	2524.279651
374.901751	2522.442150
375.288177	2525.507172
375.674540	2524.009949
376.060841	2525.131606
376.447079	2524.143539
376.833254	2525.489528
377.219367	2524.990453
377.605417	2526.550690
377.991404	2523.609177
378.377329	2526.568334
378.763191	2523.034486
379.148991	2526.838036
379.534727	2524.808972
379.920402	2526.487676
380.306013	2524.806451
380.691563	2525.630680
381.077049	2525.434075
381.462474	2526.215454
381.847835	2527.652183
382.233134	2526.386853
382.618371	2527.952131
383.003545	2527.863911
383.388657	2529.209899
383.773706	2528.146216
384.158693	2526.931298
384.543618	2527.475742
384.928480	2529.552697
385.313280	2529.799714
385.698017	2529.656041
386.082692	2529.638397
386.467305	2529.530012
386.851856	2531.859025
387.236344	2534.296423
387.620770	2528.816689
388.005133	2525.229908
388.389435	2526.016328
388.773674	2525.250073
389.157851	2530.810465
389.541965	2532.126207
389.926018	2534.997144
390.310008	2531.667462
390.693936	2532.710980
391.077802	2531.352389
391.461606	2535.276928
391.845348	2533.814993
392.229027	2533.378933
392.612645	2533.139478
392.996200	2532.544622
393.379694	2534.697195
393.763125	2532.302647
394.146494	2533.726773
394.529801	2537.747093
394.913047	2535.980169
395.296230	2533.220137
395.679351	2533.714170
396.062410	2535.082843
396.445408	2534.727442
396.828343	2533.953625
397.211217	2534.487987
397.594028	2538.609130
397.976778	2535.886907
398.359466	2535.425642
398.742092	2536.340611
399.124656	2538.271373
399.507158	2535.029911
399.889598	2538.215920
400.271977	2535.831455
400.654294	2536.007895
401.036549	2536.819521
401.418742	2536.632998
401.800874	2538.233564
402.182944	2539.531662
402.564952	2534.583769
402.946898	2535.886907
403.328783	2537.346321
403.710606	2537.472350
404.092367	2537.374048
404.474067	2536.854809
404.855705	2540.363452
405.237282	2538.530992
405.618797	2539.698020
406.000250	2537.646270
406.381642	2539.201466
406.762972	2535.135775
407.144240	2535.942360
407.525447	2538.200797
407.906593	2535.183666
408.287677	2540.575180
408.668700	2540.902855
409.049661	2544.456869
409.430560	2541.331353
409.811399	2539.587114
410.192176	2539.206507
410.572891	2539.143493
410.953545	2539.821528
411.334138	2538.495704
411.714669	2541.439738
412.095139	2540.882691
412.475547	2542.410160
412.855894	2544.121632
413.236180	2542.735315
413.616405	2544.958464
413.996568	2539.521579
414.376670	2540.802032
414.756711	2541.780016
415.136691	2541.774975
415.516609	2543.070552
415.896466	2541.812784
416.276262	2542.019471
416.655997	2541.255736
417.035670	2544.275387
417.415283	2544.494677
417.794834	2543.312527
418.174324	2540.202135
418.553753	2543.814122
418.933121	2546.281767
419.312428	2541.948895
419.691674	2545.944009
420.070859	2542.241282
420.449983	2547.005172
420.829045	2544.540048
421.208047	2545.656663
421.586988	2544.661036
421.965867	2545.981818
422.344686	2543.844369
422.723444	2544.661036
423.102141	2543.970398
423.480777	2546.216232
423.859352	2547.143804
424.237866	2547.100954
424.616319	2547.731098
424.994712	2545.248330
425.373044	2547.010213
425.751314	2543.786395
426.129524	2539.561908
426.507673	2545.182795
426.885762	2541.558205
427.263789	2546.690100
427.641756	2547.403423
428.019662	2545.704554
428.397508	2548.346119
428.775292	2549.044319
429.153016	2544.676159
429.530679	2548.094061
429.908282	2548.988866
430.285824	2550.753270
430.663305	2547.181613
431.040726	2551.176727
431.418086	2545.530635
431.795385	2546.662374
432.172624	2545.583567
432.549802	2549.049360
432.926920	2548.638506
433.303977	2551.837118
433.680974	2549.805533
434.057910	2550.201264
434.434786	2548.363763
434.811601	2552.031202
435.188355	2551.408620
435.565050	2550.758311
435.941683	2548.083979
436.318257	2548.814946
436.694770	2547.600028
437.071222	2547.988197
437.447614	2547.521890
437.823946	2549.079607
438.200218	2548.923331
438.576429	2547.988197
438.952580	2548.973743
439.328670	2551.408620
439.704700	2548.978784
440.080670	2551.559855
440.456580	2549.364432
440.832429	2550.228990
441.208218	2547.229503
441.583947	2550.700338
441.959616	2549.341747
442.335224	2551.176727
442.710773	2549.462735
443.086261	2550.423074
443.461689	2550.569268
443.837057	2551.574978
444.212365	2551.191850
444.587612	2548.814946
444.962800	2549.535831
445.337927	2549.442570
445.712995	2547.579864
446.088002	2549.555996
446.462949	2550.644885
446.837837	2550.060111
447.212664	2550.697817
447.587431	2550.758311
447.962139	2555.544887
448.336786	2552.855431
448.711374	2552.429454
449.085901	2550.778476
449.460369	2551.504402
449.834776	2551.539690
450.209124	2552.305945
450.583412	2553.359547
450.957640	2550.745708
451.331808	2554.430792
451.705917	2553.059598
452.079965	2556.021276
452.453954	2553.099927
452.827883	2553.334341
453.201752	2550.891902
453.575562	2554.357695
453.949311	2555.713765
454.323001	2553.238559
454.696632	2553.599001
455.070202	2554.972716
455.443713	2553.180586
455.817164	2554.087993
456.190556	2552.396686
456.563888	2554.554300
456.937160	2551.214536
457.310373	2554.385421
457.683526	2555.078580
458.056619	2553.901471
458.429653	2552.931048
458.802628	2555.532284
459.175542	2554.138405
459.548398	2554.748384
459.921194	2556.890875
460.293930	2557.626883
460.666607	2555.834753
461.039224	2557.510937
461.411782	2553.185627
461.784280	2556.653941
462.156719	2555.179403
462.529099	2557.571431
462.901419	2557.526060
463.273680	2552.956254
463.645882	2553.120092
464.018024	2555.814588
464.390106	2550.329813
464.762130	2553.664536
465.134094	2557.810885
465.505999	2556.709393
465.877845	2557.331976
466.249631	2556.863148
466.621358	2559.587892
466.993026	2556.923642
467.364634	2562.640311
467.736184	2558.962789
468.107674	2553.800647
468.479105	2557.493293
468.850477	2557.757953
469.221790	2557.125288
469.593043	2553.556152
469.964238	2561.211144
470.335373	2558.443550
470.706449	2555.517160
471.077467	2558.743499
471.448425	2559.328273
471.819324	2558.284754
472.190164	2559.482028
472.560945	2561.133006
472.931667	2559.736606
473.302330	2557.619322
473.672934	2558.720814
474.043479	2557.122768
474.413965	2556.772408
474.784393	2560.215516
475.154761	2559.267779
475.525070	2560.013870
475.895321	2560.603685
476.265513	2558.524209
476.635645	2560.996895
477.005719	2560.059240
477.375734	2563.671227
477.745691	2560.855742
478.115588	2561.611915
478.485427	2562.315156
478.855207	2563.109138
479.224928	2561.473284
479.594591	2564.250959
479.964194	2563.088973
480.333739	2565.586865
480.703226	2559.787018
481.072653	2562.862122
481.442022	2561.846329
481.811333	2562.889848
482.180584	2559.613098
482.549777	2559.882800
482.918912	2558.342727
483.287988	2564.160219
483.657005	2566.774057
484.025964	2566.007802
484.394864	2564.472770
484.763706	2563.381360
485.132489	2565.670044
485.501213	2562.700805
485.869879	2562.912533
486.238487	2565.105435
486.607036	2564.505538
486.975527	2564.611402
487.343959	2564.094684
487.712333	2565.140723
488.080648	2566.990827
488.448905	2565.236505
488.817104	2564.497976
489.185244	2564.833213
489.553326	2561.158212
489.921350	2566.791701
490.289315	2566.070816
490.657222	2565.027297
491.025070	2570.892680
491.392861	2567.883111
491.760593	2566.441341
492.128267	2568.883780
492.495883	2566.204407
492.863440	2567.378995
493.230939	2567.419325
493.598380	2568.772874
493.965763	2566.027966
494.333088	2566.758933
494.700354	2563.956052
495.067563	2565.700291
495.434713	2566.630384
495.801805	2566.723645
496.168839	2566.723645
496.535815	2563.010836
496.902733	2566.706001
497.269593	2564.011505
497.636395	2567.258008
498.003139	2565.977555
498.369825	2566.000240
498.736453	2564.709704
499.103023	2568.576269
499.469535	2568.908986
499.835989	2569.826476
500.202385	2563.197358
500.568723	2561.773232
500.935003	2565.569221
501.301226	2563.207441
501.667390	2566.660631
502.033497	2568.104922
502.399546	2567.242884
502.765537	2568.974521
503.131470	2568.961918
503.497345	2569.972669
503.863163	2566.562328
504.228923	2566.355641
504.594625	2569.450910
504.960269	2568.122566
505.325856	2570.433935
505.691385	2569.609706
506.056856	2568.878739
506.422270	2570.386044
506.787625	2568.112483
507.152924	2566.842113
507.518164	2568.241033
507.883347	2568.195662
508.248472	2569.924778
508.613540	2568.102401
508.978550	2568.692216
509.343503	2570.116342
509.708398	2570.113821
510.073236	2568.049469
510.438016	2568.979562
510.802738	2571.895869
511.167403	2572.526013
511.532010	2568.672051
511.896561	2570.234809
512.261053	2572.263873
512.625488	2570.789336
512.989866	2572.473081
513.354186	2571.790005
513.718449	2571.928637
514.082655	2573.100705
514.446803	2573.617423
514.810894	2573.751014
515.174927	2575.580953
515.538904	2575.467527
515.902822	2577.292424
516.266684	2576.001889
516.630488	2578.890470
516.994235	2575.790161
517.357925	2575.979204
517.721558	2574.360993
518.085133	2574.676066
518.448651	2578.088927
518.812112	2575.568350
519.175516	2576.160685
519.538863	2576.609348
519.902152	2578.013309
520.265385	2580.334761
520.628560	2578.716550
520.991678	2582.205029
521.354739	2583.349371
521.717743	2580.596901
522.080690	2587.944383
522.443580	2584.501274
522.806413	2586.396748
523.169189	2583.157807
523.531908	2588.052767
523.894569	2586.704259
524.257174	2588.181317
524.619722	2589.393714
524.982213	2587.649475
525.344647	2589.965885
525.707025	2586.860534
526.069345	2592.816658
526.431608	2590.646441
526.793815	2592.582244
527.155964	2594.533171
527.518057	2592.108376
527.880093	2590.956472
528.242072	2591.672316
528.603995	2596.184148
528.965860	2595.223809
529.327669	2594.893613
529.689421	2597.444437
530.051117	2597.487287
530.412755	2596.605085
530.774337	2600.612802
531.135862	2599.347472
531.497331	2603.113214
531.858743	2599.445775
532.220098	2604.469285
532.581396	2604.033225
532.942638	2602.457864
533.303824	2604.260077
533.664953	2605.618668
534.026025	2603.962649
534.387040	2604.930550
534.747999	2607.032712
535.108902	2606.268977
535.469748	2609.492795
535.830537	2609.979266
536.191270	2609.011364
536.551947	2607.181426
536.912567	2607.529265
537.273131	2609.765017
537.633638	2609.371807
537.994089	2613.808022
538.354483	2613.634102
538.714821	2616.774741
539.075103	2616.157200
539.435328	2615.577467
539.795497	2617.520832
540.155609	2618.733230
540.515665	2618.140894
540.875665	2618.776079
541.235609	2617.999742
541.595496	2619.738940
541.955328	2618.226594
542.315102	2622.861935
542.674821	2618.856738
543.034483	2622.924949
543.394090	2623.169445
543.753640	2623.166924
544.113134	2626.718417
544.472571	2626.937707
544.831953	2625.871503
545.191278	2625.274127
545.550548	2626.645321
545.909761	2626.569703
546.268918	2631.187400
546.628019	2629.448202
546.987064	2630.000208
547.346053	2629.039869
547.704986	2630.559777
548.063863	2635.399284
548.422684	2631.711680
548.781449	2630.781587
549.140158	2632.251084
549.498811	2631.421814
549.857408	2629.682616
550.215949	2631.409211
550.574434	2632.127575
550.932864	2633.302164
551.291237	2634.617905
551.649555	2632.737555
552.007817	2635.668986
552.366022	2634.509521
552.724173	2632.034314
553.082267	2634.307874
553.440305	2636.659573
553.798288	2636.475571
554.156215	2636.997330
554.514086	2634.451547
554.871902	2634.020529
555.229661	2634.149078
555.587365	2631.671351
555.945014	2638.701240
556.302606	2640.213586
556.660143	2637.536733
557.017625	2640.563946
557.375050	2642.293062
557.732421	2638.318112
558.089735	2641.504122
558.446994	2641.161323
558.804197	2643.787764
559.161345	2640.695016
559.518437	2640.430356
559.875474	2642.620737
560.232455	2642.156951
560.589381	2643.386992
560.946251	2643.051756
561.303065	2641.864564
561.659825	2648.793630
562.016528	2642.645943
562.373177	2641.791467
562.729770	2642.658546
563.086307	2645.698362
563.442789	2650.510143
563.799216	2646.073927
564.155587	2647.815646
564.511904	2647.309010
564.868164	2645.605100
565.224370	2648.201294
565.580520	2648.193733
565.936615	2646.119298
566.292654	2647.354381
566.648638	2650.805050
567.004567	2649.305307
567.360441	2649.600215
567.716260	2647.399751
568.072023	2651.742705
568.427732	2650.666419
568.783385	2649.738846
569.138982	2651.566265
569.494525	2652.546769
569.850013	2655.042140
570.205445	2654.840494
570.560823	2652.166162
570.916145	2653.575164
571.271412	2651.987201
571.626625	2656.438540
571.981782	2656.496513
572.336884	2655.604229
572.691931	2653.698673
573.046923	2651.150369
573.401860	2655.006852
573.756743	2658.795279
574.111570	2659.722852
574.466342	2656.919970
574.821059	2658.240752
575.175722	2659.639672
575.530330	2661.837616
575.884882	2663.521361
576.239380	2664.378357
576.593823	2665.565549
576.948211	2668.817093
577.302544	2667.486228
577.656823	2663.992709
578.011047	2666.057061
578.365216	2665.643687
578.719330	2665.721825
579.073389	2669.169974
579.427394	2672.509738
579.781344	2669.812721
580.135239	2673.195335
580.489080	2674.753052
580.842866	2670.987310
581.196597	2680.994000
581.550273	2678.062569
581.903895	2680.278156
582.257463	2683.106244
582.610975	2685.170596
582.964434	2686.700586
583.317837	2683.610359
583.671186	2690.310052
584.024481	2695.066381
584.377721	2693.193592
584.730906	2693.838860
585.084037	2698.632997
585.437113	2700.117617
585.790135	2704.077444
586.143103	2702.741538
586.496016	2704.054758
586.848874	2710.590614
587.201679	2711.329143
587.554428	2711.336705
587.907124	2717.507078
588.259765	2717.801985
588.612352	2721.633262
588.964884	2724.602502
589.317362	2727.231463
589.669786	2729.215157
590.022155	2731.524006
590.374470	2736.781929
590.726731	2739.610017
591.078937	2737.946436
591.431090	2744.411716
591.783188	2747.194432
592.135232	2752.071749
592.487222	2756.018972
592.839157	2757.559045
593.191038	2762.267482
593.542866	2763.827720
593.894639	2767.437186
594.246358	2771.676796
594.598022	2777.257353
594.949633	2780.203908
595.301190	2781.801954
595.652692	2787.833694
596.004141	2792.542132
596.355535	2791.677574
596.706876	2795.155970
597.058162	2799.572021
597.409395	2804.691313
597.760573	2809.601397
598.111698	2812.462251
598.462768	2820.777635
598.813785	2822.668067
599.164748	2823.124292
599.515657	2830.781804
599.866511	2832.417659
600.217312	2843.782940
600.568060	2843.956860
600.918753	2857.933459
601.269392	2864.393698
601.619978	2862.047041
601.970510	2875.154041
602.320988	2879.275184
602.671412	2891.593243
603.021783	2892.591392
603.372100	2900.080026
603.722363	2908.390368
604.072572	2916.700710
604.422728	2929.769901
604.772830	2932.381219
605.122878	2932.633277
605.472872	2944.369083
605.822813	2956.208233
606.172701	2964.566466
606.522534	2978.888384
606.872314	2983.264105
607.222041	2988.549755
607.571714	3001.891169
607.921333	3012.522962
608.270899	3026.786907
608.620411	3043.079916
608.969870	3043.589073
609.319276	3057.477452
609.668627	3075.834813
610.017926	3098.414142
610.367171	3111.682458
610.716362	3134.705408
611.065500	3133.460243
611.414585	3151.633603
611.763616	3161.904954
612.112594	3176.342818
612.461518	3182.430012
612.810389	3208.661656
613.159207	3214.264898
613.507971	3224.657237
613.856682	3260.540170
614.205340	3272.381840
614.553945	3303.226140
614.902496	3297.224646
615.250994	3336.679237
615.599439	3345.526462
615.947830	3364.420707
616.296169	3382.052142
616.644454	3406.728590
616.992686	3416.939447
617.340864	3457.366981
617.688990	3473.317191
618.037063	3515.138604
618.385082	3526.962630
618.733048	3565.340934
619.080961	3579.955239
619.428821	3618.210035
619.776628	3638.989671
620.124382	3646.029643
620.472083	3675.182635
620.819731	3700.496789
621.167326	3695.112837
621.514868	3716.116805
621.862357	3721.069738
622.209793	3735.573138
622.557176	3741.660331
622.904506	3736.606574
623.251783	3749.383379
623.599007	3761.025924
623.946179	3773.981689
624.293297	3786.377886
624.640363	3792.550779
624.987376	3804.463026
625.334336	3804.155515
625.681243	3817.194460
626.028097	3835.871935
626.374899	3871.114641
626.721647	3866.955689
627.068343	3880.097977
627.414987	3900.161770
627.761577	3934.237449
628.108115	3966.488231
628.454600	3953.933237
628.801032	3984.701920
629.147412	4004.637163
629.493739	4037.838202
629.840014	4048.021333
630.186236	4082.281014
630.532405	4086.651695
630.878521	4139.808141
631.224585	4153.474709
631.570597	4173.803162
631.916556	4195.104558
632.262462	4216.695820
632.608316	4251.136983
632.954117	4267.303963
633.299866	4301.367040
633.645562	4318.859844
633.991206	4304.694201
634.336797	4299.494251
634.682336	4330.457018
635.027823	4331.404755
635.373257	4347.710367
635.718639	4344.058051
636.063968	4360.847614
636.409245	4351.632385
636.754470	4371.555025
637.099642	4381.836458
637.444762	4359.002552
637.789829	4408.443668
638.134845	4406.260848
638.479808	4430.163479
638.824719	4446.854740
639.169577	4445.642342
639.514383	4477.265500
639.859137	4475.007063
640.203839	4518.580277
640.548489	4510.138865
640.893086	4546.082292
641.237632	4530.454715
641.582125	4599.533646
641.926566	4597.509622
642.270955	4619.116008
642.615292	4637.773318
642.959576	4665.787010
643.303809	4710.459195
643.647990	4709.791242
643.992118	4767.953555
644.336195	4733.681270
644.680219	4805.094256
645.024192	4830.252134
645.368112	4900.054471
645.711981	4952.162357
646.055797	5011.703425
646.399562	5045.532088
646.743274	5121.953460
647.086935	5237.831943
647.430544	5264.292959
647.774101	5296.687414
648.117606	5387.738214
648.461059	5385.948605
648.804460	5441.791986
649.147810	5400.739350
649.491108	5380.531885
649.834354	5424.183236
650.177548	5376.362851
650.520690	5356.941805
650.863781	5364.813567
651.206820	5391.660232
651.549807	5376.060381
651.892742	5364.112847
652.235626	5363.117219
652.578458	5397.392024
652.921238	5343.401266
653.263967	5420.140231
653.606644	5406.335031
653.949269	5416.296351
654.291843	5406.924846
654.634365	5459.935099
654.976836	5458.949553
655.319255	5489.713195
655.661622	5506.444784
656.003938	5512.504251
656.346203	5519.856774
656.688416	5566.366460
657.030577	5572.680505
657.372687	5586.989820
657.714746	5603.209732
658.056753	5679.245456
658.398708	5667.053425
658.740612	5687.215520
659.082465	5751.288586
659.424266	5752.178349
659.766016	5799.570237
660.107715	5802.047964
660.449362	5835.682542
660.790958	5875.941197
661.132503	5880.339603
661.473996	5925.558753
661.815438	5964.882274
662.156829	5988.999154
662.498168	6022.232961
662.839456	6038.462956
663.180693	6067.991514
663.521879	6139.830477
663.863013	6158.598693
664.204097	6186.425862
664.545129	6249.407518
664.886110	6256.495380
665.227040	6325.349980
665.567918	6360.650660
665.908746	6409.015490
666.249522	6417.303147
666.590248	6465.491536
666.930922	6540.680346
667.271545	6560.973511
667.612118	6626.385002
667.952639	6621.900896
668.293109	6641.536190
668.633528	6661.922616
668.973896	6666.600807
669.314213	6761.170333
669.654480	6661.978069
669.994695	6703.746549
670.334859	6756.774447
670.674973	6758.591783
671.015035	6811.614639
671.355047	6810.956768
671.695008	6820.366082
672.034918	6856.470826
672.374777	6895.554891
672.714585	6885.601133
673.054342	6934.989317
673.394049	6935.579132
673.733705	6992.682803
674.073310	6997.565160
674.412864	7039.154679
674.752368	7007.942375
675.091820	7019.211875
675.431223	7069.414205
675.770574	7027.398708
676.109875	7015.720876
676.449125	7030.312495
676.788324	7019.491659
677.127473	6972.319062
677.466571	6989.597616
677.805619	6989.544684
678.144616	6965.266487
678.483562	6981.975392
678.822458	6935.841272
679.161303	6956.525127
679.500098	6980.299208
679.838842	6975.865513
680.177535	7009.807602
680.516179	7054.608336
680.854771	7051.200516
681.193314	7204.769186
681.531805	7266.435100
681.870247	7519.374995
682.208638	7730.770740
682.546978	7930.743231
682.885268	8000.374168
683.223508	7865.553550
683.561697	7814.103534
683.899836	7787.597147
684.237925	7698.872839
684.575963	7695.097015
684.913951	7685.715428
685.251889	7641.010475
685.589776	7763.381964
685.927614	7741.584015
686.265401	7713.726599
686.603137	7776.015096
686.940824	7882.895119
687.278460	7951.606046
687.616046	8019.550717
687.953582	8125.082232
688.291068	8083.021365
688.628504	8229.960917
688.965889	8245.903566
689.303224	8281.524359
689.640510	8251.756346
689.977745	8105.787216
690.314930	8006.307606
690.652065	8004.956577
690.989150	7852.713731
691.326185	7747.169613
691.663170	7657.028742
692.000105	7532.890328
692.336990	7519.949686
692.673825	7376.932152
693.010610	7332.451531
693.347345	7225.831127
693.684030	7116.246524
694.020665	7117.358099
694.357251	7006.510687
694.693786	7025.036928
695.030272	6908.198105
695.366707	6863.092381
695.703093	6836.709503
696.039429	6854.923191
696.375716	6849.133426
696.711952	6754.473160
697.048139	6798.588297
697.384276	6790.078829
697.720363	6802.296066
698.056400	6784.193282
698.392388	6777.138188
698.728326	6753.641369
699.064214	6730.683955
699.400053	6783.520288
699.735842	6671.246230
700.071581	6674.074318
700.407270	6638.854296
700.742910	6605.043278
701.078501	6574.327527
701.414042	6502.405385
701.749533	6472.372711
702.084974	6391.028653
702.420366	6475.294060
702.755709	6427.156082
703.091002	6355.201172
703.426246	6381.455502
703.761440	6366.836155
704.096584	6343.203226
704.431679	6315.154246
704.766725	6320.389484
705.101721	6291.952336
705.436668	6344.546694
705.771565	6275.233349
706.106413	6338.870354
706.441212	6396.268932
706.775961	6366.740373
707.110661	6390.577469
707.445311	6520.634197
707.779913	6446.854390
708.114465	6558.679786
708.448967	6589.062820
708.783421	6678.661768
709.117825	6825.261042
709.452180	6856.697678
709.786485	6919.064312
710.120742	7122.295909
710.454949	7123.533512
710.789107	7188.304777
711.123216	7323.795869
711.457275	7447.452853
711.791286	7573.925320
712.125247	7557.912095
712.459159	7585.275478
712.793023	7773.219776
713.126837	7469.328940
713.460602	7604.232737
713.794318	7482.529201
714.127985	7539.222017
714.461602	7350.551793
714.795171	7326.056827
715.128691	7179.470155
715.462162	7003.170923
715.795584	6995.150447
716.128957	6910.766573
716.462281	6785.670340
716.795556	6856.301947
717.128782	6720.584003
717.461960	6517.460791
717.795088	6580.976809
718.128167	6530.303131
718.461198	6415.700060
718.794180	6385.906840
719.127113	6391.968828
719.459997	6294.137676
719.792833	6113.389625
720.125619	6169.729561
720.458357	6065.425567
720.791046	6066.043108
721.123686	6090.326346
721.456278	5967.468386
721.788821	5987.025542
722.121315	5904.587553
722.453761	5957.277693
722.786158	5933.543941
723.118506	5945.173883
723.450805	5931.613179
723.783056	5998.761348
724.115259	5909.618625
724.447412	5909.754736
724.779518	5952.433145
725.111574	5962.815401
725.443582	6033.411719
725.775542	6013.405900
726.107453	6167.874416
726.439315	6112.424244
726.771129	6139.953985
727.102895	6271.812926
727.434612	6375.113730
727.766281	6388.745010
728.097901	6464.841227
728.429473	6445.699966
728.760996	6429.233037
729.092471	6431.309992
729.423897	6415.011942
729.755276	6440.656292
730.086606	6390.625360
730.417887	6468.884233
730.749120	6610.454956
731.080305	6787.470032
731.411442	6897.226034
731.742530	6900.149903
732.073570	7009.487489
732.404562	7092.084274
732.735506	6950.558921
733.066401	7078.707572
733.397249	7041.720627
733.728048	6872.592436
734.058798	6621.116997
734.389501	6462.411391
734.720156	6318.143650
735.050762	6126.221882
735.381320	6043.100817
735.711831	6017.645511
736.042293	5924.532879
736.372707	5958.192663
736.703073	5840.895095
737.033391	5873.029930
737.363661	5886.421756
737.693883	5900.113529
738.024056	5975.120858
738.354182	6016.405387
738.684260	6055.101284
739.014290	6127.623323
739.344272	6222.104628
739.674207	6239.156331
740.004093	6290.339166
740.333931	6315.219781
740.663722	6325.380227
740.993464	6402.794706
741.323159	6423.065185
741.652806	6202.509663
741.982405	6193.181008
742.311956	6284.791377
742.641460	6167.909704
742.970915	6000.263612
743.300323	6007.263254
743.629683	5958.759793
743.958996	5854.470922
744.288260	5786.067506
744.617477	5749.143575
744.946647	5768.894815
745.275768	5623.918792
745.604842	5588.756744
745.933869	5576.587399
746.262847	5541.097676
746.591778	5532.787334
746.920662	5504.640051
747.249498	5492.601776
747.578286	5536.996697
747.907027	5608.192913
748.235720	5658.425491
748.564365	5627.369462
748.892963	5643.775897
749.221514	5802.189116
749.550017	5677.014745
749.878473	5556.659718
750.206881	5601.490699
750.535242	5552.480601
750.863555	5497.708465
751.191821	5521.638822
751.520039	5527.337847
751.848210	5451.327329
752.176334	5458.891580
752.504411	5520.749058
752.832440	5448.985713
753.160421	5377.315629
753.488356	5427.563330
753.816243	5473.818437
754.144082	5339.655689
754.471875	5300.501047
754.799620	5345.432851
755.127318	5357.513976
755.454969	5314.898582
755.782572	5281.546308
756.110129	5328.245037
756.437638	5330.521118
756.765100	5273.062047
757.092515	5261.180047
757.419882	5300.420388
757.747203	5289.564264
758.074477	5355.152196
758.401703	5348.502914
758.728882	5295.522907
759.056014	5336.557900
759.383099	5464.701510
759.710138	5476.644003
760.037129	5457.767403
760.364073	5463.763855
760.690970	5547.104211
761.017820	5538.831677
761.344623	5491.296117
761.671379	5581.041258
761.998088	5692.962436
762.324751	5900.496657
762.651366	6420.015287
762.977935	7546.430867
763.304456	9005.703753
763.630931	9872.605775
763.957359	9603.342624
764.283740	8789.995301
764.610074	8075.505005
764.936362	7169.702920
765.262602	6613.101562
765.588796	6105.391835
765.914943	5779.808913
766.241044	5638.885978
766.567097	5472.096883
766.893104	5228.253751
767.219064	5059.821239
767.544978	5007.741078
767.870845	4942.911840
768.196665	4837.821426
768.522438	4767.215026
768.848165	4745.550667
769.173846	4690.816339
769.499479	4655.470289
769.825066	4599.190847
770.150607	4546.442734
770.476101	4520.102705
770.801548	4523.240823
771.126949	4460.342347
771.452303	4410.523144
771.777611	4368.124520
772.102872	4379.993916
772.428087	4351.108105
772.753256	4318.111232
773.078378	4281.000778
773.403453	4214.901169
773.728482	4205.043193
774.053465	4160.663395
774.378401	4145.121518
774.703291	4153.028567
775.028135	4090.924072
775.352932	4037.679406
775.677683	4027.506357
776.002388	4048.711971
776.327046	4063.805185
776.651658	3990.469000
776.976224	3930.764094
777.300743	3935.568314
777.625216	3954.535655
777.949643	3958.530770
778.274024	3913.777926
778.598359	3865.017366
778.922647	3885.126528
779.246889	3881.186867
779.571086	3883.992269
779.895236	3869.725803
780.219339	3851.325592
780.543397	3837.623736
780.867409	3887.077455
781.191374	3902.947007
781.515294	3847.610262
781.839167	3839.196576
782.162995	3860.248434
782.486776	3848.996579
782.810511	3854.574616
783.134201	3861.601984
783.457844	3825.330882
783.781441	3764.743775
784.104993	3769.694188
784.428498	3789.576498
784.751958	3793.236376
785.075372	3769.008591
785.398739	3730.658013
785.722061	3740.493304
786.045337	3780.144500
786.368568	3819.047084
786.691752	3736.735124
787.014891	3774.644601
787.337983	3888.612486
787.661030	4034.011966
787.984031	4189.254299
788.306987	4359.438612
788.629897	4436.704377
788.952760	4396.591915
789.275579	4336.576979
789.598351	4285.711737
789.921078	4156.645595
790.243759	3964.572592
790.566395	3936.407666
790.888984	3937.788942
791.211529	3837.122141
791.534027	3777.218110
791.856480	3775.602420
792.178888	3716.772155
792.501249	3662.199144
792.823566	3667.396573
793.145836	3706.286555
793.468062	3658.070439
793.790241	3611.838017
794.112375	3639.818941
794.434464	3695.349771
794.756507	3719.963205
795.078505	3706.997357
795.400457	3732.800503
795.722364	3855.963453
796.044226	3954.603711
796.366042	4027.513919
796.687812	4017.461858
797.009538	4028.877551
797.331218	3982.135972
797.652852	3952.655305
797.974442	3935.911112
798.295986	3939.117286
798.617484	3864.669526
798.938938	3779.395888
799.260346	3814.507525
799.581709	3817.907783
799.903026	3749.012854
800.224299	3710.077502
800.545526	3706.407542
800.866708	3671.608457
801.187845	3605.781070
801.508936	3641.064106
801.829983	3652.333606
802.150984	3570.135072
802.471940	3552.329716
802.792851	3569.056265
803.113717	3568.647931
803.434538	3572.421235
803.755314	3519.557175
804.076045	3488.511229
804.396731	3506.104856
804.717372	3534.501676
805.037967	3521.888709
805.358518	3509.991586
805.679024	3532.218033
805.999485	3543.611041
806.319901	3545.839231
806.640272	3561.781880
806.960598	3581.452462
807.280879	3551.838204
807.601115	3562.442271
807.921306	3579.115887
808.241453	3621.191878
808.561554	3600.361830
808.881611	3535.590565
809.201623	3564.050399
809.521590	3583.635282
809.841513	3557.600242
810.161390	3581.316351
810.481223	3569.537695
810.801011	3513.296062
811.120755	3497.338289
811.440453	3532.664175
811.760107	3541.040052
812.079716	3507.528982
812.399281	3465.798310
812.718801	3489.320334
813.038276	3464.512816
813.357707	3458.221456
813.677093	3480.808346
813.996434	3434.041562
814.315731	3432.819082
814.634983	3437.472067
814.954191	3450.803398
815.273354	3481.403202
815.592473	3481.914879
815.911547	3480.508397
816.230577	3514.868902
816.549562	3570.467788
816.868502	3613.055455
817.187399	3635.907006
817.506250	3631.054895
817.825058	3602.179166
818.143821	3682.651105
818.462539	3785.742701
818.781213	3833.815144
819.099843	3883.858678
819.418429	4101.835650
819.736970	4334.870548
820.055466	4563.786824
820.373919	4911.399587
820.692327	5310.379188
821.010691	5696.526531
821.329011	6927.785508
821.647286	9415.728522
821.965517	13607.697482
822.283704	17439.748223
822.601847	19737.982535
822.919945	18150.757602
823.237999	15793.347706
823.556010	13438.667594
823.873976	11470.394445
824.191897	9463.420358
824.509775	8126.337479
824.827609	7030.768720
825.145398	6483.490976
825.463144	6367.612493
825.780845	6490.959445
826.098502	6639.325644
826.416116	7399.186325
826.733685	8648.613621
827.051210	9761.173589
827.368692	9912.047762
827.686129	8762.362216
828.003522	7286.698018
828.320872	6298.105064
828.638177	5623.487774
828.955439	5086.461216
829.272656	4609.467239
829.589830	4314.166529
829.906960	4148.388185
830.224046	3974.944767
830.541088	3850.690407
830.858086	3805.377995
831.175041	3734.196903
831.491952	3709.964076
831.808819	3721.659553
832.125642	3783.922844
832.442421	3920.790171
832.759157	4169.142616
833.075849	4675.723124
833.392497	5489.410726
833.709101	6229.056380
834.025662	6600.632268
834.342179	6308.709131
834.658653	5661.513197
834.975083	5047.183066
835.291469	4487.156244
835.607811	4082.901076
835.924110	3947.460396
836.240366	3758.807816
836.556578	3559.173082
836.872746	3445.472378
837.188871	3419.618821
837.504952	3352.989890
837.820990	3276.286214
838.136984	3221.899726
838.452935	3247.473499
838.768842	3245.267994
839.084706	3266.047630
839.400526	3405.238929
839.716303	3711.524313
840.032037	4191.951316
840.347727	4482.725070
840.663373	4247.285541
840.978977	3885.398751
841.294537	3588.731888
841.610054	3360.070191
841.925527	3250.891401
842.240957	3186.586443
842.556344	3138.324957
842.871687	3081.243972
843.186987	3033.264790
843.502244	2997.104593
843.817458	2962.151753
844.132629	2928.925508
844.447756	2940.656273
844.762840	2926.717483
845.077881	2896.405025
845.392879	2877.233517
845.707833	2874.975080
846.022745	2870.753113
846.337613	2876.288300
846.652438	2865.417052
846.967221	2860.960672
847.281960	2848.135977
847.596656	2842.855368
847.911309	2842.449555
848.225919	2835.981755
848.540485	2830.227277
848.855009	2832.349603
849.169490	2824.687049
849.483928	2813.321768
849.798323	2811.080975
850.112675	2807.327836
850.426984	2816.661532
850.741251	2818.942655
851.055474	2807.758855
851.369654	2802.561425
851.683792	2807.398412
851.997887	2813.009217
852.311938	2816.659012
852.625947	2808.830100
852.939914	2810.576860
853.253837	2816.424598
853.567718	2798.939356
853.881555	2794.011628
854.195350	2812.159782
854.509103	2808.998979
854.822812	2801.621250
855.136479	2798.672175
855.450103	2801.606127
855.763685	2792.776546
856.077224	2787.921914
856.390720	2801.901034
856.704173	2812.747077
857.017584	2806.448155
857.330953	2800.872639
857.644278	2811.015440
857.957561	2815.456697
858.270802	2822.118582
858.584000	2823.464570
858.897155	2810.753300
859.210268	2810.223979
859.523339	2806.606951
859.836367	2805.848257
860.149352	2800.005560
860.462295	2796.121351
860.775195	2804.146868
861.088054	2807.005202
861.400869	2790.165228
861.713642	2785.355967
862.026373	2797.772329
862.339062	2800.081177
862.651708	2807.083340
862.964312	2813.152889
863.276873	2804.290541
863.589392	2810.334884
863.901869	2821.866524
864.214303	2841.174143
864.526696	2861.331197
864.839045	2858.445136
865.151353	2856.174096
865.463619	2854.863396
865.775842	2855.344827
866.088023	2871.746221
866.400162	2878.524052
866.712258	2854.810464
867.024313	2841.446365
867.336325	2847.122705
867.648296	2869.457537
867.960224	2863.730786
868.272110	2846.197653
868.583954	2849.978518
868.895755	2869.548278
869.207515	2857.275588
869.519233	2857.613346
869.830909	2866.611805
870.142542	2878.902138
870.454134	2877.651932
870.765684	2882.398179
871.077191	2881.974722
871.388657	2885.148128
871.700081	2897.186403
872.011463	2908.072775
872.322803	2914.492685
872.634101	2912.153589
872.945357	2925.563058
873.256571	2950.020216
873.567744	2942.455965
873.878874	2934.014553
874.189963	2959.474900
874.501010	2960.954479
874.812015	2951.088941
875.122979	2951.058694
875.433900	2950.567182
875.744780	2951.056173
876.055618	2958.196968
876.366415	2953.412913
876.677169	2968.168370
876.987882	2967.626446
877.298554	2956.838377
877.609183	2975.306644
877.919771	2994.286588
878.230317	3020.654343
878.540822	3072.500090
878.851285	3106.933692
879.161707	3143.955925
879.472087	3234.500090
879.782425	3437.217489
880.092722	3834.611646
880.402977	4333.713603
880.713191	4917.592645
881.023363	5973.966433
881.333494	7194.863319
881.643583	7765.136286
881.953631	7496.939339
882.263637	6938.550893
882.573602	6401.708337
882.883526	5846.503379
883.193408	5290.345642
883.503248	4833.430581
883.813048	4547.380389
884.122806	4270.379067
884.432522	3979.517093
884.742197	3752.884460
885.051831	3561.358423
885.361424	3427.919080
885.670975	3357.103472
885.980485	3281.725619
886.289954	3212.553426
886.599382	3166.557939
886.908768	3133.800521
887.218113	3087.585743
887.527417	3038.721839
887.836680	2987.372646
888.145901	2982.132366
888.455082	2973.905203
888.764221	2928.880138
889.073319	2897.156157
889.382376	2895.273286
889.691392	2897.567011
890.000366	2898.240005
890.309300	2887.386400
890.618193	2896.856208
890.927044	2919.100299
891.235855	2917.227511
891.544625	2899.817886
891.853353	2912.947571
892.162041	2926.536001
892.470687	2961.380457
892.779293	3013.571522
893.087858	3057.341341
893.396381	3120.600260
893.704864	3229.365674
894.013306	3445.968932
894.321707	3729.977457
894.630068	3942.220116
894.938387	3942.956125
895.246665	3896.370822
895.554903	3793.453146
895.863100	3600.490379
896.171256	3440.597582
896.479371	3310.986996
896.787446	3196.610777
897.095480	3097.564707
897.403473	3034.613298
897.711425	2995.009994
898.019336	2990.208295
898.327207	2967.225674
898.635038	2931.146136
898.942827	2917.535021
899.250576	2907.762744
899.558284	2876.227806
899.865952	2857.691484
900.173579	2838.996365
900.481165	2835.893534
900.788711	2820.510453
901.096216	2798.790642
901.403681	2783.760442
901.711105	2791.896864
902.018489	2791.604477
902.325832	2790.467697
902.633135	2797.215282
902.940397	2827.066474
903.247619	2894.900240
903.554800	3068.900706
903.861941	3379.677759
904.169041	3780.429325
904.476101	4084.534410
904.783121	4067.686874
905.090100	3842.450641
905.397039	3581.066814
905.703938	3336.648990
906.010796	3162.353616
906.317614	3057.384190
906.624391	2969.063175
906.931129	2900.836199
907.237826	2841.642970
907.544483	2795.589509
907.851099	2768.140427
908.157675	2749.548651
908.464211	2729.865466
908.770707	2718.948847
909.077163	2704.833617
909.383578	2694.668130
909.689954	2679.965605
909.996289	2677.709688
910.302584	2679.718588
910.608839	2680.169772
910.915054	2676.535100
911.221229	2668.880107
911.527363	2671.496466
911.833458	2675.662980
912.139513	2678.836386
912.445527	2683.542303
912.751502	2691.144363
913.057436	2701.541743
913.363331	2713.532128
913.669186	2730.150291
913.975000	2762.975765
914.280775	2815.360915
914.586510	2879.988507
914.892205	2953.609518
915.197859	3066.919533
915.503475	3244.214393
915.809050	3440.295113
916.114585	3582.470775
916.420081	3611.311216
916.725536	3561.940676
917.030952	3450.853810
917.336328	3334.105728
917.641665	3208.049155
917.946961	3112.685648
918.252218	3048.584856
918.557435	2978.313692
918.862612	2921.550300
919.167750	2873.631612
919.472848	2836.838751
919.777906	2810.922179
920.082925	2786.654064
920.387904	2760.366967
920.692843	2741.997003
920.997743	2732.554922
921.302603	2722.399517
921.607423	2713.569936
921.912204	2698.101156
922.216946	2688.878365
922.521647	2681.634227
922.826310	2673.250788
923.130932	2667.758451
923.435516	2657.875269
923.740059	2650.666419
924.044564	2647.843372
924.349028	2639.948926
924.653454	2635.008595
924.957840	2629.223871
925.262186	2625.286730
925.566493	2619.570061
925.870761	2618.430760
926.174989	2610.460696
926.479178	2607.829214
926.783328	2606.349635
927.087438	2601.222782
927.391509	2602.130189
927.695541	2597.431834
927.999533	2593.187183
928.303486	2594.162646
928.607400	2592.562079
928.911275	2592.819178
929.215110	2590.270875
929.518906	2588.650144
929.822663	2586.366501
930.126381	2588.798858
930.430060	2587.367170
930.733699	2591.710124
931.037299	2589.549990
931.340861	2593.698860
931.644383	2594.024014
931.947866	2592.078129
932.251309	2590.621235
932.554714	2588.330031
932.858080	2587.442788
933.161407	2584.070256
933.464694	2585.136460
933.767943	2579.918866
934.071153	2584.652509
934.374323	2581.922724
934.677455	2579.674370
934.980548	2581.537076
935.283602	2581.786613
935.586617	2580.717888
935.889593	2581.040522
936.192530	2578.540110
936.495428	2580.990111
936.798287	2582.199988
937.101108	2585.675863
937.403890	2588.400607
937.706632	2592.181472
938.009336	2599.813779
938.312002	2606.452979
938.614628	2617.450256
938.917216	2625.959724
939.219765	2627.013325
939.522275	2624.936369
939.824747	2618.846656
940.127179	2617.172992
940.429573	2616.689042
940.731929	2613.684514
941.034246	2609.757455
941.336524	2608.053545
941.638763	2604.340735
941.940964	2602.510797
942.243126	2598.140116
942.545250	2602.558687
942.847335	2596.844540
943.149381	2595.095259
943.451389	2590.815320
943.753359	2585.272571
944.055290	2587.765422
944.357182	2586.172417
944.659036	2585.005390
944.960851	2585.144022
945.262628	2580.811150
945.564367	2584.007241
945.866067	2583.472879
946.167729	2586.258117
946.469352	2582.840214
946.770937	2581.090934
947.072484	2582.850297
947.373992	2581.045563
947.675462	2582.295770
947.976893	2578.625810
948.278286	2576.692527
948.579641	2574.776889
948.880958	2575.412074
949.182236	2575.311251
949.483476	2573.473750
949.784678	2577.360480
950.085841	2572.836044
950.386967	2578.204873
950.688054	2577.410892
950.989103	2577.199163
951.290114	2578.363670
951.591087	2582.220152
951.892021	2580.947261
952.192917	2581.625296
952.493776	2584.960019
952.794596	2586.336254
953.095378	2587.445308
953.396122	2584.173599
953.696828	2581.146387
953.997496	2585.537232
954.298126	2582.265523
954.598718	2581.882395
954.899272	2577.216807
955.199788	2576.188412
955.500266	2573.980386
955.800706	2573.176322
956.101108	2569.801270
956.401472	2569.211455
956.701798	2566.103583
957.002087	2564.981927
957.302337	2562.605023
957.602550	2562.274827
957.902724	2559.829867
958.202861	2558.955227
958.502960	2559.476987
958.803022	2557.513457
959.103045	2557.460525
959.403031	2557.180741
959.702979	2553.876265
960.002889	2552.714279
960.302762	2554.733261
960.602596	2553.815771
960.902393	2554.138405
961.202153	2553.057077
961.501875	2554.471121
961.801559	2551.078424
962.101205	2552.651264
962.400814	2554.718137
962.700385	2552.300904
962.999918	2551.222097
963.299414	2548.585574
963.598873	2553.425082
963.898293	2549.787889
964.197677	2551.950544
964.497022	2552.926007
964.796331	2549.185471
965.095601	2549.644216
965.394835	2550.453321
965.694030	2552.888199
965.993189	2552.016079
966.292309	2549.792930
966.591393	2548.658671
966.890439	2549.107333
967.189447	2552.144628
967.488419	2552.162273
967.787353	2550.211346
968.086249	2550.541542
968.385108	2552.593291
968.683930	2550.019782
968.982714	2552.008517
969.281462	2550.100441
969.580172	2549.707231
969.878844	2552.041285
970.177480	2554.987839
970.476078	2553.442726
970.774639	2553.195709
971.073162	2550.526418
971.371649	2551.189330
971.670098	2551.088507
971.968510	2552.772252
972.266885	2551.481717
972.565223	2550.599515
972.863524	2551.005328
973.161788	2549.664381
973.460014	2551.242262
973.758204	2551.048177
974.056356	2551.075904
974.354471	2553.561193
974.652550	2551.322920
974.950591	2553.785524
975.248595	2553.329300
975.546563	2552.915925
975.844493	2550.987684
976.142386	2554.796275
976.440243	2550.191181
976.738062	2551.411141
977.035845	2551.973229
977.333590	2552.255534
977.631299	2551.615307
977.928971	2547.073228
978.226606	2546.720347
978.524204	2546.233876
978.821765	2545.903680
979.119290	2548.010882
979.416777	2550.055070
979.714228	2548.391489
980.011642	2549.651778
980.309020	2548.951057
980.606360	2548.535162
980.903664	2553.213353
981.200931	2548.814946
981.498162	2549.843342
981.795356	2552.164793
982.092513	2553.379711
982.389633	2554.463559
982.686717	2559.434137
982.983764	2561.533777
983.280775	2566.572411
983.577749	2566.395970
983.874686	2566.232133
984.171587	2562.708366
984.468451	2559.091338
984.765279	2559.746688
985.062070	2558.942624
985.358824	2557.130330
985.655543	2556.379198
985.952224	2552.114382
986.248869	2556.457336
986.545478	2550.241593
986.842050	2550.793599
987.138586	2549.092210
987.435086	2551.239741
987.731549	2546.705223
988.027975	2550.382745
988.324366	2550.506253
988.620719	2548.053732
988.917037	2548.905687
989.213318	2549.089689
989.509563	2548.225131
989.805772	2547.935265
990.101944	2547.441232
990.398080	2547.148845
990.694180	2547.655481
990.990244	2543.735984
991.286271	2547.181612
991.582262	2548.323434
991.878217	2544.789585
992.174136	2549.976932
992.470019	2547.645399
992.765865	2547.075748
993.061676	2542.715150
993.357450	2542.122815
993.653188	2544.517363
993.948890	2547.960471
994.244556	2547.758825
994.540186	2546.826211
994.835780	2548.139432
995.131337	2546.969884
995.426859	2550.773435
995.722345	2549.089689
996.017795	2547.844524
996.313208	2551.930379
996.608586	2551.600184
996.903928	2551.396017
997.199234	2549.873589
997.494504	2554.488765
997.789738	2551.053219
998.084936	2552.217725
998.380099	2546.856458
998.675225	2549.515667
998.970316	2550.377704
999.265371	2549.198074
999.560390	2551.612787
999.855373	2547.761345
1000.150320	2548.935934
1000.445232	2547.201777
1000.740108	2549.089689
1001.034948	2545.888557
1001.329752	2547.579864
1001.624521	2548.492313
1001.919254	2545.586087
1002.213951	2546.117929
1002.508613	2545.613814
1002.803239	2545.770089
1003.097829	2546.841335
1003.392384	2546.536345
1003.686903	2546.674977
1003.981386	2546.962322
1004.275834	2546.332178
1004.570246	2546.861499
1004.864623	2545.313865
1005.158964	2545.142466
1005.453270	2547.668084
1005.747540	2545.548279
1006.041775	2544.335881
1006.335974	2547.738660
1006.630138	2545.742363
1006.924266	2550.314690
1007.218359	2547.479041
1007.512416	2542.024512
1007.806438	2541.749769
1008.100425	2543.526776
1008.394376	2542.788247
1008.688292	2546.528783
1008.982172	2545.122301
1009.276017	2547.751263
1009.569827	2544.892929
1009.863602	2546.059956
1010.157341	2545.230686
1010.451045	2543.635161
1010.744714	2547.993238
1011.038347	2548.404092
1011.331945	2546.014585
1011.625508	2546.609442
1011.919036	2544.824873
1012.212528	2545.533155
1012.505986	2544.603062
1012.799408	2546.851417
1013.092795	2545.533155
1013.386147	2545.959133
1013.679464	2544.252702
1013.972745	2545.447456
1014.265992	2542.546272
1014.559204	2547.088351
1014.852380	2545.336550
1015.145521	2544.461910
1015.438628	2547.877292
1015.731699	2543.940151
1016.024736	2547.514329
1016.317737	2545.303783
1016.610703	2545.470141
1016.903635	2546.314534
1017.196531	2544.877805
1017.489393	2545.301262
1017.782219	2546.014585
1018.075011	2546.460728
1018.367768	2544.582898
1018.660490	2545.966694
1018.953177	2545.966694
1019.245829	2545.966694
