Dividing Wavelength (nm)	Counts (n)	Blue Motor Position (mm): 45.500000	Red Motor Position (mm): 0.000000	
326.493990	2095.277458
326.888308	2095.277458
327.282561	2095.277458
327.676750	2071.019426
328.070874	2072.919941
328.464933	2080.527042
328.858929	2087.299832
329.252859	2102.004878
329.646726	2116.518360
330.040528	2132.203910
330.434265	2152.010604
330.827938	2172.182781
331.221547	2191.913857
331.615091	2214.064687
332.008571	2231.514641
332.401986	2253.000039
332.795338	2271.750610
333.188625	2291.080915
333.581847	2310.748977
333.975006	2327.505772
334.368100	2347.269616
334.761129	2362.582120
335.154095	2376.770448
335.546996	2428.190217
335.939833	2514.635923
336.332606	2524.468694
336.725315	2539.113246
337.117960	2545.996941
337.510540	2549.888712
337.903056	2560.661658
338.295508	2566.660631
338.687896	2576.238823
339.080220	2584.304669
339.472480	2584.090420
339.864676	2589.461770
340.256807	2593.217429
340.648875	2593.988726
341.040879	2596.564756
341.432818	2598.538367
341.824694	2598.815631
342.216506	2598.606423
342.608253	2597.429313
342.999937	2595.841350
343.391557	2596.562235
343.783113	2597.356217
344.174605	2592.983016
344.566033	2592.824219
344.957397	2591.473190
345.348697	2587.586461
345.739934	2588.183837
346.131106	2588.680391
346.522215	2586.230390
346.913260	2585.723754
347.304241	2582.532704
347.695159	2579.906263
348.086012	2578.668659
348.476802	2576.493402
348.867528	2578.283011
349.258191	2577.408371
349.648789	2574.159347
350.039324	2574.771847
350.429796	2572.236147
350.820203	2571.240519
351.210548	2570.786815
351.600828	2572.435273
351.991045	2569.342525
352.381198	2570.159192
352.771288	2571.215313
353.161314	2568.510734
353.551276	2572.223544
353.941175	2567.442010
354.331010	2568.777916
354.720782	2573.312433
355.110490	2573.443503
355.500135	2573.690520
355.889717	2572.457958
356.279235	2571.323698
356.668689	2574.045921
357.058080	2571.774882
357.447408	2568.911506
357.836672	2570.862433
358.225873	2571.694223
358.615010	2572.931826
359.004084	2574.920562
359.393095	2576.402661
359.782043	2577.937692
360.170927	2577.463824
360.559748	2577.499112
360.948505	2582.116809
361.337199	2584.786100
361.725830	2582.073959
362.114398	2581.894998
362.502903	2581.718557
362.891344	2587.377253
363.279722	2583.838363
363.668037	2583.987077
364.056289	2582.303331
364.444478	2587.082345
364.832603	2588.635021
365.220665	2589.124012
365.608665	2588.992942
365.996601	2586.729464
366.384474	2589.728951
366.772284	2594.444950
367.160031	2591.866400
367.547715	2595.478387
367.935336	2591.163159
368.322893	2592.478900
368.710388	2596.353027
369.097820	2598.087184
369.485189	2596.078284
369.872495	2601.011053
370.259738	2598.293871
370.646918	2598.689602
371.034035	2599.387802
371.421090	2602.223451
371.808081	2602.493152
372.195010	2603.156064
372.581875	2603.203955
372.968678	2604.544902
373.355418	2607.617485
373.742096	2609.044132
374.128710	2607.471292
374.515262	2608.746704
374.901751	2611.337857
375.288177	2613.986983
375.674540	2612.230141
376.060841	2614.460852
376.447079	2615.300204
376.833254	2617.510750
377.219367	2616.668877
377.605417	2620.258179
377.991404	2621.460494
378.377329	2624.656585
378.763191	2624.192799
379.148991	2634.875004
379.534727	2639.916158
379.920402	2645.050573
380.306013	2651.276398
380.691563	2660.597492
381.077049	2669.182577
381.462474	2678.818742
381.847835	2692.334076
382.233134	2710.454503
382.618371	2724.110989
383.003545	2748.200143
383.388657	2772.004471
383.773706	2799.940025
384.158693	2830.597802
384.543618	2866.200951
384.928480	2898.156826
385.313280	2944.812704
385.698017	2991.193840
386.082692	3040.629916
386.467305	3084.745053
386.851856	3146.403406
387.236344	3222.439129
387.620770	3277.833848
388.005133	3349.130887
388.389435	3435.634566
388.773674	3499.511027
389.157851	3588.421857
389.541965	3686.656302
389.926018	3736.999784
390.310008	3853.319368
390.693936	3952.304945
391.077802	4055.777148
391.461606	4167.758819
391.845348	4268.569293
392.229027	4388.722674
392.612645	4555.635278
392.996200	4675.597096
393.379694	4830.650385
393.763125	5011.363148
394.146494	5127.037464
394.529801	5272.875524
394.913047	5477.072502
395.296230	5544.616401
395.679351	5645.804962
396.062410	5884.692640
396.445408	5886.018463
396.828343	6058.004988
397.211217	6224.627726
397.594028	6209.191713
397.976778	6421.545277
398.359466	6613.192303
398.742092	6663.104767
399.124656	6843.774680
399.507158	7046.938221
399.889598	7142.485730
400.271977	7368.914196
400.654294	7459.065151
401.036549	7690.481838
401.418742	7779.614480
401.800874	8094.550484
402.182944	8226.863128
402.564952	8591.774611
402.946898	8514.024895
403.328783	8619.291749
403.710606	8847.608128
404.092367	9125.385787
404.474067	9506.297892
404.855705	9374.252429
405.237282	9375.971462
405.618797	9818.196601
406.000250	10083.628475
406.381642	10463.804571
406.762972	10457.427512
407.144240	10319.829218
407.525447	10593.115209
407.906593	10581.961656
408.287677	10848.086688
408.668700	11029.916066
409.049661	11032.058556
409.430560	11220.829603
409.811399	11214.684437
410.192176	11394.063814
410.572891	11488.424132
410.953545	11968.636885
411.334138	11478.752678
411.714669	12067.740929
412.095139	11435.691142
412.475547	11918.391705
412.855894	11800.428705
413.236180	12113.771705
413.616405	11827.459372
413.996568	12104.493461
414.376670	12094.580032
414.756711	11987.332004
415.136691	12267.524376
415.516609	12439.427723
415.896466	12533.770396
416.276262	12830.575891
416.655997	13286.959110
417.035670	13326.380933
417.415283	13947.791365
417.794834	14024.071584
418.174324	13775.583029
418.553753	13691.914998
418.933121	14185.907746
419.312428	14006.793029
419.691674	13919.938990
420.070859	14382.333785
420.449983	14045.935068
420.829045	14591.821454
421.208047	14357.932080
421.586988	14802.103104
421.965867	15060.729420
422.344686	15057.747577
422.723444	15621.209946
423.102141	14327.032328
423.480777	15510.314643
423.859352	15025.176683
424.237866	16125.428674
424.616319	15837.656927
424.994712	16492.223028
425.373044	16284.519928
425.751314	16962.363556
426.129524	16105.190962
426.507673	17180.363213
426.885762	16894.723874
427.263789	17087.666476
427.641756	17276.354344
428.019662	17327.920307
428.397508	17382.959624
428.775292	17671.883275
429.153016	17651.451478
429.530679	17730.728664
429.908282	17762.334178
430.285824	17488.901993
430.663305	18206.205253
431.040726	17824.950350
431.418086	17658.942633
431.795385	18295.484088
432.172624	18728.196569
432.549802	18286.669630
432.926920	18501.029574
433.303977	18382.028097
433.680974	18641.156007
434.057910	18946.168500
434.434786	18992.337908
434.811601	18915.054498
435.188355	19947.933989
435.565050	19627.631677
435.941683	19594.418035
436.318257	20489.421968
436.694770	20284.194074
437.071222	20873.230216
437.447614	19935.782288
437.823946	19970.808225
438.200218	20151.198354
438.576429	19926.443551
438.952580	20237.782692
439.328670	20214.865606
439.704700	20630.405397
440.080670	20202.872701
440.456580	20810.545989
440.832429	20976.178139
441.208218	19980.595625
441.583947	20426.253790
441.959616	20546.152593
442.335224	20795.954369
442.710773	20952.106630
443.086261	21493.168631
443.461689	20835.822334
443.837057	20985.842031
444.212365	21636.700363
444.587612	21649.767034
444.962800	21243.187894
445.337927	21675.542454
445.712995	20391.119468
446.088002	22285.224641
446.462949	22488.660404
446.837837	22683.344725
447.212664	22715.096432
447.587431	25706.640633
447.962139	28674.365382
448.336786	30955.421962
448.711374	29219.432579
449.085901	25509.972618
449.460369	25526.580700
449.834776	25558.327366
450.209124	28125.776938
450.583412	27586.340709
450.957640	28041.609833
451.331808	26706.677007
451.705917	25332.365207
452.079965	25388.949638
452.453954	25778.827435
452.827883	25690.057757
453.201752	25487.962941
453.575562	25644.359698
453.949311	26788.215149
454.323001	26874.542388
454.696632	26648.587791
455.070202	28252.826618
455.443713	28447.611761
455.817164	29020.480922
456.190556	29584.644011
456.563888	28980.610437
456.937160	29400.714992
457.310373	27692.595629
457.683526	28148.661256
458.056619	28148.631009
458.429653	28138.566345
458.802628	28743.540095
459.175542	28902.522963
459.548398	30284.555290
459.921194	31934.686261
460.293930	32682.808615
460.666607	34784.117814
461.039224	36568.466986
461.411782	36878.918883
461.784280	35579.712714
462.156719	35002.271226
462.529099	34423.050211
462.901419	33087.714092
463.273680	32052.225804
463.645882	32192.619418
464.018024	32208.304968
464.390106	33172.355065
464.762130	36129.442979
465.134094	40541.256659
465.505999	46056.836014
465.877845	50527.648838
466.249631	51462.414872
466.621358	49544.691893
466.993026	47277.490924
467.364634	45146.817004
467.736184	43182.256665
468.107674	41913.156267
468.479105	41130.552420
468.850477	40389.296117
469.221790	38935.535733
469.593043	37165.019488
469.964238	36268.601511
470.335373	36236.685966
470.706449	38140.896132
471.077467	40984.429535
471.448425	45636.292878
471.819324	48338.391669
472.190164	46282.939326
472.560945	42645.030982
472.931667	39505.622177
473.302330	38401.604444
473.672934	37563.353821
474.043479	38115.972667
474.413965	37330.649118
474.784393	36966.082954
475.154761	37886.549755
475.525070	37944.059238
475.895321	37457.502193
476.265513	38088.379911
476.635645	39090.556255
477.005719	38940.705436
477.375734	39460.042585
477.745691	40197.167662
478.115588	41580.888775
478.485427	43748.521915
478.855207	47250.825741
479.224928	49904.836965
479.594591	51407.622571
479.964194	50263.109248
480.333739	50398.169322
480.703226	50475.588842
481.072653	51154.470948
481.442022	51612.835341
481.811333	51820.679593
482.180584	50516.742301
482.549777	49996.018835
482.918912	49466.231375
483.287988	49146.299587
483.657005	48314.834357
484.025964	47643.322418
484.394864	47620.289386
484.763706	47187.334929
485.132489	46303.290464
485.501213	46149.550395
485.869879	46312.034345
486.238487	45891.196302
486.607036	46106.574558
486.975527	45541.143620
487.343959	45759.975067
487.712333	45824.249778
488.080648	45704.524895
488.448905	46173.526123
488.817104	45982.481515
489.185244	47015.524844
489.553326	48824.457202
489.921350	51593.850355
490.289315	54404.961578
490.657222	54916.658858
491.025070	55124.666947
491.392861	54176.579664
491.760593	52889.976380
492.128267	51193.187009
492.495883	49623.850611
492.863440	48215.218636
493.230939	46821.427818
493.598380	45743.578714
493.965763	45407.729483
494.333088	44570.666052
494.700354	44091.065798
495.067563	43793.090756
495.434713	43656.876258
495.801805	43731.586158
496.168839	43315.315400
496.535815	42999.998789
496.902733	43024.423179
497.269593	42572.491299
497.636395	42530.657283
498.003139	42910.477979
498.369825	42358.096067
498.736453	42662.601924
499.103023	42182.109386
499.469535	42056.403174
499.835989	42143.282419
500.202385	41798.444811
500.568723	41828.966477
500.935003	42013.460105
501.301226	41808.406131
501.667390	42439.175465
502.033497	42675.303111
502.399546	42101.960081
502.765537	41392.014385
503.131470	41752.688778
503.497345	42131.145841
503.863163	40774.379777
504.228923	41398.666187
504.594625	41815.493993
504.960269	41063.162275
505.325856	41778.587706
505.691385	41144.334935
506.056856	41270.252875
506.422270	41702.310007
506.787625	41265.743563
507.152924	41464.546506
507.518164	41574.294946
507.883347	40770.402307
508.248472	40997.196257
508.613540	41514.905113
508.978550	41798.880871
509.343503	41552.920454
509.708398	41766.466251
510.073236	42285.934470
510.438016	42282.836681
510.802738	41736.536921
511.167403	42379.334448
511.532010	42608.923717
511.896561	42894.268149
512.261053	43760.570273
512.625488	43295.133141
512.989866	43167.672607
513.354186	43008.876261
513.718449	42998.950229
514.082655	43678.492726
514.446803	43343.492930
514.810894	43879.314651
515.174927	43782.146411
515.538904	43684.814333
515.902822	44351.937948
516.266684	43787.109427
516.630488	44233.170884
516.994235	44072.184156
517.357925	44654.024051
517.721558	44826.113920
518.085133	45145.516386
518.448651	45259.280105
518.812112	45027.313932
519.175516	45118.273991
519.538863	45456.462317
519.902152	45432.703359
520.265385	45887.702782
520.628560	45909.064671
520.991678	45686.578388
521.354739	45950.059334
521.717743	46247.555467
522.080690	46138.706873
522.443580	46673.553132
522.806413	46731.034888
523.169189	46686.299689
523.531908	46838.131681
523.894569	46675.534305
524.257174	46865.048922
524.619722	47146.826737
524.982213	47118.969321
525.344647	47045.149184
525.707025	47100.460724
526.069345	47498.648864
526.431608	47393.883605
526.793815	47714.024600
527.155964	47264.411650
527.518057	47421.925023
527.880093	47203.207002
528.242072	47738.605266
528.603995	47432.259388
528.965860	47422.489632
529.327669	47524.572998
529.689421	47418.789425
530.051117	47369.875109
530.412755	47510.281326
530.774337	47589.780323
531.135862	47382.362047
531.497331	47574.150225
531.858743	47478.955596
532.220098	47813.841967
532.581396	47523.305147
532.942638	47159.732091
533.303824	47482.315525
533.664953	47463.736353
534.026025	47156.359559
534.387040	47631.732805
534.747999	47579.650124
535.108902	47749.602543
535.469748	47250.601409
535.830537	47361.184160
536.191270	47551.215496
536.551947	47216.722335
536.912567	47498.429574
537.273131	47637.527611
537.633638	47114.790204
537.994089	47445.867983
538.354483	47036.117957
538.714821	47623.810632
539.075103	47960.917630
539.435328	47719.932832
539.795497	47584.716483
540.155609	47593.969521
540.515665	48045.472904
540.875665	47490.888007
541.235609	47823.954522
541.595496	47801.362591
541.955328	48474.666660
542.315102	47815.649221
542.674821	47594.458513
543.034483	47634.250861
543.394090	47602.385728
543.753640	47544.772901
544.113134	48559.481553
544.472571	47542.459011
544.831953	48786.477149
545.191278	47985.702463
545.550548	47716.900578
545.909761	48181.127833
546.268918	48357.656438
546.628019	48668.115898
546.987064	48232.812263
547.346053	47470.874627
547.704986	48358.770533
548.063863	47898.424967
548.422684	48081.242411
548.781449	47913.906350
549.140158	48328.062344
549.498811	48152.489038
549.857408	47580.055937
550.215949	48421.979041
550.574434	48346.565900
550.932864	48097.059031
551.291237	48810.047064
551.649555	48391.250687
552.007817	48643.880551
552.366022	48294.130338
552.724173	48458.169484
553.082267	48846.512250
553.440305	49116.801275
553.798288	48417.230274
554.156215	48739.480992
554.514086	48931.954767
554.871902	48660.909568
555.229661	48682.571406
555.587365	48502.352677
555.945014	48590.308209
556.302606	48523.913692
556.660143	48742.848483
557.017625	48807.680242
557.375050	48593.189228
557.732421	48927.624415
558.089735	48909.698072
558.446994	48821.863528
558.804197	49287.464497
559.161345	49184.133447
559.518437	48444.359243
559.875474	48749.240666
560.232455	48918.399104
560.589381	49080.010934
560.946251	48774.557341
561.303065	49431.633936
561.659825	49206.390141
562.016528	48887.650586
562.373177	48591.361810
562.729770	49076.651005
563.086307	48585.899720
563.442789	49047.981963
563.799216	49052.342562
564.155587	48838.448924
564.511904	48872.733812
564.868164	48942.256364
565.224370	49171.777578
565.580520	48904.982073
565.936615	49122.157501
566.292654	48822.962500
566.648638	49084.185010
567.004567	49028.951608
567.360441	49086.579558
567.716260	48911.200336
568.072023	49190.313901
568.427732	49153.823509
568.783385	48687.549546
569.138982	49094.925188
569.494525	49015.302684
569.850013	48774.106157
570.205445	48740.806816
570.560823	48675.037402
570.916145	48559.400894
571.271412	48583.628680
571.626625	48319.071447
571.981782	48343.846197
572.336884	48013.509468
572.691931	48341.265126
573.046923	47932.946788
573.401860	47754.517668
573.756743	47734.234586
574.111570	47841.984208
574.466342	47662.778751
574.821059	47768.375800
575.175722	47270.430788
575.530330	47294.227555
575.884882	46978.744585
576.239380	46924.416070
576.593823	46890.594969
576.948211	46825.357397
577.302544	46333.093765
577.656823	46336.431009
578.011047	46548.025880
578.365216	46280.476722
578.719330	46057.214101
579.073389	45878.190125
579.427394	45970.589433
579.781344	45912.737152
580.135239	45553.242389
580.489080	45635.319935
580.842866	45115.629906
581.196597	45546.646039
581.550273	45483.876112
581.903895	45353.103540
582.257463	45757.232679
582.610975	45122.972346
582.964434	45405.982723
583.317837	45016.724988
583.671186	44835.160270
584.024481	45062.985136
584.377721	44560.752622
584.730906	44851.780955
585.084037	44892.710083
585.437113	44585.739102
585.790135	44604.025887
586.143103	44178.839848
586.496016	44295.416531
586.848874	44304.551102
587.201679	44324.967775
587.554428	43803.329339
587.907124	43987.016383
588.259765	43733.136313
588.612352	43964.114421
588.964884	43327.177235
589.317362	43633.397084
589.669786	43558.432606
590.022155	43313.964371
590.374470	43718.642996
590.726731	43234.420004
591.078937	42734.201432
591.431090	42834.545599
591.783188	42477.248779
592.135232	42151.275168
592.487222	42415.209819
592.839157	42469.200577
593.191038	42120.425827
593.542866	41878.183262
593.894639	41298.168265
594.246358	41555.115876
594.598022	41516.624146
594.949633	41136.526187
595.301190	41081.633063
595.652692	40918.211458
596.004141	41226.823335
596.355535	40233.300132
596.706876	40170.663796
597.058162	40006.894351
597.409395	40480.067133
597.760573	40542.395960
598.111698	40145.142954
598.462768	40139.433847
598.813785	40171.735041
599.164748	39615.862130
599.515657	40001.812868
599.866511	39497.135395
600.217312	40105.733734
600.568060	39075.221065
600.918753	39825.163276
601.269392	39763.595664
601.619978	39434.332700
601.970510	39626.786310
602.320988	39802.210902
602.671412	40106.222726
603.021783	39850.006082
603.372100	39504.409780
603.722363	39589.416237
604.072572	39664.229480
604.422728	39684.280670
604.772830	39496.296043
605.122878	39595.679870
605.472872	39535.125530
605.822813	39804.824740
606.172701	39620.401689
606.522534	39866.266323
606.872314	40117.406526
607.222041	39879.597655
607.571714	40259.599832
607.921333	39720.922296
608.270899	40006.715390
608.620411	40355.540551
608.969870	40134.848918
609.319276	40136.557869
609.668627	40202.302077
610.017926	40681.839316
610.367171	40817.799235
610.716362	40899.770918
611.065500	40836.053253
611.414585	41030.987111
611.763616	41335.918945
612.112594	41268.334716
612.461518	41476.113434
612.810389	41779.490072
613.159207	41654.587924
613.507971	41730.701785
613.856682	42200.058414
614.205340	42086.357710
614.553945	42768.882050
614.902496	42230.688465
615.250994	42706.898543
615.599439	42779.753298
615.947830	42950.711428
616.296169	43034.492884
616.644454	43141.405675
616.992686	43339.976725
617.340864	43837.921737
617.688990	43550.492789
618.037063	44160.411910
618.385082	44120.838853
618.733048	44417.848514
619.080961	44423.895378
619.428821	44435.832830
619.776628	44539.725970
620.124382	44369.662645
620.472083	44492.039175
620.819731	44605.218120
621.167326	44269.129434
621.514868	44241.004837
621.862357	43794.318277
622.209793	43830.075181
622.557176	43487.569107
622.904506	43202.627968
623.251783	42874.905077
623.599007	42646.482834
623.946179	42422.912702
624.293297	42371.205587
624.640363	41781.377984
624.987376	41770.693259
625.334336	41542.316387
625.681243	41192.188088
626.028097	41141.554738
626.374899	41002.759170
626.721647	40991.424136
627.068343	40866.393438
627.414987	40643.705508
627.761577	40423.414647
628.108115	40762.908632
628.454600	40197.659174
628.801032	40402.430844
629.147412	40352.546106
629.493739	40362.512467
629.840014	40014.395588
630.186236	40342.186535
630.532405	39945.548550
630.878521	40149.687554
631.224585	40035.538187
631.570597	39739.078012
631.916556	39903.452395
632.262462	39856.262154
632.608316	39873.182787
632.954117	39746.082695
633.299866	39753.344477
633.645562	39646.963528
633.991206	39158.848766
634.336797	38724.681912
634.682336	38712.804953
635.027823	38477.052873
635.373257	38276.107439
635.718639	38027.999491
636.063968	37905.580111
636.409245	37332.983172
636.754470	37376.821046
637.099642	37144.665829
637.444762	36660.684813
637.789829	36825.079360
638.134845	36473.287480
638.479808	36410.260454
638.824719	36322.627557
639.169577	35923.645435
639.514383	36002.171489
639.859137	35702.699224
640.203839	35944.243590
640.548489	35572.256848
640.893086	35637.910315
641.237632	35400.769397
641.582125	35521.860433
641.926566	35433.811640
642.270955	35395.597173
642.615292	35427.686638
642.959576	35401.283594
643.303809	35404.920787
643.647990	35549.957304
643.992118	35518.513107
644.336195	35512.904823
644.680219	35603.267506
645.024192	35897.451600
645.368112	36418.260766
645.711981	36439.514270
646.055797	37316.627148
646.399562	37239.628565
646.743274	38211.925989
647.086935	38633.016091
647.430544	38513.399592
647.774101	38611.150086
648.117606	38862.441523
648.461059	39133.700970
648.804460	38734.529806
649.147810	38103.823486
649.491108	37848.985598
649.834354	37484.704259
650.177548	36639.569940
650.520690	36204.026851
650.863781	36211.679322
651.206820	36084.501093
651.549807	35644.554556
651.892742	35163.608314
652.235626	34976.720138
652.578458	34834.942727
652.921238	34242.828961
653.263967	34563.078342
653.606644	34245.087398
653.949269	34187.958522
654.291843	33781.676810
654.634365	34184.404509
654.976836	33786.360042
655.319255	33793.213491
655.661622	33794.239366
656.003938	33559.341761
656.346203	33439.629481
656.688416	33661.931762
657.030577	33446.903866
657.372687	33298.996412
657.714746	33551.752304
658.056753	33667.093904
658.398708	33139.832061
658.740612	33174.454706
659.082465	33456.277891
659.424266	33300.390291
659.766016	33421.466203
660.107715	33275.686116
660.449362	33404.341404
660.790958	33374.701940
661.132503	33380.509349
661.473996	33427.530711
661.815438	33548.599062
662.156829	33747.996861
662.498168	33509.572970
662.839456	33525.495454
663.180693	33674.595141
663.521879	33849.306410
663.863013	33811.263342
664.204097	33790.448418
664.545129	34248.253243
664.886110	34209.078436
665.227040	34278.671565
665.567918	34412.365486
665.908746	34453.539110
666.249522	34620.222341
666.590248	34616.605313
666.930922	34728.924741
667.271545	34684.887742
667.612118	34763.441522
667.952639	34530.540214
668.293109	34580.356896
668.633528	34468.765915
668.973896	34411.274076
669.314213	34454.776713
669.654480	34179.161709
669.994695	34211.248653
670.334859	34090.455045
670.674973	33987.970908
671.015035	34129.009790
671.355047	34087.445476
671.695008	34036.018145
672.034918	33936.609112
672.374777	34027.473389
672.714585	33868.939183
673.054342	34092.589974
673.394049	33831.112885
673.733705	34117.528562
674.073310	33781.495329
674.412864	33851.244733
674.752368	33472.407063
675.091820	33762.570837
675.431223	33333.273737
675.770574	33037.300033
676.109875	32896.402304
676.449125	32606.992182
676.788324	32542.387275
677.127473	32005.065810
677.466571	31929.193924
677.805619	31577.770048
678.144616	31575.246951
678.483562	31491.233601
678.822458	31178.321620
679.161303	31109.711517
679.500098	31040.582174
679.838842	30920.590109
680.177535	31058.029607
680.516179	31364.746010
680.854771	31612.957302
681.193314	32511.752183
681.531805	33657.636699
681.870247	34409.663427
682.208638	35102.179334
682.546978	35296.631761
682.885268	35380.292230
683.223508	34853.539544
683.561697	34510.325187
683.899836	34319.593131
684.237925	33816.425484
684.575963	33655.514373
684.913951	33210.662793
685.251889	33357.201574
685.589776	33366.449571
685.927614	33365.658110
686.265401	33513.971376
686.603137	33608.787918
686.940824	34128.609018
687.278460	34507.325701
687.616046	34637.818488
687.953582	35242.391466
688.291068	35073.802679
688.628504	35360.437645
688.965889	35270.737874
689.303224	34881.553236
689.640510	34513.508676
689.977745	33752.566667
690.314930	32940.804787
690.652065	32421.636517
690.989150	31678.341068
691.326185	30774.691555
691.663170	30082.755381
692.000105	29329.521297
692.336990	28658.221086
692.673825	28202.468011
693.010610	27674.608792
693.347345	27106.354807
693.684030	26456.983615
694.020665	26179.982294
694.357251	25497.256308
694.693786	25466.376720
695.030272	25244.424798
695.366707	24692.448699
695.703093	24410.030658
696.039429	24415.109620
696.375716	24149.788652
696.711952	24133.788030
697.048139	23968.715447
697.384276	23790.452686
697.720363	23916.116048
698.056400	23711.999729
698.392388	23484.041273
698.728326	23448.745634
699.064214	23243.931115
699.400053	23180.672196
699.735842	22805.915339
700.071581	22542.691491
700.407270	22250.773396
700.742910	22066.166342
701.078501	21803.812093
701.414042	21508.839058
701.749533	21215.184284
702.084974	20863.828464
702.420366	21069.038714
702.755709	20621.225456
703.091002	20331.016311
703.426246	20347.518528
703.761440	20250.960268
704.096584	19977.369287
704.431679	19944.039698
704.766725	19852.993939
705.101721	19785.515574
705.436668	19880.531242
705.771565	19565.554908
706.106413	19910.954605
706.441212	19910.952085
706.775961	20046.544000
707.110661	20101.235478
707.445311	20467.644183
707.779913	20306.576797
708.114465	20555.642565
708.448967	20841.382727
708.783421	21536.386443
709.117825	21815.235347
709.452180	22024.060104
709.786485	22433.694183
710.120742	23239.018510
710.454949	23264.715792
710.789107	23718.603640
711.123216	24416.785804
711.457275	24523.378482
711.791286	25054.690891
712.125247	25121.090449
712.459159	24795.245388
712.793023	25440.596259
713.126837	24307.246572
713.460602	24576.043416
713.794318	24190.785836
714.127985	23799.204129
714.461602	22891.811560
714.795171	22842.670392
715.128691	21831.770332
715.462162	21299.870628
715.795584	20883.879654
716.128957	20621.434664
716.462281	20222.109744
716.795556	19978.347271
717.128782	19479.005859
717.461960	18940.245144
717.795088	18864.448876
718.128167	18466.235530
718.461198	18007.835849
718.794180	17868.906691
719.127113	17502.160228
719.459997	17308.595043
719.792833	16961.090665
720.125619	16936.663754
720.458357	16624.525590
720.791046	16449.206862
721.123686	16289.790454
721.456278	16059.205557
721.788821	16028.058788
722.121315	15763.486431
722.453761	15841.606671
722.786158	15767.721000
723.118506	15774.193842
723.450805	15644.868081
723.783056	15802.860363
724.115259	15700.734148
724.447412	15634.117820
724.779518	15871.261259
725.111574	15905.107566
725.443582	16105.531240
725.775542	16084.368476
726.107453	16557.957153
726.439315	16443.099504
726.771129	16857.762134
727.102895	17207.983695
727.434612	17408.687153
727.766281	17531.464455
728.097901	17778.722969
728.429473	17805.977967
728.760996	17790.393240
729.092471	17878.487403
729.423897	17752.103156
729.755276	17623.100029
730.086606	17738.713851
730.417887	18274.984236
730.749120	18790.938770
731.080305	18956.772567
731.411442	19278.667884
731.742530	19334.949846
732.073570	19420.538556
732.404562	19714.016889
732.735506	19512.345530
733.066401	19211.754129
733.397249	18671.314710
733.728048	18023.881842
734.058798	17206.461267
734.389501	16532.090993
734.720156	16079.183649
735.050762	15563.098045
735.381320	15207.331215
735.711831	14987.655374
736.042293	14644.380524
736.372707	14663.541950
736.703073	14458.150218
737.033391	14653.321010
737.363661	14629.758657
737.693883	14731.615171
738.024056	14905.547581
738.354182	15093.315438
738.684260	15370.382295
739.014290	15590.146356
739.344272	15775.343225
739.674207	16050.630554
740.004093	16153.346584
740.333931	16133.733975
740.663722	16177.264338
740.993464	16151.995555
741.323159	15974.380581
741.652806	15693.797520
741.982405	15476.178470
742.311956	15128.837929
742.641460	15018.141752
742.970915	14717.086565
743.300323	14382.817736
743.629683	14177.398278
743.958996	13902.693202
744.288260	13627.915030
744.617477	13337.090864
744.946647	13270.335905
745.275768	12987.108759
745.604842	12809.529073
745.933869	12640.529432
746.262847	12595.156527
746.591778	12530.428111
746.920662	12425.199066
747.249498	12426.996237
747.578286	12549.211450
747.907027	12696.277032
748.235720	12909.880802
748.564365	12933.914503
748.892963	12829.676045
749.221514	12899.254050
749.550017	12745.256882
749.878473	12705.870347
750.206881	12483.313487
750.535242	12388.534754
750.863555	12313.673619
751.191821	12212.376674
751.520039	12235.036660
751.848210	12150.131027
752.176334	12177.174297
752.504411	12080.621077
752.832440	11923.206007
753.160421	11987.465595
753.488356	11866.303983
753.816243	11778.633276
754.144082	11622.700306
754.471875	11573.372615
754.799620	11518.774398
755.127318	11492.837662
755.454969	11453.680499
755.782572	11408.557131
756.110129	11418.752865
756.437638	11335.886378
756.765100	11332.551655
757.092515	11330.840183
757.419882	11350.561177
757.747203	11356.907990
758.074477	11432.353898
758.401703	11384.820858
758.728882	11550.528627
759.056014	11588.410377
759.383099	11711.502751
759.710138	11805.353912
760.037129	11887.991027
760.364073	11896.886143
760.690970	11890.683003
761.017820	11890.662838
761.344623	12079.237280
761.671379	12416.034248
761.998088	13076.226276
762.324751	14701.358165
762.651366	17623.636912
762.977935	21222.070501
763.304456	23286.561632
763.630931	23613.488021
763.957359	22380.338611
764.283740	20472.423197
764.610074	18611.188868
764.936362	16510.028383
765.262602	15025.148956
765.588796	13591.026387
765.914943	12591.733583
766.241044	11757.278949
766.567097	11144.488890
766.893104	10616.755700
767.219064	10262.634807
767.544978	9892.770390
767.870845	9589.950799
768.196665	9397.839988
768.522438	9206.460144
768.848165	9053.602277
769.173846	8888.416268
769.499479	8761.505220
769.825066	8604.992517
770.150607	8429.167153
770.476101	8362.470167
770.801548	8257.357068
771.126949	8120.983774
771.452303	8031.213427
771.777611	7870.871967
772.102872	7850.036878
772.428087	7730.049855
772.753256	7613.362267
773.078378	7522.634101
773.403453	7377.937862
773.728482	7273.845597
774.053465	7215.116154
774.378401	7130.654142
774.703291	7037.677621
775.028135	6939.412930
775.352932	6904.283649
775.677683	6824.020918
776.002388	6731.034315
776.327046	6738.359112
776.651658	6651.079094
776.976224	6577.155614
777.300743	6562.170785
777.625216	6500.540158
777.949643	6455.648683
778.274024	6456.490556
778.598359	6390.779116
778.922647	6394.733901
779.246889	6360.060845
779.571086	6363.327512
779.895236	6372.978801
780.219339	6373.702207
780.543397	6375.070880
780.867409	6424.209527
781.191374	6418.439927
781.515294	6386.819289
781.839167	6433.263440
782.162995	6398.149282
782.486776	6359.569332
782.810511	6314.093083
783.134201	6234.720116
783.457844	6227.009671
783.781441	6179.300191
784.104993	6135.127081
784.428498	6110.831240
784.751958	6091.427838
785.075372	6069.579478
785.398739	6030.472727
785.722061	6054.481222
786.045337	6053.949380
786.368568	6167.753428
786.691752	6193.644794
787.014891	6451.051151
787.337983	6732.627320
787.661030	7174.204670
787.984031	7585.184738
788.306987	7826.524937
788.629897	7904.682986
788.952760	7805.374776
789.275579	7627.563197
789.598351	7322.838050
789.921078	7061.948256
790.243759	6789.698222
790.566395	6590.998623
790.888984	6401.451238
791.211529	6266.174395
791.534027	6107.670436
791.856480	5971.100537
792.178888	5915.161374
792.501249	5852.257856
792.823566	5750.570221
793.145836	5745.208954
793.468062	5729.614145
793.790241	5690.920768
794.112375	5731.524742
794.434464	5832.642726
794.756507	5866.385690
795.078505	5988.961345
795.400457	6206.434202
795.722364	6440.225273
796.044226	6626.982379
796.366042	6783.404342
796.687812	6722.625670
797.009538	6744.017807
797.331218	6656.268962
797.652852	6587.820175
797.974442	6461.882070
798.295986	6391.411780
798.617484	6265.501401
798.938938	6159.874105
799.260346	6088.264514
799.581709	5952.894410
799.903026	5902.324075
800.224299	5830.810267
800.545526	5721.303803
800.866708	5654.644625
801.187845	5604.948931
801.508936	5532.920924
801.829983	5504.619887
802.150984	5401.429988
802.471940	5373.270103
802.792851	5358.796950
803.113717	5329.913659
803.434538	5309.706194
803.755314	5280.366678
804.076045	5269.704638
804.396731	5236.687601
804.717372	5255.705354
805.037967	5253.630919
805.358518	5285.065034
805.679024	5343.176935
805.999485	5353.380230
806.319901	5370.595771
806.640272	5387.642432
806.960598	5430.373773
807.280879	5427.429739
807.601115	5455.450993
807.921306	5418.305251
808.241453	5415.336011
808.561554	5422.527217
808.881611	5388.726280
809.201623	5387.917175
809.521590	5338.438250
809.841513	5323.617258
810.161390	5337.747612
810.481223	5250.936422
810.801011	5234.764401
811.120755	5213.936874
811.440453	5161.050129
811.760107	5132.555007
812.079716	5104.730358
812.399281	5054.550713
812.718801	5046.202562
813.038276	5015.912789
813.357707	4977.123631
813.677093	5001.381663
813.996434	4943.794042
814.315731	4960.066887
814.634983	4961.765755
814.954191	4967.870593
815.273354	5027.280591
815.592473	5067.140994
815.911547	5140.971213
816.230577	5191.113050
816.549562	5280.717039
816.868502	5328.481971
817.187399	5382.263521
817.506250	5459.819152
817.825058	5489.032639
818.143821	5643.919570
818.462539	5814.827289
818.781213	6044.600560
819.099843	6415.624442
819.418429	7048.243880
819.736970	7661.654000
820.055466	8355.780556
820.373919	9273.968755
820.692327	10754.641340
821.010691	13561.061768
821.329011	19949.915163
821.647286	29486.180194
821.965517	39484.449331
822.283704	44407.146144
822.601847	45484.657491
822.919945	40797.677470
823.237999	35748.994660
823.556010	30684.608657
823.873976	26130.301723
824.191897	22077.783681
824.509775	19121.504872
824.827609	16463.148173
825.145398	14991.534542
825.463144	14322.281040
825.780845	14683.830073
826.098502	16003.813358
826.416116	18450.217264
826.733685	20618.150352
827.051210	20984.632154
827.368692	19460.396439
827.686129	16938.410514
828.003522	14533.200396
828.320872	12382.739947
828.638177	10802.665892
828.955439	9605.303633
829.272656	8575.998320
829.589830	7753.125737
829.906960	7045.282202
830.224046	6532.639705
830.541088	6139.160004
830.858086	5889.053238
831.175041	5697.451583
831.491952	5646.609026
831.808819	5696.287077
832.125642	5949.640345
832.442421	6520.188055
832.759157	7665.026532
833.075849	9433.969937
833.392497	11227.010058
833.709101	12242.996642
834.025662	11895.688869
834.342179	10823.858903
834.658653	9553.248678
834.975083	8483.374680
835.291469	7617.669933
835.607811	6896.283338
835.924110	6395.346401
836.240366	5916.101549
836.556578	5479.018387
836.872746	5138.087673
837.188871	4870.316704
837.504952	4659.498171
837.820990	4500.399355
838.136984	4389.776275
838.452935	4347.929657
838.768842	4390.388776
839.084706	4697.493347
839.400526	5450.795487
839.716303	6333.264591
840.032037	6846.582602
840.347727	6648.951728
840.663373	6045.611312
840.978977	5490.277804
841.294537	5066.964554
841.610054	4745.475050
841.925527	4517.798898
842.240957	4319.628620
842.556344	4141.524654
842.871687	3982.272084
843.186987	3839.385619
843.502244	3723.270202
843.817458	3640.675937
844.132629	3573.409301
844.447756	3527.345758
844.762840	3481.191474
845.077881	3440.579938
845.392879	3410.527100
845.707833	3387.637741
846.022745	3360.412989
846.337613	3347.263139
846.652438	3326.380160
846.967221	3316.267605
847.281960	3294.978812
847.596656	3287.210394
847.911309	3275.048611
848.225919	3263.176693
848.540485	3254.536156
848.855009	3248.000300
849.169490	3236.012436
849.483928	3227.013976
849.798323	3225.042885
850.112675	3211.504866
850.426984	3214.869837
850.741251	3207.759289
851.055474	3203.587734
851.369654	3206.133517
851.683792	3203.877601
851.997887	3207.287941
852.311938	3206.914896
852.625947	3205.402550
852.939914	3197.480376
853.253837	3207.008157
853.567718	3202.546736
853.881555	3197.457691
854.195350	3200.696632
854.509103	3198.198741
854.822812	3200.429451
855.136479	3192.545087
855.450103	3197.702187
855.763685	3191.874613
856.077224	3192.797144
856.390720	3198.221426
856.704173	3212.056873
857.017584	3219.535424
857.330953	3223.853173
857.644278	3228.836353
857.957561	3231.488000
858.270802	3228.632187
858.584000	3228.995150
858.897155	3222.471897
859.210268	3215.056359
859.523339	3200.681509
859.836367	3197.601364
860.149352	3192.277906
860.462295	3187.266999
860.775195	3178.228210
861.088054	3177.595545
861.400869	3176.615041
861.713642	3175.697551
862.026373	3183.347502
862.339062	3186.712472
862.651708	3197.291333
862.964312	3213.024774
863.276873	3223.848132
863.589392	3250.442739
863.901869	3273.669855
864.214303	3299.775470
864.526696	3317.716937
864.839045	3332.525326
865.151353	3345.778520
865.463619	3347.394209
865.775842	3344.929085
866.088023	3348.273891
866.400162	3345.367666
866.712258	3344.102336
867.024313	3347.384127
867.336325	3341.523786
867.648296	3345.375227
867.960224	3344.309023
868.272110	3347.144672
868.583954	3344.150227
868.895755	3352.226155
869.207515	3349.261957
869.519233	3368.103269
869.830909	3376.307747
870.142542	3391.307701
870.454134	3387.461300
870.765684	3405.435534
871.077191	3425.642999
871.388657	3433.187086
871.700081	3450.684931
872.011463	3475.237871
872.322803	3492.813854
872.634101	3510.354549
872.945357	3534.100904
873.256571	3557.108730
873.567744	3573.230340
873.878874	3576.529775
874.189963	3593.100048
874.501010	3592.938731
874.812015	3592.180037
875.122979	3606.607820
875.433900	3602.852160
875.744780	3606.978344
876.055618	3613.695682
876.366415	3608.657049
876.677169	3618.343626
876.987882	3634.215699
877.298554	3655.441477
877.609183	3692.665357
877.919771	3741.186463
878.230317	3811.598779
878.540822	3913.856064
878.851285	4072.934715
879.161707	4292.325730
879.472087	4677.946273
879.782425	5320.814376
880.092722	6531.414705
880.402977	8475.618865
880.713191	10824.962915
881.023363	13108.998817
881.333494	14328.867308
881.643583	14715.115474
881.953631	14248.909566
882.263637	13417.890478
882.573602	12407.587795
882.883526	11480.360806
883.193408	10550.648529
883.503248	9656.932610
883.813048	8854.204477
884.122806	8103.420394
884.432522	7357.866508
884.742197	6717.697943
885.051831	6176.600653
885.361424	5697.996028
885.670975	5318.623995
885.980485	5000.202033
886.289954	4742.987240
886.599382	4531.702400
886.908768	4357.865772
887.218113	4199.513047
887.527417	4070.479673
887.836680	3952.761169
888.145901	3852.152341
888.455082	3777.805404
888.764221	3709.578428
889.073319	3649.881084
889.382376	3620.173565
889.691392	3597.253959
890.000366	3592.326231
890.309300	3589.447732
890.618193	3589.349429
890.927044	3584.930858
891.235855	3591.880089
891.544625	3605.352572
891.853353	3638.684682
892.162041	3701.285730
892.470687	3791.913073
892.779293	3914.128287
893.087858	4088.705965
893.396381	4369.533522
893.704864	4790.580774
894.013306	5362.998752
894.321707	5915.912506
894.630068	6243.839563
894.938387	6258.506800
895.246665	6072.039561
895.554903	5755.376961
895.863100	5422.955715
896.171256	5160.820756
896.479371	4928.904994
896.787446	4709.788722
897.095480	4517.292262
897.403473	4374.148698
897.711425	4235.048140
898.019336	4112.621199
898.327207	3990.786592
898.635038	3893.893095
898.942827	3787.809574
899.250576	3703.556770
899.558284	3620.455869
899.865952	3570.939136
900.173579	3506.500587
900.481165	3458.838998
900.788711	3419.404572
901.096216	3390.594377
901.403681	3360.760829
901.711105	3352.521063
902.018489	3352.016948
902.325832	3387.252092
902.633135	3447.045218
902.940397	3631.122951
903.247619	4055.451993
903.554800	4818.339887
903.861941	5760.299648
904.169041	6412.803917
904.476101	6578.428506
904.783121	6286.422190
905.090100	5888.493670
905.397039	5489.831662
905.703938	5143.474146
906.010796	4827.817257
906.317614	4589.290021
906.624391	4352.380996
906.931129	4162.831091
907.237826	3986.546982
907.544483	3816.831497
907.851099	3647.068120
908.157675	3494.429544
908.464211	3356.019624
908.770707	3253.669077
909.077163	3179.435566
909.383578	3122.780559
909.689954	3078.579722
909.996289	3050.029147
910.302584	3031.810417
910.608839	3019.721730
910.915054	3010.146058
911.221229	3000.918226
911.527363	3010.146058
911.833458	3016.298787
912.139513	3028.276568
912.445527	3042.606048
912.751502	3074.582087
913.057436	3122.173100
913.363331	3179.531348
913.669186	3267.754061
913.975000	3385.792678
914.280775	3577.427101
914.586510	3850.072865
914.892205	4227.037747
915.197859	4722.880598
915.503475	5299.172703
915.809050	5779.952586
916.114585	6041.354057
916.420081	6090.167550
916.725536	6013.128637
917.030952	5779.665241
917.336328	5575.276699
917.641665	5369.421182
917.946961	5149.402543
918.252218	4953.788129
918.557435	4728.851845
918.862612	4538.989388
919.167750	4367.015466
919.472848	4179.603010
919.777906	4013.877598
920.082925	3862.897561
920.387904	3709.160012
920.692843	3601.115482
920.997743	3503.261645
921.302603	3411.061462
921.607423	3350.161803
921.912204	3282.459107
922.216946	3235.271386
922.521647	3186.919159
922.826310	3150.237203
923.130932	3111.357304
923.435516	3072.873136
923.740059	3044.970349
924.044564	3011.527334
924.349028	2989.452122
924.653454	2965.657876
924.957840	2933.533123
925.262186	2914.467479
925.566493	2893.834036
925.870761	2869.386961
926.174989	2860.965713
926.479178	2844.521469
926.783328	2830.922957
927.087438	2817.437870
927.391509	2804.366158
927.695541	2793.247893
927.999533	2784.088117
928.303486	2776.491098
928.607400	2770.275355
928.911275	2763.994078
929.215110	2760.193048
929.518906	2755.981164
929.822663	2757.004518
930.126381	2755.328334
930.430060	2758.320259
930.733699	2763.817637
931.037299	2765.284613
931.340861	2762.648090
931.644383	2766.562546
931.947866	2762.574993
932.251309	2762.015425
932.554714	2762.756474
932.858080	2759.512492
933.161407	2756.664240
933.464694	2751.124012
933.767943	2747.002869
934.071153	2744.638567
934.374323	2741.649163
934.677455	2739.773854
934.980548	2735.095663
935.283602	2732.622977
935.586617	2730.137688
935.889593	2734.664645
936.192530	2737.510376
936.495428	2741.573546
936.798287	2754.567120
937.101108	2766.807042
937.403890	2786.187757
937.706632	2816.291008
938.009336	2845.335616
938.312002	2875.965666
938.614628	2899.578431
938.917216	2916.884712
939.219765	2924.937955
939.522275	2937.220727
939.824747	2936.525048
940.127179	2928.524736
940.429573	2921.497368
940.731929	2923.261772
941.034246	2913.698703
941.336524	2911.629309
941.638763	2903.119842
941.940964	2897.158677
942.243126	2883.446739
942.545250	2873.193032
942.847335	2857.000846
943.149381	2840.511231
943.451389	2829.327432
943.753359	2819.212356
944.055290	2810.029895
944.357182	2800.537402
944.659036	2793.900723
944.960851	2791.312090
945.262628	2789.005762
945.564367	2789.935855
945.866067	2789.368726
946.167729	2787.969805
946.469352	2781.864968
946.770937	2785.305556
947.072484	2776.617127
947.373992	2777.660646
947.675462	2773.335336
947.976893	2768.780653
948.278286	2764.107504
948.579641	2760.697163
948.880958	2756.424785
949.182236	2757.937131
949.483476	2755.615680
949.784678	2757.591812
950.085841	2753.329517
950.386967	2757.450660
950.688054	2764.243615
950.989103	2773.703340
951.290114	2781.340688
951.591087	2792.456432
951.892021	2802.415232
952.192917	2815.905359
952.493776	2827.031186
952.794596	2830.081084
953.095378	2831.797597
953.396122	2831.570745
953.696828	2825.234015
953.997496	2823.015907
954.298126	2812.215235
954.598718	2802.269038
954.899272	2789.963582
955.199788	2781.002931
955.500266	2770.517331
955.800706	2755.565268
956.101108	2737.195304
956.401472	2731.219016
956.701798	2712.660008
957.002087	2702.139120
957.302337	2694.831967
957.602550	2683.721264
957.902724	2673.313802
958.202861	2666.041938
958.502960	2654.911070
958.803022	2648.130718
959.103045	2640.916827
959.403031	2636.387350
959.702979	2629.997688
960.002889	2628.036679
960.302762	2622.632562
960.602596	2615.673249
960.902393	2614.027312
961.202153	2612.056221
961.501875	2607.751076
961.801559	2604.318050
962.101205	2605.870726
962.400814	2601.797473
962.700385	2598.130034
962.999918	2598.056937
963.299414	2594.374374
963.598873	2595.095259
963.898293	2593.764395
964.197677	2591.911771
964.497022	2594.893613
964.796331	2592.428489
965.095601	2588.188878
965.394835	2588.700556
965.694030	2588.309866
965.993189	2588.176276
966.292309	2587.795668
966.591393	2586.358940
966.890439	2586.134608
967.189447	2588.992942
967.488419	2584.332396
967.787353	2585.643096
968.086249	2588.735844
968.385108	2590.386822
968.683930	2587.790627
968.982714	2591.571493
969.281462	2593.005701
969.580172	2594.016452
969.878844	2596.731114
970.177480	2598.901330
970.476078	2601.515169
970.774639	2605.149841
971.073162	2608.600510
971.371649	2609.094543
971.670098	2607.942640
971.968510	2608.960953
972.266885	2606.437855
972.565223	2612.066304
972.863524	2614.445728
973.161788	2615.673249
973.460014	2616.449587
973.758204	2617.178034
974.056356	2618.329937
974.354471	2620.127109
974.652550	2617.160390
974.950591	2620.336317
975.248595	2616.202570
975.546563	2616.699124
975.844493	2614.571757
976.142386	2612.078907
976.440243	2609.535644
976.738062	2606.964656
977.035845	2604.771754
977.333590	2604.779316
977.631299	2602.964500
977.928971	2600.930395
978.226606	2598.664396
978.524204	2600.083481
978.821765	2598.281268
979.119290	2597.983840
979.416777	2593.567790
979.714228	2595.196082
980.011642	2597.310846
980.309020	2605.883328
980.606360	2605.112032
980.903664	2613.689555
981.200931	2626.826802
981.498162	2645.199287
981.795356	2676.209945
982.092513	2714.628579
982.389633	2753.369846
982.686717	2796.348203
982.983764	2826.700990
983.280775	2841.416118
983.577749	2840.823783
983.874686	2832.223574
984.171587	2813.732622
984.468451	2799.151085
984.765279	2784.163734
985.062070	2764.813265
985.358824	2743.590007
985.655543	2727.470918
985.952224	2703.800180
986.248869	2677.951664
986.545478	2651.281439
986.842050	2632.888790
987.138586	2615.774072
987.435086	2603.453492
987.731549	2589.779362
988.027975	2586.973960
988.324366	2581.504308
988.620719	2576.836200
988.917037	2572.014336
989.213318	2570.098698
989.509563	2567.578121
989.805772	2566.605178
990.101944	2565.148285
990.398080	2566.590055
990.694180	2564.301371
990.990244	2564.976886
991.286271	2563.550239
991.582262	2563.411607
991.878217	2564.624005
992.174136	2563.320867
992.470019	2567.837740
992.765865	2569.544171
993.061676	2571.066599
993.357450	2577.383165
993.653188	2577.294945
993.948890	2579.112281
994.244556	2588.327510
994.540186	2600.610282
994.835780	2608.393823
995.131337	2625.299332
995.426859	2639.591004
995.722345	2655.763025
996.017795	2676.396468
996.313208	2689.148067
996.608586	2697.087884
996.903928	2702.502083
997.199234	2700.228523
997.494504	2698.322967
997.789738	2688.759898
998.084936	2681.447704
998.380099	2671.690551
998.675225	2656.373005
998.970316	2643.974287
999.265371	2632.460292
999.560390	2618.841614
999.855373	2608.487084
1000.150320	2598.631629
1000.445232	2594.162646
1000.740108	2580.334761
1001.034948	2575.853175
1001.329752	2573.128431
1001.624521	2570.272618
1001.919254	2560.182748
1002.213951	2559.567727
1002.508613	2557.528581
1002.803239	2557.642007
1003.097829	2552.005997
1003.392384	2553.513302
1003.686903	2551.070863
1003.981386	2551.695966
1004.275834	2550.632282
1004.570246	2549.787889
1004.864623	2549.603887
1005.158964	2548.633465
1005.453270	2550.034906
1005.747540	2548.474668
1006.041775	2547.834442
1006.335974	2544.514842
1006.630138	2545.568443
1006.924266	2544.575336
1007.218359	2544.277908
1007.512416	2542.140459
1007.806438	2545.452497
1008.100425	2545.248330
1008.394376	2543.405788
1008.688292	2542.379913
1008.982172	2544.814791
1009.276017	2542.510983
1009.569827	2544.396375
1009.863602	2544.973587
1010.157341	2543.163813
1010.451045	2539.982845
1010.744714	2542.538710
1011.038347	2541.722043
1011.331945	2538.054603
1011.625508	2542.115253
1011.919036	2539.093081
1012.212528	2541.144831
1012.505986	2539.282124
1012.799408	2537.898328
1013.092795	2539.393030
1013.386147	2537.704243
1013.679464	2537.852957
1013.972745	2538.775488
1014.265992	2537.500077
1014.559204	2538.369676
1014.852380	2540.000489
1015.145521	2537.089223
1015.438628	2541.124666
1015.731699	2539.907228
1016.024736	2542.702547
1016.317737	2538.173071
1016.610703	2542.488298
1016.903635	2537.502597
1017.196531	2537.172402
1017.489393	2539.677855
1017.782219	2535.929757
1018.075011	2542.697506
1018.367768	2542.145500
1018.660490	2540.484440
1018.953177	2540.484440
1019.245829	2540.484440
