Dividing Wavelength (nm)	Counts (n)	Blue Motor Position (mm): 22.000000	Red Motor Position (mm): 0.000000	
326.493990	2102.662749
326.888308	2102.662749
327.282561	2102.662749
327.676750	2078.303893
328.070874	2079.571743
328.464933	2087.647672
328.858929	2097.251070
329.252859	2110.479058
329.646726	2124.238887
330.040528	2141.860240
330.434265	2159.668116
330.827938	2177.594459
331.221547	2197.660772
331.615091	2219.501571
332.008571	2241.037381
332.401986	2260.108066
332.795338	2279.932403
333.188625	2300.424693
333.581847	2318.988743
333.975006	2336.723522
334.368100	2353.903774
334.761129	2372.087216
335.154095	2391.659496
335.546996	2429.311874
335.939833	2497.677482
336.332606	2508.049656
336.725315	2520.604649
337.117960	2529.517409
337.510540	2540.265149
337.903056	2547.814277
338.295508	2552.767211
338.687896	2562.075702
339.080220	2568.384706
339.472480	2570.126424
339.864676	2575.298648
340.256807	2576.584142
340.648875	2580.178485
341.040879	2580.014648
341.432818	2581.365677
341.824694	2582.631006
342.216506	2583.087231
342.608253	2581.819381
342.999937	2584.365163
343.391557	2579.830645
343.783113	2579.591191
344.174605	2576.984914
344.566033	2574.194635
344.957397	2572.193297
345.348697	2573.390571
345.739934	2570.131465
346.131106	2568.712381
346.522215	2569.796229
346.913260	2568.104922
347.304241	2566.731207
347.695159	2561.846329
348.086012	2565.163408
348.476802	2560.936401
348.867528	2559.718962
349.258191	2559.151832
349.648789	2561.644683
350.039324	2556.149825
350.429796	2557.984805
350.820203	2554.874413
351.210548	2554.085473
351.600828	2552.321069
351.991045	2553.440205
352.381198	2550.203784
352.771288	2550.042467
353.161314	2549.412323
353.551276	2549.268650
353.941175	2550.657488
354.331010	2549.946685
354.720782	2552.938610
355.110490	2554.458518
355.500135	2552.406768
355.889717	2549.750080
356.279235	2553.404917
356.668689	2552.898281
357.058080	2552.681511
357.447408	2550.838970
357.836672	2552.787376
358.225873	2554.667726
358.615010	2548.177240
359.004084	2556.457336
359.393095	2554.720658
359.782043	2556.895916
360.170927	2560.102090
360.559748	2555.499516
360.948505	2559.010680
361.337199	2560.039075
361.725830	2561.531257
362.114398	2561.614436
362.502903	2565.715415
362.891344	2564.021587
363.279722	2559.605536
363.668037	2560.235680
364.056289	2561.647203
364.444478	2562.889848
364.832603	2561.470763
365.220665	2566.181721
365.608665	2564.820610
365.996601	2566.189283
366.384474	2565.302040
366.772284	2564.888665
367.160031	2565.443192
367.547715	2568.740107
367.935336	2563.519992
368.322893	2565.576783
368.710388	2569.067782
369.097820	2567.905796
369.485189	2565.279355
369.872495	2569.977710
370.259738	2565.405384
370.646918	2567.028635
371.034035	2570.544840
371.421090	2570.605334
371.808081	2569.488718
372.195010	2569.410580
372.581875	2568.760272
372.968678	2572.442834
373.355418	2570.993503
373.742096	2569.438307
374.128710	2571.774882
374.515262	2573.725808
374.901751	2573.088102
375.288177	2573.632547
375.674540	2572.273956
376.060841	2574.134142
376.447079	2574.686148
376.833254	2574.474419
377.219367	2570.509552
377.605417	2570.817062
377.991404	2574.688668
378.377329	2572.175653
378.763191	2569.778585
379.148991	2575.288566
379.534727	2575.230592
379.920402	2574.383679
380.306013	2577.254616
380.691563	2576.977352
381.077049	2578.968608
381.462474	2577.920048
381.847835	2578.640933
382.233134	2575.906107
382.618371	2578.547672
383.003545	2575.706982
383.388657	2580.541448
383.773706	2579.878536
384.158693	2580.692683
384.543618	2581.098496
384.928480	2580.551530
385.313280	2580.175964
385.698017	2580.501119
386.082692	2582.837694
386.467305	2580.962384
386.851856	2580.619586
387.236344	2581.095975
387.620770	2583.616552
388.005133	2582.028588
388.389435	2583.200657
388.773674	2582.633527
389.157851	2582.731829
389.541965	2581.597570
389.926018	2583.001531
390.310008	2582.663774
390.693936	2588.095617
391.077802	2585.958168
391.461606	2586.429516
391.845348	2589.280288
392.229027	2585.355750
392.612645	2583.949268
392.996200	2586.144691
393.379694	2587.344485
393.763125	2585.252406
394.146494	2589.920515
394.529801	2587.863724
394.913047	2589.363467
395.296230	2591.745412
395.679351	2590.293560
396.062410	2589.280288
396.445408	2589.623087
396.828343	2590.616194
397.211217	2589.681060
397.594028	2590.495206
397.976778	2582.673856
398.359466	2587.407500
398.742092	2588.166193
399.124656	2592.488983
399.507158	2593.177100
399.889598	2593.250197
400.271977	2593.477049
400.654294	2593.509816
401.036549	2594.954107
401.418742	2593.093921
401.800874	2592.461256
402.182944	2593.776998
402.564952	2595.725403
402.946898	2595.397728
403.328783	2594.654158
403.710606	2595.579210
404.092367	2594.535691
404.474067	2597.235229
404.855705	2594.137440
405.237282	2598.099787
405.618797	2594.417224
406.000250	2598.240939
406.381642	2596.700867
406.762972	2596.345465
407.144240	2598.543408
407.525447	2600.459047
407.906593	2598.692122
408.287677	2597.643563
408.668700	2599.723038
409.049661	2602.309150
409.430560	2600.695981
409.811399	2598.941660
410.192176	2603.987855
410.572891	2597.900661
410.953545	2600.660693
411.334138	2601.111876
411.714669	2598.866042
412.095139	2602.077257
412.475547	2600.837133
412.855894	2601.119438
413.236180	2600.454006
413.616405	2603.730756
413.996568	2603.841661
414.376670	2602.283945
414.756711	2602.225971
415.136691	2606.647063
415.516609	2605.233020
415.896466	2603.985334
416.276262	2607.383072
416.655997	2604.514655
417.035670	2602.651949
417.415283	2604.731425
417.794834	2602.357041
418.174324	2607.647732
418.553753	2606.705037
418.933121	2607.831734
419.312428	2607.355345
419.691674	2608.834924
420.070859	2609.560850
420.449983	2606.810901
420.829045	2609.470109
421.208047	2609.991869
421.586988	2609.613782
421.965867	2609.003803
422.344686	2609.538165
422.723444	2612.562857
423.102141	2610.211159
423.480777	2611.804164
423.859352	2607.995572
424.237866	2612.421705
424.616319	2614.468413
424.994712	2613.538321
425.373044	2611.738629
425.751314	2615.244751
426.129524	2616.898250
426.507673	2614.377673
426.885762	2615.358177
427.263789	2614.866665
427.641756	2618.672736
428.019662	2614.118053
428.397508	2618.551748
428.775292	2618.581995
429.153016	2618.602160
429.530679	2616.255502
429.908282	2617.689711
430.285824	2618.120729
430.663305	2619.060905
431.040726	2618.793723
431.418086	2616.794906
431.795385	2622.067953
432.172624	2620.265740
432.549802	2620.364043
432.926920	2620.772376
433.303977	2620.026286
433.680974	2621.513426
434.057910	2620.295987
434.434786	2621.508385
434.811601	2620.212808
435.188355	2619.844804
435.565050	2622.060391
435.941683	2623.557614
436.318257	2622.872017
436.694770	2621.722634
437.071222	2623.255145
437.447614	2620.636265
437.823946	2618.811367
438.200218	2624.979219
438.576429	2626.302522
438.952580	2625.359826
439.328670	2625.029631
439.704700	2628.936525
440.080670	2624.472583
440.456580	2628.739920
440.832429	2628.180352
441.208218	2627.590537
441.583947	2624.815382
441.959616	2627.474590
442.335224	2629.624642
442.710773	2630.141361
443.086261	2630.922740
443.461689	2629.654889
443.837057	2632.548512
444.212365	2631.822586
444.587612	2631.525157
444.962800	2633.584469
445.337927	2635.031280
445.712995	2635.069089
446.088002	2637.846764
446.462949	2638.746610
446.837837	2639.477578
447.212664	2638.328195
447.587431	2645.259781
447.962139	2647.248516
448.336786	2654.530463
448.711374	2653.986018
449.085901	2646.651140
449.460369	2646.371356
449.834776	2650.782365
450.209124	2652.781183
450.583412	2654.704383
450.957640	2656.408293
451.331808	2655.442912
451.705917	2652.524084
452.079965	2657.502223
452.453954	2656.499034
452.827883	2659.284271
453.201752	2659.962306
453.575562	2662.971875
453.949311	2666.241063
454.323001	2668.754079
454.696632	2667.072854
455.070202	2673.336488
455.443713	2673.538134
455.817164	2674.614420
456.190556	2676.477126
456.563888	2679.509380
456.937160	2677.094668
457.310373	2679.874864
457.683526	2684.890812
458.056619	2686.892150
458.429653	2686.390555
458.802628	2691.517409
459.175542	2691.613191
459.548398	2701.055272
459.921194	2704.944522
460.293930	2710.320913
460.666607	2717.118909
461.039224	2726.225753
461.411782	2734.105077
461.784280	2731.226578
462.156719	2731.110631
462.529099	2733.137175
462.901419	2730.891341
463.273680	2732.358317
463.645882	2732.713718
464.018024	2736.973493
464.390106	2744.530183
464.762130	2759.313366
465.134094	2779.278856
465.505999	2808.421767
465.877845	2834.784481
466.249631	2843.787981
466.621358	2840.848989
466.993026	2840.753207
467.364634	2839.508042
467.736184	2833.204079
468.107674	2834.648369
468.479105	2836.097701
468.850477	2840.148268
469.221790	2839.160202
469.593043	2834.928153
469.964238	2838.207424
470.335373	2844.345029
470.706449	2869.727238
471.077467	2904.261663
471.448425	2945.987293
471.819324	2979.810915
472.190164	2978.250678
472.560945	2963.480097
472.931667	2950.070628
473.302330	2957.110599
473.672934	2966.371199
474.043479	2987.009683
474.413965	2996.192144
474.784393	3006.869308
475.154761	3040.319885
475.525070	3057.545507
475.895321	3075.247519
476.265513	3103.359513
476.635645	3150.829539
477.005719	3172.864422
477.375734	3210.720967
477.745691	3254.266454
478.115588	3315.738284
478.485427	3393.132598
478.855207	3516.098943
479.224928	3621.832104
479.594591	3705.275803
479.964194	3722.982856
480.333739	3775.960342
480.703226	3842.569108
481.072653	3934.860032
481.442022	4029.613559
481.811333	4104.993933
482.180584	4137.055671
482.549777	4195.921225
482.918912	4262.540073
483.287988	4334.348789
483.657005	4388.654619
484.025964	4450.930513
484.394864	4540.042989
484.763706	4610.596458
485.132489	4669.852701
485.501213	4760.507770
485.869879	4876.129154
486.238487	4964.031754
486.607036	5085.266463
486.975527	5168.669833
487.343959	5305.380884
487.712333	5436.385349
488.080648	5560.982507
488.448905	5726.786057
488.817104	5857.349421
489.185244	6090.321305
489.553326	6421.020997
489.921350	6864.793771
490.289315	7343.353026
490.657222	7605.019157
491.025070	7835.031884
491.392861	7912.274964
491.760593	7950.388607
492.128267	7939.356042
492.495883	7949.017413
492.863440	7984.895305
493.230939	8016.468052
493.598380	8079.174965
493.965763	8233.454437
494.333088	8335.520158
494.700354	8474.247671
495.067563	8643.751428
495.434713	8830.127927
495.801805	9067.888907
496.168839	9226.244152
496.535815	9390.747084
496.902733	9622.133525
497.269593	9775.475343
497.636395	9991.856789
498.003139	10304.748606
498.369825	10437.459501
498.736453	10737.176262
499.103023	10882.059024
499.469535	11103.542118
499.835989	11378.196782
500.202385	11553.041642
500.568723	11818.589462
500.935003	12124.796708
501.301226	12339.955675
501.667390	12779.975309
502.033497	13127.784677
502.399546	13249.369746
502.765537	13333.647756
503.131470	13716.956930
503.497345	14112.221200
503.863163	14005.968801
504.228923	14466.682371
504.594625	14890.845056
504.960269	14956.639675
505.325856	15486.427136
505.691385	15562.084773
506.056856	15913.896818
506.422270	16361.422730
506.787625	16522.422060
507.152924	16899.104637
507.518164	17254.216117
507.883347	17244.574910
508.248472	17667.182399
508.613540	18191.875773
508.978550	18646.638262
509.343503	18856.279686
509.708398	19271.532131
510.073236	19818.237704
510.438016	20151.770525
510.802738	20220.342820
511.167403	20842.516986
511.532010	21271.388109
511.896561	21743.658524
512.261053	22512.789887
512.625488	22604.581737
512.989866	22880.748748
513.354186	23130.331233
513.718449	23447.066930
514.082655	24153.672861
514.446803	24296.221569
514.810894	24927.101808
515.174927	25203.409971
515.538904	25465.494518
515.902822	26179.531111
516.266684	26182.691914
516.630488	26758.081652
516.994235	26982.657494
517.357925	27659.818047
517.721558	28088.661443
518.085133	28599.116078
518.448651	29001.879065
518.812112	29161.814712
519.175516	29542.898216
519.538863	30079.816389
519.902152	30346.495948
520.265385	30989.149802
520.628560	31289.237087
520.991678	31444.733998
521.354739	31906.969997
521.717743	32422.611980
522.080690	32616.645992
522.443580	33303.951866
522.806413	33638.548370
523.169189	33884.526431
523.531908	34299.851973
523.894569	34436.263075
524.257174	34845.183831
524.619722	35343.322928
524.982213	35589.124548
525.344647	35781.648734
525.707025	36073.990287
526.069345	36642.597153
526.431608	36818.581313
526.793815	37311.986766
527.155964	37180.523556
527.518057	37539.040336
527.880093	37610.758311
528.242072	38277.884446
528.603995	38257.359388
528.965860	38462.983013
529.327669	38750.747198
529.689421	38880.778720
530.051117	39052.366994
530.412755	39385.408302
530.774337	39644.697530
531.135862	39662.694449
531.497331	40027.240448
531.858743	40139.983333
532.220098	40603.293098
532.581396	40533.016893
532.942638	40398.294577
533.303824	40851.544719
533.664953	41003.422082
534.026025	40904.378532
534.387040	41492.565239
534.747999	41607.848866
535.108902	41927.130345
535.469748	41614.621656
535.830537	41869.830070
536.191270	42191.309492
536.551947	42014.377595
536.912567	42436.107922
537.273131	42701.242368
537.633638	42340.459590
537.994089	42790.390133
538.354483	42531.912531
538.714821	43215.485431
539.075103	43648.780165
539.435328	43537.630285
539.795497	43542.363928
540.155609	43657.203933
540.515665	44217.399634
540.875665	43798.262980
541.235609	44207.955032
541.595496	44295.519875
541.955328	45049.401747
542.315102	44537.714549
542.674821	44435.031287
543.034483	44560.374536
543.394090	44635.349097
543.753640	44673.971897
544.113134	45744.269352
544.472571	44859.229259
544.831953	46173.279106
545.191278	45488.982801
545.550548	45285.874712
545.909761	45821.961095
546.268918	46080.055569
546.628019	46473.941083
546.987064	46114.098481
547.346053	45478.993754
547.704986	46407.062616
548.063863	46032.807354
548.422684	46283.801363
548.781449	46193.559668
549.140158	46649.274935
549.498811	46555.063331
549.857408	46068.972592
550.215949	46938.906867
550.574434	46940.520036
550.932864	46756.006244
551.291237	47521.760034
551.649555	47184.816872
552.007817	47473.453177
552.366022	47181.406532
552.724173	47398.392917
553.082267	47831.896859
553.440305	48151.984923
553.798288	47507.460801
554.156215	47864.986993
554.514086	48121.007032
554.871902	47901.021161
555.229661	47954.359089
555.587365	47821.043255
555.945014	47966.374679
556.302606	47921.205941
556.660143	48195.734577
557.017625	48281.570303
557.375050	48123.784708
557.732421	48477.267895
558.089735	48505.899129
558.446994	48453.297209
558.804197	48935.483574
559.161345	48897.740455
559.518437	48176.489972
559.875474	48507.983646
560.232455	48710.194409
560.589381	48900.818080
560.946251	48619.602354
561.303065	49302.323298
561.659825	49141.326489
562.016528	48831.303089
562.373177	48567.479343
562.729770	49055.526050
563.086307	48594.371379
563.442789	49083.149053
563.799216	49109.821798
564.155587	48927.526113
564.511904	48969.564295
564.868164	49081.629145
565.224370	49318.213015
565.580520	49056.879600
565.936615	49273.465213
566.292654	49008.890336
566.648638	49295.477412
567.004567	49252.730947
567.360441	49294.476742
567.716260	49182.127067
568.072023	49449.877872
568.427732	49442.835380
568.783385	48990.308643
569.138982	49397.046579
569.494525	49350.637717
569.850013	49106.482033
570.205445	49101.937433
570.560823	49049.040606
570.916145	48937.396692
571.271412	48961.193459
571.626625	48716.291684
571.981782	48759.577552
572.336884	48435.771637
572.691931	48765.059807
573.046923	48361.742293
573.401860	48213.975992
573.756743	48174.939817
574.111570	48303.159044
574.466342	48147.465528
574.821059	48273.499416
575.175722	47772.801933
575.530330	47785.626629
575.884882	47506.651696
576.239380	47461.608986
576.593823	47421.168850
576.948211	47355.107049
577.302544	46881.067188
577.656823	46880.704225
578.011047	47112.758619
578.365216	46834.018100
578.719330	46616.925850
579.073389	46465.565206
579.427394	46540.312915
579.781344	46504.782862
580.135239	46155.355284
580.489080	46212.842082
580.842866	45684.521597
581.196597	46136.327448
581.550273	46084.300220
581.903895	45947.455578
582.257463	46354.919441
582.610975	45710.833899
582.964434	46009.872625
583.317837	45619.069776
583.671186	45464.656713
584.024481	45687.561412
584.377721	45181.288414
584.730906	45484.846534
585.084037	45515.108581
585.437113	45224.208798
585.790135	45258.647440
586.143103	44834.237739
586.496016	44942.037773
586.848874	44954.922962
587.201679	44986.266336
587.554428	44456.355367
587.907124	44639.697092
588.259765	44387.261313
588.612352	44630.045803
588.964884	43991.818082
589.317362	44284.477227
589.669786	44226.377929
590.022155	43977.198736
590.374470	44399.707922
590.726731	43920.450467
591.078937	43417.786934
591.431090	43522.148901
591.783188	43175.743494
592.135232	42853.021428
592.487222	43099.465795
592.839157	43178.087631
593.191038	42827.939167
593.542866	42570.641195
593.894639	41964.518062
594.246358	42262.248609
594.598022	42233.718198
594.949633	41819.549601
595.301190	41772.616459
595.652692	41614.339352
596.004141	41948.459467
596.355535	40934.771649
596.706876	40868.987112
597.058162	40722.022353
597.409395	41189.097860
597.760573	41267.913780
598.111698	40850.843999
598.462768	40843.816630
598.813785	40892.085678
599.164748	40318.881280
599.515657	40713.429707
599.866511	40196.497188
600.217312	40819.440131
600.568060	39770.801993
600.918753	40518.831086
601.269392	40476.681999
601.619978	40110.764806
601.970510	40312.758799
602.320988	40501.509681
602.671412	40814.356127
603.021783	40560.735677
603.372100	40201.263599
603.722363	40318.561167
604.072572	40374.475125
604.422728	40401.619218
604.772830	40195.110871
605.122878	40313.456999
605.472872	40239.972099
605.822813	40498.008600
606.172701	40323.652732
606.522534	40580.713770
606.872314	40840.116423
607.222041	40580.348286
607.571714	40991.114105
607.921333	40413.627246
608.270899	40706.835878
608.620411	41058.123642
608.969870	40839.551814
609.319276	40837.936124
609.668627	40884.710470
610.017926	41376.979143
610.367171	41515.638601
610.716362	41605.350974
611.065500	41540.836808
611.414585	41727.866136
611.763616	42024.641384
612.112594	41943.710700
612.461518	42177.300125
612.810389	42479.842453
613.159207	42349.001825
613.507971	42420.392125
613.856682	42876.982032
614.205340	42768.428346
614.553945	43470.524965
614.902496	42917.323866
615.250994	43393.667534
615.599439	43457.874190
615.947830	43657.108152
616.296169	43710.874578
616.644454	43827.007639
616.992686	44003.178322
617.340864	44517.040777
617.688990	44209.926123
618.037063	44832.488459
618.385082	44786.001459
618.733048	45076.838227
619.080961	45082.025574
619.428821	45115.128311
619.776628	45220.238889
620.124382	45047.871757
620.472083	45190.838880
620.819731	45310.730121
621.167326	44989.684239
621.514868	44979.324668
621.862357	44522.258372
622.209793	44565.488787
622.557176	44220.872989
622.904506	43948.890136
623.251783	43625.764777
623.599007	43387.512285
623.946179	43184.048795
624.293297	43130.050476
624.640363	42526.589072
624.987376	42527.733414
625.334336	42273.833180
625.681243	41920.329828
626.028097	41876.658313
626.374899	41724.793553
626.721647	41712.412479
627.068343	41612.416152
627.414987	41368.121836
627.761577	41122.017747
628.108115	41457.529220
628.454600	40908.648389
628.801032	41102.505961
629.147412	41050.234236
629.493739	41032.723788
629.840014	40688.838958
630.186236	41027.349918
630.532405	40602.806627
630.878521	40819.399802
631.224585	40682.461899
631.570597	40408.712121
631.916556	40569.716493
632.262462	40509.472184
632.608316	40526.750739
632.954117	40429.128794
633.299866	40397.750132
633.645562	40348.014108
633.991206	39844.848981
634.336797	39404.930170
634.682336	39393.557327
635.027823	39159.788941
635.373257	38984.966767
635.718639	38740.150692
636.063968	38607.195301
636.409245	38011.552727
636.754470	38071.242509
637.099642	37827.202772
637.444762	37348.330965
637.789829	37488.981678
638.134845	37139.770869
638.479808	37073.300735
638.824719	36987.371747
639.169577	36593.352642
639.514383	36654.123751
639.859137	36346.414241
640.203839	36583.340910
640.548489	36222.182566
640.893086	36294.613865
641.237632	36035.833794
641.582125	36163.372465
641.926566	36070.993321
642.270955	36030.472527
642.615292	36070.093475
642.959576	36014.976020
643.303809	36038.273712
643.647990	36177.585999
643.992118	36144.848746
644.336195	36122.834027
644.680219	36204.780503
645.024192	36513.634355
645.368112	37031.350773
645.711981	37020.534977
646.055797	37910.570853
646.399562	37822.355702
646.743274	38773.941546
647.086935	39209.293072
647.430544	39099.239642
647.774101	39220.464269
648.117606	39455.770207
648.461059	39769.307291
648.804460	39378.547292
649.147810	38754.651571
649.491108	38490.575768
649.834354	38135.837334
650.177548	37293.268962
650.520690	36861.284927
650.863781	36863.666872
651.206820	36723.127065
651.549807	36272.667201
651.892742	35781.570597
652.235626	35594.274087
652.578458	35466.972350
652.921238	34842.564952
653.263967	35184.229154
653.606644	34871.881782
653.949269	34800.599867
654.291843	34361.177609
654.634365	34778.063388
654.976836	34385.715426
655.319255	34378.806524
655.661622	34381.843820
656.003938	34166.165614
656.346203	34023.551372
656.688416	34237.278651
657.030577	34038.463105
657.372687	33869.037486
657.714746	34145.995958
658.056753	34267.263434
658.398708	33714.238775
658.740612	33765.141826
659.082465	34049.846030
659.424266	33883.220772
659.766016	33992.704551
660.107715	33847.705843
660.449362	33990.907380
660.790958	33948.760813
661.132503	33964.287567
661.473996	34010.847664
661.815438	34121.843789
662.156829	34319.588090
662.498168	34070.030810
662.839456	34111.385916
663.180693	34246.322481
663.521879	34421.474851
663.863013	34369.472828
664.204097	34351.047411
664.545129	34821.518135
664.886110	34762.836583
665.227040	34845.168708
665.567918	34959.859999
665.908746	35019.191859
666.249522	35194.261050
666.590248	35186.616140
666.930922	35300.510929
667.271545	35266.440291
667.612118	35334.077452
667.952639	35116.665089
668.293109	35164.634189
668.633528	35049.307712
668.973896	34993.464331
669.314213	35033.912028
669.654480	34767.078714
669.994695	34780.599089
670.334859	34668.990463
670.674973	34566.347530
671.015035	34727.823249
671.355047	34670.323848
671.695008	34607.223726
672.034918	34506.262017
672.374777	34603.546204
672.714585	34420.380920
673.054342	34647.787370
673.394049	34408.352727
673.733705	34686.654666
674.073310	34341.353272
674.412864	34415.581742
674.752368	34017.418808
675.091820	34334.666181
675.431223	33906.946963
675.770574	33618.134218
676.109875	33472.444872
676.449125	33193.069167
676.788324	33119.186016
677.127473	32575.845413
677.466571	32498.047806
677.805619	32145.882881
678.144616	32160.708914
678.483562	32066.719122
678.822458	31745.126274
679.161303	31675.956602
679.500098	31584.958734
679.838842	31465.851392
680.177535	31607.291045
680.516179	31885.847563
680.854771	32135.051962
681.193314	33008.744417
681.531805	34119.822287
681.870247	34879.864449
682.208638	35579.392601
682.546978	35788.978572
682.885268	35874.380759
683.223508	35368.266557
683.561697	35047.949121
683.899836	34847.656517
684.237925	34330.938248
684.575963	34162.301570
684.913951	33699.697566
685.251889	33862.123543
685.589776	33842.941953
685.927614	33839.135882
686.265401	33979.106039
686.603137	34060.818102
686.940824	34561.296294
687.278460	34931.637099
687.616046	35044.140530
687.953582	35633.317824
688.291068	35488.293910
688.628504	35778.250997
688.965889	35705.502106
689.303224	35338.342268
689.640510	35017.314029
689.977745	34256.258595
690.314930	33471.907989
690.652065	32981.464213
690.989150	32246.400968
691.326185	31332.840547
691.663170	30623.613216
692.000105	29874.732168
692.336990	29205.110661
692.673825	28739.701256
693.010610	28227.116733
693.347345	27632.883162
693.684030	26958.948948
694.020665	26674.869846
694.357251	25999.645097
694.693786	25951.476872
695.030272	25713.524328
695.366707	25158.463043
695.703093	24858.295099
696.039429	24861.158474
696.375716	24580.146915
696.711952	24560.594800
697.048139	24368.927610
697.384276	24191.063099
697.720363	24331.035777
698.056400	24113.089052
698.392388	23889.251739
698.728326	23858.989693
699.064214	23656.625174
699.400053	23601.696762
699.735842	23235.232604
700.071581	22955.859419
700.407270	22660.697341
700.742910	22468.364719
701.078501	22207.099359
701.414042	21919.052870
701.749533	21618.831993
702.084974	21253.613000
702.420366	21471.970579
702.755709	21028.467508
703.091002	20729.620346
703.426246	20744.527038
703.761440	20634.637446
704.096584	20356.794252
704.431679	20314.410751
704.766725	20213.617921
705.101721	20152.425875
705.436668	20234.500900
705.771565	19904.701054
706.106413	20258.514437
706.441212	20246.884495
706.775961	20382.491533
707.110661	20443.794485
707.445311	20801.061058
707.779913	20627.264758
708.114465	20862.958865
708.448967	21155.265130
708.783421	21840.335252
709.117825	22099.901743
709.452180	22319.307882
709.786485	22715.633315
710.120742	23503.769828
710.454949	23517.229709
710.789107	23965.045487
711.123216	24675.278529
711.457275	24783.635611
711.791286	25321.735934
712.125247	25396.710494
712.459159	25086.616518
712.793023	25757.878921
713.126837	24665.397868
713.460602	24945.663336
713.794318	24577.215484
714.127985	24203.240007
714.461602	23290.370224
714.795171	23260.355194
715.128691	22240.184452
715.462162	21706.137216
715.795584	21280.678955
716.128957	21029.594206
716.462281	20629.535798
716.795556	20382.115967
717.128782	19883.074504
717.461960	19328.456840
717.795088	19242.343850
718.128167	18838.612962
718.461198	18370.619965
718.794180	18235.539728
719.127113	17870.597998
719.459997	17653.518351
719.792833	17295.717416
720.125619	17270.093231
720.458357	16948.931402
720.791046	16772.944721
721.123686	16594.283708
721.456278	16359.315527
721.788821	16323.689693
722.121315	16053.922427
722.453761	16133.688605
722.786158	16053.826645
723.118506	16061.277471
723.450805	15916.336736
723.783056	16077.648618
724.115259	15965.034282
724.447412	15898.196144
724.779518	16135.863862
725.111574	16156.169630
725.443582	16361.911722
725.775542	16341.996643
726.107453	16807.988302
726.439315	16680.762182
726.771129	17077.712718
727.102895	17459.380996
727.434612	17658.851892
727.766281	17776.318338
728.097901	18037.258544
728.429473	18074.580726
728.760996	18056.135144
729.092471	18159.796391
729.423897	18034.889202
729.755276	17914.249349
730.086606	18029.863171
730.417887	18552.197286
730.749120	19061.018587
731.080305	19228.369772
731.411442	19556.805986
731.742530	19632.009919
732.073570	19731.358458
732.404562	20026.023983
732.735506	19840.801908
733.066401	19543.086486
733.397249	19015.320528
733.728048	18387.883397
734.058798	17558.016212
734.389501	16872.605812
734.720156	16412.111532
735.050762	15875.921806
735.381320	15522.055491
735.711831	15276.339570
736.042293	14928.946097
736.372707	14926.722948
736.703073	14717.625969
737.033391	14901.799483
737.363661	14856.978584
737.693883	14958.807372
738.024056	15124.875582
738.354182	15289.262568
738.684260	15559.085286
739.014290	15782.385717
739.344272	15951.342508
739.674207	16236.147536
740.004093	16349.044176
740.333931	16337.401632
740.663722	16392.075466
740.993464	16386.857871
741.323159	16209.603340
741.652806	15944.733556
741.982405	15742.341311
742.311956	15395.792231
742.641460	15291.352126
742.970915	14988.106558
743.300323	14649.154497
743.629683	14443.427529
743.958996	14165.906968
744.288260	13896.661462
744.617477	13593.622581
744.946647	13529.642777
745.275768	13251.731527
745.604842	13063.484760
745.933869	12886.794838
746.262847	12841.298425
746.591778	12758.283224
746.920662	12659.824448
747.249498	12654.407728
747.578286	12772.239658
747.907027	12913.349116
748.235720	13135.260708
748.564365	13158.868432
748.892963	13050.261813
749.221514	13106.037140
749.550017	12956.367803
749.878473	12921.523347
750.206881	12694.031198
750.535242	12597.871188
750.863555	12519.894620
751.191821	12402.607135
751.520039	12435.084768
751.848210	12338.367711
752.176334	12365.824356
752.504411	12269.714758
752.832440	12111.024276
753.160421	12169.627689
753.488356	12054.263404
753.816243	11958.811677
754.144082	11812.338431
754.471875	11746.921898
754.799620	11703.202491
755.127318	11667.286791
755.454969	11631.638271
755.782572	11576.926629
756.110129	11590.147055
756.437638	11506.332831
756.765100	11501.561379
757.092515	11499.635658
757.419882	11513.735765
757.747203	11512.281392
758.074477	11584.763102
758.401703	11540.138808
758.728882	11699.386338
759.056014	11741.084242
759.383099	11849.466529
759.710138	11951.209617
760.037129	12032.752801
760.364073	12051.377343
760.690970	12032.843541
761.017820	12039.102134
761.344623	12224.820762
761.671379	12577.162128
761.998088	13242.977563
762.324751	14842.570967
762.651366	17751.462929
762.977935	21348.132114
763.304456	23445.408390
763.630931	23841.554862
763.957359	22663.913597
764.283740	20778.524579
764.610074	18933.739535
764.936362	16815.028273
765.262602	15315.834490
765.588796	13851.076828
765.914943	12837.905728
766.241044	11980.987712
766.567097	11348.703512
766.893104	10801.874431
767.219064	10444.139030
767.544978	10064.847656
767.870845	9750.440973
768.196665	9557.410151
768.522438	9364.651551
768.848165	9200.993012
769.173846	9029.046816
769.499479	8907.880163
769.825066	8752.184127
770.150607	8570.372393
770.476101	8502.120211
770.801548	8394.947800
771.126949	8256.951255
771.452303	8166.066813
771.777611	8005.473295
772.102872	7983.738361
772.428087	7859.920060
772.753256	7734.481029
773.078378	7648.988101
773.403453	7500.079978
773.728482	7400.403764
774.053465	7330.235943
774.378401	7247.321566
774.703291	7153.125085
775.028135	7056.400467
775.352932	7015.748602
775.677683	6929.222237
776.002388	6846.388518
776.327046	6840.679411
776.651658	6759.000116
776.976224	6679.901892
777.300743	6665.146434
777.625216	6598.298214
777.949643	6554.871194
778.274024	6557.701802
778.598359	6485.514999
778.922647	6491.292162
779.246889	6450.678106
779.571086	6459.258149
779.895236	6461.972811
780.219339	6460.382327
780.543397	6458.068437
780.867409	6504.111816
781.191374	6503.522001
781.515294	6464.185877
781.839167	6519.482294
782.162995	6490.909034
782.486776	6442.219049
782.810511	6402.754377
783.134201	6330.310475
783.457844	6321.107849
783.781441	6270.179592
784.104993	6223.715277
784.428498	6200.261309
784.751958	6179.809348
785.075372	6153.081150
785.398739	6117.755264
785.722061	6144.942207
786.045337	6138.693697
786.368568	6249.563793
786.691752	6273.542042
787.014891	6530.114087
787.337983	6806.923845
787.661030	7239.969043
787.984031	7656.509503
788.306987	7901.713746
788.629897	7978.908935
788.952760	7896.735607
789.275579	7720.426292
789.598351	7425.329749
789.921078	7169.140831
790.243759	6892.227730
790.566395	6690.435383
790.888984	6494.808366
791.211529	6360.201997
791.534027	6199.530342
791.856480	6059.560184
792.178888	6002.927862
792.501249	5938.985867
792.823566	5832.662891
793.145836	5828.168702
793.468062	5811.389222
793.790241	5768.642758
794.112375	5806.239683
794.434464	5907.082925
794.756507	5933.833808
795.078505	6056.104473
795.400457	6262.950577
795.722364	6499.229458
796.044226	6685.638725
796.366042	6839.588001
796.687812	6786.996164
797.009538	6816.577655
797.331218	6727.301341
797.652852	6662.484705
797.974442	6543.420213
798.295986	6472.617207
798.617484	6346.114492
798.938938	6239.894860
799.260346	6171.897257
799.581709	6032.514394
799.903026	5979.907433
800.224299	5910.654582
800.545526	5793.435152
800.866708	5731.779320
801.187845	5682.449109
801.508936	5601.223518
801.829983	5576.531946
802.150984	5473.135360
802.471940	5438.374084
802.792851	5424.901600
803.113717	5402.760853
803.434538	5376.874528
803.755314	5339.038147
804.076045	5329.255788
804.396731	5291.623575
804.717372	5309.539836
805.037967	5304.077746
805.358518	5332.441798
805.679024	5385.966249
805.999485	5395.720881
806.319901	5409.904168
806.640272	5426.010654
806.960598	5473.735258
807.280879	5467.161593
807.601115	5497.894987
807.921306	5462.768227
808.241453	5458.402588
808.561554	5468.852900
808.881611	5441.456750
809.201623	5441.527326
809.521590	5392.920520
809.841513	5375.520978
810.161390	5395.355398
810.481223	5309.350793
810.801011	5294.484430
811.120755	5271.121202
811.440453	5220.356783
811.760107	5190.651784
812.079716	5165.940048
812.399281	5115.173108
812.718801	5109.670689
813.038276	5073.800358
813.357707	5040.291809
813.677093	5061.809974
813.996434	5003.433413
814.315731	5024.754973
814.634983	5025.387638
814.954191	5028.654305
815.273354	5093.589408
815.592473	5134.173217
815.911547	5202.075039
816.230577	5257.457155
816.549562	5345.803376
816.868502	5398.861520
817.187399	5453.968893
817.506250	5538.703128
817.825058	5567.939300
818.143821	5724.779678
818.462539	5897.734105
818.781213	6130.537110
819.099843	6494.107646
819.418429	7129.194728
819.736970	7738.786175
820.055466	8450.423178
820.373919	9387.062001
820.692327	10894.276260
821.010691	13735.291607
821.329011	20111.310224
821.647286	29553.966069
821.965517	39459.520825
822.283704	44373.564498
822.601847	45579.579897
822.919945	41051.446634
823.237999	36137.617210
823.556010	31130.029887
823.873976	26576.050628
824.191897	22503.849401
824.509775	19504.370424
824.827609	16809.503169
825.145398	15304.983406
825.463144	14604.888125
825.780845	14952.304283
826.098502	16243.633649
826.416116	18636.976891
826.733685	20739.871532
827.051210	21088.593350
827.368692	19600.147306
827.686129	17100.859176
828.003522	14710.596080
828.320872	12566.754666
828.638177	10974.970010
828.955439	9757.715358
829.272656	8715.265236
829.589830	7892.543888
829.906960	7172.130235
830.224046	6651.820144
830.541088	6247.572538
830.858086	5992.938816
831.175041	5796.023785
831.491952	5746.519654
831.808819	5787.902486
832.125642	6042.294233
832.442421	6612.536953
832.759157	7755.056499
833.075849	9505.219085
833.392497	11282.740014
833.709101	12294.749128
834.025662	11978.096611
834.342179	10921.990003
834.658653	9658.835646
834.975083	8590.771422
835.291469	7716.494192
835.607811	6994.464850
835.924110	6484.443754
836.240366	6001.375187
836.556578	5557.299944
836.872746	5210.397984
837.188871	4943.244556
837.504952	4723.856061
837.820990	4559.587543
838.136984	4445.929688
838.452935	4402.890837
838.768842	4444.808031
839.084706	4744.658383
839.400526	5501.428836
839.716303	6374.518874
840.032037	6892.779736
840.347727	6709.848866
840.663373	6114.357527
840.978977	5557.499070
841.294537	5126.046877
841.610054	4804.764060
841.925527	4571.114141
842.240957	4366.841546
842.556344	4183.885470
842.871687	4024.345554
843.186987	3876.584293
843.502244	3760.093310
843.817458	3676.654652
844.132629	3605.808797
844.447756	3555.399779
844.762840	3510.470495
845.077881	3471.913230
845.392879	3439.443158
845.707833	3410.353180
846.022745	3385.553223
846.337613	3373.071327
846.652438	3348.014271
846.967221	3338.665452
847.281960	3321.535611
847.596656	3312.852223
847.911309	3300.387970
848.225919	3286.073614
848.540485	3278.884929
848.855009	3269.765481
849.169490	3256.446753
849.483928	3246.896287
849.798323	3246.734970
850.112675	3234.540419
850.426984	3235.868763
850.741251	3227.596229
851.055474	3221.146073
851.369654	3222.504664
851.683792	3221.909808
851.997887	3228.211250
852.311938	3223.994325
852.625947	3223.666650
852.939914	3216.830845
853.253837	3223.565827
853.567718	3220.979715
853.881555	3215.767162
854.195350	3222.295456
854.509103	3216.477965
854.822812	3215.852862
855.136479	3209.816080
855.450103	3213.866647
855.763685	3208.520503
856.077224	3213.236503
856.390720	3213.854044
856.704173	3230.046230
857.017584	3231.896334
857.330953	3236.700553
857.644278	3245.441914
857.957561	3248.287645
858.270802	3244.385792
858.584000	3242.344125
858.897155	3238.646439
859.210268	3232.113103
859.523339	3218.859910
859.836367	3214.337995
860.149352	3210.937737
860.462295	3208.901110
860.775195	3197.724872
861.088054	3197.205633
861.400869	3190.153059
861.713642	3191.146167
862.026373	3197.243442
862.339062	3203.960780
862.651708	3213.980073
862.964312	3231.548494
863.276873	3237.981006
863.589392	3265.326745
863.901869	3288.271557
864.214303	3310.530772
864.526696	3330.680264
864.839045	3346.285156
865.151353	3358.464583
865.463619	3361.993391
865.775842	3364.362733
866.088023	3366.343907
866.400162	3360.067670
866.712258	3361.970706
867.024313	3364.957589
867.336325	3357.037937
867.648296	3363.132692
867.960224	3362.757126
868.272110	3361.204450
868.583954	3362.016076
868.895755	3368.274669
869.207515	3365.680995
869.519233	3384.275291
869.830909	3393.296436
870.142542	3405.745565
870.454134	3409.163468
870.765684	3424.556631
871.077191	3442.011626
871.388657	3450.841207
871.700081	3468.328970
872.011463	3490.719254
872.322803	3510.737676
872.634101	3529.634442
872.945357	3547.137328
873.256571	3571.254208
873.567744	3589.097372
873.878874	3594.473762
874.189963	3609.536730
874.501010	3610.890280
874.812015	3613.118470
875.122979	3625.539873
875.433900	3624.229173
875.744780	3622.837814
876.055618	3632.448774
876.366415	3632.229484
876.677169	3641.888335
876.987882	3657.067249
877.298554	3682.729243
877.609183	3717.639233
877.919771	3767.813837
878.230317	3834.339424
878.540822	3940.770785
878.851285	4099.657872
879.161707	4326.628262
879.472087	4713.781315
879.782425	5360.049677
880.092722	6569.417443
880.402977	8496.630394
880.713191	10785.553695
881.023363	13027.213658
881.333494	14228.858377
881.643583	14616.253406
881.953631	14199.929716
882.263637	13408.213983
882.573602	12425.950198
882.883526	11523.213134
883.193408	10597.891702
883.503248	9723.811078
883.813048	8919.739478
884.122806	8172.292638
884.432522	7420.046620
884.742197	6780.112468
885.051831	6237.311269
885.361424	5751.689357
885.670975	5366.847673
885.980485	5045.176687
886.289954	4785.592552
886.599382	4566.950148
886.908768	4394.580495
887.218113	4230.780804
887.527417	4098.747943
887.836680	3979.368379
888.145901	3879.230899
888.455082	3802.973365
888.764221	3735.613467
889.073319	3679.139941
889.382376	3642.256339
889.691392	3621.267495
890.000366	3612.652163
890.309300	3608.503293
890.618193	3610.842389
890.927044	3605.173611
891.235855	3611.318778
891.544625	3628.728403
891.853353	3659.459277
892.162041	3722.733319
892.470687	3812.748162
892.779293	3932.127726
893.087858	4109.709932
893.396381	4393.852048
893.704864	4809.926202
894.013306	5364.238876
894.321707	5908.282719
894.630068	6225.046142
894.938387	6245.793010
895.246665	6061.206121
895.554903	5757.768989
895.863100	5436.680256
896.171256	5176.256769
896.479371	4944.814876
896.787446	4730.472576
897.095480	4535.291702
897.403473	4392.639651
897.711425	4253.052621
898.019336	4131.777583
898.327207	4011.543543
898.635038	3913.097371
898.942827	3805.496462
899.250576	3723.630644
899.558284	3641.525372
899.865952	3588.255499
900.173579	3524.522712
900.481165	3478.524703
900.788711	3436.521809
901.096216	3409.269332
901.403681	3382.924262
901.711105	3367.674771
902.018489	3367.626880
902.325832	3402.201634
902.633135	3464.651448
902.940397	3643.332625
903.247619	4064.296698
903.554800	4816.522551
903.861941	5745.526547
904.169041	6399.107102
904.476101	6562.909314
904.783121	6290.427387
905.090100	5903.236524
905.397039	5506.996791
905.703938	5162.365870
906.010796	4850.353735
906.317614	4606.712249
906.624391	4373.999984
906.931129	4183.010830
907.237826	4006.517513
907.544483	3838.581555
907.851099	3668.505627
908.157675	3508.537213
908.464211	3374.654249
908.770707	3273.889145
909.077163	3196.817465
909.383578	3136.439565
909.689954	3092.541197
909.996289	3065.117320
910.302584	3044.050338
910.608839	3035.316539
910.915054	3019.439425
911.221229	3014.262160
911.527363	3021.024868
911.833458	3027.038965
912.139513	3039.793084
912.445527	3050.873540
912.751502	3086.524580
913.057436	3134.675161
913.363331	3189.936290
913.669186	3280.525824
913.975000	3399.008063
914.280775	3591.139039
914.586510	3863.454608
914.892205	4239.756578
915.197859	4729.398810
915.503475	5288.185508
915.809050	5745.614767
916.114585	6003.061453
916.420081	6053.576335
916.725536	5990.463609
917.030952	5758.096664
917.336328	5563.122477
917.641665	5361.095716
917.946961	5145.082274
918.252218	4950.231595
918.557435	4729.461824
918.862612	4540.312691
919.167750	4373.216085
919.472848	4191.628682
919.777906	4018.018906
920.082925	3869.556925
920.387904	3719.975808
920.692843	3617.658029
920.997743	3517.543234
921.302603	3423.750046
921.607423	3359.752598
921.912204	3296.034934
922.216946	3249.195053
922.521647	3200.391643
922.826310	3160.238852
923.130932	3123.345168
923.435516	3085.629775
923.740059	3056.915363
924.044564	3024.843542
924.349028	3001.699605
924.653454	2972.657518
924.957840	2947.086265
925.262186	2924.708583
925.566493	2907.699730
925.870761	2879.804505
926.174989	2869.749924
926.479178	2855.410362
926.783328	2839.724811
927.087438	2825.201247
927.391509	2815.870071
927.695541	2803.501600
927.999533	2790.518109
928.303486	2784.420833
928.607400	2779.445214
928.911275	2770.935747
929.215110	2768.294182
929.518906	2760.891247
929.822663	2761.652462
930.126381	2760.999632
930.430060	2765.829058
930.733699	2770.025818
931.037299	2770.169491
931.340861	2768.420211
931.644383	2771.427259
931.947866	2770.560181
932.251309	2764.969541
932.554714	2764.863677
932.858080	2767.059099
933.161407	2761.511309
933.464694	2756.137439
933.767943	2756.240783
934.071153	2750.924886
934.374323	2749.049577
934.677455	2745.210738
934.980548	2742.954822
935.283602	2740.472054
935.586617	2738.004409
935.889593	2741.112280
936.192530	2743.811818
936.495428	2747.315420
936.798287	2756.896133
937.101108	2771.482712
937.403890	2790.555917
937.706632	2815.121460
938.009336	2846.860565
938.312002	2878.362735
938.614628	2898.434089
938.917216	2917.368663
939.219765	2924.937955
939.522275	2938.904472
939.824747	2938.675100
940.127179	2931.304933
940.429573	2925.583223
940.731929	2924.867379
941.034246	2916.756163
941.336524	2913.912952
941.638763	2909.844741
941.940964	2903.278638
942.243126	2884.580998
942.545250	2877.634288
942.847335	2863.564428
943.149381	2846.921058
943.451389	2835.840602
943.753359	2825.022286
944.055290	2815.048363
944.357182	2806.672486
944.659036	2800.484470
944.960851	2797.114458
945.262628	2793.023562
945.564367	2792.151442
945.866067	2790.666823
946.167729	2793.041206
946.469352	2791.264199
946.770937	2791.538942
947.072484	2782.936213
947.373992	2781.728857
947.675462	2777.025460
947.976893	2771.838113
948.278286	2769.332660
948.579641	2766.759151
948.880958	2764.783018
949.182236	2764.515837
949.483476	2757.425454
949.784678	2758.894951
950.085841	2759.817482
950.386967	2764.868718
950.688054	2767.359048
950.989103	2775.916407
951.290114	2784.166255
951.591087	2795.413069
951.892021	2807.713484
952.192917	2819.713951
952.493776	2828.959427
952.794596	2832.647031
953.095378	2831.046465
953.396122	2830.854901
953.696828	2828.709890
953.997496	2824.722337
954.298126	2815.141625
954.598718	2807.557209
954.899272	2798.919192
955.199788	2786.520474
955.500266	2774.698968
955.800706	2759.671288
956.101108	2741.941550
956.401472	2733.026270
956.701798	2720.065463
957.002087	2707.354194
957.302337	2699.779860
957.602550	2689.871472
957.902724	2678.435615
958.202861	2670.984789
958.502960	2660.703356
958.803022	2656.907367
959.103045	2647.102323
959.403031	2642.961015
959.702979	2641.085706
960.002889	2634.280148
960.302762	2630.796711
960.602596	2625.460649
960.902393	2623.718931
961.202153	2619.444032
961.501875	2615.035543
961.801559	2613.997066
962.101205	2611.171499
962.400814	2609.742332
962.700385	2607.879625
962.999918	2607.252002
963.299414	2605.225458
963.598873	2601.779829
963.898293	2601.013574
964.197677	2602.558687
964.497022	2599.841506
964.796331	2597.535178
965.095601	2597.968717
965.394835	2597.774632
965.694030	2598.515682
965.993189	2594.185331
966.292309	2594.654158
966.591393	2596.015270
966.890439	2592.226843
967.189447	2593.262800
967.488419	2594.369333
967.787353	2592.615012
968.086249	2594.414703
968.385108	2595.979982
968.683930	2594.344127
968.982714	2594.535691
969.281462	2596.524426
969.580172	2599.665065
969.878844	2602.692278
970.177480	2604.900303
970.476078	2607.620006
970.774639	2610.697630
971.073162	2616.557972
971.371649	2612.557816
971.670098	2613.644185
971.968510	2615.612755
972.266885	2612.651077
972.565223	2616.184926
972.863524	2621.233642
973.161788	2622.009980
973.460014	2623.923097
973.758204	2622.821605
974.056356	2622.612397
974.354471	2626.884775
974.652550	2627.416617
974.950591	2623.474435
975.248595	2622.816564
975.546563	2622.498972
975.844493	2621.379835
976.142386	2620.832870
976.440243	2617.926645
976.738062	2616.058897
977.035845	2614.997735
977.333590	2609.104626
977.631299	2608.653442
977.928971	2605.926178
978.226606	2606.631940
978.524204	2604.509614
978.821765	2603.329984
979.119290	2602.299068
979.416777	2600.080960
979.714228	2601.696650
980.011642	2604.965838
980.309020	2609.134873
980.606360	2610.478340
980.903664	2619.547376
981.200931	2633.319808
981.498162	2652.680360
981.795356	2680.104237
982.092513	2714.966336
982.389633	2758.869745
982.686717	2797.923564
982.983764	2825.007163
983.280775	2842.184894
983.577749	2841.277487
983.874686	2834.771878
984.171587	2816.764876
984.468451	2802.692495
984.765279	2783.616769
985.062070	2765.062802
985.358824	2750.952613
985.655543	2728.829509
985.952224	2710.580532
986.248869	2683.607838
986.545478	2659.586740
986.842050	2636.699902
987.138586	2622.504013
987.435086	2607.867022
987.731549	2598.505600
988.027975	2595.869076
988.324366	2587.601584
988.620719	2582.764597
988.917037	2581.411047
989.213318	2576.465675
989.509563	2576.001889
989.805772	2575.384348
990.101944	2571.270766
990.398080	2575.480130
990.694180	2572.634398
990.990244	2569.269428
991.286271	2571.827814
991.582262	2572.762948
991.878217	2572.074830
992.174136	2573.524162
992.470019	2576.405181
992.765865	2575.843093
993.061676	2575.013823
993.357450	2580.458269
993.653188	2583.848445
993.948890	2587.667119
994.244556	2596.040476
994.540186	2603.914758
994.835780	2616.051336
995.131337	2632.346866
995.426859	2643.777682
995.722345	2662.747544
996.017795	2680.101716
996.313208	2693.329704
996.608586	2701.566949
996.903928	2701.067875
997.199234	2700.251208
997.494504	2699.457226
997.789738	2692.603778
998.084936	2682.370235
998.380099	2674.087619
998.675225	2660.068171
998.970316	2650.222797
999.265371	2636.561270
999.560390	2624.361678
999.855373	2616.757097
1000.150320	2601.633636
1000.445232	2599.113059
1000.740108	2589.348344
1001.034948	2582.812488
1001.329752	2579.223186
1001.624521	2576.170768
1001.919254	2568.142730
1002.213951	2565.070147
1002.508613	2564.223233
1002.803239	2564.044272
1003.097829	2557.253838
1003.392384	2564.369427
1003.686903	2562.025290
1003.981386	2556.235525
1004.275834	2556.515309
1004.570246	2557.775597
1004.864623	2553.472972
1005.158964	2556.480021
1005.453270	2555.421378
1005.747540	2553.364588
1006.041775	2552.477345
1006.335974	2553.987170
1006.630138	2553.074721
1006.924266	2554.022458
1007.218359	2552.346275
1007.512416	2550.680173
1007.806438	2551.718651
1008.100425	2550.833928
1008.394376	2549.664381
1008.688292	2551.653116
1008.982172	2552.547921
1009.276017	2551.862324
1009.569827	2547.705893
1009.863602	2553.193188
1010.157341	2548.013403
1010.451045	2551.080945
1010.744714	2546.846376
1011.038347	2551.262427
1011.331945	2548.671273
1011.625508	2548.041129
1011.919036	2548.928372
1012.212528	2546.420398
1012.505986	2549.845862
1012.799408	2546.264122
1013.092795	2546.732950
1013.386147	2545.492826
1013.679464	2545.684390
1013.972745	2546.745553
1014.265992	2545.550799
1014.559204	2547.950388
1014.852380	2548.068856
1015.145521	2544.280428
1015.438628	2546.685059
1015.731699	2547.163968
1016.024736	2546.538865
1016.317737	2546.538865
1016.610703	2548.184802
1016.903635	2544.540048
1017.196531	2543.514173
1017.489393	2545.386962
1017.782219	2541.880839
1018.075011	2548.378887
1018.367768	2545.565923
1018.660490	2548.663712
1018.953177	2548.663712
1019.245829	2548.663712
