Dividing Wavelength (nm)	Counts (n)	Blue Motor Position (mm): 39.400000	Red Motor Position (mm): 0.000000	
326.493990	2049.667619
326.888308	2049.667619
327.282561	2049.667619
327.676750	2026.425379
328.070874	2027.872190
328.464933	2034.329908
328.858929	2042.604962
329.252859	2052.384801
329.646726	2065.378375
330.040528	2081.885633
330.434265	2099.320464
330.827938	2122.784514
331.221547	2140.030302
331.615091	2159.834474
332.008571	2185.095696
332.401986	2203.992462
332.795338	2223.317725
333.188625	2242.564850
333.581847	2261.282654
333.975006	2278.964502
334.368100	2299.245063
334.761129	2313.062866
335.154095	2327.117603
335.546996	2382.492158
335.939833	2486.980153
336.332606	2498.695795
336.725315	2512.410254
337.117960	2523.364681
337.510540	2530.999509
337.903056	2539.115766
338.295508	2551.403579
338.687896	2554.231666
339.080220	2557.697459
339.472480	2564.538305
339.864676	2566.058213
340.256807	2572.762948
340.648875	2573.098184
341.040879	2574.930644
341.432818	2573.156158
341.824694	2576.634554
342.216506	2574.721436
342.608253	2573.854357
342.999937	2572.936868
343.391557	2572.049624
343.783113	2571.850499
344.174605	2567.573080
344.566033	2570.900241
344.957397	2567.900755
345.348697	2565.687688
345.739934	2563.807338
346.131106	2562.267265
346.522215	2561.402708
346.913260	2561.818603
347.304241	2559.935732
347.695159	2556.177552
348.086012	2555.791903
348.476802	2554.524053
348.867528	2552.328631
349.258191	2546.861499
349.648789	2547.123639
350.039324	2541.800181
350.429796	2547.801674
350.820203	2544.126673
351.210548	2545.840666
351.600828	2545.200439
351.991045	2544.749256
352.381198	2543.788916
352.771288	2541.643905
353.161314	2542.853782
353.551276	2543.597352
353.941175	2540.842362
354.331010	2539.456044
354.720782	2546.062476
355.110490	2545.918803
355.500135	2544.948381
355.889717	2544.560213
356.279235	2541.016281
356.668689	2544.918134
357.058080	2546.032229
357.447408	2544.474513
357.836672	2545.457538
358.225873	2543.957795
358.615010	2546.682538
359.004084	2546.213711
359.393095	2547.962991
359.782043	2547.620193
360.170927	2548.681356
360.559748	2551.910215
360.948505	2552.588250
361.337199	2548.189843
361.725830	2550.581871
362.114398	2552.618497
362.502903	2553.309135
362.891344	2550.773435
363.279722	2553.596481
363.668037	2551.448949
364.056289	2551.950544
364.444478	2551.141439
364.832603	2553.094886
365.220665	2555.648230
365.608665	2555.854918
365.996601	2556.752243
366.384474	2559.419013
366.772284	2553.956923
367.160031	2557.916750
367.547715	2559.711400
367.935336	2558.025134
368.322893	2558.667882
368.710388	2554.098076
369.097820	2556.666543
369.485189	2556.311142
369.872495	2562.184086
370.259738	2559.955896
370.646918	2561.450598
371.034035	2562.637790
371.421090	2558.879610
371.808081	2559.671071
372.195010	2561.173335
372.581875	2559.058571
372.968678	2564.707184
373.355418	2562.481514
373.742096	2562.879766
374.128710	2563.154508
374.515262	2566.706001
374.901751	2567.232802
375.288177	2565.697771
375.674540	2564.883624
376.060841	2568.422514
376.447079	2567.963769
376.833254	2570.323029
377.219367	2567.285734
377.605417	2569.035014
377.991404	2566.685837
378.377329	2571.719429
378.763191	2569.014850
379.148991	2571.303534
379.534727	2571.502659
379.920402	2570.416291
380.306013	2569.939902
380.691563	2571.127093
381.077049	2570.133986
381.462474	2567.328584
381.847835	2574.998699
382.233134	2576.009451
382.618371	2570.912844
383.003545	2574.512228
383.388657	2573.304872
383.773706	2576.626992
384.158693	2573.713205
384.543618	2573.962742
384.928480	2575.543144
385.313280	2577.426015
385.698017	2579.505491
386.082692	2578.961046
386.467305	2578.114132
386.851856	2579.757549
387.236344	2580.455748
387.620770	2577.143710
388.005133	2576.155644
388.389435	2577.516756
388.773674	2577.806622
389.157851	2583.619073
389.541965	2586.474886
389.926018	2581.544638
390.310008	2584.387848
390.693936	2586.154773
391.077802	2585.436408
391.461606	2585.832139
391.845348	2586.099320
392.229027	2588.871955
392.612645	2590.565782
392.996200	2594.230701
393.379694	2591.929415
393.763125	2594.855804
394.146494	2594.578541
394.529801	2596.950404
394.913047	2602.467947
395.296230	2603.836620
395.679351	2606.752927
396.062410	2611.572271
396.445408	2613.946654
396.828343	2620.048971
397.211217	2624.770011
397.594028	2630.763943
397.976778	2639.477578
398.359466	2645.564771
398.742092	2655.526091
399.124656	2663.647390
399.507158	2675.864626
399.889598	2684.840401
400.271977	2699.386650
400.654294	2709.935264
401.036549	2727.334807
401.418742	2737.649008
401.800874	2759.222626
402.182944	2773.350459
402.564952	2801.313740
402.946898	2815.287818
403.328783	2833.214161
403.710606	2855.165866
404.092367	2888.603839
404.474067	2914.023857
404.855705	2936.504883
405.237282	2951.950978
405.618797	2996.648369
406.000250	3033.695808
406.381642	3078.713312
406.762972	3100.975048
407.144240	3116.350567
407.525447	3158.885302
407.906593	3193.412165
408.287677	3242.581059
408.668700	3282.252419
409.049661	3325.873524
409.430560	3367.861294
409.811399	3395.378432
410.192176	3438.873508
410.572891	3502.724762
410.953545	3577.238057
411.334138	3563.715162
411.714669	3648.363697
412.095139	3649.616424
412.475547	3726.070563
412.855894	3765.888117
413.236180	3846.239068
413.616405	3845.160261
413.996568	3933.385494
414.376670	3973.324036
414.756711	3992.848424
415.136691	4073.877411
415.516609	4159.768590
415.896466	4216.781519
416.276262	4305.596568
416.655997	4410.676899
417.035670	4502.945138
417.415283	4626.811329
417.794834	4705.793607
418.174324	4714.615626
418.553753	4755.317902
418.933121	4903.341303
419.312428	4943.168939
419.691674	4934.273823
420.070859	5131.924862
420.449983	5075.789094
420.829045	5255.851547
421.208047	5234.472014
421.586988	5387.982710
421.965867	5480.669365
422.344686	5573.222429
422.723444	5737.314507
423.102141	5468.479855
423.480777	5803.038550
423.859352	5689.317681
424.237866	6016.521333
424.616319	6036.108737
424.994712	6203.230548
425.373044	6159.380072
425.751314	6445.853721
426.129524	6238.092648
426.507673	6492.711246
426.885762	6545.456839
427.263789	6602.479851
427.641756	6704.762342
428.019662	6786.159332
428.397508	6836.376786
428.775292	6857.852102
429.153016	7004.872312
429.530679	6975.822663
429.908282	7037.561675
430.285824	6995.112639
430.663305	7250.242914
431.040726	7170.103692
431.418086	7179.737337
431.795385	7321.726476
432.172624	7507.724888
432.549802	7394.901344
432.926920	7538.181019
433.303977	7502.101481
433.680974	7558.733803
434.057910	7739.970846
434.434786	7799.292624
434.811601	7763.623940
435.188355	8098.417049
435.565050	8007.915734
435.941683	8018.580295
436.318257	8329.117893
436.694770	8275.167464
437.071222	8491.390115
437.447614	8274.900283
437.823946	8249.165193
438.200218	8396.669354
438.576429	8299.654869
438.952580	8449.165410
439.328670	8463.825085
439.704700	8544.596973
440.080670	8445.621479
440.456580	8688.741205
440.832429	8687.180968
441.208218	8428.831916
441.583947	8544.249133
441.959616	8654.415989
442.335224	8682.825411
442.710773	8766.616950
443.086261	8946.543293
443.461689	8679.732663
443.837057	8834.939708
444.212365	9038.350266
444.587612	9033.800624
444.962800	8927.167618
445.337927	9061.811796
445.712995	8617.171944
446.088002	9262.600953
446.462949	9322.401641
446.837837	9335.760699
447.212664	9390.769769
447.587431	10286.345874
447.962139	11250.829510
448.336786	12000.799447
448.711374	11610.886362
449.085901	10467.482093
449.460369	10451.075658
449.834776	10372.272341
450.209124	11290.079934
450.583412	11059.081662
450.957640	11264.707806
451.331808	10859.832576
451.705917	10382.682324
452.079965	10305.877824
452.453954	10495.911680
452.827883	10459.665784
453.201752	10411.666438
453.575562	10438.137537
453.949311	10792.104674
454.323001	10870.723989
454.696632	10791.272884
455.070202	11366.045081
455.443713	11420.585324
455.817164	11579.298492
456.190556	11895.898077
456.563888	11719.747558
456.937160	11939.652771
457.310373	11446.471649
457.683526	11491.095943
458.056619	11522.542661
458.429653	11608.534663
458.802628	11782.504882
459.175542	11842.668533
459.548398	12375.442877
459.921194	12960.516672
460.293930	13278.437039
460.666607	14096.034055
461.039224	14834.603423
461.411782	15099.611840
461.784280	14704.937384
462.156719	14626.539880
462.529099	14536.509914
462.901419	13953.825626
463.273680	13605.877626
463.645882	13835.106453
464.018024	13795.291420
464.390106	14199.415518
464.762130	15360.219329
465.134094	17013.090167
465.505999	19272.918448
465.877845	21282.924789
466.249631	22183.789064
466.621358	21545.906662
466.993026	20742.664332
467.364634	20035.604696
467.736184	19331.194187
468.107674	18798.306417
468.479105	18650.759405
468.850477	18395.341784
469.221790	17966.478223
469.593043	17327.819484
469.964238	16988.151579
470.335373	17099.215760
470.706449	17966.606773
471.077467	19094.625440
471.448425	21423.668763
471.819324	22913.412904
472.190164	22401.007342
472.560945	20727.175386
472.931667	19325.679164
473.302330	19087.981199
473.672934	18638.390934
474.043479	19068.527386
474.413965	18873.638899
474.784393	18724.098111
475.154761	19346.632720
475.525070	19476.712134
475.895321	19327.040276
476.265513	19843.156127
476.635645	20431.423493
477.005719	20486.666978
477.375734	20866.033969
477.745691	21468.610650
478.115588	22128.495168
478.485427	23375.021279
478.855207	25252.099955
479.224928	26962.704608
479.594591	28140.265214
479.964194	27606.384336
480.333739	28007.677827
480.703226	28302.613053
481.072653	28798.529001
481.442022	29290.908579
481.811333	29593.934858
482.180584	29093.993548
482.549777	28898.653878
482.918912	28688.064717
483.287988	28647.475867
483.657005	28481.989910
484.025964	28126.644016
484.394864	28323.324633
484.763706	28273.510472
485.132489	27772.654193
485.501213	27842.885028
485.869879	28050.709116
486.238487	28007.647580
486.607036	28284.729560
486.975527	27987.772831
487.343959	28319.241299
487.712333	28648.123655
488.080648	28624.372259
488.448905	29051.224399
488.817104	28986.339708
489.185244	29877.645955
489.553326	31032.788550
489.921350	32950.307362
490.289315	35349.581521
490.657222	36005.869175
491.025070	36406.219970
491.392861	36031.296755
491.760593	35232.712451
492.128267	34237.034155
492.495883	33306.096877
492.863440	32481.961484
493.230939	31599.605806
493.598380	31088.117734
493.965763	30970.099281
494.333088	30519.397442
494.700354	30341.089310
495.067563	30322.794963
495.434713	30242.048281
495.801805	30532.678362
496.168839	30393.844985
496.535815	30273.321079
496.902733	30413.497923
497.269593	30242.464176
497.636395	30403.776058
498.003139	30707.797964
498.369825	30478.669960
498.736453	30880.422196
499.103023	30744.933624
499.469535	30837.166575
499.835989	30971.115074
500.202385	30840.274446
500.568723	30932.724167
500.935003	31242.646743
501.301226	31156.233805
501.667390	31836.008195
502.033497	32050.542059
502.399546	31859.895703
502.765537	31470.799284
503.131470	31938.482250
503.497345	32377.163458
503.863163	31371.957381
504.228923	32129.279841
504.594625	32548.091341
504.960269	32030.132947
505.325856	32710.449262
505.691385	32403.861408
506.056856	32707.543037
506.422270	33230.497213
506.787625	32759.610594
507.152924	33232.896803
507.518164	33438.648976
507.883347	32992.584999
508.248472	33164.674867
508.613540	33861.150601
508.978550	34094.356898
509.343503	33964.406034
509.708398	34312.633818
510.073236	34934.959220
510.438016	35046.930808
510.802738	34738.024024
511.167403	35304.102751
511.532010	35561.342750
511.896561	36048.913067
512.261053	36795.845709
512.625488	36581.936949
512.989866	36527.986520
513.354186	36586.289985
513.718449	36542.258027
514.082655	37453.131512
514.446803	37154.990112
514.810894	37768.264122
515.174927	37789.976371
515.538904	37787.619632
515.902822	38440.136503
516.266684	38159.986981
516.630488	38513.102164
516.994235	38535.449599
517.357925	39132.266762
517.721558	39393.151514
518.085133	39761.909398
518.448651	39970.933280
518.812112	39851.906597
519.175516	40017.601762
519.538863	40458.594339
519.902152	40528.399196
520.265385	41072.387587
520.628560	41123.572942
520.991678	41065.629920
521.354739	41284.413477
521.717743	41659.465240
522.080690	41567.174316
522.443580	42251.868873
522.806413	42271.690690
523.169189	42419.041096
523.531908	42640.488902
523.894569	42514.946527
524.257174	42722.473187
524.619722	43054.750761
524.982213	43190.488869
525.344647	43226.127306
525.707025	43354.971637
526.069345	43819.254344
526.431608	43721.760950
526.793815	44104.404691
527.155964	43664.523689
527.518057	43927.545891
527.880093	43775.418991
528.242072	44404.252522
528.603995	44133.527437
528.965860	44072.433693
529.327669	44289.435202
529.689421	44341.648953
530.051117	44294.093228
530.412755	44569.529271
530.774337	44646.250592
531.135862	44589.895533
531.497331	44741.876239
531.858743	44743.980921
532.220098	45149.491336
532.581396	44871.834665
532.942638	44632.599147
533.303824	44888.891409
533.664953	44951.404237
534.026025	44630.900278
534.387040	45197.062184
534.747999	45273.559173
535.108902	45582.166009
535.469748	44907.132824
535.830537	45170.089491
536.191270	45418.769610
536.551947	45165.058419
536.912567	45434.896261
537.273131	45591.766887
537.633638	45211.857971
537.994089	45414.459423
538.354483	45154.771945
538.714821	45797.889585
539.075103	46079.198572
539.435328	45949.204859
539.795497	45705.568414
540.155609	45822.140056
540.515665	46401.156904
540.875665	45713.800618
541.235609	46005.703591
541.595496	46108.535567
541.955328	46704.223512
542.315102	46119.212731
542.674821	46009.083684
543.034483	45900.996305
543.394090	45910.692964
543.753640	45893.343833
544.113134	46968.493399
544.472571	46061.945223
544.831953	47205.631797
545.191278	46460.584546
545.550548	46142.485218
545.909761	46800.590208
546.268918	46939.360571
546.628019	47374.331489
546.987064	46787.717622
547.346053	46077.933243
547.704986	47002.707710
548.063863	46630.123591
548.422684	46838.416506
548.781449	46437.581761
549.140158	46973.587485
549.498811	46732.017913
549.857408	46110.352903
550.215949	46960.573746
550.574434	46814.554205
550.932864	46732.968171
551.291237	47465.934296
551.649555	47217.024804
552.007817	47387.433448
552.366022	47056.869867
552.724173	47123.990310
553.082267	47531.454172
553.440305	47872.135349
553.798288	47126.878891
554.156215	47517.091925
554.514086	47735.694000
554.871902	47350.416256
555.229661	47519.761216
555.587365	47199.799182
555.945014	47339.572734
556.302606	47350.176801
556.660143	47459.950446
557.017625	47676.107562
557.375050	47364.332361
557.732421	47764.017723
558.089735	47841.560751
558.446994	47712.749188
558.804197	48196.463023
559.161345	48049.480621
559.518437	47406.678053
559.875474	47664.757404
560.232455	47902.480575
560.589381	47954.530488
560.946251	47751.992050
561.303065	48409.333306
561.659825	48084.471270
562.016528	47908.141791
562.373177	47489.168974
562.729770	48109.392214
563.086307	47642.909043
563.442789	48181.558852
563.799216	48018.442237
564.155587	47905.429650
564.511904	47877.151298
564.868164	47949.118810
565.224370	48243.983460
565.580520	47975.295001
565.936615	48176.968881
566.292654	47827.309409
566.648638	48185.727886
567.004567	48128.901479
567.360441	48223.589472
567.716260	47958.976786
568.072023	48306.942430
568.427732	48246.100745
568.783385	47772.350750
569.138982	48186.796611
569.494525	48326.991099
569.850013	47925.881611
570.205445	48046.856701
570.560823	47834.548506
570.916145	47692.866878
571.271412	47926.257177
571.626625	47584.587934
571.981782	47662.282197
572.336884	47239.692353
572.691931	47599.388762
573.046923	47244.902385
573.401860	47090.201976
573.756743	47091.827748
574.111570	47246.634021
574.466342	47149.453178
574.821059	47302.684090
575.175722	46806.110272
575.530330	46902.396310
575.884882	46537.348716
576.239380	46436.530681
576.593823	46522.200049
576.948211	46469.915722
577.302544	46021.031219
577.656823	45999.129926
578.011047	46268.715710
578.365216	46086.094871
578.719330	45809.068344
579.073389	45776.510052
579.427394	45836.711511
579.781344	45748.834117
580.135239	45515.655546
580.489080	45567.902064
580.842866	45068.653914
581.196597	45554.290949
581.550273	45550.976390
581.903895	45483.465258
582.257463	45921.319716
582.610975	45350.794692
582.964434	45684.733325
583.317837	45202.115941
583.671186	45151.021326
584.024481	45418.762048
584.377721	44975.826107
584.730906	45172.058061
585.084037	45308.441438
585.437113	44997.903840
585.790135	45134.173790
586.143103	44697.231781
586.496016	44857.245565
586.848874	44958.600484
587.201679	44994.735475
587.554428	44492.843239
587.907124	44744.101908
588.259765	44524.877251
588.612352	44686.927662
588.964884	44142.571267
589.317362	44454.142301
589.669786	44467.080422
590.022155	44306.456658
590.374470	44751.872847
590.726731	44330.505482
591.078937	43688.471690
591.431090	44013.227862
591.783188	43556.048140
592.135232	43351.778066
592.487222	43612.821615
592.839157	43756.776804
593.191038	43404.443000
593.542866	43192.535578
593.894639	42592.199690
594.246358	42903.052359
594.598022	42902.805343
594.949633	42463.332674
595.301190	42456.181797
595.652692	42390.283834
596.004141	42867.484498
596.355535	41779.222891
596.706876	41793.660756
597.058162	41520.341997
597.409395	42015.438757
597.760573	42226.577404
598.111698	41827.643174
598.462768	41751.249528
598.813785	41770.355502
599.164748	41370.037475
599.515657	41647.588282
599.866511	41157.673828
600.217312	41830.912362
600.568060	40780.887907
600.918753	41610.455143
601.269392	41508.351613
601.619978	41239.516960
601.970510	41450.280041
602.320988	41585.566966
602.671412	41847.646472
603.021783	41712.576317
603.372100	41278.301077
603.722363	41389.776112
604.072572	41436.633637
604.422728	41415.702767
604.772830	41202.192257
605.122878	41354.427542
605.472872	41221.825031
605.822813	41484.479229
606.172701	41218.729762
606.522534	41548.733776
606.872314	41757.157761
607.222041	41593.471495
607.571714	41920.476022
607.921333	41422.967069
608.270899	41615.818930
608.620411	42024.727083
608.969870	41741.149577
609.319276	41765.868875
609.668627	41795.115129
610.017926	42208.794734
610.367171	42326.883763
610.716362	42373.247255
611.065500	42266.004268
611.414585	42481.291784
611.763616	42668.835310
612.112594	42555.086715
612.461518	42678.431147
612.810389	43046.831108
613.159207	42857.661810
613.507971	42838.422246
613.856682	43328.787884
614.205340	43155.871266
614.553945	43837.271428
614.902496	43160.325125
615.250994	43585.067543
615.599439	43649.987522
615.947830	43761.303760
616.296169	43772.555616
616.644454	43793.683092
616.992686	43971.328312
617.340864	44412.058749
617.688990	43929.126292
618.037063	44608.328512
618.385082	44426.536942
618.733048	44766.966062
619.080961	44622.673115
619.428821	44657.015976
619.776628	44670.458212
620.124382	44490.047919
620.472083	44604.209889
620.819731	44713.905397
621.167326	44277.170075
621.514868	44252.549079
621.862357	43729.231940
622.209793	43804.844206
622.557176	43386.315011
622.904506	43126.594765
623.251783	42777.482258
623.599007	42459.458547
623.946179	42388.453895
624.293297	42119.326856
624.640363	41566.587022
624.987376	41416.035483
625.334336	41214.222971
625.681243	40791.408795
626.028097	40717.893648
626.374899	40531.139063
626.721647	40501.938179
627.068343	40284.235951
627.414987	39993.747022
627.761577	39738.047096
628.108115	40073.719887
628.454600	39302.279675
628.801032	39543.375378
629.147412	39420.340978
629.493739	39331.979633
629.840014	38904.570445
630.186236	39318.189557
630.532405	38779.224676
630.878521	39001.037965
631.224585	38790.000142
631.570597	38416.440560
631.916556	38599.467212
632.262462	38498.966769
632.608316	38421.199409
632.954117	38286.837535
633.299866	38249.381762
633.645562	38165.035697
633.991206	37636.803432
634.336797	37232.588593
634.682336	37115.311190
635.027823	36882.966930
635.373257	36747.496003
635.718639	36430.667045
636.063968	36315.138922
636.409245	35670.647568
636.754470	35625.647708
637.099642	35396.066000
637.444762	34836.167728
637.789829	34972.049509
638.134845	34603.485710
638.479808	34499.005276
638.824719	34466.320955
639.169577	33949.275011
639.514383	34042.077612
639.859137	33654.004548
640.203839	33823.188192
640.548489	33517.389279
640.893086	33525.661812
641.237632	33254.190636
641.582125	33366.628532
641.926566	33140.184942
642.270955	33181.479554
642.615292	33093.866821
642.959576	32982.527897
643.303809	32997.895854
643.647990	33077.987186
643.992118	33023.799823
644.336195	32870.654611
644.680219	32965.884527
645.024192	33149.667353
645.368112	33692.161041
645.711981	33706.656879
646.055797	34419.365128
646.399562	34236.426696
646.743274	35091.693734
647.086935	35503.613976
647.430544	35446.293537
647.774101	35497.766238
648.117606	35794.768337
648.461059	35930.440911
648.804460	35539.779214
649.147810	35034.763983
649.491108	34680.113769
649.834354	34535.828384
650.177548	33708.950604
650.520690	33221.178640
650.863781	33205.934191
651.206820	33018.776313
651.549807	32621.230921
651.892742	32038.874308
652.235626	31949.439198
652.578458	31813.648157
652.921238	31115.292074
653.263967	31440.386003
653.606644	31137.268984
653.949269	31039.682328
654.291843	30638.842542
654.634365	31016.321621
654.976836	30532.958146
655.319255	30627.094133
655.661622	30491.093884
656.003938	30365.062517
656.346203	30173.307107
656.688416	30411.985577
657.030577	30193.259994
657.372687	30007.841315
657.714746	30177.713076
658.056753	30364.518073
658.398708	29746.046634
658.740612	29810.258331
659.082465	30025.107267
659.424266	29911.421686
659.766016	29925.486505
660.107715	29781.659865
660.449362	29882.253569
660.790958	29858.721463
661.132503	29797.819284
661.473996	29863.379489
661.815438	29942.729772
662.156829	30055.737317
662.498168	29865.189264
662.839456	29838.894605
663.180693	29959.108480
663.521879	30041.768280
663.863013	30000.372845
664.204097	29980.374588
664.545129	30400.688352
664.886110	30330.364255
665.227040	30426.972928
665.567918	30438.880133
665.908746	30505.985453
666.249522	30593.119276
666.590248	30611.998397
666.930922	30715.377339
667.271545	30718.293647
667.612118	30778.956372
667.952639	30582.023697
668.293109	30612.900764
668.633528	30489.460550
668.973896	30454.331270
669.314213	30425.029563
669.654480	30238.607694
669.994695	30219.655476
670.334859	30153.351700
670.674973	29969.664657
671.015035	30166.100778
671.355047	30088.615723
671.695008	30028.804953
672.034918	29939.942013
672.374777	30033.589008
672.714585	29901.006662
673.054342	30028.237823
673.394049	29894.175898
673.733705	30102.196591
674.073310	29807.394955
674.412864	29887.420752
674.752368	29580.868187
675.091820	29808.982919
675.431223	29411.503062
675.770574	29197.095227
676.109875	29047.619974
676.449125	28837.255145
676.788324	28732.724299
677.127473	28253.353418
677.466571	28149.646801
677.805619	27885.379434
678.144616	27827.499426
678.483562	27766.380477
678.822458	27448.686962
679.161303	27390.738898
679.500098	27309.606568
679.838842	27227.299649
680.177535	27314.725860
680.516179	27558.168220
680.854771	27667.843563
681.193314	28440.760833
681.531805	29440.736713
681.870247	30175.595791
682.208638	30902.688972
682.546978	31174.046722
682.885268	31326.937356
683.223508	30892.679761
683.561697	30623.928288
683.899836	30467.423146
684.237925	30045.095442
684.575963	29908.749874
684.913951	29521.732932
685.251889	29703.746312
685.589776	29725.972759
685.927614	29736.019779
686.265401	29904.454811
686.603137	30011.455822
686.940824	30503.890853
687.278460	30832.382520
687.616046	31002.634888
687.953582	31664.205672
688.291068	31577.981777
688.628504	31928.730138
688.965889	31927.265683
689.303224	31663.457061
689.640510	31388.396583
689.977745	30774.116864
690.314930	30040.485306
690.652065	29601.617576
690.989150	28948.203379
691.326185	28104.324308
691.663170	27455.540410
692.000105	26736.465185
692.336990	26113.560051
692.673825	25704.805653
693.010610	25210.785179
693.347345	24709.555855
693.684030	24072.996756
694.020665	23874.760943
694.357251	23178.925436
694.693786	23200.320093
695.030272	22953.162402
695.366707	22462.789203
695.703093	22182.637160
696.039429	22256.759766
696.375716	22010.310357
696.711952	22015.371676
697.048139	21873.392619
697.384276	21711.347249
697.720363	21818.998569
698.056400	21718.982076
698.392388	21552.896222
698.728326	21551.668701
699.064214	21397.542984
699.400053	21398.122716
699.735842	21022.466014
700.071581	20805.363682
700.407270	20567.650593
700.742910	20390.597709
701.078501	20143.601335
701.414042	19942.182033
701.749533	19628.050093
702.084974	19318.243462
702.420366	19540.848213
702.755709	19143.605290
703.091002	18831.603238
703.426246	18903.366583
703.761440	18824.838009
704.096584	18596.498946
704.431679	18527.039408
704.766725	18466.454821
705.101721	18402.762362
705.436668	18517.680505
705.771565	18240.858145
706.106413	18549.170073
706.441212	18621.407287
706.775961	18715.626452
707.110661	18800.905131
707.445311	19158.093567
707.779913	19035.207880
708.114465	19333.434980
708.448967	19639.090220
708.783421	20258.060733
709.117825	20629.261055
709.452180	20838.426090
709.786485	21292.828136
710.120742	22057.523283
710.454949	22156.145897
710.789107	22661.405623
711.123216	23376.198389
711.457275	23600.635599
711.791286	24156.246370
712.125247	24320.076309
712.459159	24045.628332
712.793023	24820.667927
713.126837	23786.084526
713.460602	24059.040321
713.794318	23720.453744
714.127985	23463.836328
714.461602	22569.961613
714.795171	22552.095764
715.128691	21579.200962
715.462162	21061.479504
715.795584	20636.734566
716.128957	20358.936742
716.462281	19985.853549
716.795556	19707.488595
717.128782	19217.286795
717.461960	18619.605074
717.795088	18589.912678
718.128167	18233.535869
718.461198	17772.285415
718.794180	17645.104666
719.127113	17320.499728
719.459997	17115.702853
719.792833	16744.222747
720.125619	16794.268802
720.458357	16451.515711
720.791046	16309.793752
721.123686	16165.969633
721.456278	15939.500838
721.788821	15936.365240
722.121315	15662.063457
722.453761	15760.764208
722.786158	15645.541075
723.118506	15732.049795
723.450805	15606.487256
723.783056	15784.104750
724.115259	15672.407904
724.447412	15674.918399
724.779518	15887.045112
725.111574	15932.034889
725.443582	16201.920622
725.775542	16156.789692
726.107453	16672.340934
726.439315	16588.816577
726.771129	17004.757139
727.102895	17417.189059
727.434612	17688.360286
727.766281	17847.690995
728.097901	18174.340120
728.429473	18263.344212
728.760996	18285.167367
729.092471	18412.345596
729.423897	18293.371844
729.755276	18172.248041
730.086606	18287.420762
730.417887	18863.150778
730.749120	19417.735675
731.080305	19630.386667
731.411442	20030.414828
731.742530	20146.157200
732.073570	20313.762962
732.404562	20631.464039
732.735506	20485.752008
733.066401	20287.329672
733.397249	19793.568818
733.728048	19184.632721
734.058798	18319.563159
734.389501	17556.642498
734.720156	17033.910132
735.050762	16462.727237
735.381320	16068.319963
735.711831	15795.558252
736.042293	15425.829946
736.372707	15456.734740
736.703073	15245.626340
737.033391	15442.458192
737.363661	15422.623772
737.693883	15544.712957
738.024056	15741.592700
738.354182	15960.719054
738.684260	16314.550081
739.014290	16576.261583
739.344272	16812.401832
739.674207	17163.200605
740.004093	17346.406218
740.333931	17390.702837
740.663722	17491.528434
740.993464	17524.132097
741.323159	17374.112399
741.652806	17081.496104
741.982405	16920.819407
742.311956	16568.596509
742.641460	16465.857793
742.970915	16136.494007
743.300323	15783.754390
743.629683	15576.925930
743.958996	15264.283651
744.288260	14944.175422
744.617477	14636.947342
744.946647	14596.403863
745.275768	14285.619249
745.604842	14078.079986
745.933869	13902.063058
746.262847	13870.144993
746.591778	13786.285398
746.920662	13674.374304
747.249498	13677.020909
747.578286	13834.922451
747.907027	14003.082740
748.235720	14274.894194
748.564365	14338.442979
748.892963	14258.752419
749.221514	14370.940778
749.550017	14229.629673
749.878473	14204.895252
750.206881	13982.484586
750.535242	13905.463317
750.863555	13824.391480
751.191821	13718.930542
751.520039	13737.703799
751.848210	13661.370647
752.176334	13717.672774
752.504411	13635.988438
752.832440	13461.317498
753.160421	13577.175816
753.488356	13461.415801
753.816243	13368.537582
754.144082	13208.690155
754.471875	13155.019511
754.799620	13122.153708
755.127318	13096.857198
755.454969	13094.349224
755.782572	13056.689285
756.110129	13076.513622
756.437638	12977.707007
756.765100	12980.835043
757.092515	13008.906708
757.419882	13039.917366
757.747203	13052.343810
758.074477	13145.527018
758.401703	13117.659520
758.728882	13313.989777
759.056014	13359.909647
759.383099	13524.984751
759.710138	13656.153053
760.037129	13765.178087
760.364073	13834.549405
760.690970	13859.223333
761.017820	13873.520045
761.344623	14102.947998
761.671379	14470.813597
761.998088	15169.777139
762.324751	16927.806447
762.651366	20299.743513
762.977935	24750.674026
763.304456	27717.088075
763.630931	28824.420367
763.957359	27662.111772
764.283740	25423.536995
764.610074	23180.851157
764.936362	20553.686597
765.262602	18685.883645
765.588796	16751.192142
765.914943	15460.704648
766.241044	14347.156614
766.567097	13557.553125
766.893104	12829.423987
767.219064	12359.275897
767.544978	11873.855631
767.870845	11490.864050
768.196665	11264.097827
768.522438	11033.883454
768.848165	10831.637403
769.173846	10620.339960
769.499479	10489.161575
769.825066	10326.244086
770.150607	10090.275236
770.476101	10011.209779
770.801548	9895.270802
771.126949	9727.697807
771.452303	9615.096074
771.777611	9421.641796
772.102872	9409.515300
772.428087	9271.211244
772.753256	9112.465310
773.078378	9018.674642
773.403453	8838.556736
773.728482	8728.936846
774.053465	8652.187799
774.378401	8548.211480
774.703291	8429.507431
775.028135	8308.444121
775.352932	8271.018595
775.677683	8162.515320
776.002388	8057.296357
776.327046	8069.745486
776.651658	7968.294786
776.976224	7872.086885
777.300743	7868.043880
777.625216	7783.133205
777.949643	7735.469095
778.274024	7749.934686
778.598359	7666.571646
778.922647	7681.314500
779.246889	7625.854246
779.571086	7634.456975
779.895236	7646.817884
780.219339	7651.155797
780.543397	7650.840725
780.867409	7729.210503
781.191374	7741.508398
781.515294	7709.129067
781.839167	7798.312119
782.162995	7778.074407
782.486776	7717.356230
782.810511	7677.543717
783.134201	7584.549552
783.457844	7583.790858
783.781441	7529.079216
784.104993	7464.595296
784.428498	7441.388345
784.751958	7430.600275
785.075372	7396.025522
785.398739	7341.477717
785.722061	7387.090077
786.045337	7388.811631
786.368568	7542.244189
786.691752	7570.661173
787.014891	7903.929333
787.337983	8250.710307
787.661030	8841.231068
787.984031	9468.642993
788.306987	9875.322957
788.629897	10089.539228
788.952760	10033.592502
789.275579	9825.997787
789.598351	9426.982898
789.921078	9074.991892
790.243759	8663.026280
790.566395	8375.846868
790.888984	8125.646841
791.211529	7919.682939
791.534027	7694.761778
791.856480	7492.692167
792.178888	7418.118378
792.501249	7315.525857
792.823566	7158.433420
793.145836	7163.167064
793.468062	7134.026674
793.790241	7088.797442
794.112375	7148.121740
794.434464	7298.564894
794.756507	7339.554516
795.078505	7495.343814
795.400457	7804.164899
795.722364	8153.544587
796.044226	8440.008154
796.366042	8717.674908
796.687812	8667.384357
797.009538	8748.292356
797.331218	8644.421901
797.652852	8568.076147
797.974442	8418.202643
798.295986	8324.669075
798.617484	8136.079509
798.938938	8000.686720
799.260346	7892.793425
799.581709	7690.244904
799.903026	7612.480065
800.224299	7514.822833
800.545526	7335.647622
800.866708	7246.020948
801.187845	7175.601070
801.508936	7068.403454
801.829983	7028.805190
802.150984	6877.618466
802.471940	6832.096847
802.792851	6818.568910
803.113717	6787.830475
803.434538	6748.519557
803.755314	6691.950249
804.076045	6690.415218
804.396731	6641.639534
804.717372	6667.916548
805.037967	6669.496950
805.358518	6710.746191
805.679024	6794.699047
805.999485	6797.766589
806.319901	6839.953485
806.640272	6856.493511
806.960598	6945.215298
807.280879	6945.984074
807.601115	7019.496700
807.921306	6967.174564
808.241453	6984.077553
808.561554	7007.317272
808.881611	6972.009031
809.201623	6982.461863
809.521590	6925.378357
809.841513	6909.304638
810.161390	6955.446320
810.481223	6819.809034
810.801011	6802.280942
811.120755	6780.190606
811.440453	6701.626744
811.760107	6672.060377
812.079716	6645.185986
812.399281	6575.895326
812.718801	6566.191105
813.038276	6521.783581
813.357707	6462.882739
813.677093	6505.871178
813.996434	6404.967443
814.315731	6454.325380
814.634983	6445.773063
814.954191	6458.292768
815.273354	6564.124232
815.592473	6624.938191
815.911547	6751.456029
816.230577	6834.037691
816.549562	6981.776266
816.868502	7079.057933
817.187399	7181.269847
817.506250	7333.923547
817.825058	7368.266408
818.143821	7636.349928
818.462539	7904.536793
818.781213	8277.294831
819.099843	8817.046132
819.418429	9812.046393
819.736970	10778.324680
820.055466	11956.578445
820.373919	13493.449813
820.692327	15836.646176
821.010691	19966.762699
821.329011	28934.763663
821.647286	41912.034610
821.965517	55401.937971
822.283704	60850.843025
822.601847	62884.696544
822.919945	60242.166548
823.237999	56127.753219
823.556010	50032.307581
823.873976	43338.761807
824.191897	36781.924563
824.509775	31904.124266
824.827609	27335.371906
825.145398	24713.440064
825.463144	23302.980670
825.780845	23587.284103
826.098502	25324.798435
826.416116	29068.873479
826.733685	32683.673173
827.051210	33849.157696
827.368692	32080.506677
827.686129	28158.698193
828.003522	24059.665424
828.320872	20353.676298
828.638177	17499.937079
828.955439	15339.109497
829.272656	13516.936548
829.589830	12039.616332
829.906960	10764.169120
830.224046	9821.753135
830.541088	9059.848266
830.858086	8598.522196
831.175041	8209.879481
831.491952	8094.401770
831.808819	8126.551728
832.125642	8532.931743
832.442421	9405.686544
832.759157	11184.742503
833.075849	14088.610956
833.392497	17298.001059
833.709101	19486.292847
834.025662	19363.318940
834.342179	17688.236778
834.658653	15504.597975
834.975083	13582.824429
835.291469	11968.669653
835.607811	10642.770574
835.924110	9728.398528
836.240366	8853.070218
836.556578	8051.730923
836.872746	7400.426449
837.188871	6896.295941
837.504952	6477.154246
837.820990	6163.412995
838.136984	5941.645075
838.452935	5848.126630
838.768842	5876.314242
839.084706	6291.733045
839.400526	7485.311918
839.716303	9068.370337
840.032037	10168.178707
840.347727	10109.101425
840.663373	9147.208942
840.978977	8107.780992
841.294537	7294.499204
841.610054	6689.061668
841.925527	6250.350213
842.240957	5892.080451
842.556344	5556.715171
842.871687	5270.299494
843.186987	4990.560826
843.502244	4763.207308
843.817458	4595.518367
844.132629	4460.221359
844.447756	4366.337431
844.762840	4287.813898
845.077881	4212.718349
845.392879	4145.444151
845.707833	4098.604270
846.022745	4051.802198
846.337613	4025.008465
846.652438	3982.861899
846.967221	3964.983447
847.281960	3932.004218
847.596656	3912.827669
847.911309	3895.559196
848.225919	3871.439796
848.540485	3849.455324
848.855009	3837.585927
849.169490	3816.748318
849.483928	3803.885814
849.798323	3796.845842
850.112675	3774.543778
850.426984	3783.572484
850.741251	3769.621091
851.055474	3766.004063
851.369654	3768.217130
851.683792	3767.947428
851.997887	3773.659055
852.311938	3770.384826
852.625947	3773.207872
852.939914	3765.068929
853.253837	3775.166360
853.567718	3773.613685
853.881555	3761.300667
854.195350	3780.482257
854.509103	3775.615023
854.822812	3771.244343
855.136479	3762.399638
855.450103	3773.298613
855.763685	3756.748505
856.077224	3763.922067
856.390720	3780.651136
856.704173	3798.572437
857.017584	3812.029798
857.330953	3824.206705
857.644278	3841.996937
857.957561	3850.246785
858.270802	3848.426928
858.584000	3853.064790
858.897155	3844.825024
859.210268	3827.612004
859.523339	3809.431083
859.836367	3808.218685
860.149352	3798.683343
860.462295	3792.391983
860.775195	3779.854633
861.088054	3777.565949
861.400869	3774.574025
861.713642	3775.478912
862.026373	3787.197074
862.339062	3792.800316
862.651708	3805.856905
862.964312	3841.596165
863.276873	3858.844473
863.589392	3914.029984
863.901869	3954.911221
864.214303	4005.085825
864.526696	4039.894993
864.839045	4083.677414
865.151353	4110.483749
865.463619	4117.138073
865.775842	4124.982108
866.088023	4146.591014
866.400162	4133.300012
866.712258	4143.105056
867.024313	4145.292917
867.336325	4143.853667
867.648296	4153.731808
867.960224	4149.262825
868.272110	4162.866379
868.583954	4161.316224
868.895755	4179.608051
869.207515	4176.195190
869.519233	4217.716653
869.830909	4231.635279
870.142542	4253.176130
870.454134	4266.656175
870.765684	4297.412255
871.077191	4334.346268
871.388657	4358.463148
871.700081	4400.357657
872.011463	4439.439202
872.322803	4474.283658
872.634101	4506.284903
872.945357	4544.708577
873.256571	4602.079428
873.567744	4628.076659
873.878874	4648.747910
874.189963	4686.380124
874.501010	4692.704251
874.812015	4692.147204
875.122979	4739.055140
875.433900	4741.636211
875.744780	4748.270369
876.055618	4781.383188
876.366415	4782.083909
876.677169	4799.226352
876.987882	4847.515565
877.298554	4903.641252
877.609183	4974.640862
877.919771	5090.136218
878.230317	5235.044185
878.540822	5452.123831
878.851285	5775.024858
879.161707	6235.509057
879.472087	6999.695047
879.782425	8222.439516
880.092722	10401.934490
880.402977	13727.306419
880.713191	17508.789345
881.023363	21249.176785
881.333494	23489.876408
881.643583	24739.200360
881.953631	24739.689352
882.263637	23902.320931
882.573602	22439.914967
882.883526	20899.265255
883.193408	19209.702379
883.503248	17507.433275
883.813048	15941.718946
884.122806	14506.535213
884.432522	13021.973379
884.742197	11744.058523
885.051831	10641.056582
885.361424	9625.352302
885.670975	8803.571128
885.980485	8098.701874
886.289954	7514.406938
886.599382	7039.195008
886.908768	6655.837944
887.218113	6288.632736
887.527417	5993.891594
887.836680	5723.080809
888.145901	5505.033261
888.455082	5338.607129
888.764221	5186.588614
889.073319	5052.841761
889.382376	4975.260924
889.691392	4916.917130
890.000366	4887.953181
890.309300	4871.408114
890.618193	4873.772415
890.927044	4861.545096
891.235855	4882.526379
891.544625	4914.774640
891.853353	4977.829392
892.162041	5091.809881
892.470687	5283.167039
892.779293	5527.852044
893.087858	5903.717954
893.396381	6484.685729
893.704864	7286.786238
894.013306	8431.549098
894.321707	9610.601886
894.630068	10429.171844
894.938387	10636.327979
895.246665	10404.543287
895.554903	9811.993461
895.863100	9108.422304
896.171256	8553.638282
896.479371	8043.871764
896.787446	7550.410858
897.095480	7127.884028
897.403473	6794.822555
897.711425	6480.551983
898.019336	6212.508792
898.327207	5936.782883
898.635038	5708.975661
898.942827	5461.207990
899.250576	5264.890336
899.558284	5072.643414
899.865952	4947.196821
900.173579	4795.750477
900.481165	4686.533879
900.788711	4596.357719
901.096216	4525.562275
901.403681	4462.961226
901.711105	4431.164148
902.018489	4418.087395
902.325832	4490.085155
902.633135	4609.951190
902.940397	4946.153302
903.247619	5742.315332
903.554800	7176.170720
903.861941	9102.070450
904.169041	10633.993925
904.476101	11290.853751
904.783121	10942.068919
905.090100	10205.750427
905.397039	9361.248772
905.703938	8609.905121
906.010796	7918.853669
906.317614	7358.594954
906.624391	6816.663354
906.931129	6391.169805
907.237826	5984.935984
907.544483	5606.448674
907.851099	5231.777517
908.157675	4872.953227
908.464211	4546.692271
908.770707	4308.217968
909.077163	4104.157101
909.383578	3958.245944
909.689954	3841.157585
909.996289	3766.722428
910.302584	3706.669682
910.608839	3671.532840
910.915054	3639.037562
911.221229	3625.282774
911.527363	3638.772902
911.833458	3647.932678
912.139513	3678.250178
912.445527	3707.083057
912.751502	3785.954429
913.057436	3891.811098
913.363331	4027.370246
913.669186	4230.422882
913.975000	4492.580526
914.280775	4915.230864
914.586510	5499.432539
914.892205	6298.377286
915.197859	7335.524114
915.503475	8561.094149
915.809050	9617.997258
916.114585	10273.269121
916.420081	10536.997084
916.725536	10504.277475
917.030952	10063.668026
917.336328	9658.099637
917.641665	9250.282894
917.946961	8765.258359
918.252218	8348.032302
918.557435	7833.945515
918.862612	7400.060965
919.167750	7027.446599
919.472848	6597.378203
919.777906	6226.588735
920.082925	5860.253126
920.387904	5492.654708
920.692843	5221.622113
920.997743	4972.339576
921.302603	4740.605295
921.607423	4575.648659
921.912204	4406.754882
922.216946	4285.139566
922.521647	4167.723531
922.826310	4060.571285
923.130932	3969.059219
923.435516	3868.278992
923.740059	3798.050678
924.044564	3718.760890
924.349028	3660.081859
924.653454	3594.403186
924.957840	3527.398690
925.262186	3478.436483
925.566493	3417.667894
925.870761	3361.627907
926.174989	3323.877227
926.479178	3288.831125
926.783328	3243.775813
927.087438	3215.252964
927.391509	3181.091585
927.695541	3148.553458
927.999533	3122.299128
928.303486	3102.467229
928.607400	3086.075917
928.911275	3075.993610
929.215110	3056.864952
929.518906	3047.395144
929.822663	3046.767520
930.126381	3043.949515
930.430060	3047.369938
930.733699	3049.756925
931.037299	3062.347206
931.340861	3059.471228
931.644383	3068.283165
931.947866	3066.914492
932.251309	3061.202864
932.554714	3061.444840
932.858080	3056.212122
933.161407	3046.026471
933.464694	3039.543547
933.767943	3032.785880
934.071153	3026.507123
934.374323	3016.772655
934.677455	3010.501460
934.980548	3004.464678
935.283602	2998.611898
935.586617	2994.982268
935.889593	3008.898373
936.192530	3009.871315
936.495428	3021.039992
936.798287	3045.275339
937.101108	3076.379258
937.403890	3126.241311
937.706632	3185.512677
938.009336	3264.865480
938.312002	3338.146213
938.614628	3402.945204
938.917216	3454.629634
939.219765	3487.008965
939.522275	3519.678163
939.824747	3526.934904
940.127179	3521.233359
940.429573	3522.632279
940.731929	3517.117257
941.034246	3504.317767
941.336524	3489.655571
941.638763	3477.309785
941.940964	3461.606591
942.243126	3418.691248
942.545250	3397.967065
942.847335	3364.458515
943.149381	3323.733554
943.451389	3295.351858
943.753359	3257.175200
944.055290	3233.201992
944.357182	3206.246943
944.659036	3194.344779
944.960851	3183.720547
945.262628	3168.604647
945.564367	3169.000378
945.866067	3163.573576
946.167729	3159.860766
946.469352	3157.405724
946.770937	3153.907163
947.072484	3136.706746
947.373992	3144.487767
947.675462	3138.705564
947.976893	3118.576236
948.278286	3110.495267
948.579641	3097.544542
948.880958	3094.270313
949.182236	3099.810541
949.483476	3091.971547
949.784678	3091.590940
950.085841	3091.812751
950.386967	3104.667693
950.688054	3122.533542
950.989103	3139.986017
951.290114	3159.777587
951.591087	3189.908563
951.892021	3217.249261
952.192917	3243.995103
952.493776	3270.924947
952.794596	3278.169085
953.095378	3284.740229
953.396122	3279.429373
953.696828	3272.767488
953.997496	3259.451281
954.298126	3237.698702
954.598718	3217.478634
954.899272	3192.557690
955.199788	3163.687002
955.500266	3135.489308
955.800706	3096.516147
956.101108	3058.132802
956.401472	3029.196579
956.701798	2992.839777
957.002087	2956.165383
957.302337	2928.673450
957.602550	2899.444840
957.902724	2869.228164
958.202861	2847.092458
958.502960	2823.734271
958.803022	2804.277938
959.103045	2780.372787
959.403031	2765.408121
959.702979	2748.888260
960.002889	2737.921230
960.302762	2725.225084
960.602596	2711.508104
960.902393	2701.836651
961.202153	2695.804910
961.501875	2684.910977
961.801559	2679.406037
962.101205	2677.674400
962.400814	2667.287103
962.700385	2662.694612
962.999918	2656.022645
963.299414	2649.499392
963.598873	2647.563588
963.898293	2639.298617
964.197677	2643.840696
964.497022	2642.827424
964.796331	2635.510190
965.095601	2632.548512
965.394835	2631.880559
965.694030	2629.153295
965.993189	2628.029117
966.292309	2627.310753
966.591393	2623.769342
966.890439	2626.017697
967.189447	2624.989302
967.488419	2625.962244
967.787353	2628.916360
968.086249	2630.020373
968.385108	2629.927112
968.683930	2633.561784
968.982714	2636.755355
969.281462	2640.551343
969.580172	2646.257930
969.878844	2652.506440
970.177480	2658.606236
970.476078	2666.087308
970.774639	2674.168278
971.073162	2681.488033
971.371649	2689.271575
971.670098	2692.510516
971.968510	2700.170549
972.266885	2702.371013
972.565223	2707.661704
972.863524	2709.647919
973.161788	2711.576160
973.460014	2715.553630
973.758204	2720.133519
974.056356	2722.671740
974.354471	2725.151987
974.652550	2722.540670
974.950591	2722.714589
975.248595	2721.237531
975.546563	2717.005483
975.844493	2712.455841
976.142386	2706.315716
976.440243	2700.750282
976.738062	2699.374047
977.035845	2695.310877
977.333590	2686.723272
977.631299	2681.732529
977.928971	2676.731705
978.226606	2671.269614
978.524204	2667.375323
978.821765	2661.570434
979.119290	2664.020435
979.416777	2664.824499
979.714228	2666.593944
980.011642	2671.183915
980.309020	2679.080882
980.606360	2693.347348
980.903664	2717.887685
981.200931	2753.455546
981.498162	2803.055458
981.795356	2876.762169
982.092513	2965.615026
982.389633	3072.023701
982.686717	3169.045748
982.983764	3241.020822
983.280775	3292.090231
983.577749	3299.168011
983.874686	3290.595529
984.171587	3256.431629
984.468451	3219.091803
984.765279	3172.330060
985.062070	3125.767442
985.358824	3079.043508
985.655543	3022.857328
985.952224	2969.219451
986.248869	2907.019174
986.545478	2845.075996
986.842050	2793.867955
987.138586	2743.068248
987.435086	2707.177753
987.731549	2674.511076
988.027975	2650.646254
988.324366	2632.543471
988.620719	2618.397993
988.917037	2602.629264
989.213318	2598.364447
989.509563	2590.248190
989.805772	2584.206367
990.101944	2579.311407
990.398080	2576.674883
990.694180	2574.005592
990.990244	2577.539441
991.286271	2575.651529
991.582262	2579.233269
991.878217	2581.826942
992.174136	2582.520101
992.470019	2586.575709
992.765865	2590.593509
993.061676	2594.414703
993.357450	2601.331167
993.653188	2611.254678
993.948890	2628.903757
994.244556	2646.497384
994.540186	2672.867660
994.835780	2704.962166
995.131337	2739.736045
995.426859	2781.209618
995.722345	2828.546053
996.017795	2880.737118
996.313208	2915.195926
996.608586	2943.663321
996.903928	2957.143367
997.199234	2956.871144
997.494504	2956.508181
997.789738	2940.434462
998.084936	2915.495874
998.380099	2884.409599
998.675225	2855.871627
998.970316	2821.032213
999.265371	2787.001904
999.560390	2749.493199
999.855373	2721.955896
1000.150320	2694.403469
1000.445232	2666.293996
1000.740108	2644.395223
1001.034948	2627.555249
1001.329752	2614.566716
1001.624521	2601.515169
1001.919254	2590.747264
1002.213951	2582.421798
1002.508613	2570.852350
1002.803239	2565.672565
1003.097829	2558.267110
1003.392384	2556.916081
1003.686903	2552.593291
1003.981386	2546.508618
1004.275834	2547.216901
1004.570246	2540.824717
1004.864623	2539.022505
1005.158964	2535.506300
1005.453270	2534.014119
1005.747540	2531.896834
1006.041775	2531.319622
1006.335974	2526.936339
1006.630138	2527.213602
1006.924266	2527.982378
1007.218359	2524.057840
1007.512416	2521.673374
1007.806438	2519.377128
1008.100425	2522.391738
1008.394376	2518.850328
1008.688292	2524.083046
1008.982172	2520.362674
1009.276017	2524.453570
1009.569827	2522.122037
1009.863602	2519.823271
1010.157341	2519.777900
1010.451045	2516.692714
1010.744714	2519.140194
1011.038347	2518.179854
1011.331945	2516.075173
1011.625508	2517.184227
1011.919036	2515.319000
1012.212528	2512.236334
1012.505986	2509.695592
1012.799408	2512.339678
1013.092795	2512.349760
1013.386147	2509.143586
1013.679464	2511.089472
1013.972745	2511.477640
1014.265992	2508.578977
1014.559204	2512.054853
1014.852380	2508.064779
1015.145521	2511.515449
1015.438628	2508.909172
1015.731699	2511.505367
1016.024736	2513.307579
1016.317737	2512.228772
1016.610703	2514.731705
1016.903635	2513.766324
1017.196531	2518.562982
1017.489393	2515.127436
1017.782219	2520.095493
1018.075011	2519.583816
1018.367768	2523.311749
1018.660490	2521.310411
1018.953177	2521.310411
1019.245829	2521.310411
