Dividing Wavelength (nm)	Counts (n)	Blue Motor Position (mm): 1.100000	Red Motor Position (mm): 0.000000	
326.493990	2143.654891
326.888308	2143.654891
327.282561	2143.654891
327.676750	2114.340582
328.070874	2110.209356
328.464933	2114.073400
328.858929	2119.737137
329.252859	2129.053189
329.646726	2140.327730
330.040528	2155.476397
330.434265	2170.519200
330.827938	2187.812878
331.221547	2208.927751
331.615091	2225.044320
332.008571	2242.653070
332.401986	2264.471184
332.795338	2282.362239
333.188625	2301.072482
333.581847	2321.100986
333.975006	2343.413133
334.368100	2360.686647
334.761129	2377.236755
335.154095	2394.706873
335.546996	2410.586508
335.939833	2423.481779
336.332606	2437.851588
336.725315	2449.491613
337.117960	2462.767491
337.510540	2471.382823
337.903056	2481.845738
338.295508	2489.170535
338.687896	2497.712770
339.080220	2506.519666
339.472480	2512.014523
339.864676	2516.700276
340.256807	2521.121368
340.648875	2522.721934
341.040879	2525.613036
341.432818	2527.785773
341.824694	2528.690660
342.216506	2529.552698
342.608253	2527.233767
342.999937	2529.230064
343.391557	2530.782739
343.783113	2528.678057
344.174605	2527.939528
344.566033	2524.183869
344.957397	2525.212264
345.348697	2523.412572
345.739934	2521.050792
346.131106	2519.445184
346.522215	2516.271778
346.913260	2513.083248
347.304241	2514.078876
347.695159	2511.918741
348.086012	2513.572240
348.476802	2507.124604
348.867528	2505.607217
349.258191	2504.974552
349.648789	2505.745848
350.039324	2501.692761
350.429796	2502.847185
350.820203	2496.795280
351.210548	2499.487256
351.600828	2498.693274
351.991045	2498.632780
352.381198	2496.417193
352.771288	2497.906854
353.161314	2493.999960
353.551276	2496.407111
353.941175	2497.261587
354.331010	2496.759992
354.720782	2493.253869
355.110490	2496.205465
355.500135	2496.296206
355.889717	2494.385608
356.279235	2495.489621
356.668689	2498.264776
357.058080	2497.637152
357.447408	2498.194200
357.836672	2492.722027
358.225873	2494.647748
358.615010	2494.783859
359.004084	2497.201093
359.393095	2498.574807
359.782043	2501.044973
360.170927	2499.706546
360.559748	2498.695795
360.948505	2500.099756
361.337199	2502.700992
361.725830	2504.374655
362.114398	2502.680827
362.502903	2503.593276
362.891344	2502.269973
363.279722	2504.230982
363.668037	2503.772237
364.056289	2504.041938
364.444478	2506.988493
364.832603	2502.030518
365.220665	2505.839110
365.608665	2505.382885
365.996601	2506.897752
366.384474	2506.227279
366.772284	2506.980931
367.160031	2508.515963
367.547715	2509.993021
367.935336	2510.378669
368.322893	2510.660973
368.710388	2509.577125
369.097820	2510.928155
369.485189	2507.517814
369.872495	2511.442352
370.259738	2508.329440
370.646918	2509.365397
371.034035	2506.693585
371.421090	2514.257837
371.808081	2508.742814
372.195010	2512.004441
372.581875	2509.690551
372.968678	2510.378669
373.355418	2513.335306
373.742096	2511.510408
374.128710	2510.693741
374.515262	2512.811026
374.901751	2511.568381
375.288177	2511.255830
375.674540	2512.737929
376.060841	2512.858917
376.447079	2514.830008
376.833254	2516.652385
377.219367	2510.608041
377.605417	2512.889163
377.991404	2510.860099
378.377329	2512.359842
378.763191	2510.769358
379.148991	2517.489216
379.534727	2513.312620
379.920402	2516.231448
380.306013	2519.228414
380.691563	2514.620800
381.077049	2516.806140
381.462474	2518.215143
381.847835	2518.600791
382.233134	2515.923938
382.618371	2517.312776
383.003545	2518.631038
383.388657	2516.269257
383.773706	2516.697755
384.158693	2518.376459
384.543618	2519.291429
384.928480	2516.412930
385.313280	2517.317817
385.698017	2520.639937
386.082692	2518.585667
386.467305	2519.825791
386.851856	2519.283867
387.236344	2518.996521
387.620770	2520.471059
388.005133	2520.385359
388.389435	2519.677077
388.773674	2521.196985
389.157851	2523.069774
389.541965	2517.985770
389.926018	2519.977026
390.310008	2520.040040
390.693936	2523.253776
391.077802	2521.055833
391.461606	2523.641945
391.845348	2521.759074
392.229027	2523.778056
392.612645	2522.590864
392.996200	2523.498272
393.379694	2521.391069
393.763125	2523.445340
394.146494	2525.484486
394.529801	2527.236287
394.913047	2521.512057
395.296230	2527.790814
395.679351	2523.422654
396.062410	2526.591020
396.445408	2524.945083
396.828343	2524.287212
397.211217	2520.748322
397.594028	2523.256296
397.976778	2519.273785
398.359466	2522.916018
398.742092	2521.277643
399.124656	2525.824764
399.507158	2524.403159
399.889598	2524.798889
400.271977	2528.347862
400.654294	2524.952645
401.036549	2527.022038
401.418742	2527.019518
401.800874	2524.002387
402.182944	2528.025228
402.564952	2526.066740
402.946898	2527.672347
403.328783	2527.274096
403.710606	2526.165042
404.092367	2527.279137
404.474067	2528.887265
404.855705	2525.842408
405.237282	2530.197965
405.618797	2528.980527
406.000250	2526.933818
406.381642	2530.520599
406.762972	2527.553880
407.144240	2529.391381
407.525447	2530.787780
407.906593	2528.047913
408.287677	2530.167718
408.668700	2532.365661
409.049661	2532.796680
409.430560	2529.550177
409.811399	2532.385826
410.192176	2532.355579
410.572891	2529.474560
410.953545	2529.640918
411.334138	2529.162008
411.714669	2529.822399
412.095139	2530.974303
412.475547	2531.969931
412.855894	2530.155115
413.236180	2531.319622
413.616405	2533.567977
413.996568	2533.333563
414.376670	2530.697039
414.756711	2532.156453
415.136691	2534.732483
415.516609	2531.095291
415.896466	2533.986392
416.276262	2534.878677
416.655997	2528.204189
417.035670	2529.015815
417.415283	2529.817358
417.794834	2531.458254
418.174324	2533.618388
418.553753	2533.182328
418.933121	2530.487832
419.312428	2533.257946
419.691674	2532.612678
420.070859	2534.414890
420.449983	2534.976979
420.829045	2536.053265
421.208047	2533.759540
421.586988	2533.545291
421.965867	2536.678368
422.344686	2534.976979
422.723444	2533.691485
423.102141	2536.723739
423.480777	2533.081505
423.859352	2534.011598
424.237866	2536.068389
424.616319	2535.120652
424.994712	2537.069058
425.373044	2537.681558
425.751314	2536.391023
426.129524	2533.661238
426.507673	2535.629808
426.885762	2535.642411
427.263789	2536.086033
427.641756	2536.721218
428.019662	2537.474871
428.397508	2536.668286
428.775292	2535.100487
429.153016	2537.547967
429.530679	2536.915303
429.908282	2539.178781
430.285824	2538.054603
430.663305	2538.536034
431.040726	2537.001002
431.418086	2536.653163
431.795385	2539.834131
432.172624	2536.741383
432.549802	2541.250695
432.926920	2540.582742
433.303977	2540.456713
433.680974	2538.029398
434.057910	2538.135262
434.434786	2537.323636
434.811601	2539.002340
435.188355	2542.321940
435.565050	2540.560057
435.941683	2537.255581
436.318257	2537.200128
436.694770	2535.516383
437.071222	2538.581404
437.447614	2536.156609
437.823946	2536.421270
438.200218	2540.081147
438.576429	2540.507125
438.952580	2539.604758
439.328670	2541.326312
439.704700	2538.326826
440.080670	2539.912269
440.456580	2541.974101
440.832429	2540.282793
441.208218	2540.492001
441.583947	2542.450490
441.959616	2543.120963
442.335224	2539.982845
442.710773	2541.827907
443.086261	2540.610468
443.461689	2540.229861
443.837057	2541.689275
444.212365	2541.046528
444.587612	2541.442259
444.962800	2538.475540
445.337927	2541.371683
445.712995	2542.359749
446.088002	2539.826569
446.462949	2543.289842
446.837837	2543.509132
447.212664	2542.150541
447.587431	2541.996786
447.962139	2541.389327
448.336786	2546.579195
448.711374	2541.792619
449.085901	2542.692465
449.460369	2541.563247
449.834776	2541.953936
450.209124	2542.873947
450.583412	2543.388144
450.957640	2543.279759
451.331808	2543.559543
451.705917	2543.831766
452.079965	2542.079965
452.453954	2543.718340
452.827883	2541.994265
453.201752	2543.279759
453.575562	2542.689944
453.949311	2543.912424
454.323001	2545.979297
454.696632	2544.293031
455.070202	2543.917465
455.443713	2543.554502
455.817164	2538.173071
456.190556	2537.961342
456.563888	2542.609286
456.937160	2538.475540
457.310373	2543.960315
457.683526	2543.574667
458.056619	2545.888557
458.429653	2544.915614
458.802628	2547.773948
459.175542	2544.839997
459.548398	2546.392672
459.921194	2545.071890
460.293930	2542.379913
460.666607	2544.847558
461.039224	2545.492826
461.411782	2544.774462
461.784280	2545.944009
462.156719	2546.919472
462.529099	2546.808567
462.901419	2543.292362
463.273680	2543.887218
463.645882	2545.460058
464.018024	2546.241437
464.390106	2546.274205
464.762130	2545.744884
465.134094	2544.845038
465.505999	2547.375697
465.877845	2547.589946
466.249631	2548.315872
466.621358	2546.163299
466.993026	2548.651109
467.364634	2548.484751
467.736184	2546.236396
468.107674	2542.379913
468.479105	2547.375697
468.850477	2549.419885
469.221790	2550.034906
469.593043	2547.879812
469.964238	2547.025337
470.335373	2546.306972
470.706449	2546.274205
471.077467	2543.700696
471.448425	2545.633978
471.819324	2546.188505
472.190164	2547.925183
472.560945	2544.666077
472.931667	2549.616490
473.302330	2545.591128
473.672934	2548.134391
474.043479	2548.333516
474.413965	2547.141283
474.784393	2541.606096
475.154761	2543.622558
475.525070	2542.034594
475.895321	2545.770089
476.265513	2543.110881
476.635645	2545.626417
477.005719	2545.502908
477.375734	2548.436860
477.745691	2544.214893
478.115588	2545.737322
478.485427	2543.975439
478.855207	2549.132539
479.224928	2547.675646
479.594591	2548.699000
479.964194	2545.374359
480.333739	2545.298742
480.703226	2548.888043
481.072653	2546.115408
481.442022	2547.748742
481.811333	2548.046170
482.180584	2549.979453
482.549777	2548.220090
482.918912	2549.205636
483.287988	2550.115564
483.657005	2550.889381
484.025964	2549.024154
484.394864	2547.131201
484.763706	2551.229659
485.132489	2548.867878
485.501213	2548.704041
485.869879	2549.205636
486.238487	2547.993238
486.607036	2549.069525
486.975527	2550.337375
487.343959	2548.588094
487.712333	2546.518701
488.080648	2549.248486
488.448905	2548.562889
488.817104	2549.339226
489.185244	2548.005841
489.553326	2547.244627
489.921350	2546.029709
490.289315	2548.028526
490.657222	2549.868548
491.025070	2549.664381
491.392861	2550.662529
491.760593	2551.239741
492.128267	2548.756973
492.495883	2548.298228
492.863440	2548.457024
493.230939	2549.855945
493.598380	2550.435677
493.965763	2544.943340
494.333088	2546.526262
494.700354	2547.297559
495.067563	2548.895605
495.434713	2545.868392
495.801805	2549.855945
496.168839	2549.336706
496.535815	2550.576830
496.902733	2552.016079
497.269593	2550.201264
497.636395	2549.248486
498.003139	2548.946016
498.369825	2547.347971
498.736453	2551.486758
499.103023	2550.844011
499.469535	2548.603218
499.835989	2551.247303
500.202385	2548.041129
500.568723	2550.657488
500.935003	2548.998948
501.301226	2550.662529
501.667390	2550.702858
502.033497	2550.682694
502.399546	2549.787889
502.765537	2550.039947
503.131470	2552.043805
503.497345	2553.830894
503.863163	2552.540359
504.228923	2550.191181
504.594625	2552.502550
504.960269	2550.649926
505.325856	2552.883157
505.691385	2551.557334
506.056856	2552.280740
506.422270	2553.057077
506.787625	2551.766542
507.152924	2547.721016
507.518164	2549.553475
507.883347	2550.765873
508.248472	2552.321069
508.613540	2553.604043
508.978550	2552.174875
509.343503	2552.260575
509.708398	2553.112530
510.073236	2552.406768
510.438016	2550.685214
510.802738	2554.365257
511.167403	2551.333003
511.532010	2551.282591
511.896561	2551.292673
512.261053	2552.842828
512.625488	2547.363094
512.989866	2549.694628
513.354186	2549.876109
513.718449	2546.571633
514.082655	2551.602704
514.446803	2550.397869
514.810894	2554.571944
515.174927	2552.051367
515.538904	2551.524567
515.902822	2547.695810
516.266684	2551.310317
516.630488	2549.475337
516.994235	2551.637993
517.357925	2556.384239
517.721558	2551.073383
518.085133	2551.801830
518.448651	2550.861655
518.812112	2553.150339
519.175516	2552.668908
519.538863	2552.318548
519.902152	2551.290153
520.265385	2549.868547
520.628560	2551.471634
520.991678	2550.753270
521.354739	2550.211346
521.717743	2552.678991
522.080690	2551.214536
522.443580	2552.167314
522.806413	2552.830225
523.169189	2548.686397
523.531908	2552.076573
523.894569	2553.223435
524.257174	2552.472303
524.619722	2551.622869
524.982213	2553.903991
525.344647	2553.664536
525.707025	2553.349464
526.069345	2553.230997
526.431608	2553.392314
526.793815	2551.958106
527.155964	2554.312325
527.518057	2549.306459
527.880093	2548.827549
528.242072	2553.357026
528.603995	2553.863662
528.965860	2555.333158
529.327669	2553.278888
529.689421	2551.466593
530.051117	2554.188816
530.412755	2554.771070
530.774337	2551.438867
531.135862	2551.723692
531.497331	2550.531459
531.858743	2549.739998
532.220098	2552.648744
532.581396	2549.114895
532.942638	2551.761501
533.303824	2551.612787
533.664953	2553.563713
534.026025	2551.834597
534.387040	2549.815615
534.747999	2552.598332
535.108902	2557.586554
535.469748	2552.978939
535.830537	2552.467262
536.191270	2552.056408
536.551947	2553.470452
536.912567	2553.886347
537.273131	2553.200750
537.633638	2553.568754
537.994089	2551.499361
538.354483	2553.631769
538.714821	2553.583878
539.075103	2552.321069
539.435328	2555.214691
539.795497	2552.573127
540.155609	2556.845504
540.515665	2551.751418
540.875665	2551.837118
541.235609	2552.666388
541.595496	2553.165462
541.955328	2551.995914
542.315102	2553.064639
542.674821	2550.947354
543.034483	2557.281564
543.394090	2552.615976
543.753640	2556.318704
544.113134	2554.458518
544.472571	2553.609084
544.831953	2553.467931
545.191278	2555.295350
545.550548	2554.400545
545.909761	2553.679660
546.268918	2553.941800
546.628019	2553.984650
546.987064	2552.673950
547.346053	2552.381563
547.704986	2553.266285
548.063863	2555.287788
548.422684	2554.786193
548.781449	2551.262427
549.140158	2553.561193
549.498811	2555.575134
549.857408	2553.861141
550.215949	2550.909546
550.574434	2550.163455
550.932864	2549.339226
551.291237	2547.143804
551.649555	2554.869372
552.007817	2553.727551
552.366022	2552.492468
552.724173	2551.269988
553.082267	2553.470452
553.440305	2555.239897
553.798288	2554.720658
554.156215	2551.945503
554.514086	2552.842828
554.871902	2553.357026
555.229661	2550.831408
555.587365	2554.284598
555.945014	2551.587581
556.302606	2553.173024
556.660143	2554.521532
557.017625	2554.748384
557.375050	2554.592109
557.732421	2553.014227
558.089735	2554.876934
558.446994	2553.861141
558.804197	2556.046482
559.161345	2555.975905
559.518437	2555.091183
559.875474	2553.533466
560.232455	2552.764690
560.589381	2552.421892
560.946251	2555.244938
561.303065	2551.277550
561.659825	2553.735112
562.016528	2554.728220
562.373177	2554.768549
562.729770	2553.367108
563.086307	2555.285267
563.442789	2552.774773
563.799216	2555.496996
564.155587	2554.733261
564.511904	2556.570762
564.868164	2551.937941
565.224370	2554.576985
565.580520	2555.214691
565.936615	2551.204453
566.292654	2555.154197
566.648638	2553.745195
567.004567	2555.491955
567.360441	2555.466749
567.716260	2554.798796
568.072023	2552.356357
568.427732	2548.895605
568.783385	2552.132026
569.138982	2551.983312
569.494525	2553.004145
569.850013	2549.813095
570.205445	2555.045813
570.560823	2555.194527
570.916145	2555.076059
571.271412	2554.582026
571.626625	2556.149825
571.981782	2553.634289
572.336884	2552.825184
572.691931	2552.331151
573.046923	2552.845349
573.401860	2553.041954
573.756743	2551.834598
574.111570	2556.205278
574.466342	2554.264434
574.821059	2556.159907
575.175722	2553.566234
575.530330	2552.845349
575.884882	2555.859959
576.239380	2552.565565
576.593823	2555.068498
576.948211	2550.607077
577.302544	2553.430123
577.656823	2554.050185
578.011047	2553.321738
578.365216	2552.842828
578.719330	2558.279713
579.073389	2554.004814
579.427394	2554.476162
579.781344	2555.270144
580.135239	2555.202088
580.489080	2555.635628
580.842866	2555.035730
581.196597	2558.239383
581.550273	2554.410627
581.903895	2555.030689
582.257463	2555.302911
582.610975	2555.325597
582.964434	2553.377191
583.317837	2553.931717
583.671186	2554.133364
584.024481	2555.076059
584.377721	2555.411296
584.730906	2555.718807
585.084037	2556.880792
585.437113	2554.569423
585.790135	2554.733261
586.143103	2554.289639
586.496016	2555.723848
586.848874	2550.039947
587.201679	2552.719320
587.554428	2550.400389
587.907124	2550.831408
588.259765	2550.743188
588.612352	2553.664536
588.964884	2554.627397
589.317362	2555.713765
589.669786	2553.319217
590.022155	2555.635627
590.374470	2555.408776
590.726731	2553.843497
591.078937	2554.342572
591.431090	2553.513302
591.783188	2555.244938
592.135232	2552.893240
592.487222	2555.065977
592.839157	2555.859959
593.191038	2554.806358
593.542866	2553.276367
593.894639	2553.349464
594.246358	2555.597819
594.598022	2553.041954
594.949633	2551.985832
595.301190	2552.941131
595.652692	2555.426420
596.004141	2552.774773
596.355535	2554.501368
596.706876	2555.658313
597.058162	2556.253169
597.409395	2554.299722
597.760573	2554.140925
598.111698	2555.413817
598.462768	2555.512119
598.813785	2557.203426
599.164748	2556.172510
599.515657	2557.397511
599.866511	2556.270813
600.217312	2551.499361
600.568060	2552.492468
600.918753	2554.481203
601.269392	2554.332489
601.619978	2555.255020
601.970510	2554.715617
602.320988	2553.800648
602.671412	2554.869372
603.021783	2556.212840
603.372100	2555.673436
603.722363	2554.405586
604.072572	2556.825340
604.422728	2554.357695
604.772830	2552.840308
605.122878	2549.024154
605.472872	2550.773435
605.822813	2550.024823
606.172701	2553.795606
606.522534	2553.432643
606.872314	2553.346944
607.222041	2553.591440
607.571714	2555.134033
607.921333	2554.448436
608.270899	2555.996070
608.620411	2556.081770
608.969870	2556.459856
609.319276	2555.023127
609.668627	2557.405073
610.017926	2561.019580
610.367171	2560.444888
610.716362	2563.310784
611.065500	2559.749209
611.414585	2558.990515
611.763616	2559.149312
612.112594	2558.471277
612.461518	2556.815258
612.810389	2555.822150
613.159207	2555.325597
613.507971	2554.884496
613.856682	2552.847869
614.205340	2554.884496
614.553945	2559.298026
614.902496	2552.868034
615.250994	2557.379867
615.599439	2554.955072
615.947830	2554.609753
616.296169	2555.063457
616.644454	2553.788045
616.992686	2555.643189
617.340864	2553.891388
617.688990	2554.622356
618.037063	2555.000442
618.385082	2553.548590
618.733048	2555.673436
619.080961	2552.893240
619.428821	2555.716286
619.776628	2553.891388
620.124382	2556.623694
620.472083	2557.024465
620.819731	2556.081770
621.167326	2553.601522
621.514868	2555.991029
621.862357	2555.328117
622.209793	2554.496327
622.557176	2556.212840
622.904506	2550.864175
623.251783	2552.837787
623.599007	2552.237890
623.946179	2552.323589
624.293297	2549.828218
624.640363	2556.197716
624.987376	2554.007335
625.334336	2556.230484
625.681243	2555.222253
626.028097	2553.546069
626.374899	2555.827191
626.721647	2555.567572
627.068343	2552.875596
627.414987	2553.518343
627.761577	2553.984650
628.108115	2554.627397
628.454600	2555.837274
628.801032	2551.360729
629.147412	2553.727551
629.493739	2554.274516
629.840014	2555.857438
630.186236	2553.409958
630.532405	2555.842315
630.878521	2554.992880
631.224585	2555.509599
631.570597	2551.133877
631.916556	2553.470452
632.262462	2554.556821
632.608316	2556.701832
632.954117	2551.433826
633.299866	2553.568754
633.645562	2555.660833
633.991206	2556.480021
634.336797	2554.914743
634.682336	2552.870555
635.027823	2553.959444
635.373257	2552.865513
635.718639	2556.558159
636.063968	2555.149156
636.409245	2554.703014
636.754470	2553.704866
637.099642	2552.981460
637.444762	2553.818292
637.789829	2554.453477
638.134845	2554.100596
638.479808	2551.743857
638.824719	2556.326266
639.169577	2552.401727
639.514383	2551.781665
639.859137	2555.940617
640.203839	2554.329969
640.548489	2553.722510
640.893086	2553.354505
641.237632	2550.846531
641.582125	2553.339382
641.926566	2548.570450
642.270955	2550.508774
642.615292	2552.628579
642.959576	2554.934907
643.303809	2552.459701
643.647990	2555.723848
643.992118	2554.612273
644.336195	2553.737633
644.680219	2552.905843
645.024192	2554.788714
645.368112	2554.168652
645.711981	2552.915925
646.055797	2554.506409
646.399562	2555.585216
646.743274	2554.009855
647.086935	2553.256203
647.430544	2553.780483
647.774101	2555.086142
648.117606	2553.979608
648.461059	2554.307283
648.804460	2554.448436
649.147810	2554.846687
649.491108	2551.655637
649.834354	2553.329300
650.177548	2553.319217
650.520690	2554.435833
650.863781	2554.145967
651.206820	2556.429609
651.549807	2554.287119
651.892742	2552.978939
652.235626	2551.882488
652.578458	2553.520863
652.921238	2552.782334
653.263967	2551.675801
653.606644	2551.791748
653.949269	2552.860472
654.291843	2555.023127
654.634365	2555.118909
654.976836	2554.443395
655.319255	2554.496327
655.661622	2554.052705
656.003938	2553.523384
656.346203	2554.143446
656.688416	2552.507592
657.030577	2554.201419
657.372687	2552.759649
657.714746	2554.277037
658.056753	2556.553118
658.398708	2549.069525
658.740612	2549.825698
659.082465	2548.940975
659.424266	2549.525749
659.766016	2549.457693
660.107715	2555.365926
660.449362	2550.334854
660.790958	2553.581357
661.132503	2554.377860
661.473996	2552.681511
661.815438	2552.502550
662.156829	2556.636297
662.498168	2550.541542
662.839456	2554.652602
663.180693	2552.928528
663.521879	2555.282747
663.863013	2554.312325
664.204097	2554.093034
664.545129	2554.234187
664.886110	2553.563713
665.227040	2552.159752
665.567918	2553.719989
665.908746	2551.494320
666.249522	2554.060267
666.590248	2554.629917
666.930922	2553.770401
667.271545	2552.941131
667.612118	2551.950544
667.952639	2553.770401
668.293109	2552.719320
668.633528	2555.270144
668.973896	2551.738816
669.314213	2551.811912
669.654480	2555.517160
669.994695	2554.093034
670.334859	2552.434495
670.674973	2552.742005
671.015035	2553.084804
671.355047	2553.568754
671.695008	2551.872406
672.034918	2552.280740
672.374777	2555.101265
672.714585	2555.741492
673.054342	2553.369629
673.394049	2552.933569
673.733705	2555.985988
674.073310	2552.968857
674.412864	2554.481203
674.752368	2553.757798
675.091820	2553.089845
675.431223	2554.009855
675.770574	2556.323745
676.109875	2548.572971
676.449125	2549.205636
676.788324	2547.889895
677.127473	2554.256872
677.466571	2549.981973
677.805619	2551.965667
678.144616	2554.229146
678.483562	2553.132695
678.822458	2552.971378
679.161303	2554.859290
679.500098	2552.484906
679.838842	2554.640000
680.177535	2555.393652
680.516179	2552.981460
680.854771	2551.832077
681.193314	2552.968857
681.531805	2553.417520
681.870247	2553.077242
682.208638	2552.825184
682.546978	2553.485575
682.885268	2554.521533
683.223508	2553.046995
683.561697	2549.755122
683.899836	2550.944834
684.237925	2551.484237
684.575963	2553.719989
684.913951	2556.227963
685.251889	2554.879454
685.589776	2550.191181
685.927614	2554.035061
686.265401	2553.462890
686.603137	2553.873744
686.940824	2552.011038
687.278460	2555.915412
687.616046	2550.239072
687.953582	2554.909701
688.291068	2553.021789
688.628504	2551.852242
688.965889	2552.903322
689.303224	2553.722510
689.640510	2553.906512
689.977745	2552.726882
690.314930	2552.525236
690.652065	2552.926007
690.989150	2553.067160
691.326185	2554.798796
691.663170	2553.455328
692.000105	2552.878116
692.336990	2551.701007
692.673825	2552.676470
693.010610	2554.030020
693.347345	2549.009031
693.684030	2548.212528
694.020665	2551.370811
694.357251	2547.710934
694.693786	2551.355688
695.030272	2553.868703
695.366707	2552.769732
695.703093	2549.235883
696.039429	2553.878785
696.375716	2552.169834
696.711952	2553.208312
697.048139	2552.363919
697.384276	2551.837118
697.720363	2551.179247
698.056400	2553.271326
698.392388	2550.574309
698.728326	2553.162942
699.064214	2554.821481
699.400053	2552.878116
699.735842	2553.175544
700.071581	2552.358878
700.407270	2552.878116
700.742910	2554.050185
701.078501	2550.836449
701.414042	2552.207643
701.749533	2551.547252
702.084974	2550.775955
702.420366	2552.081614
702.755709	2552.736964
703.091002	2552.197561
703.426246	2553.072201
703.761440	2550.370142
704.096584	2551.413661
704.431679	2554.208981
704.766725	2555.577654
705.101721	2552.701676
705.436668	2552.996583
705.771565	2552.126984
706.106413	2552.883157
706.441212	2553.493137
706.775961	2551.670760
707.110661	2551.895091
707.445311	2552.913404
707.779913	2551.625390
708.114465	2552.691594
708.448967	2552.310987
708.783421	2551.892571
709.117825	2553.054557
709.452180	2551.907694
709.786485	2552.946172
710.120742	2552.603373
710.454949	2554.019938
710.789107	2549.379556
711.123216	2549.616490
711.457275	2548.724206
711.791286	2547.509287
712.125247	2550.536500
712.459159	2554.909701
712.793023	2553.059598
713.126837	2550.095399
713.460602	2551.811912
713.794318	2550.670091
714.127985	2549.485420
714.461602	2553.062118
714.795171	2553.692263
715.128691	2552.583209
715.462162	2550.697817
715.795584	2551.753939
716.128957	2553.974567
716.462281	2551.186809
716.795556	2551.353167
717.128782	2552.129505
717.461960	2551.511964
717.795088	2552.759649
718.128167	2554.667726
718.461198	2552.626059
718.794180	2552.333672
719.127113	2552.784855
719.459997	2553.155380
719.792833	2553.117571
720.125619	2552.240410
720.458357	2551.784186
720.791046	2549.712272
721.123686	2550.047508
721.456278	2555.315514
721.788821	2550.143290
722.121315	2551.668239
722.453761	2554.153528
722.786158	2553.455328
723.118506	2551.895091
723.450805	2552.910884
723.783056	2552.119423
724.115259	2549.782848
724.447412	2553.142777
724.779518	2553.049516
725.111574	2550.531459
725.443582	2549.682025
725.775542	2551.428785
726.107453	2552.520194
726.439315	2554.501368
726.771129	2554.408107
727.102895	2550.095399
727.434612	2553.798127
727.766281	2552.013558
728.097901	2549.520708
728.429473	2547.542055
728.760996	2552.479865
729.092471	2545.361756
729.423897	2551.693445
729.755276	2552.081614
730.086606	2551.025492
730.417887	2551.075904
730.749120	2551.406099
731.080305	2552.220246
731.411442	2551.907694
731.742530	2551.333003
732.073570	2553.024310
732.404562	2551.920297
732.735506	2551.718651
733.066401	2549.873589
733.397249	2551.083466
733.728048	2548.792261
734.058798	2551.821995
734.389501	2552.230328
734.720156	2551.990873
735.050762	2552.255534
735.381320	2551.942982
735.711831	2551.927859
736.042293	2552.167314
736.372707	2548.701520
736.703073	2551.688404
737.033391	2551.998435
737.363661	2550.720503
737.693883	2551.214536
738.024056	2554.927345
738.354182	2552.986501
738.684260	2550.511295
739.014290	2548.688918
739.344272	2550.780996
739.674207	2551.118754
740.004093	2553.533466
740.333931	2549.417364
740.663722	2549.795451
740.993464	2553.165462
741.323159	2553.714948
741.652806	2553.644372
741.982405	2550.599515
742.311956	2551.645554
742.641460	2554.806358
742.970915	2554.748384
743.300323	2550.191181
743.629683	2553.208312
743.958996	2548.633465
744.288260	2552.610935
744.617477	2551.078424
744.946647	2544.038453
745.275768	2550.823846
745.604842	2548.789741
745.933869	2549.162786
746.262847	2548.295707
746.591778	2550.518856
746.920662	2549.777807
747.249498	2552.442057
747.578286	2552.227807
747.907027	2549.611449
748.235720	2548.131870
748.564365	2551.340564
748.892963	2554.052705
749.221514	2547.668084
749.550017	2549.641696
749.878473	2551.259906
750.206881	2551.736295
750.535242	2550.750749
750.863555	2550.723023
751.191821	2554.781152
751.520039	2551.645554
751.848210	2551.718651
752.176334	2550.241593
752.504411	2550.402910
752.832440	2547.990718
753.160421	2551.290153
753.488356	2551.915256
753.816243	2551.262427
754.144082	2553.490617
754.471875	2553.709907
754.799620	2548.575492
755.127318	2549.709751
755.454969	2551.338044
755.782572	2550.097920
756.110129	2550.844011
756.437638	2552.356357
756.765100	2552.270657
757.092515	2547.723537
757.419882	2549.624052
757.747203	2551.544731
758.074477	2550.891902
758.401703	2548.429298
758.728882	2552.500030
759.056014	2553.291491
759.383099	2551.335523
759.710138	2549.470296
760.037129	2551.708569
760.364073	2551.761501
760.690970	2552.694114
761.017820	2552.981460
761.344623	2549.893753
761.671379	2552.865513
761.998088	2547.108516
762.324751	2546.937117
762.651366	2547.786551
762.977935	2549.261088
763.304456	2546.165820
763.630931	2546.891746
763.957359	2550.526418
764.283740	2551.968188
764.610074	2550.929710
764.936362	2553.606563
765.262602	2550.695297
765.588796	2552.598332
765.914943	2547.403423
766.241044	2549.523228
766.567097	2548.159596
766.893104	2550.400389
767.219064	2547.658002
767.544978	2549.445091
767.870845	2550.660009
768.196665	2550.665050
768.522438	2550.302087
768.848165	2546.553989
769.173846	2549.603887
769.499479	2551.335523
769.825066	2550.579350
770.150607	2547.854607
770.476101	2550.360060
770.801548	2551.446429
771.126949	2550.672612
771.452303	2549.245965
771.777611	2550.869217
772.102872	2549.634134
772.428087	2549.198074
772.753256	2550.768393
773.078378	2550.574309
773.403453	2550.372663
773.728482	2549.495502
774.053465	2553.049516
774.378401	2548.358722
774.703291	2551.988353
775.028135	2550.972560
775.352932	2551.370811
775.677683	2551.494320
776.002388	2550.513815
776.327046	2549.666901
776.651658	2549.306459
776.976224	2549.591284
777.300743	2549.780327
777.625216	2550.039947
777.949643	2551.625390
778.274024	2548.837632
778.598359	2546.422919
778.922647	2545.190357
779.246889	2550.360060
779.571086	2544.071221
779.895236	2550.763352
780.219339	2549.364432
780.543397	2550.944834
780.867409	2549.314021
781.191374	2550.748229
781.515294	2549.929041
781.839167	2548.729247
782.162995	2548.298228
782.486776	2549.142621
782.810511	2548.651109
783.134201	2549.508105
783.457844	2550.980122
783.781441	2548.489792
784.104993	2549.619010
784.428498	2550.120605
784.751958	2549.490461
785.075372	2552.379042
785.398739	2549.739998
785.722061	2550.987684
786.045337	2548.946016
786.368568	2549.785368
786.691752	2549.167827
787.014891	2549.641696
787.337983	2548.895605
787.661030	2547.509288
787.984031	2548.971222
788.306987	2551.567416
788.629897	2549.888712
788.952760	2549.714792
789.275579	2549.956768
789.598351	2550.647406
789.921078	2550.095399
790.243759	2551.191850
790.566395	2548.441901
790.888984	2547.874771
791.211529	2550.844011
791.534027	2553.150339
791.856480	2548.346119
792.178888	2545.996941
792.501249	2552.076573
792.823566	2551.569937
793.145836	2550.254196
793.468062	2550.717982
793.790241	2550.929710
794.112375	2548.459545
794.434464	2549.288815
794.756507	2551.141439
795.078505	2552.048847
795.400457	2546.785882
795.722364	2547.133722
796.044226	2546.586756
796.366042	2543.501570
796.687812	2546.990049
797.009538	2550.428116
797.331218	2550.108002
797.652852	2548.457024
797.974442	2548.951057
798.295986	2552.552962
798.617484	2549.296377
798.938938	2548.633465
799.260346	2553.397355
799.581709	2549.135060
799.903026	2551.007848
800.224299	2548.895605
800.545526	2550.171017
800.866708	2548.136911
801.187845	2548.232693
801.508936	2548.502395
801.829983	2550.052550
802.150984	2549.523228
802.471940	2551.527087
802.792851	2550.556665
803.113717	2550.428116
803.434538	2547.554658
803.755314	2549.787889
804.076045	2549.049360
804.396731	2551.234700
804.717372	2549.417364
805.037967	2549.377035
805.358518	2547.446273
805.679024	2550.372663
805.999485	2551.423743
806.319901	2547.786551
806.640272	2547.915100
806.960598	2550.158414
807.280879	2547.874771
807.601115	2549.858465
807.921306	2547.721016
808.241453	2548.658671
808.561554	2548.625903
808.881611	2549.583722
809.201623	2550.339895
809.521590	2549.770245
809.841513	2549.956768
810.161390	2547.569781
810.481223	2549.387117
810.801011	2551.703527
811.120755	2547.453835
811.440453	2549.634134
811.760107	2549.621531
812.079716	2546.211190
812.399281	2546.793444
812.718801	2545.850748
813.038276	2545.964174
813.357707	2549.989535
813.677093	2549.117416
813.996434	2548.691438
814.315731	2548.724206
814.634983	2550.720502
814.954191	2550.513815
815.273354	2548.451983
815.592473	2549.954247
815.911547	2549.616490
816.230577	2548.300749
816.549562	2550.627241
816.868502	2547.471479
817.187399	2549.132539
817.506250	2550.486089
817.825058	2550.907025
818.143821	2551.055739
818.462539	2547.405944
818.781213	2549.563558
819.099843	2549.298897
819.418429	2549.102292
819.736970	2548.953578
820.055466	2549.119936
820.373919	2551.272509
820.692327	2549.407282
821.010691	2549.956768
821.329011	2548.888043
821.647286	2549.961809
821.965517	2549.697148
822.283704	2549.558517
822.601847	2548.877961
822.919945	2546.715306
823.237999	2546.196067
823.556010	2548.729247
823.873976	2549.394679
824.191897	2548.903167
824.509775	2549.624052
824.827609	2548.825029
825.145398	2547.862168
825.463144	2548.504915
825.780845	2549.727395
826.098502	2549.359391
826.416116	2549.021634
826.733685	2549.634134
827.051210	2547.710934
827.368692	2550.317210
827.686129	2549.235883
828.003522	2549.170348
828.320872	2545.066848
828.638177	2546.387631
828.955439	2545.578526
829.272656	2545.656663
829.589830	2544.320758
829.906960	2549.641696
830.224046	2547.985677
830.541088	2547.806716
830.858086	2548.547765
831.175041	2547.284956
831.491952	2550.095399
831.808819	2549.684545
832.125642	2546.556509
832.442421	2552.431974
832.759157	2548.247817
833.075849	2550.188661
833.392497	2549.198074
833.709101	2549.450132
834.025662	2546.377548
834.342179	2549.906356
834.658653	2548.283105
834.975083	2548.618341
835.291469	2552.237890
835.607811	2551.020451
835.924110	2547.736139
836.240366	2550.929710
836.556578	2548.192364
836.872746	2549.019113
837.188871	2548.953578
837.504952	2546.652291
837.820990	2550.445760
838.136984	2547.002652
838.452935	2547.426108
838.768842	2546.712785
839.084706	2547.226983
839.400526	2547.594987
839.716303	2547.169010
840.032037	2547.811757
840.347727	2546.133053
840.663373	2550.498692
840.978977	2547.773948
841.294537	2548.915769
841.610054	2548.406613
841.925527	2549.137580
842.240957	2547.826880
842.556344	2548.711603
842.871687	2548.101623
843.186987	2547.418547
843.502244	2550.889381
843.817458	2547.393341
844.132629	2546.851417
844.447756	2547.715975
844.762840	2543.594832
845.077881	2545.439894
845.392879	2543.612476
845.707833	2546.632127
846.022745	2543.622558
846.337613	2548.547765
846.652438	2548.648588
846.967221	2550.793599
847.281960	2549.024154
847.596656	2548.754452
847.911309	2545.160110
848.225919	2547.199257
848.540485	2549.805533
848.855009	2546.652291
849.169490	2547.244627
849.483928	2550.826367
849.798323	2547.433670
850.112675	2544.477033
850.426984	2549.760163
850.741251	2546.727909
851.055474	2548.124308
851.369654	2548.154555
851.683792	2548.104144
851.997887	2550.138249
852.311938	2545.384441
852.625947	2547.388300
852.939914	2548.961140
853.253837	2548.131870
853.567718	2549.225800
853.881555	2547.443753
854.195350	2549.051881
854.509103	2547.839483
854.822812	2548.083979
855.136479	2547.622713
855.450103	2547.050543
855.763685	2547.728578
856.077224	2547.027857
856.390720	2549.354350
856.704173	2549.775286
857.017584	2547.537014
857.330953	2547.665563
857.644278	2549.815615
857.957561	2555.262582
858.270802	2546.032229
858.584000	2545.964174
858.897155	2548.416695
859.210268	2546.541386
859.523339	2548.111705
859.836367	2548.996428
860.149352	2551.766542
860.462295	2547.862168
860.775195	2543.887218
861.088054	2542.483257
861.400869	2546.619524
861.713642	2545.727240
862.026373	2543.420912
862.339062	2544.892929
862.651708	2547.771427
862.964312	2547.017775
863.276873	2546.271684
863.589392	2545.828063
863.901869	2548.575492
864.214303	2546.952240
864.526696	2546.372507
864.839045	2549.414844
865.151353	2550.279402
865.463619	2549.487940
865.775842	2546.927034
866.088023	2548.333516
866.400162	2547.531973
866.712258	2546.957281
867.024313	2547.973074
867.336325	2549.782848
867.648296	2546.990049
867.960224	2547.962991
868.272110	2549.621531
868.583954	2547.597508
868.895755	2547.184133
869.207515	2544.328319
869.519233	2548.704041
869.830909	2548.033568
870.142542	2547.136242
870.454134	2547.216901
870.765684	2549.896274
871.077191	2548.550286
871.388657	2549.114895
871.700081	2547.479041
872.011463	2547.446273
872.322803	2544.613145
872.634101	2548.063814
872.945357	2544.426622
873.256571	2547.622713
873.567744	2548.106664
873.878874	2547.403423
874.189963	2549.147663
874.501010	2548.255378
874.812015	2547.234545
875.122979	2548.741850
875.433900	2549.182951
875.744780	2548.537683
876.055618	2545.485264
876.366415	2548.416695
876.677169	2546.974925
876.987882	2544.915614
877.298554	2544.340922
877.609183	2546.259081
877.919771	2541.555685
878.230317	2544.887887
878.540822	2548.890564
878.851285	2548.252858
879.161707	2547.395862
879.472087	2546.659853
879.782425	2546.962322
880.092722	2546.528783
880.402977	2547.201777
880.713191	2545.523073
881.023363	2549.132539
881.333494	2546.541386
881.643583	2547.831921
881.953631	2548.053732
882.263637	2547.652960
882.573602	2547.857127
882.883526	2547.627755
883.193408	2548.141952
883.503248	2545.944009
883.813048	2546.054915
884.122806	2546.990049
884.432522	2546.231355
884.742197	2547.453835
885.051831	2545.639019
885.361424	2547.138763
885.670975	2545.361756
885.980485	2547.126160
886.289954	2547.957950
886.599382	2547.471479
886.908768	2548.797302
887.218113	2546.102806
887.527417	2545.190357
887.836680	2549.555996
888.145901	2545.671787
888.455082	2546.599359
888.764221	2547.582384
889.073319	2545.442414
889.382376	2544.734132
889.691392	2547.065666
890.000366	2547.718495
890.309300	2547.973074
890.618193	2547.869730
890.927044	2548.159596
891.235855	2547.163968
891.544625	2547.937786
891.853353	2546.715306
892.162041	2547.552137
892.470687	2546.957281
892.779293	2546.564071
893.087858	2544.444266
893.396381	2541.777496
893.704864	2545.694472
894.013306	2540.857485
894.321707	2546.218752
894.630068	2545.472661
894.938387	2548.169679
895.246665	2543.698175
895.554903	2544.136756
895.863100	2547.680687
896.171256	2545.626417
896.479371	2544.328319
896.787446	2546.097764
897.095480	2547.600028
897.403473	2543.516694
897.711425	2548.693959
898.019336	2546.652291
898.327207	2541.853113
898.635038	2548.194884
898.942827	2545.132383
899.250576	2545.734801
899.558284	2544.169523
899.865952	2546.556509
900.173579	2546.450645
900.481165	2547.252189
900.788711	2544.862682
901.096216	2547.552137
901.403681	2548.419216
901.711105	2546.243958
902.018489	2545.298742
902.325832	2549.684545
902.633135	2548.056253
902.940397	2547.705892
903.247619	2544.658515
903.554800	2546.564071
903.861941	2545.598690
904.169041	2546.256561
904.476101	2545.208001
904.783121	2546.972405
905.090100	2547.738660
905.397039	2548.126829
905.703938	2546.707744
906.010796	2547.965512
906.317614	2546.047353
906.624391	2545.991900
906.931129	2545.757487
907.237826	2548.043650
907.544483	2546.518701
907.851099	2549.026675
908.157675	2548.467107
908.464211	2547.380738
908.770707	2542.601724
909.077163	2546.105326
909.383578	2541.732125
909.689954	2542.332023
909.996289	2540.464275
910.302584	2546.044832
910.608839	2546.942158
910.915054	2548.459545
911.221229	2545.339071
911.527363	2547.973074
911.833458	2546.755635
912.139513	2548.590615
912.445527	2544.197249
912.751502	2547.597508
913.057436	2546.813608
913.363331	2548.802343
913.669186	2546.266643
913.975000	2546.649771
914.280775	2547.721016
914.586510	2546.753114
914.892205	2547.874771
915.197859	2545.223124
915.503475	2546.798485
915.809050	2547.287477
916.114585	2546.435522
916.420081	2545.785213
916.725536	2546.095244
917.030952	2548.719164
917.336328	2547.141283
917.641665	2547.305121
917.946961	2545.480223
918.252218	2542.740356
918.557435	2541.462423
918.862612	2544.527445
919.167750	2548.197405
919.472848	2543.594832
919.777906	2545.210521
920.082925	2548.073897
920.387904	2546.024668
920.692843	2548.507436
920.997743	2545.558361
921.302603	2544.177085
921.607423	2543.529297
921.912204	2546.556509
922.216946	2545.984338
922.521647	2545.790254
922.826310	2546.793444
923.130932	2545.449976
923.435516	2543.612476
923.740059	2546.927034
924.044564	2545.606252
924.349028	2547.325285
924.653454	2542.563916
924.957840	2544.179605
925.262186	2542.137938
925.566493	2544.819832
925.870761	2540.003009
926.174989	2544.784544
926.479178	2547.973074
926.783328	2546.304452
927.087438	2546.528783
927.391509	2548.106664
927.695541	2546.296890
927.999533	2547.015254
928.303486	2544.408978
928.607400	2547.557178
928.911275	2546.203629
929.215110	2544.741694
929.518906	2545.354194
929.822663	2543.090716
930.126381	2544.093906
930.430060	2545.684390
930.733699	2545.611293
931.037299	2546.359904
931.340861	2547.378217
931.644383	2545.122301
931.947866	2545.439894
932.251309	2546.203629
932.554714	2545.664225
932.858080	2546.755635
933.161407	2545.830583
933.464694	2546.533824
933.767943	2545.994421
934.071153	2544.328319
934.374323	2544.207332
934.677455	2547.781510
934.980548	2547.322765
935.283602	2546.649771
935.586617	2547.189174
935.889593	2547.743701
936.192530	2545.404606
936.495428	2548.114226
936.798287	2545.553320
937.101108	2546.173382
937.403890	2544.260264
937.706632	2544.005686
938.009336	2549.049360
938.312002	2547.612631
938.614628	2546.163299
938.917216	2543.388144
939.219765	2544.615665
939.522275	2545.989380
939.824747	2547.824360
940.127179	2543.864533
940.429573	2542.652136
940.731929	2541.805222
941.034246	2542.039636
941.336524	2543.930068
941.638763	2544.008206
941.940964	2546.203629
942.243126	2545.598690
942.545250	2545.633978
942.847335	2542.924358
943.149381	2543.652805
943.451389	2546.218752
943.753359	2541.994265
944.055290	2542.453010
944.357182	2542.853782
944.659036	2544.000644
944.960851	2544.532486
945.262628	2544.043494
945.564367	2541.916127
945.866067	2545.301262
946.167729	2546.475851
946.469352	2545.097095
946.770937	2545.182795
947.072484	2542.773123
947.373992	2544.991231
947.675462	2546.579195
947.976893	2544.666077
948.278286	2545.510470
948.579641	2546.811088
948.880958	2543.539379
949.182236	2543.914945
949.483476	2544.156920
949.784678	2547.002652
950.085841	2545.318906
950.386967	2546.506098
950.688054	2543.161292
950.989103	2544.197249
951.290114	2546.680018
951.591087	2546.783361
951.892021	2545.717157
952.192917	2545.361756
952.493776	2543.798998
952.794596	2545.215562
953.095378	2545.480223
953.396122	2543.022661
953.696828	2545.981818
953.997496	2546.659853
954.298126	2542.021992
954.598718	2547.317724
954.899272	2546.125491
955.199788	2542.737835
955.500266	2545.961653
955.800706	2546.052394
956.101108	2540.003009
956.401472	2546.024668
956.701798	2540.733977
957.002087	2542.284132
957.302337	2546.382590
957.602550	2546.990049
957.902724	2541.066693
958.202861	2543.970397
958.502960	2543.279759
958.803022	2545.674307
959.103045	2543.998124
959.403031	2545.089534
959.702979	2547.927703
960.002889	2546.049873
960.302762	2545.767569
960.602596	2544.265305
960.902393	2545.447456
961.202153	2545.187836
961.501875	2546.911911
961.801559	2543.488967
962.101205	2543.236910
962.400814	2545.850748
962.700385	2544.136756
962.999918	2546.289328
963.299414	2544.950902
963.598873	2544.892929
963.898293	2546.019627
964.197677	2545.938968
964.497022	2543.738504
964.796331	2545.674307
965.095601	2545.843186
965.394835	2545.732281
965.694030	2543.345294
965.993189	2546.039791
966.292309	2546.473330
966.591393	2545.399565
966.890439	2545.109698
967.189447	2544.620706
967.488419	2543.713299
967.787353	2545.908721
968.086249	2545.757487
968.385108	2544.837476
968.683930	2543.962836
968.982714	2545.754966
969.281462	2547.413506
969.580172	2545.860830
969.878844	2542.805891
970.177480	2544.159441
970.476078	2546.128011
970.774639	2545.334030
971.073162	2543.962836
971.371649	2542.432846
971.670098	2540.549975
971.968510	2541.439738
972.266885	2539.808925
972.565223	2544.013247
972.863524	2543.856972
973.161788	2545.144986
973.460014	2541.878319
973.758204	2546.324616
974.056356	2542.604245
974.354471	2542.518545
974.652550	2543.289842
974.950591	2544.517363
975.248595	2543.645243
975.546563	2544.852599
975.844493	2544.966025
976.142386	2545.437373
976.440243	2544.426622
976.738062	2543.889739
977.035845	2542.934440
977.333590	2543.930068
977.631299	2544.235058
977.928971	2543.993083
978.226606	2542.702547
978.524204	2545.951571
978.821765	2543.133566
979.119290	2544.103988
979.416777	2541.560726
979.714228	2545.321427
980.011642	2544.328319
980.309020	2546.914431
980.606360	2542.344625
980.903664	2545.691952
981.200931	2544.713968
981.498162	2545.029040
981.795356	2542.841179
982.092513	2545.092054
982.389633	2546.085162
982.686717	2545.371838
982.983764	2544.711447
983.280775	2544.257743
983.577749	2544.061138
983.874686	2546.001983
984.171587	2545.099616
984.468451	2544.910573
984.765279	2541.142310
985.062070	2545.684390
985.358824	2541.101981
985.655543	2541.764893
985.952224	2543.357897
986.248869	2545.102137
986.545478	2536.217103
986.842050	2541.593493
987.138586	2539.055272
987.435086	2540.683565
987.731549	2539.897145
988.027975	2544.141797
988.324366	2542.120294
988.620719	2544.698844
988.917037	2540.285314
989.213318	2544.381252
989.509563	2543.173895
989.805772	2544.051056
990.101944	2543.428473
990.398080	2543.988042
990.694180	2541.996786
990.990244	2543.965356
991.286271	2542.828576
991.582262	2543.700696
991.878217	2542.185829
992.174136	2545.003834
992.470019	2544.333361
992.765865	2544.736653
993.061676	2543.950233
993.357450	2545.802857
993.653188	2545.296221
993.948890	2545.243289
994.244556	2542.740356
994.540186	2542.400078
994.835780	2543.645243
995.131337	2543.118442
995.426859	2542.400078
995.722345	2540.340767
996.017795	2542.508463
996.313208	2544.920655
996.608586	2542.500901
996.903928	2544.454348
997.199234	2543.778834
997.494504	2543.042825
997.789738	2542.808412
998.084936	2542.752959
998.380099	2544.351005
998.675225	2543.874616
998.970316	2543.310006
999.265371	2544.305634
999.560390	2542.954605
999.855373	2544.308155
1000.150320	2542.949564
1000.445232	2542.483257
1000.740108	2543.451159
1001.034948	2543.375541
1001.329752	2541.522917
1001.624521	2545.722198
1001.919254	2538.084850
1002.213951	2542.473175
1002.508613	2542.304296
1002.803239	2540.741538
1003.097829	2538.072248
1003.392384	2546.775800
1003.686903	2544.272867
1003.981386	2545.825542
1004.275834	2541.953936
1004.570246	2547.080789
1004.864623	2544.696324
1005.158964	2542.579039
1005.453270	2542.145500
1005.747540	2544.366128
1006.041775	2542.599204
1006.335974	2542.919317
1006.630138	2542.672300
1006.924266	2543.133566
1007.218359	2543.131045
1007.512416	2541.021322
1007.806438	2544.020809
1008.100425	2542.100129
1008.394376	2545.023999
1008.688292	2543.889739
1008.982172	2543.564585
1009.276017	2542.687424
1009.569827	2542.213555
1009.863602	2544.003165
1010.157341	2544.711447
1010.451045	2544.618186
1010.744714	2543.158772
1011.038347	2542.717671
1011.331945	2543.458720
1011.625508	2543.438556
1011.919036	2542.994934
1012.212528	2543.430994
1012.505986	2544.245140
1012.799408	2543.249513
1013.092795	2539.647608
1013.386147	2542.828576
1013.679464	2545.833104
1013.972745	2544.595501
1014.265992	2543.509132
1014.559204	2540.774306
1014.852380	2544.139276
1015.145521	2543.297403
1015.438628	2541.893442
1015.731699	2542.785726
1016.024736	2541.893442
1016.317737	2541.926210
1016.610703	2543.310006
1016.903635	2539.692978
1017.196531	2540.391178
1017.489393	2539.997968
1017.782219	2539.813966
1018.075011	2542.795809
1018.367768	2543.362938
1018.660490	2542.614327
1018.953177	2542.614327
1019.245829	2542.614327
