Dividing Wavelength (nm)	Counts (n)	Blue Motor Position (mm): 26.200000	Red Motor Position (mm): 0.000000	
326.493990	2203.314426
326.888308	2203.314426
327.282561	2203.314426
327.676750	2161.321615
328.070874	2157.044196
328.464933	2159.743734
328.858929	2161.949238
329.252859	2167.060968
329.646726	2174.065652
330.040528	2188.894206
330.434265	2199.730166
330.827938	2218.911756
331.221547	2235.454303
331.615091	2253.012642
332.008571	2270.689448
332.401986	2290.821295
332.795338	2310.527166
333.188625	2328.224136
333.581847	2346.863803
333.975006	2366.562111
334.368100	2385.753784
334.761129	2402.676937
335.154095	2418.811150
335.546996	2447.616303
335.939833	2480.275419
336.332606	2495.330825
336.725315	2509.584687
337.117960	2523.447860
337.510540	2532.330373
337.903056	2543.630120
338.295508	2555.587737
338.687896	2562.156360
339.080220	2571.318657
339.472480	2574.734039
339.864676	2581.952971
340.256807	2585.988415
340.648875	2591.299270
341.040879	2593.114086
341.432818	2595.427975
341.824694	2599.556680
342.216506	2600.837133
342.608253	2599.574324
342.999937	2599.309664
343.391557	2602.820827
343.783113	2599.982658
344.174605	2600.582555
344.566033	2597.383943
344.957397	2598.573655
345.348697	2596.766402
345.739934	2594.243304
346.131106	2592.138622
346.522215	2591.357244
346.913260	2588.463621
347.304241	2586.316090
347.695159	2583.472879
348.086012	2588.682912
348.476802	2581.761407
348.867528	2578.283011
349.258191	2574.618092
349.648789	2574.360993
350.039324	2571.253122
350.429796	2573.488874
350.820203	2571.321178
351.210548	2573.042732
351.600828	2571.396795
351.991045	2568.979562
352.381198	2567.061403
352.771288	2568.500652
353.161314	2566.232133
353.551276	2568.757751
353.941175	2565.735579
354.331010	2565.765826
354.720782	2564.805486
355.110490	2565.594427
355.500135	2565.244067
355.889717	2564.132492
356.279235	2566.244736
356.668689	2568.178018
357.058080	2564.820610
357.447408	2564.528223
357.836672	2566.285065
358.225873	2565.670044
358.615010	2566.746331
359.004084	2569.360169
359.393095	2568.598955
359.782043	2567.731876
360.170927	2568.251115
360.559748	2571.540468
360.948505	2573.027608
361.337199	2570.633060
361.725830	2573.383010
362.114398	2574.363514
362.502903	2572.377299
362.891344	2574.943247
363.279722	2573.821590
363.668037	2575.459965
364.056289	2577.640264
364.444478	2576.178329
364.832603	2573.897207
365.220665	2577.284863
365.608665	2577.090778
365.996601	2575.790161
366.384474	2576.889132
366.772284	2574.575243
367.160031	2576.977352
367.547715	2580.556572
367.935336	2579.598752
368.322893	2578.189750
368.710388	2576.437949
369.097820	2576.884091
369.485189	2577.781416
369.872495	2580.473392
370.259738	2579.893660
370.646918	2582.517580
371.034035	2584.176120
371.421090	2581.864751
371.808081	2580.448187
372.195010	2584.128229
372.581875	2581.584967
372.968678	2581.174113
373.355418	2585.149063
373.742096	2583.321644
374.128710	2582.946078
374.515262	2585.181830
374.901751	2582.187385
375.288177	2583.954309
375.674540	2586.588312
376.060841	2583.856007
376.447079	2585.302818
376.833254	2584.607139
377.219367	2585.612849
377.605417	2586.245514
377.991404	2587.044537
378.377329	2586.880699
378.763191	2584.881882
379.148991	2587.384814
379.534727	2589.290371
379.920402	2586.172417
380.306013	2589.305494
380.691563	2588.070411
381.077049	2589.068560
381.462474	2588.894640
381.847835	2590.369177
382.233134	2591.775659
382.618371	2589.229877
383.003545	2588.640062
383.388657	2591.299270
383.773706	2589.459249
384.158693	2590.033941
384.543618	2592.887234
384.928480	2593.222471
385.313280	2589.529825
385.698017	2593.136771
386.082692	2594.384457
386.467305	2592.562079
386.851856	2593.247676
387.236344	2594.941504
387.620770	2590.238107
388.005133	2587.866245
388.389435	2592.297419
388.773674	2587.856162
389.157851	2594.540732
389.541965	2593.751792
389.926018	2596.035434
390.310008	2596.284972
390.693936	2595.206165
391.077802	2597.159612
391.461606	2594.853284
391.845348	2594.800352
392.229027	2595.738006
392.612645	2597.940991
392.996200	2595.866556
393.379694	2597.331011
393.763125	2598.064499
394.146494	2595.485949
394.529801	2598.722369
394.913047	2597.688933
395.296230	2600.373347
395.679351	2597.699015
396.062410	2600.212030
396.445408	2598.868563
396.828343	2600.764037
397.211217	2599.231526
397.594028	2602.651949
397.976778	2597.951073
398.359466	2603.738317
398.742092	2600.191866
399.124656	2602.215889
399.507158	2601.608430
399.889598	2603.382916
400.271977	2603.072885
400.654294	2604.033225
401.036549	2603.713112
401.418742	2603.138420
401.800874	2602.359562
402.182944	2603.955087
402.564952	2606.032043
402.946898	2605.858123
403.328783	2607.302413
403.710606	2604.847371
404.092367	2605.671600
404.474067	2608.875253
404.855705	2603.461054
405.237282	2604.401229
405.618797	2606.379882
406.000250	2607.463730
406.381642	2606.473143
406.762972	2605.469954
407.144240	2603.599686
407.525447	2605.908534
407.906593	2606.092536
408.287677	2607.698144
408.668700	2608.232506
409.049661	2609.442383
409.430560	2609.323916
409.811399	2608.202259
410.192176	2608.146807
410.572891	2608.812239
410.953545	2611.247116
411.334138	2612.638475
411.714669	2610.410285
412.095139	2609.638988
412.475547	2609.633947
412.855894	2613.182919
413.236180	2611.242075
413.616405	2611.000100
413.996568	2611.020264
414.376670	2612.900615
414.756711	2612.043618
415.136691	2614.395317
415.516609	2612.479678
415.896466	2615.910183
416.276262	2612.247785
416.655997	2613.918928
417.035670	2614.347426
417.415283	2613.482868
417.794834	2614.647374
418.174324	2614.181068
418.553753	2615.643002
418.933121	2617.243569
419.312428	2617.593929
419.691674	2616.741974
420.070859	2617.477982
420.449983	2618.642489
420.829045	2620.386728
421.208047	2617.825822
421.586988	2617.488065
421.965867	2622.917387
422.344686	2621.178189
422.723444	2620.689197
423.102141	2617.614093
423.480777	2618.458487
423.859352	2621.447891
424.237866	2622.151132
424.616319	2621.510905
424.994712	2625.289250
425.373044	2622.751029
425.751314	2619.282715
426.129524	2618.705503
426.507673	2623.950824
426.885762	2619.935545
427.263789	2626.370578
427.641756	2626.173973
428.019662	2625.700104
428.397508	2625.753036
428.775292	2628.195475
429.153016	2626.451236
429.530679	2626.249590
429.908282	2627.968623
430.285824	2628.911319
430.663305	2629.571710
431.040726	2628.603809
431.418086	2629.027266
431.795385	2632.906434
432.172624	2631.021042
432.549802	2631.699077
432.926920	2633.828965
433.303977	2629.838892
433.680974	2631.381485
434.057910	2634.819552
434.434786	2634.078502
434.811601	2633.045065
435.188355	2635.583286
435.565050	2639.192752
435.941683	2635.963893
436.318257	2638.723925
436.694770	2640.085037
437.071222	2640.405150
437.447614	2643.777682
437.823946	2641.642753
438.200218	2645.557209
438.576429	2645.552168
438.952580	2647.538383
439.328670	2649.600215
439.704700	2649.297745
440.080670	2650.545431
440.456580	2651.397386
440.832429	2655.110196
441.208218	2658.825526
441.583947	2661.953562
441.959616	2664.461536
442.335224	2666.788029
442.710773	2673.212979
443.086261	2675.325223
443.461689	2678.785975
443.837057	2687.703776
444.212365	2695.273068
444.587612	2698.191897
444.962800	2709.433670
445.337927	2718.235524
445.712995	2721.182079
446.088002	2747.817015
446.462949	2758.373191
446.837837	2773.295007
447.212664	2788.405865
447.587431	2816.689259
447.962139	2853.928262
448.336786	2941.566201
448.711374	2989.497492
449.085901	2955.759570
449.460369	2973.819504
449.834776	2989.444560
450.209124	3059.118347
450.583412	3124.766773
450.957640	3221.687997
451.331808	3225.597412
451.705917	3220.359653
452.079965	3225.599932
452.453954	3339.225020
452.827883	3371.374978
453.201752	3461.833443
453.575562	3484.914366
453.949311	3583.622679
454.323001	3653.374604
454.696632	3754.358998
455.070202	3867.237994
455.443713	3976.081547
455.817164	4132.712717
456.190556	4220.751428
456.563888	4377.057444
456.937160	4505.624511
457.310373	4490.760669
457.683526	4590.625927
458.056619	4618.551399
458.429653	4739.430706
458.802628	4748.706429
459.175542	4925.885343
459.548398	5227.106888
459.921194	5443.460608
460.293930	5578.303912
460.666607	5946.333348
461.039224	6354.941553
461.411782	6724.132975
461.784280	6847.590833
462.156719	7011.488827
462.529099	7040.946809
462.901419	6874.349278
463.273680	6939.591891
463.645882	7036.591253
464.018024	7077.815288
464.390106	7313.390928
464.762130	7757.108248
465.134094	8175.740787
465.505999	9104.520451
465.877845	10619.407347
466.249631	12060.708519
466.621358	12195.856813
466.993026	11827.197232
467.364634	11798.024075
467.736184	11402.878272
468.107674	11209.970958
468.479105	11463.586367
468.850477	11429.989597
469.221790	11404.924980
469.593043	11239.842315
469.964238	11176.464929
470.335373	11164.953454
470.706449	11561.036912
471.077467	11463.573764
471.448425	12672.800378
471.819324	15222.711775
472.190164	16766.227383
472.560945	14939.517396
472.931667	13622.170635
473.302330	13391.691602
473.672934	13209.781565
474.043479	13652.979647
474.413965	13703.083675
474.784393	13627.010143
475.154761	14240.286673
475.525070	14431.124593
475.895321	14316.498837
476.265513	14898.124482
476.635645	15464.094824
477.005719	15490.946530
477.375734	15790.862417
477.745691	16341.815162
478.115588	16839.757653
478.485427	17437.267975
478.855207	18428.283204
479.224928	19920.472304
479.594591	21873.261549
479.964194	22145.070482
480.333739	22612.503910
480.703226	22408.495976
481.072653	22320.464827
481.442022	22931.505605
481.811333	23834.041022
482.180584	23962.779489
482.549777	23306.660713
482.918912	23144.685919
483.287988	23372.883830
483.657005	23239.999015
484.025964	23090.319595
484.394864	23198.091903
484.763706	23046.479201
485.132489	22642.181183
485.501213	22881.963666
485.869879	22938.878293
486.238487	22804.193785
486.607036	23068.723292
486.975527	22832.590605
487.343959	23243.535384
487.712333	23291.229741
488.080648	23035.975957
488.448905	23555.930647
488.817104	23360.651470
489.185244	24057.548140
489.553326	24104.682928
489.921350	25047.570261
490.289315	27244.288338
490.657222	29076.732637
491.025070	29624.580032
491.392861	29480.723145
491.760593	28721.285921
492.128267	27924.027440
492.495883	26966.099825
492.863440	26139.789174
493.230939	25308.417205
493.598380	25198.436872
493.965763	24825.341076
494.333088	24428.473719
494.700354	24363.740263
495.067563	24291.117400
495.434713	24061.986876
495.801805	24217.299785
496.168839	24073.077414
496.535815	23890.854826
496.902733	24118.205823
497.269593	23799.214211
497.636395	24004.837835
498.003139	24008.754812
498.369825	23773.431230
498.736453	23963.830569
499.103023	23856.988355
499.469535	23887.797366
499.835989	24089.788839
500.202385	24126.957267
500.568723	23628.775320
500.935003	23912.398197
501.301226	23493.382531
501.667390	24317.787625
502.033497	24583.395939
502.399546	24305.328413
502.765537	23910.724534
503.131470	24292.486074
503.497345	24423.477936
503.863163	23634.204643
504.228923	24267.555047
504.594625	24449.989364
504.960269	23951.036121
505.325856	24469.939730
505.691385	23884.495411
506.056856	24486.031093
506.422270	24448.847542
506.787625	24057.533016
507.152924	24457.160405
507.518164	24479.376770
507.883347	24285.662872
508.248472	23981.041068
508.613540	24760.567291
508.978550	24538.423805
509.343503	24528.477609
509.708398	24815.036958
510.073236	24948.831702
510.438016	25172.726988
510.802738	24848.941238
511.167403	25093.351500
511.532010	24791.240191
511.896561	25578.907877
512.261053	25527.276379
512.625488	25386.711366
512.989866	25274.384376
513.354186	25137.650639
513.718449	25232.036163
514.082655	25606.634223
514.446803	25362.508786
514.810894	25796.738655
515.174927	25291.010101
515.538904	25321.942621
515.902822	25815.146428
516.266684	25570.574849
516.630488	25463.795649
516.994235	25463.914116
517.357925	25751.159062
517.721558	25944.908249
518.085133	26026.975713
518.448651	25948.149711
518.812112	25660.594734
519.175516	25857.585382
519.538863	26032.188266
519.902152	25802.926671
520.265385	26106.056293
520.628560	25901.181280
520.991678	25907.475161
521.354739	25982.575750
521.717743	26043.636726
522.080690	25825.425341
522.443580	26162.441599
522.806413	26162.431517
523.169189	26247.264054
523.531908	26298.091487
523.894569	25909.350470
524.257174	25974.824976
524.619722	26192.499479
524.982213	25864.491763
525.344647	25942.639730
525.707025	26049.184516
526.069345	26050.838015
526.431608	25996.869942
526.793815	26199.957866
527.155964	25639.336188
527.518057	25821.538611
527.880093	25746.942137
528.242072	25971.613761
528.603995	25671.786095
528.965860	25470.817977
529.327669	25519.608784
529.689421	25516.790779
530.051117	25343.664953
530.412755	25517.496541
530.774337	25331.732542
531.135862	25198.066348
531.497331	25404.821711
531.858743	24944.481186
532.220098	25435.298007
532.581396	25111.726506
532.942638	25057.133330
533.303824	25143.074921
533.664953	25167.844630
534.026025	24839.957902
534.387040	25066.373765
534.747999	25137.685928
535.108902	25285.467353
535.469748	24779.005311
535.830537	24982.650282
536.191270	25072.864251
536.551947	24976.018644
536.912567	24644.698890
537.273131	24958.767816
537.633638	24684.675240
537.994089	24886.099583
538.354483	24441.817653
538.714821	24940.733088
539.075103	24976.623583
539.435328	24767.914772
539.795497	24304.657940
540.155609	24719.605395
540.515665	25009.262533
540.875665	24253.487708
541.235609	24527.106415
541.595496	24503.768393
541.955328	24852.517937
542.315102	24768.660863
542.674821	24336.021478
543.034483	24211.051274
543.394090	24378.321800
543.753640	24165.965715
544.113134	24801.733353
544.472571	24393.225972
544.831953	24684.304715
545.191278	24299.173164
545.550548	24232.423246
545.909761	24452.913233
546.268918	24670.716285
546.628019	24629.890501
546.987064	24332.676673
547.346053	24093.025260
547.704986	24216.283992
548.063863	24376.675863
548.422684	24368.335274
548.781449	23925.288427
549.140158	24328.555529
549.498811	23902.900663
549.857408	23646.182424
550.215949	24080.566048
550.574434	23753.092694
550.932864	23972.990346
551.291237	24112.915132
551.649555	23994.952133
552.007817	24028.483367
552.366022	23910.734616
552.724173	23953.125679
553.082267	23894.214755
553.440305	24359.924109
553.798288	23628.349343
554.156215	24158.051103
554.514086	24242.850873
554.871902	23610.128092
555.229661	23891.545464
555.587365	23765.314972
555.945014	23608.600622
556.302606	23871.035530
556.660143	23814.410769
557.017625	24074.224277
557.375050	23603.569551
557.732421	23987.012315
558.089735	23806.163442
558.446994	23863.264591
558.804197	23885.475915
559.161345	23844.158618
559.518437	23577.647938
559.875474	23796.393685
560.232455	23964.601866
560.589381	23799.766217
560.946251	23751.172015
561.303065	24090.280352
561.659825	24164.513863
562.016528	23780.299802
562.373177	23523.085009
562.729770	23869.054356
563.086307	23736.187185
563.442789	23919.475977
563.799216	23744.046344
564.155587	23750.551953
564.511904	23734.861362
564.868164	23659.246574
565.224370	23652.325070
565.580520	23558.655391
565.936615	23686.282283
566.292654	23367.976267
566.648638	23678.745758
567.004567	23499.973839
567.360441	23443.250776
567.716260	23171.179703
568.072023	23508.105220
568.427732	23262.999279
568.783385	23046.297719
569.138982	23270.442543
569.494525	23316.823679
569.850013	23061.786665
570.205445	23160.154700
570.560823	22963.784113
570.916145	22736.700297
571.271412	22899.224577
571.626625	22659.374038
571.981782	22775.517182
572.336884	22587.209921
572.691931	22714.887224
573.046923	22440.585441
573.401860	22332.182989
573.756743	22325.339623
574.111570	22239.571952
574.466342	22180.678672
574.821059	22269.445829
575.175722	21969.867700
575.530330	21954.207356
575.884882	21980.696099
576.239380	21877.559132
576.593823	21775.377464
576.948211	21749.904514
577.302544	21608.054007
577.656823	21463.163683
578.011047	21566.179662
578.365216	21439.485384
578.719330	21323.927014
579.073389	21227.769525
579.427394	21365.534177
579.781344	21132.708487
580.135239	21034.564783
580.489080	21003.735607
580.842866	20768.538054
581.196597	20949.230652
581.550273	20934.860843
581.903895	20823.748771
582.257463	21133.048765
582.610975	20665.058289
582.964434	20972.588838
583.317837	20678.956750
583.671186	20776.724887
584.024481	20738.853219
584.377721	20513.952223
584.730906	20573.203424
585.084037	20594.802248
585.437113	20499.978144
585.790135	20704.593538
586.143103	20170.188380
586.496016	20186.559527
586.848874	20426.092473
587.201679	20360.270127
587.554428	20024.519199
587.907124	20371.406036
588.259765	20140.932044
588.612352	20209.055676
588.964884	19796.230547
589.317362	19960.057964
589.669786	20003.096815
590.022155	20061.944725
590.374470	20246.352653
590.726731	20044.489730
591.078937	19794.997985
591.431090	19910.092568
591.783188	19647.501385
592.135232	19618.721437
592.487222	19725.359485
592.839157	19736.046732
593.191038	19624.198651
593.542866	19514.581281
593.894639	19229.206603
594.246358	19448.897567
594.598022	19355.754688
594.949633	19115.364747
595.301190	19077.780424
595.652692	19236.110463
596.004141	19476.767586
596.355535	18808.923087
596.706876	18822.292227
597.058162	18725.116424
597.409395	18934.641902
597.760573	19013.195682
598.111698	18799.307086
598.462768	18729.434173
598.813785	18691.179377
599.164748	18517.625053
599.515657	18545.676553
599.866511	18340.889761
600.217312	18704.127580
600.568060	18235.872444
600.918753	18549.976657
601.269392	18447.394218
601.619978	18223.662769
601.970510	18445.435730
602.320988	18375.676243
602.671412	18585.557121
603.021783	18486.508531
603.372100	18216.448878
603.722363	18354.304271
604.072572	18287.604764
604.422728	18435.187064
604.772830	18192.188325
605.122878	18145.358526
605.472872	18134.905694
605.822813	18137.955592
606.172701	18094.629395
606.522534	18291.027708
606.872314	18319.091811
607.222041	18153.137027
607.571714	18364.353811
607.921333	18188.599023
608.270899	18266.121887
608.620411	18455.896124
608.969870	18210.883444
609.319276	18221.331235
609.668627	18238.700531
610.017926	18381.355102
610.367171	18496.835334
610.716362	18542.228404
611.065500	18374.201705
611.414585	18492.666300
611.763616	18473.767014
612.112594	18429.815714
612.461518	18390.519920
612.810389	18582.287933
613.159207	18438.872147
613.507971	18339.324482
613.856682	18625.722515
614.205340	18553.939004
614.553945	18703.096664
614.902496	18452.669785
615.250994	18683.350465
615.599439	18622.468450
615.947830	18618.102811
616.296169	18662.522938
616.644454	18622.372668
616.992686	18594.013657
617.340864	18804.534762
617.688990	18565.959636
618.037063	18735.291993
618.385082	18595.999872
618.733048	18875.415906
619.080961	18738.972036
619.428821	18768.969422
619.776628	18665.598042
620.124382	18587.684488
620.472083	18624.699160
620.819731	18649.836874
621.167326	18334.966405
621.514868	18376.674391
621.862357	18145.731572
622.209793	18157.830341
622.557176	17979.033217
622.904506	17813.663206
623.251783	17719.418835
623.599007	17490.558012
623.946179	17440.539684
624.293297	17376.262452
624.640363	17131.642982
624.987376	17153.531672
625.334336	16939.827078
625.681243	16788.912576
626.028097	16798.558824
626.374899	16725.005868
626.721647	16595.463338
627.068343	16417.442552
627.414987	16361.074890
627.761577	16328.556927
628.108115	16373.029986
628.454600	16092.267964
628.801032	16199.228646
629.147412	16131.556197
629.493739	16155.436142
629.840014	15954.601614
630.186236	16065.663275
630.532405	15819.153372
630.878521	16020.113929
631.224585	15906.592186
631.570597	15732.072481
631.916556	15775.176867
632.262462	15741.295272
632.608316	15661.347613
632.954117	15608.831393
633.299866	15602.338386
633.645562	15521.813515
633.991206	15276.306803
634.336797	15147.321320
634.682336	15116.731598
635.027823	15012.510783
635.373257	14891.409665
635.718639	14775.415236
636.063968	14735.794287
636.409245	14488.687008
636.754470	14510.600904
637.099642	14358.842008
637.444762	14131.221309
637.789829	14179.944061
638.134845	14017.959185
638.479808	14042.796950
638.824719	13988.680164
639.169577	13843.129449
639.514383	13894.657603
639.859137	13706.108367
640.203839	13789.504175
640.548489	13631.630360
640.893086	13617.873051
641.237632	13482.510509
641.582125	13645.400272
641.926566	13472.057676
642.270955	13481.572854
642.615292	13444.911063
642.959576	13462.539978
643.303809	13487.052588
643.647990	13424.035645
643.992118	13484.184172
644.336195	13252.520468
644.680219	13449.929532
645.024192	13387.446950
645.368112	13629.402170
645.711981	13677.144418
646.055797	13857.428682
646.399562	13820.971058
646.743274	14092.694291
647.086935	14360.634138
647.430544	14334.606661
647.774101	14360.334190
648.117606	14510.164844
648.461059	14483.411440
648.804460	14474.218896
649.147810	14200.781671
649.491108	14101.720477
649.834354	14120.599598
650.177548	13816.938134
650.520690	13628.769505
650.863781	13544.214232
651.206820	13593.148712
651.549807	13421.202516
651.892742	13228.791756
652.235626	13167.748424
652.578458	13160.443793
652.921238	12853.263603
653.263967	13055.822206
653.606644	12879.028941
653.949269	12850.329652
654.291843	12658.712874
654.634365	12812.810864
654.976836	12666.693020
655.319255	12674.685770
655.661622	12628.614665
656.003938	12553.814024
656.346203	12480.601347
656.688416	12548.689691
657.030577	12506.648988
657.372687	12424.032039
657.714746	12397.220662
658.056753	12588.295516
658.398708	12419.104311
658.740612	12408.162486
659.082465	12510.513033
659.424266	12477.806027
659.766016	12497.153975
660.107715	12409.566448
660.449362	12486.885145
660.790958	12441.852518
661.132503	12387.161039
661.473996	12448.746295
661.815438	12464.865385
662.156829	12477.049854
662.498168	12468.046353
662.839456	12457.374230
663.180693	12479.605719
663.521879	12565.209552
663.863013	12547.220195
664.204097	12517.948735
664.545129	12644.065801
664.886110	12610.000204
665.227040	12698.573277
665.567918	12708.557282
665.908746	12739.008372
666.249522	12722.538923
666.590248	12777.023713
666.930922	12885.020352
667.271545	12865.735418
667.612118	12958.590951
667.952639	12862.095705
668.293109	12860.905993
668.633528	12824.395436
668.973896	12786.541412
669.314213	12885.027914
669.654480	12618.688633
669.994695	12685.824199
670.334859	12709.131974
670.674973	12649.893375
671.015035	12690.414170
671.355047	12628.304634
671.695008	12595.605189
672.034918	12607.071294
672.374777	12651.317501
672.714585	12571.841190
673.054342	12604.885953
673.394049	12554.262687
673.733705	12642.956747
674.073310	12558.000702
674.412864	12564.748287
674.752368	12449.036162
675.091820	12454.160495
675.431223	12448.602623
675.770574	12310.260758
676.109875	12235.087072
676.449125	12190.752644
676.788324	12135.766259
677.127473	11976.407824
677.466571	11958.383178
677.805619	11861.905576
678.144616	11783.046807
678.483562	11759.658373
678.822458	11621.006478
679.161303	11596.569485
679.500098	11588.324677
679.838842	11544.116279
680.177535	11561.644371
680.516179	11628.129628
680.854771	11574.244735
681.193314	11791.702468
681.531805	11939.294849
681.870247	12354.320443
682.208638	12757.222061
682.546978	13089.121548
682.885268	13128.452630
683.223508	12831.891632
683.561697	12664.215293
683.899836	12563.291393
684.237925	12372.725695
684.575963	12288.919033
684.913951	12213.236191
685.251889	12158.824497
685.589776	12246.946386
685.927614	12184.345338
686.265401	12146.456026
686.603137	12188.184177
686.940824	12342.251920
687.278460	12463.524438
687.616046	12505.071107
687.953582	12678.169207
688.291068	12603.809667
688.628504	12837.061335
688.965889	12855.103625
689.303224	12811.706852
689.640510	12711.317314
689.977745	12403.068400
690.314930	12171.404696
690.652065	12094.701020
690.989150	11797.194805
691.326185	11582.426527
691.663170	11366.891995
692.000105	11133.990687
692.336990	11014.974086
692.673825	10763.886816
693.010610	10652.285752
693.347345	10438.258524
693.684030	10237.229912
694.020665	10184.443990
694.357251	9992.663374
694.693786	9934.057440
695.030272	9763.948745
695.366707	9643.238316
695.703093	9577.259694
696.039429	9574.930681
696.375716	9497.795986
696.711952	9369.110452
697.048139	9407.536647
697.384276	9362.914874
697.720363	9375.144713
698.056400	9321.342999
698.392388	9265.154298
698.728326	9229.294050
699.064214	9166.488835
699.400053	9211.090443
699.735842	9028.605715
700.071581	8986.323037
700.407270	8909.233713
700.742910	8827.587185
701.078501	8741.953105
701.414042	8615.026933
701.749533	8547.606542
702.084974	8414.888084
702.420366	8525.188531
702.755709	8409.403309
703.091002	8276.173175
703.426246	8302.709808
703.761440	8258.534177
704.096584	8213.546920
704.431679	8142.035633
704.766725	8131.683623
705.101721	8082.376097
705.436668	8122.266748
705.771565	8024.294443
706.106413	8101.330836
706.441212	8149.010069
706.775961	8096.952594
707.110661	8128.648848
707.445311	8280.690048
707.779913	8177.232969
708.114465	8300.751320
708.448967	8343.190274
708.783421	8481.776634
709.117825	8666.035848
709.452180	8703.915078
709.786485	8786.242162
710.120742	9069.837313
710.454949	9073.015760
710.789107	9174.529475
711.123216	9382.149396
711.457275	9548.681393
711.791286	9714.981497
712.125247	9705.057985
712.459159	9699.734527
712.793023	9944.157392
713.126837	9522.661477
713.460602	9668.706225
713.794318	9497.947221
714.127985	9530.588692
714.461602	9205.862767
714.795171	9154.367380
715.128691	8910.068024
715.462162	8656.223242
715.795584	8606.898073
716.128957	8456.684291
716.462281	8288.526522
716.795556	8338.184408
717.128782	8130.428376
717.461960	7865.001543
717.795088	7936.346473
718.128167	7844.718461
718.461198	7677.846186
718.794180	7620.603884
719.127113	7608.754652
719.459997	7465.991696
719.792833	7235.447128
720.125619	7297.271838
720.458357	7156.883266
720.791046	7137.936089
721.123686	7142.949516
721.456278	6979.464897
721.788821	6999.042218
722.121315	6894.029942
722.453761	6955.854653
722.786158	6902.370531
723.118506	6918.842502
723.450805	6884.358489
723.783056	6949.699404
724.115259	6853.307502
724.447412	6851.152408
724.779518	6900.036477
725.111574	6902.068062
725.443582	6982.983622
725.775542	6962.592155
726.107453	7154.486197
726.439315	7068.552168
726.771129	7122.308512
727.102895	7292.081971
727.434612	7407.940289
727.766281	7438.963550
728.097901	7512.826536
728.429473	7510.031216
728.760996	7487.000705
729.092471	7457.615819
729.423897	7406.359887
729.755276	7421.049809
730.086606	7347.595157
730.417887	7441.312727
730.749120	7633.630226
731.080305	7831.666914
731.411442	7953.362888
731.742530	7946.930376
732.073570	8051.617497
732.404562	8135.678737
732.735506	7995.002819
733.066401	8127.822099
733.397249	8060.368940
733.728048	7833.373344
734.058798	7497.488825
734.389501	7266.331757
734.720156	7088.530261
735.050762	6858.283120
735.381320	6760.225116
735.711831	6712.621501
736.042293	6603.084789
736.372707	6624.116483
736.703073	6487.289485
737.033391	6521.844074
737.363661	6533.509304
737.693883	6563.095836
738.024056	6646.045502
738.354182	6691.173912
738.684260	6728.004582
739.014290	6837.294276
739.344272	6942.929135
739.674207	6978.335679
740.004093	7046.857562
740.333931	7056.181176
740.663722	7062.157464
740.993464	7144.595453
741.323159	7139.667725
741.652806	6885.510392
741.982405	6896.179994
742.311956	6952.116638
742.641460	6798.535365
742.970915	6591.858140
743.300323	6590.658345
743.629683	6537.985849
743.958996	6404.274284
744.288260	6318.599875
744.617477	6265.692965
744.946647	6270.139263
745.275768	6103.745898
745.604842	6062.836934
745.933869	6043.272216
746.262847	5999.993911
746.591778	5991.088712
746.920662	5951.871056
747.249498	5940.810764
747.578286	5983.302650
747.907027	6061.611934
748.235720	6122.577128
748.564365	6093.333395
748.892963	6119.643177
749.221514	6273.718482
749.550017	6111.254697
749.878473	5982.856508
750.206881	6041.946393
750.535242	5982.480942
750.863555	5915.640283
751.191821	5929.705103
751.520039	5930.753662
751.848210	5837.751936
752.176334	5860.568198
752.504411	5909.870683
752.832440	5834.505433
753.160421	5767.306852
753.488356	5813.272093
753.816243	5848.174521
754.144082	5698.853024
754.471875	5666.282129
754.799620	5716.570159
755.127318	5726.609617
755.454969	5676.361916
755.782572	5638.578468
756.110129	5685.899779
756.437638	5669.536194
756.765100	5611.656186
757.092515	5611.106700
757.419882	5657.404657
757.747203	5638.618797
758.074477	5706.865938
758.401703	5693.635430
758.728882	5643.067615
759.056014	5690.961097
759.383099	5826.109391
759.710138	5837.512481
760.037129	5818.802238
760.364073	5824.402960
760.690970	5906.805661
761.017820	5888.085336
761.344623	5842.989695
761.671379	5942.789417
761.998088	6062.279887
762.324751	6302.137987
762.651366	6892.852833
762.977935	8190.498765
763.304456	9818.925048
763.630931	10727.136804
763.957359	10343.018525
764.283740	9406.725021
764.610074	8580.832787
764.936362	7588.264883
765.262602	6990.116855
765.588796	6450.247087
765.914943	6112.068843
766.241044	5953.557322
766.567097	5753.118524
766.893104	5495.056818
767.219064	5315.964786
767.544978	5251.165795
767.870845	5180.428324
768.196665	5073.006377
768.522438	4999.080376
768.848165	4969.266992
769.173846	4900.719903
769.499479	4857.035784
769.825066	4805.432013
770.150607	4745.222992
770.476101	4720.332295
770.801548	4716.813569
771.126949	4644.165501
771.452303	4591.871092
771.777611	4544.738824
772.102872	4568.540632
772.428087	4523.966750
772.753256	4489.170185
773.078378	4443.167136
773.403453	4371.701218
773.728482	4362.138149
774.053465	4312.838185
774.378401	4301.956855
774.703291	4301.702277
775.028135	4230.990012
775.352932	4180.608720
775.677683	4165.911236
776.002388	4184.896221
776.327046	4201.131257
776.651658	4125.881954
776.976224	4063.994229
777.300743	4067.235691
777.625216	4088.952981
777.949643	4086.117332
778.274024	4043.501938
778.598359	3992.989577
778.922647	4019.246427
779.246889	4012.448431
779.571086	4005.978110
779.895236	3993.118126
780.219339	3979.839727
780.543397	3972.714056
780.867409	4022.089637
781.191374	4036.724107
781.515294	3975.201865
781.839167	3966.019404
782.162995	3985.576560
782.486776	3975.567349
782.810511	3981.702433
783.134201	3981.566322
783.457844	3936.047223
783.781441	3881.151579
784.104993	3887.022002
784.428498	3905.046648
784.751958	3903.110845
785.075372	3880.743245
785.398739	3843.486598
785.722061	3855.902960
786.045337	3894.987025
786.368568	3933.037655
786.691752	3843.020291
787.014891	3891.589288
787.337983	4014.691744
787.661030	4175.348276
787.984031	4338.885827
788.306987	4508.777753
788.629897	4587.376903
788.952760	4545.479874
789.275579	4475.168380
789.598351	4414.737549
789.921078	4276.446096
790.243759	4072.639807
790.566395	4056.054411
790.888984	4052.946540
791.211529	3945.159109
791.534027	3887.170716
791.856480	3876.203686
792.178888	3813.191784
792.501249	3765.013476
792.823566	3773.391874
793.145836	3806.088798
793.468062	3753.426384
793.790241	3702.649362
794.112375	3733.125658
794.434464	3796.576141
794.756507	3825.172086
795.078505	3807.069302
795.400457	3836.794466
795.722364	3972.404025
796.044226	4081.103905
796.366042	4151.677538
796.687812	4130.000577
797.009538	4141.300323
797.331218	4094.745267
797.652852	4071.442533
797.974442	4051.580387
798.295986	4051.792116
798.617484	3972.167091
798.938938	3883.896487
799.260346	3924.165224
799.581709	3920.303700
799.903026	3848.258050
800.224299	3807.281031
800.545526	3805.947646
800.866708	3765.590688
801.187845	3705.573231
801.508936	3743.306268
801.829983	3742.343408
802.150984	3661.490862
802.471940	3648.247750
802.792851	3660.674195
803.113717	3658.977846
803.434538	3662.471366
803.755314	3605.922223
804.076045	3581.649067
804.396731	3599.330914
804.717372	3623.772948
805.037967	3613.415898
805.358518	3598.574741
805.679024	3630.886017
805.999485	3642.304230
806.319901	3646.347235
806.640272	3657.856190
806.960598	3673.677851
807.280879	3647.274808
807.601115	3656.134636
807.921306	3674.756658
808.241453	3714.773337
808.561554	3692.836756
808.881611	3627.954586
809.201623	3661.195954
809.521590	3675.774971
809.841513	3645.366731
810.161390	3676.889066
810.481223	3657.737723
810.801011	3599.509875
811.120755	3591.930500
811.440453	3627.503402
811.760107	3631.737972
812.079716	3590.967640
812.399281	3555.309038
812.718801	3581.190322
813.038276	3553.516908
813.357707	3547.926268
813.677093	3568.128692
813.996434	3515.975435
814.315731	3521.593801
814.634983	3525.901467
814.954191	3540.669527
815.273354	3566.855801
815.592473	3565.348496
815.911547	3573.210175
816.230577	3611.104529
816.549562	3664.820544
816.868502	3705.127089
817.187399	3727.363619
817.506250	3724.626272
817.825058	3699.044937
818.143821	3785.866209
818.462539	3891.556520
818.781213	3940.624591
819.099843	3995.784897
819.418429	4236.414293
819.736970	4474.795335
820.055466	4717.708374
820.373919	5082.902162
820.692327	5490.587835
821.010691	5924.792498
821.329011	7283.769108
821.647286	9991.549279
821.965517	14520.143808
822.283704	18544.028096
822.601847	20737.376161
822.919945	18942.972408
823.237999	16373.297168
823.556010	13905.518769
823.873976	11812.966055
824.191897	9730.737623
824.509775	8377.744863
824.827609	7252.579489
825.145398	6710.935235
825.463144	6591.825372
825.780845	6702.796292
826.098502	6887.889817
826.416116	7753.332424
826.733685	9065.794307
827.051210	10180.695892
827.368692	10240.597403
827.686129	8995.928956
828.003522	7483.577761
828.320872	6472.992773
828.638177	5769.779538
828.955439	5215.187080
829.272656	4718.782140
829.589830	4433.662040
829.906960	4262.656019
830.224046	4075.742638
830.541088	3952.788895
830.858086	3903.289806
831.175041	3829.777180
831.491952	3813.579952
831.808819	3824.388186
832.125642	3896.600195
832.442421	4038.191083
832.759157	4312.404646
833.075849	4856.713150
833.392497	5715.393050
833.709101	6485.497355
834.025662	6829.951836
834.342179	6473.769111
834.658653	5810.076001
834.975083	5171.250903
835.291469	4598.961475
835.607811	4186.453938
835.924110	4049.284142
836.240366	3851.199563
836.556578	3646.311947
836.872746	3536.097201
837.188871	3499.856346
837.504952	3433.446706
837.820990	3350.343284
838.136984	3302.144813
838.452935	3327.027948
838.768842	3323.665498
839.084706	3347.101823
839.400526	3499.329545
839.716303	3834.727593
840.032037	4353.701778
840.347727	4626.977687
840.663373	4354.420143
840.978977	3970.407728
841.294537	3664.112262
841.610054	3435.034669
841.925527	3329.561128
842.240957	3260.923297
842.556344	3205.243753
842.871687	3150.678304
843.186987	3099.802979
843.502244	3063.839388
843.817458	3028.823533
844.132629	2994.616784
844.447756	3008.079185
844.762840	2992.103769
845.077881	2960.137812
845.392879	2943.640636
845.707833	2940.066458
846.022745	2939.224585
846.337613	2938.322219
846.652438	2926.556166
846.967221	2923.024838
847.281960	2912.534196
847.596656	2904.808628
847.911309	2906.260480
848.225919	2900.805952
848.540485	2892.286402
848.855009	2897.130951
849.169490	2886.199209
849.483928	2873.876108
849.798323	2873.616489
850.112675	2870.881663
850.426984	2882.355329
850.741251	2880.943806
851.055474	2867.879656
851.369654	2865.432175
851.683792	2871.259749
851.997887	2878.582025
852.311938	2878.405585
852.625947	2868.005684
852.939914	2869.593648
853.253837	2879.164278
853.567718	2862.634335
853.881555	2861.018645
854.195350	2873.243443
854.509103	2873.608927
854.822812	2867.224306
855.136479	2860.887575
855.450103	2863.889582
855.763685	2859.120651
856.077224	2852.499095
856.390720	2865.684233
856.704173	2873.913917
857.017584	2868.771940
857.330953	2862.266331
857.644278	2874.791078
857.957561	2885.085114
858.270802	2883.822305
858.584000	2884.583519
858.897155	2873.175388
859.210268	2872.139431
859.523339	2870.294368
859.836367	2869.318905
860.149352	2865.348996
860.462295	2860.585106
860.775195	2866.591641
861.088054	2867.925026
861.400869	2851.684949
861.713642	2850.001203
862.026373	2862.528471
862.339062	2865.815303
862.651708	2872.875439
862.964312	2873.573639
863.276873	2867.282279
863.589392	2877.513301
863.901869	2888.308932
864.214303	2908.579411
864.526696	2923.980136
864.839045	2920.461411
865.151353	2922.014086
865.463619	2919.874116
865.775842	2920.221956
866.088023	2940.961263
866.400162	2946.486368
866.712258	2917.794640
867.024313	2908.251736
867.336325	2914.558220
867.648296	2937.666869
867.960224	2928.370981
868.272110	2917.368663
868.583954	2919.790937
868.895755	2934.574121
869.207515	2921.015938
869.519233	2925.363933
869.830909	2937.550922
870.142542	2945.994855
870.454134	2945.687345
870.765684	2947.139197
871.077191	2945.158023
871.388657	2957.345013
871.700081	2968.785912
872.011463	2979.291676
872.322803	2982.807881
872.634101	2980.025164
872.945357	2996.877741
873.256571	3022.580064
873.567744	3018.166534
873.878874	3004.560460
874.189963	3031.389481
874.501010	3034.961138
874.812015	3024.283974
875.122979	3022.466638
875.433900	3017.806092
875.744780	3026.600384
876.055618	3032.896786
876.366415	3026.232380
876.677169	3038.316026
876.987882	3036.518855
877.298554	3029.282278
877.609183	3052.887481
877.919771	3074.967735
878.230317	3103.155347
878.540822	3154.174344
878.851285	3189.306145
879.161707	3234.737024
879.472087	3336.283506
879.782425	3558.699214
880.092722	3987.570336
880.402977	4512.775388
880.713191	5136.955934
881.023363	6282.454802
881.333494	7555.905716
881.643583	8119.854556
881.953631	7830.005853
882.263637	7204.610390
882.573602	6623.635053
882.883526	6044.015787
883.193408	5471.282736
883.503248	5012.540257
883.813048	4708.324266
884.122806	4405.161877
884.432522	4093.747119
884.742197	3856.427240
885.051831	3667.081501
885.361424	3530.531767
885.670975	3458.639872
885.980485	3375.135679
886.289954	3297.159111
886.599382	3252.610435
886.908768	3218.869992
887.218113	3172.632529
887.527417	3116.191771
887.836680	3067.506827
888.145901	3060.401321
888.455082	3047.949671
888.764221	3000.729183
889.073319	2971.248515
889.382376	2972.163485
889.691392	2971.341777
890.000366	2969.166519
890.309300	2960.440281
890.618193	2971.707260
890.927044	2986.185454
891.235855	2988.539673
891.544625	2972.407981
891.853353	2986.465238
892.162041	3002.211282
892.470687	3041.565050
892.779293	3095.079418
893.087858	3141.654639
893.396381	3208.737273
893.704864	3332.132116
894.013306	3564.695667
894.321707	3865.355123
894.630068	4072.533943
894.938387	4073.993357
895.246665	4023.385214
895.554903	3903.262079
895.863100	3708.106411
896.171256	3544.059703
896.479371	3403.461923
896.787446	3280.319137
897.095480	3182.407326
897.403473	3112.350411
897.711425	3076.964032
898.019336	3068.515058
898.327207	3042.023795
898.635038	3005.301509
898.942827	2988.653099
899.250576	2980.821666
899.558284	2948.306224
899.865952	2926.525919
900.173579	2908.949936
900.481165	2898.187073
900.788711	2890.781618
901.096216	2864.265148
901.403681	2854.540763
901.711105	2860.189375
902.018489	2858.883717
902.325832	2856.090917
902.633135	2867.105838
902.940397	2900.107752
903.247619	2981.595483
903.554800	3169.731345
903.861941	3510.825897
904.169041	3938.199796
904.476101	4234.095362
904.783121	4194.338303
905.090100	3953.759317
905.397039	3679.903676
905.703938	3429.900254
906.010796	3246.873602
906.317614	3136.096767
906.624391	3043.183260
906.931129	2973.217086
907.237826	2908.584452
907.544483	2863.670292
907.851099	2831.590910
908.157675	2811.617858
908.464211	2791.097841
908.770707	2780.874381
909.077163	2766.648245
909.383578	2751.360946
909.689954	2738.740417
909.996289	2737.704460
910.302584	2740.693865
910.608839	2739.627661
910.915054	2733.807648
911.221229	2726.119889
911.527363	2728.703480
911.833458	2736.587845
912.139513	2739.980541
912.445527	2742.531365
912.751502	2753.079980
913.057436	2764.520878
913.363331	2775.553443
913.669186	2797.086732
913.975000	2828.152843
914.280775	2889.475959
914.586510	2958.204530
914.892205	3038.414328
915.197859	3163.404697
915.503475	3354.245138
915.809050	3568.020307
916.114585	3711.355435
916.420081	3737.682861
916.725536	3676.838654
917.030952	3554.688976
917.336328	3431.881427
917.641665	3300.337559
917.946961	3200.547918
918.252218	3131.584934
918.557435	3054.987122
918.862612	2994.755416
919.167750	2947.149279
919.472848	2909.529669
919.777906	2880.474978
920.082925	2854.812985
920.387904	2823.240238
920.692843	2807.753814
920.997743	2797.681588
921.302603	2783.692386
921.607423	2772.639657
921.912204	2760.951741
922.216946	2749.558734
922.521647	2738.231261
922.826310	2733.028790
923.130932	2726.681977
923.435516	2716.944989
923.740059	2708.317054
924.044564	2703.454861
924.349028	2697.004705
924.653454	2691.033458
924.957840	2685.599094
925.262186	2679.506860
925.566493	2675.957887
925.870761	2671.791374
926.174989	2666.074705
926.479178	2664.307781
926.783328	2659.906854
927.087438	2655.342089
927.391509	2656.085659
927.695541	2653.169352
927.999533	2651.904022
928.303486	2646.588125
928.607400	2646.570481
928.911275	2648.087868
929.215110	2644.153248
929.518906	2642.431694
929.822663	2643.419760
930.126381	2643.417239
930.430060	2646.000831
930.733699	2643.477733
931.037299	2647.550986
931.340861	2646.820018
931.644383	2646.121818
931.947866	2646.414205
932.251309	2643.235758
932.554714	2644.967394
932.858080	2640.679893
933.161407	2639.129738
933.464694	2640.397588
933.767943	2633.886938
934.071153	2638.383647
934.374323	2635.684109
934.677455	2638.378606
934.980548	2638.005561
935.283602	2636.639408
935.586617	2636.281486
935.889593	2635.217803
936.192530	2634.184366
936.495428	2635.313585
936.798287	2636.034470
937.101108	2642.608134
937.403890	2644.430511
937.706632	2650.316058
938.009336	2654.527942
938.312002	2665.436999
938.614628	2672.025787
938.917216	2679.458969
939.219765	2679.761438
939.522275	2679.300172
939.824747	2678.700275
940.127179	2676.804801
940.429573	2671.012516
940.731929	2670.480674
941.034246	2664.254849
941.336524	2665.368944
941.638763	2659.798469
941.940964	2656.902326
942.243126	2655.957110
942.545250	2656.118427
942.847335	2650.154742
943.149381	2648.581902
943.451389	2645.320275
943.753359	2638.711322
944.055290	2641.299955
944.357182	2639.533030
944.659036	2640.130407
944.960851	2638.151754
945.262628	2637.292237
945.564367	2637.105715
945.866067	2637.544295
946.167729	2637.708133
946.469352	2638.245016
946.770937	2638.915489
947.072484	2638.600417
947.373992	2637.382978
947.675462	2634.257463
947.976893	2631.530199
948.278286	2631.376443
948.579641	2629.039869
948.880958	2627.409055
949.182236	2627.555249
949.483476	2626.922584
949.784678	2628.281175
950.085841	2628.689508
950.386967	2628.835702
950.688054	2628.450054
950.989103	2630.463995
951.290114	2631.469705
951.591087	2636.047072
951.892021	2635.734521
952.192917	2636.770478
952.493776	2640.881539
952.794596	2643.376910
953.095378	2641.524286
953.396122	2640.657208
953.696828	2638.555047
953.997496	2639.472537
954.298126	2633.050107
954.598718	2634.136475
954.899272	2627.341000
955.199788	2626.390742
955.500266	2626.554580
955.800706	2622.947634
956.101108	2619.101234
956.401472	2617.901439
956.701798	2616.913373
957.002087	2613.457662
957.302337	2615.171654
957.602550	2613.440018
957.902724	2607.988010
958.202861	2609.462548
958.502960	2612.106633
958.803022	2610.009513
959.103045	2606.876436
959.403031	2608.101436
959.702979	2605.853082
960.002889	2606.642022
960.302762	2603.214037
960.602596	2602.717484
960.902393	2606.689913
961.202153	2604.444079
961.501875	2602.462906
961.801559	2604.320571
962.101205	2604.572628
962.400814	2604.272680
962.700385	2604.290324
962.999918	2599.569283
963.299414	2599.198758
963.598873	2600.451485
963.898293	2596.050558
964.197677	2602.823348
964.497022	2601.749582
964.796331	2601.812597
965.095601	2601.736979
965.394835	2602.601537
965.694030	2598.629108
965.993189	2601.121959
966.292309	2602.543564
966.591393	2598.918974
966.890439	2599.418049
967.189447	2600.252360
967.488419	2600.244798
967.787353	2600.978286
968.086249	2597.068871
968.385108	2600.418718
968.683930	2600.254880
968.982714	2600.388471
969.281462	2599.032400
969.580172	2599.917123
969.878844	2601.172370
970.177480	2600.738831
970.476078	2600.842175
970.774639	2600.902668
971.073162	2600.753954
971.371649	2600.983327
971.670098	2600.426279
971.968510	2600.837133
972.266885	2599.962493
972.565223	2601.779829
972.863524	2599.654983
973.161788	2603.178749
973.460014	2602.183122
973.758204	2600.028028
974.056356	2598.775302
974.354471	2601.530292
974.652550	2599.856629
974.950591	2600.264963
975.248595	2601.237905
975.546563	2602.785539
975.844493	2598.064499
976.142386	2599.143306
976.440243	2598.974427
976.738062	2603.007350
977.035845	2600.123810
977.333590	2600.733790
977.631299	2597.152050
977.928971	2596.698346
978.226606	2595.238932
978.524204	2595.117944
978.821765	2596.922678
979.119290	2596.080805
979.416777	2596.146340
979.714228	2597.782194
980.011642	2598.649273
980.309020	2597.262955
980.606360	2598.520723
980.903664	2595.375043
981.200931	2598.503079
981.498162	2598.525764
981.795356	2599.985178
982.092513	2602.173039
982.389633	2604.242433
982.686717	2606.591611
982.983764	2610.869030
983.280775	2615.912704
983.577749	2615.680811
983.874686	2617.291460
984.171587	2612.545213
984.468451	2609.540686
984.765279	2608.565222
985.062070	2607.171343
985.358824	2604.469285
985.655543	2603.014912
985.952224	2600.499376
986.248869	2599.256732
986.545478	2598.611464
986.842050	2597.966196
987.138586	2597.043665
987.435086	2598.021649
987.731549	2595.594333
988.027975	2594.767584
988.324366	2596.383274
988.620719	2593.804724
988.917037	2595.649786
989.213318	2595.793459
989.509563	2594.228181
989.805772	2598.654314
990.101944	2594.550815
990.398080	2593.860177
990.694180	2596.955445
990.990244	2594.722214
991.286271	2593.814806
991.582262	2594.046699
991.878217	2595.922008
992.174136	2598.775302
992.470019	2596.206834
992.765865	2592.851946
993.061676	2589.789445
993.357450	2589.991091
993.653188	2587.936821
993.948890	2594.888572
994.244556	2595.672471
994.540186	2596.216916
994.835780	2593.456884
995.131337	2597.641042
995.426859	2595.674992
995.722345	2597.560383
996.017795	2596.400918
996.313208	2599.193717
996.608586	2600.632967
996.903928	2601.946187
997.199234	2600.665734
997.494504	2600.569952
997.789738	2599.632298
998.084936	2597.409149
998.380099	2597.600713
998.675225	2595.906885
998.970316	2596.040476
999.265371	2596.350507
999.560390	2595.506113
999.855373	2596.844540
1000.150320	2594.329004
1000.445232	2594.099631
1000.740108	2595.065012
1001.034948	2596.317739
1001.329752	2593.361102
1001.624521	2592.335227
1001.919254	2594.361771
1002.213951	2592.085690
1002.508613	2593.371185
1002.803239	2593.744230
1003.097829	2594.150043
1003.392384	2592.302460
1003.686903	2592.892275
1003.981386	2592.839343
1004.275834	2593.088880
1004.570246	2591.253900
1004.864623	2592.509147
1005.158964	2592.655341
1005.453270	2591.170721
1005.747540	2592.403283
1006.041775	2591.175762
1006.335974	2592.788931
1006.630138	2592.403283
1006.924266	2593.043510
1007.218359	2592.811617
1007.512416	2590.706935
1007.806438	2588.907243
1008.100425	2589.713827
1008.394376	2588.224167
1008.688292	2591.405135
1008.982172	2593.645927
1009.276017	2590.172572
1009.569827	2591.009404
1009.863602	2591.531163
1010.157341	2592.937645
1010.451045	2593.078798
1010.744714	2592.630135
1011.038347	2593.819847
1011.331945	2589.149218
1011.625508	2591.324476
1011.919036	2590.696852
1012.212528	2594.944025
1012.505986	2590.706935
1012.799408	2593.255238
1013.092795	2590.729620
1013.386147	2591.720207
1013.679464	2589.668457
1013.972745	2592.783890
1014.265992	2589.315576
1014.559204	2590.812799
1014.852380	2590.858169
1015.145521	2589.108889
1015.438628	2590.739702
1015.731699	2592.970413
1016.024736	2591.432861
1016.317737	2591.911771
1016.610703	2591.780701
1016.903635	2594.628952
1017.196531	2592.080649
1017.489393	2594.429827
1017.782219	2592.965372
1018.075011	2589.439085
1018.367768	2590.298601
1018.660490	2589.567634
1018.953177	2589.567634
1019.245829	2589.567634
