Dividing Wavelength (nm)	Counts (n)	Blue Motor Position (mm): 8.300000	Red Motor Position (mm): 0.000000	
326.493990	2140.383182
326.888308	2140.383182
327.282561	2140.383182
327.676750	2105.818511
328.070874	2104.616196
328.464933	2110.282453
328.858929	2114.572475
329.252859	2125.352982
329.646726	2137.277832
330.040528	2150.634369
330.434265	2165.231030
330.827938	2181.491271
331.221547	2201.824765
331.615091	2219.448639
332.008571	2240.621485
332.401986	2258.179824
332.795338	2278.893925
333.188625	2299.295475
333.581847	2315.134780
333.975006	2336.330312
334.368100	2353.860924
334.761129	2371.683924
335.154095	2388.057591
335.546996	2405.003430
335.939833	2422.375246
336.332606	2435.898141
336.725315	2449.312652
337.117960	2458.364043
337.510540	2464.829323
337.903056	2476.681076
338.295508	2486.982674
338.687896	2492.933756
339.080220	2501.922133
339.472480	2509.317506
339.864676	2512.453104
340.256807	2516.997704
340.648875	2519.359484
341.040879	2521.045750
341.432818	2524.856863
341.824694	2527.195958
342.216506	2525.008097
342.608253	2526.437264
342.999937	2529.197296
343.391557	2526.291071
343.783113	2523.455422
344.174605	2526.636390
344.566033	2522.807634
344.957397	2521.146573
345.348697	2517.398476
345.739934	2518.021058
346.131106	2514.668691
346.522215	2513.206756
346.913260	2511.316323
347.304241	2511.089472
347.695159	2509.713237
348.086012	2507.437156
348.476802	2505.599655
348.867528	2504.281393
349.258191	2504.188132
349.648789	2502.864829
350.039324	2497.528768
350.429796	2497.904334
350.820203	2497.654797
351.210548	2498.801659
351.600828	2493.954590
351.991045	2492.711945
352.381198	2494.153715
352.771288	2492.462408
353.161314	2495.305619
353.551276	2494.403252
353.941175	2493.493324
354.331010	2494.229333
354.720782	2489.906543
355.110490	2491.406286
355.500135	2491.686070
355.889717	2495.517347
356.279235	2493.843684
356.668689	2493.871411
357.058080	2496.268479
357.447408	2491.421410
357.836672	2491.965854
358.225873	2492.298571
358.615010	2491.925525
359.004084	2494.536843
359.393095	2494.667913
359.782043	2497.248984
360.170927	2499.633449
360.559748	2499.411639
360.948505	2498.743686
361.337199	2497.498521
361.725830	2499.542709
362.114398	2500.399705
362.502903	2497.591782
362.891344	2499.567914
363.279722	2501.662514
363.668037	2503.714263
364.056289	2500.132524
364.444478	2503.966321
364.832603	2503.706702
365.220665	2502.995899
365.608665	2504.646877
365.996601	2506.650736
366.384474	2505.307268
366.772284	2505.486229
367.160031	2506.824655
367.547715	2504.793070
367.935336	2503.734428
368.322893	2506.098729
368.710388	2506.496980
369.097820	2510.625685
369.485189	2506.373472
369.872495	2508.263905
370.259738	2506.824655
370.646918	2506.207114
371.034035	2506.837258
371.421090	2510.948319
371.808081	2504.795591
372.195010	2506.731394
372.581875	2507.525376
372.968678	2508.190808
373.355418	2507.139727
373.742096	2508.518483
374.128710	2508.810870
374.515262	2509.259533
374.901751	2511.167609
375.288177	2510.915552
375.674540	2510.935716
376.060841	2508.795747
376.447079	2510.834893
376.833254	2510.489574
377.219367	2506.396157
377.605417	2510.383710
377.991404	2504.236023
378.377329	2509.952691
378.763191	2509.173833
379.148991	2512.037208
379.534727	2511.613752
379.920402	2512.289266
380.306013	2512.884122
380.691563	2514.865296
381.077049	2512.304390
381.462474	2511.172651
381.847835	2512.143073
382.233134	2513.171468
382.618371	2512.959740
383.003545	2515.417302
383.388657	2513.703310
383.773706	2514.237672
384.158693	2514.106602
384.543618	2514.872858
384.928480	2514.028464
385.313280	2515.871006
385.698017	2515.455111
386.082692	2515.608866
386.467305	2514.005779
386.851856	2519.389731
387.236344	2516.735564
387.620770	2518.331089
388.005133	2516.037364
388.389435	2517.935358
388.773674	2515.313958
389.157851	2513.589884
389.541965	2519.437622
389.926018	2518.699093
390.310008	2517.799247
390.693936	2519.634227
391.077802	2517.711027
391.461606	2517.096006
391.845348	2519.172962
392.229027	2517.317817
392.612645	2517.930317
392.996200	2518.741943
393.379694	2520.150946
393.763125	2520.904598
394.146494	2519.062056
394.529801	2521.663292
394.913047	2519.498116
395.296230	2522.182531
395.679351	2520.725637
396.062410	2521.287726
396.445408	2521.423837
396.828343	2520.506347
397.211217	2518.260513
397.594028	2519.263703
397.976778	2517.673218
398.359466	2522.979033
398.742092	2516.604494
399.124656	2521.196985
399.507158	2522.225380
399.889598	2525.706297
400.271977	2522.439629
400.654294	2526.066740
401.036549	2524.299815
401.418742	2522.716893
401.800874	2522.154804
402.182944	2525.870135
402.564952	2522.560617
402.946898	2524.448529
403.328783	2521.675895
403.710606	2527.125382
404.092367	2522.270751
404.474067	2524.695546
404.855705	2523.362161
405.237282	2526.901051
405.618797	2522.868128
406.000250	2525.227387
406.381642	2525.350896
406.762972	2524.720752
407.144240	2525.857532
407.525447	2527.347193
407.906593	2524.602284
408.287677	2526.548170
408.668700	2524.909795
409.049661	2527.140505
409.430560	2525.981040
409.811399	2527.861390
410.192176	2525.623118
410.572891	2528.327697
410.953545	2523.979702
411.334138	2528.274765
411.714669	2526.933818
412.095139	2527.022038
412.475547	2529.474560
412.855894	2527.952131
413.236180	2529.451874
413.616405	2528.065557
413.996568	2529.835002
414.376670	2527.311905
414.756711	2529.547656
415.136691	2528.095804
415.516609	2526.681760
415.896466	2531.738038
416.276262	2529.582944
416.655997	2525.723941
417.035670	2526.311236
417.415283	2525.797038
417.794834	2527.455578
418.174324	2528.015146
418.553753	2530.790301
418.933121	2529.013294
419.312428	2532.065713
419.691674	2530.538243
420.070859	2528.937677
420.449983	2529.542615
420.829045	2531.405322
421.208047	2530.381967
421.586988	2532.005219
421.965867	2529.245187
422.344686	2533.257946
422.723444	2531.533871
423.102141	2532.353058
423.480777	2534.142668
423.859352	2530.472708
424.237866	2530.480270
424.616319	2529.887934
424.994712	2532.801721
425.373044	2532.199303
425.751314	2534.167874
426.129524	2530.823068
426.507673	2533.114273
426.885762	2532.249715
427.263789	2533.739376
427.641756	2532.975641
428.019662	2531.496062
428.397508	2533.567977
428.775292	2533.313398
429.153016	2534.717360
429.530679	2536.665766
429.908282	2531.669982
430.285824	2533.394057
430.663305	2532.668131
431.040726	2532.552184
431.418086	2533.898172
431.795385	2535.103008
432.172624	2533.560415
432.549802	2534.165353
432.926920	2536.602751
433.303977	2535.226516
433.680974	2534.031763
434.057910	2532.549663
434.434786	2534.432534
434.811601	2534.109901
435.188355	2533.378933
435.565050	2536.191897
435.941683	2534.235929
436.318257	2532.239632
436.694770	2528.814168
437.071222	2532.756351
437.447614	2528.884745
437.823946	2532.708460
438.200218	2536.320447
438.576429	2535.748276
438.952580	2537.263142
439.328670	2535.362627
439.704700	2535.508821
440.080670	2538.019315
440.456580	2536.138965
440.832429	2539.234233
441.208218	2535.395395
441.583947	2538.389840
441.959616	2537.921013
442.335224	2537.192566
442.710773	2541.187681
443.086261	2538.329346
443.461689	2535.990251
443.837057	2535.377751
444.212365	2538.377237
444.587612	2535.171063
444.962800	2540.255067
445.337927	2539.100643
445.712995	2538.450334
446.088002	2538.687268
446.462949	2537.132072
446.837837	2539.428318
447.212664	2533.777184
447.587431	2536.244829
447.962139	2539.907227
448.336786	2541.255736
448.711374	2539.546785
449.085901	2538.906558
449.460369	2538.732639
449.834776	2538.853626
450.209124	2538.667104
450.583412	2539.624923
450.957640	2541.104502
451.331808	2540.313040
451.705917	2539.151054
452.079965	2538.399922
452.453954	2540.265149
452.827883	2539.035108
453.201752	2538.495704
453.575562	2539.065355
453.949311	2539.256919
454.323001	2539.143493
454.696632	2541.994265
455.070202	2539.829090
455.443713	2539.924872
455.817164	2540.449152
456.190556	2536.809438
456.563888	2535.163502
456.937160	2534.934129
457.310373	2540.885211
457.683526	2541.152392
458.056619	2538.248688
458.429653	2541.384286
458.802628	2539.481250
459.175542	2541.248174
459.548398	2538.833462
459.921194	2541.044008
460.293930	2540.486960
460.666607	2540.169368
461.039224	2540.635674
461.411782	2539.849254
461.784280	2540.681045
462.156719	2540.514687
462.529099	2543.007537
462.901419	2540.242464
463.273680	2543.753628
463.645882	2541.825387
464.018024	2542.064841
464.390106	2540.479398
464.762130	2544.852599
465.134094	2540.585263
465.505999	2543.209183
465.877845	2541.558205
466.249631	2543.199101
466.621358	2541.543082
466.993026	2546.425439
467.364634	2545.777651
467.736184	2543.332692
468.107674	2544.088865
468.479105	2545.954092
468.850477	2543.065510
469.221790	2543.468803
469.593043	2542.513504
469.964238	2543.269677
470.335373	2541.512835
470.706449	2544.116591
471.077467	2542.279090
471.448425	2545.054246
471.819324	2544.434184
472.190164	2543.678011
472.560945	2544.721529
472.931667	2542.992414
473.302330	2543.602393
473.672934	2544.252702
474.043479	2540.870088
474.413965	2544.812270
474.784393	2540.597866
475.154761	2542.629451
475.525070	2538.480581
475.895321	2540.101312
476.265513	2538.490663
476.635645	2543.735984
477.005719	2544.088865
477.375734	2543.741025
477.745691	2544.716488
478.115588	2544.308155
478.485427	2545.394523
478.855207	2547.209339
479.224928	2544.706406
479.594591	2541.686755
479.964194	2544.895449
480.333739	2544.373690
480.703226	2544.320758
481.072653	2544.033412
481.442022	2543.867054
481.811333	2546.911911
482.180584	2545.011396
482.549777	2546.690100
482.918912	2544.930737
483.287988	2545.696993
483.657005	2546.942158
484.025964	2545.654143
484.394864	2545.570964
484.763706	2546.924514
485.132489	2543.589790
485.501213	2547.796633
485.869879	2544.640871
486.238487	2546.032229
486.607036	2543.993083
486.975527	2549.177909
487.343959	2546.009544
487.712333	2545.195398
488.080648	2544.179605
488.448905	2547.128680
488.817104	2543.249512
489.185244	2546.165820
489.553326	2544.106509
489.921350	2546.725388
490.289315	2545.192877
490.657222	2545.873433
491.025070	2546.806047
491.392861	2546.362425
491.760593	2548.560368
492.128267	2548.048691
492.495883	2546.221273
492.863440	2544.540048
493.230939	2546.884184
493.598380	2546.894267
493.965763	2539.990407
494.333088	2543.481406
494.700354	2543.042825
495.067563	2545.878474
495.434713	2541.873277
495.801805	2545.734801
496.168839	2543.229348
496.535815	2544.713968
496.902733	2546.644730
497.269593	2546.977446
497.636395	2543.824204
498.003139	2549.016592
498.369825	2545.500388
498.736453	2548.416695
499.103023	2544.356046
499.469535	2550.264278
499.835989	2547.612631
500.202385	2550.171017
500.568723	2545.490305
500.935003	2547.857127
501.301226	2546.836293
501.667390	2544.857641
502.033497	2549.389638
502.399546	2549.266130
502.765537	2546.034750
503.131470	2550.778476
503.497345	2549.553475
503.863163	2548.278063
504.228923	2549.480379
504.594625	2548.199926
504.960269	2546.203629
505.325856	2549.011551
505.691385	2547.781510
506.056856	2548.552806
506.422270	2548.010882
506.787625	2546.861499
507.152924	2546.763197
507.518164	2547.879812
507.883347	2551.290153
508.248472	2549.319062
508.613540	2548.212528
508.978550	2543.758669
509.343503	2548.446942
509.708398	2549.687066
510.073236	2547.990718
510.438016	2548.298228
510.802738	2547.831921
511.167403	2548.693959
511.532010	2547.899977
511.896561	2547.048022
512.261053	2549.530790
512.625488	2545.497867
512.989866	2542.624409
513.354186	2541.502753
513.718449	2544.073741
514.082655	2547.652960
514.446803	2549.172868
514.810894	2547.574822
515.174927	2549.195553
515.538904	2551.368291
515.902822	2549.319062
516.266684	2547.330327
516.630488	2548.313352
516.994235	2549.271171
517.357925	2549.276212
517.721558	2546.692621
518.085133	2551.179247
518.448651	2550.473486
518.812112	2546.543907
519.175516	2549.964329
519.538863	2550.541542
519.902152	2548.840152
520.265385	2549.109854
520.628560	2548.673794
520.991678	2547.509287
521.354739	2551.123795
521.717743	2547.539534
522.080690	2550.564227
522.443580	2547.847045
522.806413	2550.246634
523.169189	2550.788558
523.531908	2545.452497
523.894569	2549.316541
524.257174	2547.844524
524.619722	2546.997610
524.982213	2550.307128
525.344647	2549.941644
525.707025	2549.707231
526.069345	2548.845193
526.431608	2550.836449
526.793815	2550.927190
527.155964	2550.949875
527.518057	2548.094061
527.880093	2550.397869
528.242072	2550.433157
528.603995	2551.138918
528.965860	2548.772097
529.327669	2550.024823
529.689421	2550.228990
530.051117	2550.390307
530.412755	2548.172199
530.774337	2548.867878
531.135862	2548.663712
531.497331	2548.671273
531.858743	2544.903011
532.220098	2550.546583
532.581396	2548.230173
532.942638	2545.558361
533.303824	2547.718495
533.664953	2550.085317
534.026025	2550.269319
534.387040	2547.710934
534.747999	2552.482386
535.108902	2551.688404
535.469748	2550.486089
535.830537	2553.636810
536.191270	2550.050029
536.551947	2550.586912
536.912567	2550.775955
537.273131	2553.016748
537.633638	2551.935421
537.994089	2554.115720
538.354483	2551.799309
538.714821	2554.730740
539.075103	2553.135215
539.435328	2552.996583
539.795497	2552.565565
540.155609	2552.721841
540.515665	2551.769062
540.875665	2553.283929
541.235609	2553.783003
541.595496	2553.556152
541.955328	2554.909701
542.315102	2554.692932
542.674821	2555.156718
543.034483	2554.264434
543.394090	2554.889537
543.753640	2555.209650
544.113134	2556.727037
544.472571	2553.117571
544.831953	2555.272664
545.191278	2556.018755
545.550548	2554.753426
545.909761	2552.530277
546.268918	2553.341902
546.628019	2558.090669
546.987064	2552.585729
547.346053	2553.916594
547.704986	2555.353323
548.063863	2556.888354
548.422684	2555.086142
548.781449	2553.619166
549.140158	2555.176883
549.498811	2557.122768
549.857408	2555.217212
550.215949	2554.415668
550.574434	2553.069680
550.932864	2556.268292
551.291237	2550.884340
551.649555	2556.608570
552.007817	2554.072870
552.366022	2556.265772
552.724173	2555.091183
553.082267	2553.861141
553.440305	2556.265772
553.798288	2556.923642
554.156215	2555.693601
554.514086	2554.791234
554.871902	2554.806358
555.229661	2557.609239
555.587365	2556.177552
555.945014	2556.900957
556.302606	2554.423230
556.660143	2558.002449
557.017625	2555.786862
557.375050	2556.732078
557.732421	2554.755946
558.089735	2556.359033
558.446994	2554.574465
558.804197	2557.107644
559.161345	2558.191492
559.518437	2557.730227
559.875474	2556.190154
560.232455	2556.154866
560.589381	2555.980947
560.946251	2560.558314
561.303065	2556.273333
561.659825	2555.338199
562.016528	2557.793241
562.373177	2553.709907
562.729770	2552.321069
563.086307	2556.752243
563.442789	2556.590926
563.799216	2558.408262
564.155587	2555.406255
564.511904	2559.746688
564.868164	2558.425906
565.224370	2555.149156
565.580520	2555.673436
565.936615	2557.137891
566.292654	2556.061605
566.648638	2557.778118
567.004567	2555.928014
567.360441	2557.473128
567.716260	2557.311811
568.072023	2556.137222
568.427732	2551.917777
568.783385	2555.660833
569.138982	2551.627910
569.494525	2554.067829
569.850013	2549.656819
570.205445	2554.753426
570.560823	2556.583364
570.916145	2555.418858
571.271412	2556.180072
571.626625	2558.645196
571.981782	2556.721996
572.336884	2554.181255
572.691931	2556.452294
573.046923	2557.931873
573.401860	2553.571275
573.756743	2556.159907
574.111570	2554.750905
574.466342	2556.583364
574.821059	2557.699980
575.175722	2556.348951
575.530330	2555.192006
575.884882	2555.025648
576.239380	2554.771070
576.593823	2558.700649
576.948211	2553.992211
577.302544	2553.412479
577.656823	2554.831563
578.011047	2555.280226
578.365216	2554.478683
578.719330	2554.140925
579.073389	2556.227963
579.427394	2556.263251
579.781344	2550.917107
580.135239	2554.844166
580.489080	2552.835267
580.842866	2556.142263
581.196597	2557.301729
581.550273	2553.667057
581.903895	2556.142263
582.257463	2555.101265
582.610975	2552.550441
582.964434	2552.109340
583.317837	2555.491955
583.671186	2554.551779
584.024481	2556.651420
584.377721	2556.112017
584.730906	2556.903478
585.084037	2554.274516
585.437113	2555.807027
585.790135	2553.835936
586.143103	2552.777293
586.496016	2556.797613
586.848874	2549.941644
587.201679	2550.854093
587.554428	2550.236552
587.907124	2551.441387
588.259765	2549.331665
588.612352	2553.271326
588.964884	2553.699824
589.317362	2555.139074
589.669786	2553.717468
590.022155	2556.427089
590.374470	2552.439536
590.726731	2553.188147
591.078937	2554.052705
591.431090	2551.448949
591.783188	2553.132695
592.135232	2554.065308
592.487222	2554.128322
592.839157	2554.057746
593.191038	2553.034392
593.542866	2554.254351
593.894639	2553.949362
594.246358	2552.242931
594.598022	2551.784186
594.949633	2554.153528
595.301190	2551.128836
595.652692	2553.407438
596.004141	2554.685370
596.355535	2555.128992
596.706876	2551.680842
597.058162	2553.162942
597.409395	2553.014227
597.760573	2554.967675
598.111698	2553.074721
598.462768	2552.794937
598.813785	2552.109340
599.164748	2555.212171
599.515657	2550.833928
599.866511	2552.046326
600.217312	2553.074721
600.568060	2554.420709
600.918753	2553.377191
601.269392	2550.798640
601.619978	2552.938610
601.970510	2551.408620
602.320988	2553.183106
602.671412	2555.111347
603.021783	2554.604712
603.372100	2555.184444
603.722363	2554.284598
604.072572	2552.399207
604.422728	2553.326779
604.772830	2547.471479
605.122878	2549.364432
605.472872	2550.874258
605.822813	2547.524411
606.172701	2552.525236
606.522534	2553.722510
606.872314	2551.993394
607.222041	2554.362736
607.571714	2555.484393
607.921333	2555.224773
608.270899	2553.956923
608.620411	2552.905843
608.969870	2556.079249
609.319276	2554.473642
609.668627	2558.816596
610.017926	2559.393808
610.367171	2561.339693
610.716362	2559.958417
611.065500	2561.531257
611.414585	2557.226112
611.763616	2557.591595
612.112594	2556.049002
612.461518	2556.114537
612.810389	2557.276523
613.159207	2555.796944
613.507971	2554.703014
613.856682	2555.643189
614.205340	2554.942469
614.553945	2553.135215
614.902496	2553.815771
615.250994	2556.205278
615.599439	2553.520863
615.947830	2555.096224
616.296169	2555.595298
616.644454	2553.926676
616.992686	2555.544887
617.340864	2555.751574
617.688990	2555.106306
618.037063	2557.276523
618.385082	2553.815771
618.733048	2553.667057
619.080961	2554.967675
619.428821	2555.756615
619.776628	2552.515153
620.124382	2557.178221
620.472083	2556.129661
620.819731	2556.459856
621.167326	2553.052036
621.514868	2554.191337
621.862357	2555.318035
622.209793	2554.297201
622.557176	2558.362892
622.904506	2554.889537
623.251783	2550.549103
623.599007	2554.135884
623.946179	2549.755122
624.293297	2555.126471
624.640363	2554.120761
624.987376	2555.522202
625.334336	2556.777449
625.681243	2556.986657
626.028097	2554.992880
626.374899	2558.635114
626.721647	2556.606050
627.068343	2555.164280
627.414987	2555.076059
627.761577	2553.664536
628.108115	2554.191337
628.454600	2555.282747
628.801032	2558.246945
629.147412	2557.712583
629.493739	2554.229146
629.840014	2560.432285
630.186236	2554.395504
630.532405	2554.897098
630.878521	2555.433981
631.224585	2554.506409
631.570597	2553.926676
631.916556	2558.163766
632.262462	2556.409445
632.608316	2556.278375
632.954117	2556.099414
633.299866	2557.531101
633.645562	2556.898437
633.991206	2556.376677
634.336797	2556.432130
634.682336	2557.503375
635.027823	2557.090000
635.373257	2557.460525
635.718639	2557.009342
636.063968	2557.392470
636.409245	2553.334341
636.754470	2556.936245
637.099642	2553.203271
637.444762	2559.290464
637.789829	2553.697304
638.134845	2556.175031
638.479808	2554.914742
638.824719	2555.955741
639.169577	2556.981616
639.514383	2555.307952
639.859137	2556.744681
640.203839	2557.883982
640.548489	2557.289126
640.893086	2555.096224
641.237632	2552.275698
641.582125	2555.295350
641.926566	2553.142777
642.270955	2558.632593
642.615292	2556.664023
642.959576	2557.231153
643.303809	2557.402552
643.647990	2557.609239
643.992118	2557.077397
644.336195	2557.349620
644.680219	2559.756771
645.024192	2555.943138
645.368112	2556.946328
645.711981	2559.033365
646.055797	2560.079405
646.399562	2558.693087
646.743274	2562.499158
647.086935	2563.048644
647.430544	2558.272151
647.774101	2564.545867
648.117606	2562.574776
648.461059	2563.250290
648.804460	2561.649724
649.147810	2560.938921
649.491108	2561.337172
649.834354	2561.445557
650.177548	2561.347255
650.520690	2565.564180
650.863781	2562.806669
651.206820	2564.220712
651.549807	2558.433468
651.892742	2563.459498
652.235626	2562.836916
652.578458	2562.403377
652.921238	2565.256670
653.263967	2561.488407
653.606644	2562.113510
653.949269	2564.997050
654.291843	2565.037379
654.634365	2566.637946
654.976836	2564.906309
655.319255	2566.905127
655.661622	2564.082081
656.003938	2565.934705
656.346203	2564.679457
656.688416	2570.925447
657.030577	2568.672051
657.372687	2567.512586
657.714746	2566.360682
658.056753	2568.858574
658.398708	2562.630228
658.740612	2565.851526
659.082465	2563.973696
659.424266	2566.524520
659.766016	2566.282544
660.107715	2568.752710
660.449362	2568.798080
660.790958	2572.009295
661.132503	2571.323698
661.473996	2573.360324
661.815438	2573.786302
662.156829	2573.541806
662.498168	2574.093812
662.839456	2573.627506
663.180693	2574.592887
663.521879	2576.795871
663.863013	2575.896025
664.204097	2581.542117
664.545129	2579.518094
664.886110	2579.064390
665.227040	2579.646643
665.567918	2579.997003
665.908746	2582.913311
666.249522	2584.745770
666.590248	2585.698548
666.930922	2586.144691
667.271545	2589.285329
667.612118	2584.453383
667.952639	2587.906574
668.293109	2590.356575
668.633528	2591.127871
668.973896	2589.328179
669.314213	2590.399424
669.654480	2591.914291
669.994695	2590.142326
670.334859	2592.320104
670.674973	2591.775659
671.015035	2596.501741
671.355047	2594.944025
671.695008	2598.435024
672.034918	2597.716659
672.374777	2600.753954
672.714585	2601.880652
673.054342	2602.273862
673.394049	2604.917947
673.733705	2606.652104
674.073310	2609.447424
674.412864	2606.402567
674.752368	2607.670417
675.091820	2609.366766
675.431223	2605.265787
675.770574	2610.669904
676.109875	2605.757300
676.449125	2612.078907
676.788324	2606.763010
677.127473	2611.720985
677.466571	2606.581528
677.805619	2614.695265
678.144616	2615.574947
678.483562	2613.573609
678.822458	2613.482868
679.161303	2615.819443
679.500098	2617.946810
679.838842	2619.401182
680.177535	2621.180710
680.516179	2623.562655
680.854771	2624.081894
681.193314	2626.725979
681.531805	2632.571197
681.870247	2641.889770
682.208638	2643.681900
682.546978	2646.066366
682.885268	2647.556027
683.223508	2649.443939
683.561697	2647.543424
683.899836	2648.216418
684.237925	2648.168527
684.575963	2649.605256
684.913951	2649.229690
685.251889	2659.216216
685.589776	2657.507264
685.927614	2657.257727
686.265401	2664.595127
686.603137	2665.104283
686.940824	2671.052845
687.278460	2675.642815
687.616046	2678.322189
687.953582	2684.837880
688.291068	2686.786286
688.628504	2696.054447
688.965889	2691.396421
689.303224	2692.276102
689.640510	2694.796679
689.977745	2691.436750
690.314930	2688.709486
690.652065	2684.671522
690.989150	2680.336130
691.326185	2681.893846
691.663170	2678.758248
692.000105	2674.266580
692.336990	2672.507218
692.673825	2673.336487
693.010610	2672.000582
693.347345	2663.254180
693.684030	2669.180056
694.020665	2667.854233
694.357251	2662.175373
694.693786	2666.777946
695.030272	2669.245591
695.366707	2672.161899
695.703093	2665.961279
696.039429	2671.995541
696.375716	2673.434790
696.711952	2668.680982
697.048139	2667.040086
697.384276	2671.241888
697.720363	2676.739266
698.056400	2681.538445
698.392388	2679.000224
698.728326	2675.920079
699.064214	2673.686848
699.400053	2675.365552
699.735842	2681.374607
700.071581	2677.192970
700.407270	2675.867147
700.742910	2675.776406
701.078501	2672.398833
701.414042	2675.680624
701.749533	2679.000224
702.084974	2670.321877
702.420366	2678.244051
702.755709	2677.810512
703.091002	2672.093843
703.426246	2682.476099
703.761440	2671.693071
704.096584	2669.848009
704.431679	2675.869667
704.766725	2678.506191
705.101721	2678.433094
705.436668	2682.725637
705.771565	2672.718946
706.106413	2681.084741
706.441212	2692.150074
706.775961	2693.871628
707.110661	2686.294773
707.445311	2688.606143
707.779913	2700.770447
708.114465	2702.630632
708.448967	2702.991075
708.783421	2714.142107
709.117825	2719.331975
709.452180	2718.507747
709.786485	2725.194837
710.120742	2734.543657
710.454949	2731.955024
710.789107	2739.022722
711.123216	2749.387334
711.457275	2752.336409
711.791286	2763.623553
712.125247	2771.023967
712.459159	2755.580392
712.793023	2762.310332
713.126837	2776.602003
713.460602	2775.195522
713.794318	2758.108531
714.127985	2764.866197
714.461602	2762.388470
714.795171	2751.950761
715.128691	2748.832807
715.462162	2748.681573
715.795584	2747.476737
716.128957	2749.064701
716.462281	2733.762278
716.795556	2732.597772
717.128782	2738.201014
717.461960	2731.980230
717.795088	2735.710684
718.128167	2728.075857
718.461198	2721.096379
718.794180	2719.087479
719.127113	2725.046123
719.459997	2725.192317
719.792833	2721.086297
720.125619	2716.836604
720.458357	2715.999772
720.791046	2721.391287
721.123686	2717.421378
721.456278	2713.380893
721.788821	2720.582181
722.121315	2716.352653
722.453761	2710.419215
722.786158	2721.169476
723.118506	2726.157697
723.450805	2711.208156
723.783056	2713.701006
724.115259	2727.856566
724.447412	2730.566187
724.779518	2725.930846
725.111574	2730.276320
725.443582	2733.860581
725.775542	2737.336456
726.107453	2746.720564
726.439315	2751.260123
726.771129	2750.642582
727.102895	2752.956471
727.434612	2767.888369
727.766281	2767.671599
728.097901	2763.658841
728.429473	2765.652617
728.760996	2770.177053
729.092471	2764.732607
729.423897	2773.673093
729.755276	2776.367590
730.086606	2777.234668
730.417887	2774.711571
730.749120	2789.595577
731.080305	2810.309679
731.411442	2812.525266
731.742530	2802.901703
732.073570	2806.143165
732.404562	2822.627738
732.735506	2822.111020
733.066401	2817.069866
733.397249	2804.096457
733.728048	2792.237142
734.058798	2790.301339
734.389501	2780.100564
734.720156	2759.767070
735.050762	2760.591299
735.381320	2767.104470
735.711831	2753.712644
736.042293	2751.466810
736.372707	2761.821340
736.703073	2756.568458
737.033391	2746.884402
737.363661	2754.123498
737.693883	2765.788728
738.024056	2768.107659
738.354182	2759.925867
738.684260	2776.818773
739.014290	2779.130142
739.344272	2773.615120
739.674207	2789.739250
740.004093	2790.891154
740.333931	2787.251441
740.663722	2794.891310
740.993464	2795.002215
741.323159	2791.881741
741.652806	2788.282357
741.982405	2781.013013
742.311956	2783.122736
742.641460	2780.372787
742.970915	2777.746345
743.300323	2770.471960
743.629683	2764.503234
743.958996	2763.885693
744.288260	2763.626073
744.617477	2757.833788
744.946647	2750.816502
745.275768	2752.671646
745.604842	2758.398397
745.933869	2738.062382
746.262847	2738.165726
746.591778	2762.252359
746.920662	2752.147366
747.249498	2742.039853
747.578286	2758.297574
747.907027	2761.065167
748.235720	2750.178796
748.564365	2766.113883
748.892963	2773.773916
749.221514	2766.817124
749.550017	2759.010897
749.878473	2760.137595
750.206881	2756.341606
750.535242	2758.305136
750.863555	2759.915784
751.191821	2758.274889
751.520039	2751.567633
751.848210	2744.499936
752.176334	2761.178593
752.504411	2766.333173
752.832440	2755.782038
753.160421	2744.600759
753.488356	2755.436719
753.816243	2764.566249
754.144082	2747.776686
754.471875	2743.206880
754.799620	2749.226017
755.127318	2749.304155
755.454969	2749.704927
755.782572	2756.167686
756.110129	2747.272570
756.437638	2742.324678
756.765100	2751.204670
757.092515	2761.992740
757.419882	2764.170518
757.747203	2752.081831
758.074477	2749.541090
758.401703	2758.113572
758.728882	2764.324273
759.056014	2770.159409
759.383099	2767.144799
759.710138	2762.028028
760.037129	2764.483070
760.364073	2782.694238
760.690970	2778.706685
761.017820	2770.408946
761.344623	2773.849533
761.671379	2787.017027
761.998088	2799.287196
762.324751	2835.669203
762.651366	2884.114692
762.977935	2982.951554
763.304456	3092.304263
763.630931	3141.148003
763.957359	3050.213149
764.283740	2971.382106
764.610074	2938.879266
764.936362	2898.008112
765.262602	2854.013962
765.588796	2830.262566
765.914943	2806.044862
766.241044	2779.525873
766.567097	2777.154010
766.893104	2767.842999
767.219064	2759.154570
767.544978	2752.230545
767.870845	2732.348234
768.196665	2728.960579
768.522438	2737.011302
768.848165	2741.049266
769.173846	2729.378995
769.499479	2724.269785
769.825066	2718.588405
770.150607	2714.535317
770.476101	2725.378839
770.801548	2726.548387
771.126949	2708.170861
771.452303	2701.413194
771.777611	2710.847713
772.102872	2714.265616
772.428087	2705.375541
772.753256	2706.862681
773.078378	2703.477546
773.403453	2691.366174
773.728482	2688.114630
774.053465	2700.273893
774.378401	2696.487987
774.703291	2683.360822
775.028135	2683.471727
775.352932	2683.958199
775.677683	2680.321006
776.002388	2682.150945
776.327046	2683.118847
776.651658	2680.157169
776.976224	2673.991838
777.300743	2679.048115
777.625216	2671.514110
777.949643	2672.003102
778.274024	2673.689368
778.598359	2669.820283
778.922647	2672.388751
779.246889	2673.994358
779.571086	2666.911537
779.895236	2664.373316
780.219339	2671.050324
780.543397	2678.249092
780.867409	2678.854030
781.191374	2676.759431
781.515294	2673.409584
781.839167	2674.004440
782.162995	2671.231806
782.486776	2676.709019
782.810511	2676.489729
783.134201	2672.502177
783.457844	2673.598628
783.781441	2674.707681
784.104993	2664.040600
784.428498	2665.840292
784.751958	2673.749862
785.075372	2670.644511
785.398739	2662.223264
785.722061	2672.209790
786.045337	2681.785461
786.368568	2669.424552
786.691752	2665.731907
787.014891	2686.314938
787.337983	2693.609488
787.661030	2695.807431
787.984031	2716.135884
788.306987	2732.847309
788.629897	2731.629870
788.952760	2731.715570
789.275579	2732.146588
789.598351	2709.189174
789.921078	2694.532019
790.243759	2696.866073
790.566395	2692.243335
790.888984	2684.704289
791.211529	2676.961077
791.534027	2676.545182
791.856480	2673.712053
792.178888	2667.239212
792.501249	2663.077739
792.823566	2663.617143
793.145836	2663.468429
793.468062	2662.377019
793.790241	2664.910199
794.112375	2666.414983
794.434464	2666.651917
794.756507	2670.440345
795.078505	2671.425890
795.400457	2674.420336
795.722364	2685.488189
796.044226	2693.485979
796.366042	2691.280475
796.687812	2690.799044
797.009538	2702.481918
797.331218	2699.767257
797.652852	2693.344827
797.974442	2688.061698
798.295986	2686.120854
798.617484	2687.464321
798.938938	2683.570030
799.260346	2675.418484
799.581709	2677.591221
799.903026	2672.615602
800.224299	2671.594769
800.545526	2674.231292
800.866708	2663.133192
801.187845	2656.937614
801.508936	2658.603715
801.829983	2666.230981
802.150984	2657.257727
802.471940	2653.618014
802.792851	2654.727068
803.113717	2655.599188
803.434538	2657.492141
803.755314	2654.805206
804.076045	2649.995945
804.396731	2651.543579
804.717372	2652.589619
805.037967	2647.697179
805.358518	2650.482417
805.679024	2659.533808
805.999485	2655.820998
806.319901	2658.840650
806.640272	2653.333189
806.960598	2654.338899
807.280879	2661.867862
807.601115	2664.489262
807.921306	2657.252686
808.241453	2652.859321
808.561554	2659.208654
808.881611	2662.503048
809.201623	2658.273520
809.521590	2660.090856
809.841513	2656.249497
810.161390	2661.330980
810.481223	2659.463232
810.801011	2651.916625
811.120755	2651.614156
811.440453	2655.795793
811.760107	2655.057264
812.079716	2656.274702
812.399281	2649.834628
812.718801	2648.654998
813.038276	2642.751807
813.357707	2651.934269
813.677093	2657.408962
813.996434	2654.515340
814.315731	2652.975267
814.634983	2650.174906
814.954191	2652.004845
815.273354	2658.316370
815.592473	2663.778460
815.911547	2666.268790
816.230577	2669.316167
816.549562	2669.054027
816.868502	2671.466219
817.187399	2673.916220
817.506250	2684.568178
817.825058	2682.314783
818.143821	2686.766121
818.462539	2693.969930
818.781213	2707.906200
819.099843	2723.798437
819.418429	2741.699575
819.736970	2766.484408
820.055466	2796.617905
820.373919	2849.691172
820.692327	2917.358581
821.010691	2975.775471
821.329011	3122.876341
821.647286	3376.821945
821.965517	3790.897281
822.283704	4019.042260
822.601847	4042.166032
822.919945	3899.637490
823.237999	3824.063032
823.556010	3653.674552
823.873976	3456.956127
824.191897	3304.867036
824.509775	3195.403421
824.827609	3076.792633
825.145398	3021.496216
825.463144	3017.241482
825.780845	3058.364695
826.098502	3095.152515
826.416116	3194.306970
826.733685	3300.423258
827.051210	3323.647854
827.368692	3304.894762
827.686129	3228.054974
828.003522	3093.579675
828.320872	2982.966677
828.638177	2896.866290
828.955439	2833.443534
829.272656	2798.057154
829.589830	2765.680344
829.906960	2749.316758
830.224046	2727.286916
830.541088	2710.930892
830.858086	2706.633309
831.175041	2695.068902
831.491952	2700.102494
831.808819	2707.835624
832.125642	2721.076214
832.442421	2740.630850
832.759157	2769.098246
833.075849	2843.800584
833.392497	2965.539408
833.709101	3059.584654
834.025662	3040.450955
834.342179	2975.949391
834.658653	2903.288720
834.975083	2836.395129
835.291469	2799.463636
835.607811	2759.194899
835.924110	2729.308419
836.240366	2705.425952
836.556578	2682.095492
836.872746	2672.779440
837.188871	2663.763336
837.504952	2653.434012
837.820990	2649.217087
838.136984	2640.556385
838.452935	2640.148051
838.768842	2633.859212
839.084706	2648.612148
839.400526	2682.445852
839.716303	2738.503483
840.032037	2774.230141
840.347727	2769.788884
840.663373	2749.808271
840.978977	2718.648899
841.294537	2683.189423
841.610054	2658.850732
841.925527	2649.348157
842.240957	2638.015643
842.556344	2626.231946
842.871687	2618.624845
843.186987	2611.731067
843.502244	2612.704010
843.817458	2610.720316
844.132629	2600.587596
844.447756	2596.514344
844.762840	2591.752974
845.077881	2596.509303
845.392879	2594.608788
845.707833	2595.062492
846.022745	2587.311718
846.337613	2591.412696
846.652438	2588.677870
846.967221	2589.829774
847.281960	2585.890112
847.596656	2590.858169
847.911309	2587.450349
848.225919	2585.948086
848.540485	2581.937848
848.855009	2583.868610
849.169490	2582.557910
849.483928	2584.481110
849.798323	2581.889957
850.112675	2580.914493
850.426984	2585.610328
850.741251	2583.349371
851.055474	2585.887592
851.369654	2585.469176
851.683792	2586.976481
851.997887	2584.705441
852.311938	2583.193095
852.625947	2582.898187
852.939914	2583.377097
853.253837	2587.830957
853.567718	2585.776686
853.881555	2583.961871
854.195350	2586.411872
854.509103	2585.680904
854.822812	2582.986408
855.136479	2582.711665
855.450103	2583.296439
855.763685	2586.245514
856.077224	2585.993456
856.390720	2582.872982
856.704173	2586.200143
857.017584	2588.229208
857.330953	2589.373550
857.644278	2587.611666
857.957561	2589.880186
858.270802	2589.434043
858.584000	2586.225349
858.897155	2591.392532
859.210268	2590.152408
859.523339	2585.738878
859.836367	2582.661253
860.149352	2582.547827
860.462295	2585.265009
860.775195	2583.737540
861.088054	2582.620924
861.400869	2582.230235
861.713642	2579.460121
862.026373	2580.359967
862.339062	2584.009762
862.651708	2589.048395
862.964312	2586.041347
863.276873	2586.358940
863.589392	2587.906574
863.901869	2591.241297
864.214303	2593.993767
864.526696	2596.728593
864.839045	2595.218767
865.151353	2595.685074
865.463619	2596.416042
865.775842	2598.719849
866.088023	2597.512492
866.400162	2599.382761
866.712258	2598.866042
867.024313	2598.172884
867.336325	2591.158118
867.648296	2596.721031
867.960224	2600.658173
868.272110	2600.741352
868.583954	2595.087697
868.895755	2593.545104
869.207515	2598.356886
869.519233	2605.117073
869.830909	2603.085488
870.142542	2599.465940
870.454134	2601.575662
870.765684	2603.904676
871.077191	2601.676486
871.388657	2605.984152
871.700081	2604.809563
872.011463	2603.889552
872.322803	2603.352669
872.634101	2607.171343
872.945357	2611.718464
873.256571	2616.099227
873.567744	2612.976232
873.878874	2611.675614
874.189963	2612.489761
874.501010	2615.469082
874.812015	2621.762963
875.122979	2618.632407
875.433900	2612.598145
875.744780	2611.726026
876.055618	2619.812037
876.366415	2620.842952
876.677169	2619.315483
876.987882	2619.136522
877.298554	2615.811881
877.609183	2625.924436
877.919771	2630.668161
878.230317	2633.884417
878.540822	2641.617547
878.851285	2652.176244
879.161707	2666.039417
879.472087	2691.504806
879.782425	2715.992211
880.092722	2782.537962
880.402977	2879.691079
880.713191	2985.409116
881.023363	3084.238417
881.333494	3143.827376
881.643583	3243.690113
881.953631	3274.589866
882.263637	3209.710216
882.573602	3116.138838
882.883526	3067.007753
883.193408	3018.358098
883.503248	2974.227837
883.813048	2915.062335
884.122806	2846.603466
884.432522	2805.996972
884.742197	2767.066661
885.051831	2745.361973
885.361424	2727.511247
885.670975	2707.550799
885.980485	2688.580937
886.289954	2678.929648
886.599382	2669.971517
886.908768	2664.091011
887.218113	2648.123157
887.527417	2642.293062
887.836680	2636.843575
888.145901	2633.544140
888.455082	2629.135651
888.764221	2622.400669
889.073319	2620.598457
889.382376	2615.673249
889.691392	2617.339351
890.000366	2618.047633
890.309300	2615.050667
890.618193	2619.277674
890.927044	2621.377315
891.235855	2619.456635
891.544625	2614.163424
891.853353	2618.869341
892.162041	2620.623662
892.470687	2637.637557
892.779293	2643.215593
893.087858	2646.358753
893.396381	2659.589261
893.704864	2684.006090
894.013306	2722.959085
894.321707	2778.812549
894.630068	2806.768268
894.938387	2818.529280
895.246665	2819.381235
895.554903	2797.704273
895.863100	2775.175357
896.171256	2742.733011
896.479371	2701.035107
896.787446	2676.383865
897.095480	2668.229799
897.403473	2665.401711
897.711425	2657.255207
898.019336	2643.485295
898.327207	2633.677730
898.635038	2636.914151
898.942827	2633.279479
899.250576	2625.682460
899.558284	2618.342540
899.865952	2615.436315
900.173579	2610.730398
900.481165	2614.667539
900.788711	2608.267794
901.096216	2604.058431
901.403681	2600.973245
901.711105	2602.979624
902.018489	2598.561052
902.325832	2602.127669
902.633135	2602.883842
902.940397	2613.593773
903.247619	2638.439100
903.554800	2678.859072
903.861941	2746.501274
904.169041	2815.214721
904.476101	2849.156810
904.783121	2848.975329
905.090100	2823.706545
905.397039	2783.800771
905.703938	2740.620768
906.010796	2702.960828
906.317614	2673.444872
906.624391	2652.345123
906.931129	2633.266876
907.237826	2619.060905
907.544483	2608.746704
907.851099	2598.803028
908.157675	2593.514857
908.464211	2587.160483
908.770707	2580.327199
909.077163	2573.826631
909.383578	2573.851837
909.689954	2575.187743
909.996289	2571.905952
910.302584	2574.360993
910.608839	2573.919893
910.915054	2571.681620
911.221229	2572.064748
911.527363	2574.923082
911.833458	2572.286559
912.139513	2573.491394
912.445527	2577.859554
912.751502	2579.523135
913.057436	2581.922724
913.363331	2588.148549
913.669186	2593.502255
913.975000	2602.979624
914.280775	2611.990686
914.586510	2622.561986
914.892205	2644.143166
915.197859	2685.578930
915.503475	2736.832341
915.809050	2774.436828
916.114585	2778.099226
916.420081	2783.077366
916.725536	2794.291412
917.030952	2785.081224
917.336328	2757.438057
917.641665	2729.051320
917.946961	2696.596371
918.252218	2675.728515
918.557435	2659.904333
918.862612	2647.719864
919.167750	2633.208903
919.472848	2627.900568
919.777906	2612.716612
920.082925	2608.555140
920.387904	2601.361413
920.692843	2600.595158
920.997743	2597.865373
921.302603	2592.289857
921.607423	2585.680904
921.912204	2582.273084
922.216946	2582.086562
922.521647	2579.694534
922.826310	2577.894842
923.130932	2575.497774
923.435516	2571.207752
923.740059	2568.951835
924.044564	2570.484346
924.349028	2567.915878
924.653454	2559.986143
924.957840	2561.906823
925.262186	2556.472459
925.566493	2559.562686
925.870761	2556.578323
926.174989	2560.949004
926.479178	2557.813406
926.783328	2556.003632
927.087438	2555.953220
927.391509	2556.336348
927.695541	2557.021945
927.999533	2554.773590
928.303486	2549.949206
928.607400	2551.902653
928.911275	2554.453477
929.215110	2552.706717
929.518906	2553.800647
929.822663	2555.093703
930.126381	2549.263609
930.430060	2554.902140
930.733699	2552.631100
931.037299	2553.515822
931.340861	2552.515153
931.644383	2552.898281
931.947866	2553.909032
932.251309	2553.707386
932.554714	2550.309648
932.858080	2551.499361
933.161407	2553.485575
933.464694	2552.689073
933.767943	2549.029195
934.071153	2549.538352
934.374323	2551.479196
934.677455	2550.521377
934.980548	2550.299566
935.283602	2550.065152
935.586617	2551.481717
935.889593	2548.459545
936.192530	2551.123795
936.495428	2553.026830
936.798287	2550.496171
937.101108	2552.313507
937.403890	2554.299722
937.706632	2556.921122
938.009336	2558.529250
938.312002	2563.245249
938.614628	2561.233829
938.917216	2563.454457
939.219765	2564.200548
939.522275	2566.597617
939.824747	2566.925292
940.127179	2563.497307
940.429573	2560.850701
940.731929	2562.468912
941.034246	2556.152346
941.336524	2562.867163
941.638763	2558.879610
941.940964	2558.181410
942.243126	2555.675957
942.545250	2557.236194
942.847335	2558.209137
943.149381	2556.427089
943.451389	2552.396686
943.753359	2555.754095
944.055290	2552.817623
944.357182	2551.774104
944.659036	2551.746377
944.960851	2551.159083
945.262628	2552.883158
945.564367	2554.176213
945.866067	2554.375339
946.167729	2554.428271
946.469352	2551.471634
946.770937	2555.716286
947.072484	2553.571275
947.373992	2552.855431
947.675462	2551.978270
947.976893	2553.162942
948.278286	2554.519012
948.579641	2552.308466
948.880958	2552.237890
949.182236	2554.352654
949.483476	2550.508774
949.784678	2550.213867
950.085841	2551.403579
950.386967	2550.723023
950.688054	2551.574978
950.989103	2553.906512
951.290114	2553.702345
951.591087	2552.250493
951.892021	2555.784342
952.192917	2553.344423
952.493776	2552.739485
952.794596	2555.701163
953.095378	2556.296019
953.396122	2553.052036
953.696828	2555.229815
953.997496	2553.357026
954.298126	2552.419371
954.598718	2552.512633
954.899272	2552.951213
955.199788	2552.399207
955.500266	2552.631100
955.800706	2545.969215
956.101108	2546.317055
956.401472	2546.808567
956.701798	2542.178267
957.002087	2541.051569
957.302337	2545.737322
957.602550	2544.257743
957.902724	2545.742363
958.202861	2544.436704
958.502960	2545.976777
958.803022	2544.391334
959.103045	2543.862013
959.403031	2544.696324
959.702979	2544.746735
960.002889	2543.816642
960.302762	2545.260933
960.602596	2540.676003
960.902393	2542.236241
961.202153	2541.603576
961.501875	2541.036446
961.801559	2542.087527
962.101205	2542.518545
962.400814	2541.694317
962.700385	2540.330684
962.999918	2544.925696
963.299414	2541.427135
963.598873	2541.883360
963.898293	2543.219266
964.197677	2544.993752
964.497022	2540.411343
964.796331	2543.564585
965.095601	2543.050387
965.394835	2543.055428
965.694030	2543.584749
965.993189	2542.006868
966.292309	2540.920499
966.591393	2543.015099
966.890439	2542.858823
967.189447	2543.042825
967.488419	2544.091385
967.787353	2542.614327
968.086249	2540.950746
968.385108	2541.112063
968.683930	2538.087371
968.982714	2541.132228
969.281462	2541.918648
969.580172	2541.641384
969.878844	2543.902342
970.177480	2541.003678
970.476078	2544.988711
970.774639	2542.074924
971.073162	2544.799667
971.371649	2539.357742
971.670098	2537.416898
971.968510	2538.364634
972.266885	2538.382278
972.565223	2544.154400
972.863524	2544.358566
973.161788	2542.339584
973.460014	2543.720860
973.758204	2541.648946
974.056356	2541.233051
974.354471	2542.594162
974.652550	2542.894111
974.950591	2546.054915
975.248595	2542.163144
975.546563	2543.115922
975.844493	2540.625592
976.142386	2541.906045
976.440243	2542.286652
976.738062	2542.790767
977.035845	2542.410160
977.333590	2541.293545
977.631299	2542.949564
977.928971	2539.501415
978.226606	2543.443597
978.524204	2541.832948
978.821765	2541.207845
979.119290	2544.459389
979.416777	2540.020653
979.714228	2541.114584
980.011642	2541.971580
980.309020	2545.386962
980.606360	2542.347146
980.903664	2542.352187
981.200931	2543.544420
981.498162	2543.153731
981.795356	2544.287990
982.092513	2546.947199
982.389633	2549.180430
982.686717	2550.677653
982.983764	2549.006510
983.280775	2552.762170
983.577749	2550.622200
983.874686	2550.269319
984.171587	2550.750749
984.468451	2545.833104
984.765279	2548.008362
985.062070	2542.261446
985.358824	2545.195398
985.655543	2543.511653
985.952224	2542.730274
986.248869	2541.177598
986.545478	2538.122659
986.842050	2537.643749
987.138586	2538.536034
987.435086	2537.744573
987.731549	2536.035621
988.027975	2543.287321
988.324366	2540.928061
988.620719	2539.662732
988.917037	2539.372865
989.213318	2540.557536
989.509563	2538.495704
989.805772	2540.633154
990.101944	2539.864378
990.398080	2539.972763
990.694180	2540.418905
990.990244	2540.267670
991.286271	2538.606610
991.582262	2541.170037
991.878217	2540.295396
992.174136	2540.272711
992.470019	2540.207176
992.765865	2541.381765
993.061676	2538.019315
993.357450	2541.840510
993.653188	2540.156765
993.948890	2540.297917
994.244556	2540.867567
994.540186	2540.497042
994.835780	2539.251878
995.131337	2541.303627
995.426859	2542.463092
995.722345	2541.969059
996.017795	2541.364121
996.313208	2541.548123
996.608586	2542.800850
996.903928	2544.139276
997.199234	2540.325643
997.494504	2544.950902
997.789738	2541.306148
998.084936	2541.921168
998.380099	2542.664739
998.675225	2540.915458
998.970316	2541.023843
999.265371	2541.651467
999.560390	2539.400592
999.855373	2541.427135
1000.150320	2540.852444
1000.445232	2539.743390
1000.740108	2537.888245
1001.034948	2542.246323
1001.329752	2540.033256
1001.624521	2541.853113
1001.919254	2534.908923
1002.213951	2538.316743
1002.508613	2536.638039
1002.803239	2535.269366
1003.097829	2535.407998
1003.392384	2538.530993
1003.686903	2539.272042
1003.981386	2541.152392
1004.275834	2537.999151
1004.570246	2540.103833
1004.864623	2536.776671
1005.158964	2539.650129
1005.453270	2538.004192
1005.747540	2539.723225
1006.041775	2539.987886
1006.335974	2537.631147
1006.630138	2539.932433
1006.924266	2537.711805
1007.218359	2537.227854
1007.512416	2539.307330
1007.806438	2540.013092
1008.100425	2536.817000
1008.394376	2535.284489
1008.688292	2539.579552
1008.982172	2537.109387
1009.276017	2537.396733
1009.569827	2539.451003
1009.863602	2541.086857
1010.157341	2538.815818
1010.451045	2539.171219
1010.744714	2539.952598
1011.038347	2540.796991
1011.331945	2538.382278
1011.625508	2538.964532
1011.919036	2539.559388
1012.212528	2539.382947
1012.505986	2538.014274
1012.799408	2540.625592
1013.092795	2538.556198
1013.386147	2540.275232
1013.679464	2538.256250
1013.972745	2538.200797
1014.265992	2539.463606
1014.559204	2539.009902
1014.852380	2536.552340
1015.145521	2538.200797
1015.438628	2537.454706
1015.731699	2540.207176
1016.024736	2539.745911
1016.317737	2538.785571
1016.610703	2538.944367
1016.903635	2540.340767
1017.196531	2532.998326
1017.489393	2536.083512
1017.782219	2534.805580
1018.075011	2536.128883
1018.367768	2539.735828
1018.660490	2540.224820
1018.953177	2540.224820
1019.245829	2540.224820
