Dividing Wavelength (nm)	Counts (n)	Blue Motor Position (mm): 28.500000	Red Motor Position (mm): 0.000000	
326.493990	2099.706112
326.888308	2099.706112
327.282561	2099.706112
327.676750	2075.652246
328.070874	2078.470251
328.464933	2084.996025
328.858929	2094.052458
329.252859	2107.524942
329.646726	2120.256376
330.040528	2136.982924
330.434265	2158.067550
330.827938	2176.742504
331.221547	2198.258149
331.615091	2217.578371
332.008571	2238.070662
332.401986	2260.350041
332.795338	2275.516352
333.188625	2299.146761
333.581847	2316.858855
333.975006	2335.947184
334.368100	2352.976202
334.761129	2369.289376
335.154095	2387.079608
335.546996	2429.551329
335.939833	2510.040912
336.332606	2522.918539
336.725315	2533.199972
337.117960	2542.226158
337.510540	2548.928372
337.903056	2559.058571
338.295508	2564.291289
338.687896	2574.179512
339.080220	2579.810481
339.472480	2584.160997
339.864676	2587.830957
340.256807	2590.114599
340.648875	2591.619384
341.040879	2593.955958
341.432818	2593.799683
341.824694	2597.179776
342.216506	2595.843871
342.608253	2596.095928
342.999937	2593.396390
343.391557	2594.457553
343.783113	2591.631987
344.174605	2590.694332
344.566033	2589.562593
344.957397	2589.282809
345.348697	2585.504464
345.739934	2585.358271
346.131106	2584.365163
346.522215	2583.926583
346.913260	2579.744946
347.304241	2579.104719
347.695159	2573.188925
348.086012	2575.628844
348.476802	2573.075499
348.867528	2573.267063
349.258191	2567.578121
349.648789	2572.243709
350.039324	2570.151630
350.429796	2568.714901
350.820203	2563.938408
351.210548	2567.749520
351.600828	2566.272462
351.991045	2565.952349
352.381198	2564.992009
352.771288	2563.724159
353.161314	2563.124262
353.551276	2563.199879
353.941175	2562.461350
354.331010	2564.530743
354.720782	2566.075857
355.110490	2568.679613
355.500135	2565.430589
355.889717	2568.525858
356.279235	2563.648542
356.668689	2569.387895
357.058080	2566.935374
357.447408	2563.842626
357.836672	2564.061916
358.225873	2564.646690
358.615010	2564.752554
359.004084	2569.483677
359.393095	2569.292113
359.782043	2570.895200
360.170927	2570.007957
360.559748	2571.530386
360.948505	2571.865622
361.337199	2574.434090
361.725830	2572.536096
362.114398	2573.869481
362.502903	2576.516087
362.891344	2575.122208
363.279722	2574.892835
363.668037	2575.407033
364.056289	2575.412074
364.444478	2576.957188
364.832603	2577.652867
365.220665	2578.338464
365.608665	2578.764441
365.996601	2578.920717
366.384474	2579.359297
366.772284	2578.908114
367.160031	2579.560944
367.547715	2579.631520
367.935336	2581.053125
368.322893	2581.925245
368.710388	2579.820563
369.097820	2585.108733
369.485189	2582.257961
369.872495	2582.784762
370.259738	2584.985225
370.646918	2582.762076
371.034035	2585.708631
371.421090	2587.694845
371.808081	2582.573033
372.195010	2587.251224
372.581875	2583.780389
372.968678	2585.887592
373.355418	2584.224011
373.742096	2587.662078
374.128710	2586.069073
374.515262	2587.097469
374.901751	2588.014959
375.288177	2587.445308
375.674540	2586.953796
376.060841	2589.449167
376.447079	2589.900350
376.833254	2590.401945
377.219367	2586.432036
377.605417	2590.923704
377.991404	2590.749785
378.377329	2587.876327
378.763191	2586.845411
379.148991	2593.189703
379.534727	2593.366143
379.920402	2595.506113
380.306013	2597.164653
380.691563	2595.049889
381.077049	2592.965372
381.462474	2594.064343
381.847835	2595.672471
382.233134	2596.557194
382.618371	2594.323963
383.003545	2598.482915
383.388657	2599.561722
383.773706	2596.138778
384.158693	2597.542739
384.543618	2597.104159
384.928480	2596.259766
385.313280	2598.593820
385.698017	2598.641711
386.082692	2600.418718
386.467305	2603.841661
386.851856	2602.367124
387.236344	2601.361413
387.620770	2602.445262
388.005133	2603.700509
388.389435	2605.621188
388.773674	2602.674634
389.157851	2603.070365
389.541965	2605.414501
389.926018	2605.636312
390.310008	2604.232351
390.693936	2609.293669
391.077802	2606.420211
391.461606	2606.505911
391.845348	2608.348453
392.229027	2609.754935
392.612645	2605.996754
392.996200	2607.327619
393.379694	2610.248968
393.763125	2612.015892
394.146494	2610.995058
394.529801	2613.379524
394.913047	2615.643002
395.296230	2612.719133
395.679351	2611.625203
396.062410	2612.482199
396.445408	2611.521859
396.828343	2615.224587
397.211217	2609.369286
397.594028	2610.763165
397.976778	2613.092178
398.359466	2614.975049
398.742092	2611.864657
399.124656	2619.330606
399.507158	2617.465379
399.889598	2616.691562
400.271977	2620.167438
400.654294	2620.651389
401.036549	2616.449587
401.418742	2618.186264
401.800874	2618.415637
402.182944	2620.991667
402.564952	2619.038219
402.946898	2622.463683
403.328783	2623.232459
403.710606	2622.015021
404.092367	2618.944958
404.474067	2624.762450
404.855705	2625.506020
405.237282	2623.658437
405.618797	2627.270424
406.000250	2626.453757
406.381642	2626.642800
406.762972	2626.244549
407.144240	2627.840074
407.525447	2627.829992
407.906593	2627.363685
408.287677	2628.112296
408.668700	2629.813686
409.049661	2629.591875
409.430560	2629.410393
409.811399	2632.218316
410.192176	2631.046248
410.572891	2632.924078
410.953545	2633.841568
411.334138	2634.184366
411.714669	2634.096146
412.095139	2635.905920
412.475547	2634.285189
412.855894	2634.585138
413.236180	2635.971455
413.616405	2636.740231
413.996568	2638.718884
414.376670	2637.244347
414.756711	2635.802577
415.136691	2639.656539
415.516609	2638.691158
415.896466	2641.385654
416.276262	2642.300624
416.655997	2637.042700
417.035670	2639.827938
417.415283	2645.360604
417.794834	2641.461272
418.174324	2642.814822
418.553753	2647.525780
418.933121	2645.400933
419.312428	2649.998466
419.691674	2648.665081
420.070859	2651.170534
420.449983	2649.224649
420.829045	2651.566265
421.208047	2650.411840
421.586988	2653.980977
421.965867	2654.832932
422.344686	2656.168838
422.723444	2660.058088
423.102141	2658.270999
423.480777	2663.024807
423.859352	2661.174704
424.237866	2666.616629
424.616319	2667.508914
424.994712	2668.454130
425.373044	2670.006805
425.751314	2673.888494
426.129524	2672.600479
426.507673	2675.685665
426.885762	2675.635254
427.263789	2679.990811
427.641756	2682.720595
428.019662	2685.246213
428.397508	2684.427026
428.775292	2690.093283
429.153016	2692.719724
429.530679	2695.285671
429.908282	2699.091742
430.285824	2700.006712
430.663305	2707.114739
431.040726	2708.886704
431.418086	2714.736963
431.795385	2723.090155
432.172624	2728.678274
432.549802	2733.669017
432.926920	2740.938361
433.303977	2747.847262
433.680974	2754.856986
434.057910	2765.060282
434.434786	2779.246089
434.811601	2789.409055
435.188355	2810.415543
435.565050	2821.397697
435.941683	2834.910509
436.318257	2859.133254
436.694770	2876.063969
437.071222	2904.049934
437.447614	2917.010741
437.823946	2938.791046
438.200218	2970.348669
438.576429	2992.648213
438.952580	3031.560880
439.328670	3064.033472
439.704700	3108.451079
440.080670	3136.348824
440.456580	3194.790921
440.832429	3246.656832
441.208218	3261.865993
441.583947	3323.867144
441.959616	3380.229765
442.335224	3450.916824
442.710773	3515.052904
443.086261	3607.802573
443.461689	3645.717091
443.837057	3727.431674
444.212365	3838.818489
444.587612	3919.350922
444.962800	3980.888287
445.337927	4095.907253
445.712995	4094.546142
446.088002	4330.210002
446.462949	4456.407726
446.837837	4581.309875
447.212664	4699.335889
447.587431	5129.580726
447.962139	5587.995530
448.336786	5981.477753
448.711374	5940.228511
449.085901	5645.626001
449.460369	5794.582015
449.834776	5959.780626
450.209124	6487.034907
450.583412	6593.383089
450.957640	6822.057389
451.331808	6789.617564
451.705917	6736.156127
452.079965	6912.450318
452.453954	7162.481467
452.827883	7334.904052
453.201752	7481.866289
453.575562	7700.367541
453.949311	8142.159141
454.323001	8377.712095
454.696632	8535.386785
455.070202	9124.901836
455.443713	9394.490141
455.817164	9776.907031
456.190556	10163.296349
456.563888	10242.883566
456.937160	10602.166600
457.310373	10368.493996
457.683526	10719.907790
458.056619	10974.176028
458.429653	11214.954138
458.802628	11662.119608
459.175542	11964.051956
459.548398	12720.164539
459.921194	13602.331174
460.293930	14170.799408
460.666607	15262.844401
461.039224	16286.606965
461.411782	16771.981861
461.784280	16584.564363
462.156719	16682.569435
462.529099	16773.998322
462.901419	16524.930034
463.273680	16355.428798
463.645882	16721.005713
464.018024	17041.570165
464.390106	17806.648441
464.762130	19584.784390
465.134094	22126.634982
465.505999	25399.447841
465.877845	28393.129491
466.249631	29495.360135
466.621358	28888.190963
466.993026	28074.498321
467.364634	27266.003108
467.736184	26512.524528
468.107674	26142.786140
468.479105	26024.510589
468.850477	25949.049557
469.221790	25411.017289
469.593043	24621.199551
469.964238	24364.289748
470.335373	24655.885210
470.706449	26251.390238
471.077467	28470.841398
471.448425	31985.223828
471.819324	34248.137296
472.190164	33123.362612
472.560945	30882.761291
472.931667	28962.311048
473.302330	28490.224634
473.672934	28185.433952
474.043479	28872.732265
474.413965	28543.370999
474.784393	28521.867957
475.154761	29506.130560
475.525070	29785.922161
475.895321	29669.819346
476.265513	30421.389850
476.635645	31467.721660
477.005719	31593.732862
477.375734	32233.808166
477.745691	33079.562547
478.115588	34466.331038
478.485427	36461.191232
478.855207	39643.636367
479.224928	42167.737056
479.594591	43840.137324
479.964194	43179.171479
480.333739	43638.970080
480.703226	43987.633924
481.072653	44846.069327
481.442022	45509.041552
481.811333	45953.804912
482.180584	44959.946472
482.549777	44719.947220
482.918912	44453.980984
483.287988	44377.052976
483.657005	43824.043441
484.025964	43420.431020
484.394864	43619.997698
484.763706	43432.716312
485.132489	42784.360913
485.501213	42805.085096
485.869879	43115.332827
486.238487	42900.025146
486.607036	43239.188936
486.975527	42854.185934
487.343959	43208.616858
487.712333	43408.667487
488.080648	43437.331488
488.448905	44027.393504
488.817104	43966.491325
489.185244	45094.956134
489.553326	46908.894358
489.921350	49711.024764
490.289315	52632.028099
490.657222	53273.162045
491.025070	53603.939875
491.392861	52776.868011
491.760593	51652.841938
492.128267	50074.378531
492.495883	48659.566101
492.863440	47344.029114
493.230939	46087.334995
493.598380	45077.720429
493.965763	44835.182956
494.333088	44064.882045
494.700354	43653.922142
495.067563	43401.531734
495.434713	43305.580932
495.801805	43448.177530
496.168839	43108.847383
496.535815	42811.245386
496.902733	42896.206472
497.269593	42504.067718
497.636395	42470.160917
498.003139	42928.159826
498.369825	42400.290524
498.736453	42750.353289
499.103023	42290.768937
499.469535	42224.757547
499.835989	42326.538444
500.202385	42031.635985
500.568723	42066.089751
500.935003	42288.311374
501.301226	42098.085954
501.667390	42762.051286
502.033497	43027.866287
502.399546	42463.325112
502.765537	41779.187603
503.131470	42180.894468
503.497345	42579.352309
503.863163	41227.191339
504.228923	41888.429407
504.594625	42321.257835
504.960269	41589.030239
505.325856	42316.682988
505.691385	41685.321318
506.056856	41838.146418
506.422270	42307.873572
506.787625	41858.283307
507.152924	42092.523041
507.518164	42201.076727
507.883347	41402.406723
508.248472	41659.931547
508.613540	42168.755369
508.978550	42481.012000
509.343503	42249.595312
509.708398	42462.178250
510.073236	42995.862522
510.438016	43013.380532
510.802738	42471.695948
511.167403	43099.876649
511.532010	43341.910007
511.896561	43651.477183
512.261053	44540.794694
512.625488	44092.348772
512.989866	43950.573882
513.354186	43799.084688
513.718449	43798.270542
514.082655	44491.840049
514.446803	44163.267724
514.810894	44714.717023
515.174927	44611.075941
515.538904	44523.233835
515.902822	45214.088682
516.266684	44628.392304
516.630488	45083.928610
516.994235	44923.985401
517.357925	45518.004723
517.721558	45689.487133
518.085133	46020.529624
518.448651	46140.249466
518.812112	45906.259269
519.175516	46009.270207
519.538863	46356.577981
519.902152	46315.066599
520.265385	46799.319838
520.628560	46824.870926
520.991678	46608.295395
521.354739	46843.298864
521.717743	47163.344077
522.080690	47055.024805
522.443580	47601.488402
522.806413	47660.938730
523.169189	47607.444526
523.531908	47793.952094
523.894569	47617.468860
524.257174	47793.405129
524.619722	48103.287377
524.982213	48077.131350
525.344647	47991.754368
525.707025	48042.760763
526.069345	48444.407134
526.431608	48356.441520
526.793815	48685.404535
527.155964	48208.889467
527.518057	48380.399604
527.880093	48177.364612
528.242072	48692.252942
528.603995	48377.624448
528.965860	48387.626098
529.327669	48492.421604
529.689421	48382.529491
530.051117	48318.534564
530.412755	48479.702773
530.774337	48546.601405
531.135862	48338.081638
531.497331	48552.418896
531.858743	48427.930123
532.220098	48767.787071
532.581396	48476.027772
532.942638	48112.283316
533.303824	48447.661199
533.664953	48422.740255
534.026025	48124.243453
534.387040	48612.789234
534.747999	48536.750990
535.108902	48722.520030
535.469748	48214.883399
535.830537	48327.835492
536.191270	48533.378458
536.551947	48159.279473
536.912567	48484.194441
537.273131	48613.726889
537.633638	48087.501003
537.994089	48430.206204
538.354483	47997.607148
538.714821	48595.067058
539.075103	48930.555846
539.435328	48687.325214
539.795497	48548.199451
540.155609	48557.263445
540.515665	49028.535712
540.875665	48469.262543
541.235609	48788.712901
541.595496	48774.552299
541.955328	49460.834819
542.315102	48785.836922
542.674821	48573.075024
543.034483	48615.589595
543.394090	48574.806661
543.753640	48538.840548
544.113134	49538.745852
544.472571	48528.365031
544.831953	49788.610643
545.191278	48980.644751
545.550548	48697.321823
545.909761	49174.860244
546.268918	49367.686899
546.628019	49666.312250
546.987064	49215.711234
547.346053	48468.226586
547.704986	49351.817347
548.063863	48907.686652
548.422684	49082.287015
548.781449	48910.401313
549.140158	49321.963634
549.498811	49154.103293
549.857408	48567.607893
550.215949	49436.113001
550.574434	49351.522439
550.932864	49088.003684
551.291237	49808.377007
551.649555	49417.306977
552.007817	49650.707358
552.366022	49288.013983
552.724173	49447.450556
553.082267	49844.781699
553.440305	50122.556838
553.798288	49421.087842
554.156215	49734.372868
554.514086	49929.100038
554.871902	49670.445996
555.229661	49684.067194
555.587365	49493.410756
555.945014	49595.063102
556.302606	49519.972595
556.660143	49740.765051
557.017625	49795.206992
557.375050	49584.108675
557.732421	49934.146233
558.089735	49897.701212
558.446994	49824.281847
558.804197	50268.619229
559.161345	50190.146108
559.518437	49430.396333
559.875474	49755.467577
560.232455	49913.976577
560.589381	50102.624116
560.946251	49772.325195
561.303065	50446.387958
561.659825	50231.738148
562.016528	49899.016953
562.373177	49609.664804
562.729770	50075.699313
563.086307	49590.107648
563.442789	50056.885727
563.799216	50080.755590
564.155587	49868.575945
564.511904	49882.832328
564.868164	49966.792746
565.224370	50199.137006
565.580520	49928.709349
565.936615	50142.035856
566.292654	49845.908397
566.648638	50100.290061
567.004567	50045.795188
567.360441	50095.987437
567.716260	49960.831581
568.072023	50223.921839
568.427732	50192.086952
568.783385	49715.571885
569.138982	50110.863882
569.494525	50052.280633
569.850013	49807.444393
570.205445	49796.046344
570.560823	49718.888964
570.916145	49605.465523
571.271412	49629.912599
571.626625	49375.142766
571.981782	49403.277445
572.336884	49072.817208
572.691931	49400.386344
573.046923	48996.065641
573.401860	48836.492957
573.756743	48803.236465
574.111570	48902.317823
574.466342	48744.564996
574.821059	48846.482003
575.175722	48362.064927
575.530330	48385.231550
575.884882	48057.186025
576.239380	48018.643883
576.593823	47986.256990
576.948211	47911.519364
577.302544	47411.139474
577.656823	47413.481090
578.011047	47666.612548
578.365216	47375.649751
578.719330	47138.508833
579.073389	46977.290212
579.427394	47053.222592
579.781344	47007.406066
580.135239	46641.892165
580.489080	46716.445789
580.842866	46183.258070
581.196597	46620.106818
581.550273	46576.460508
581.903895	46437.236442
582.257463	46831.368973
582.610975	46194.318362
582.964434	46482.269069
583.317837	46098.846470
583.671186	45929.617456
584.024481	46156.242527
584.377721	45654.562019
584.730906	45945.113963
585.084037	45974.637480
585.437113	45692.070725
585.790135	45701.046499
586.143103	45299.294264
586.496016	45398.955355
586.848874	45423.941834
587.201679	45428.705724
587.554428	44891.880813
587.907124	45081.778558
588.259765	44819.152086
588.612352	45078.169092
588.964884	44428.109783
589.317362	44735.060599
589.669786	44651.818546
590.022155	44403.080454
590.374470	44825.685422
590.726731	44327.122868
591.078937	43846.320299
591.431090	43958.594357
591.783188	43586.708438
592.135232	43248.353754
592.487222	43534.315726
592.839157	43589.942338
593.191038	43234.430087
593.542866	42984.230060
593.894639	42371.135011
594.246358	42670.254395
594.598022	42639.634427
594.949633	42231.691655
595.301190	42177.005218
595.652692	42004.103723
596.004141	42325.862929
596.355535	41329.448624
596.706876	41259.663932
597.058162	41093.036153
597.409395	41576.064391
597.760573	41643.968733
598.111698	41229.853068
598.462768	41239.789183
598.813785	41258.396082
599.164748	40692.070338
599.515657	41089.613210
599.866511	40559.551006
600.217312	41190.748838
600.568060	40137.724896
600.918753	40896.915104
601.269392	40831.188540
601.619978	40483.855561
601.970510	40700.224404
602.320988	40872.321835
602.671412	41183.076202
603.021783	40936.072266
603.372100	40570.734806
603.722363	40672.651813
604.072572	40747.028997
604.422728	40765.091451
604.772830	40561.075955
605.122878	40665.407675
605.472872	40602.398293
605.822813	40863.714065
606.172701	40683.049193
606.522534	40943.697012
606.872314	41196.977184
607.222041	40941.040323
607.571714	41328.775630
607.921333	40775.405652
608.270899	41059.273025
608.620411	41405.522157
608.969870	41189.861595
609.319276	41203.225694
609.668627	41258.159147
610.017926	41734.853176
610.367171	41882.770712
610.716362	41956.003554
611.065500	41909.698035
611.414585	42080.464601
611.763616	42374.321020
612.112594	42305.746205
612.461518	42523.791232
612.810389	42841.530118
613.159207	42708.337792
613.507971	42772.307514
613.856682	43242.017023
614.205340	43130.718429
614.553945	43851.053943
614.902496	43281.385914
615.250994	43760.698822
615.599439	43821.495137
615.947830	44007.349877
616.296169	44084.945837
616.644454	44180.064849
616.992686	44356.560686
617.340864	44875.575201
617.688990	44573.053038
618.037063	45193.639241
618.385082	45144.276263
618.733048	45431.823678
619.080961	45442.851202
619.428821	45455.769159
619.776628	45578.458240
620.124382	45413.705771
620.472083	45554.739612
620.819731	45689.343460
621.167326	45347.066758
621.514868	45347.701944
621.862357	44892.021965
622.209793	44916.801757
622.557176	44593.212612
622.904506	44333.593189
623.251783	43986.958409
623.599007	43763.589924
623.946179	43542.195050
624.293297	43490.006504
624.640363	42889.884865
624.987376	42872.775189
625.334336	42622.718835
625.681243	42251.009356
626.028097	42218.193965
626.374899	42076.318252
626.721647	42060.763772
627.068343	41935.034874
627.414987	41704.722199
627.761577	41466.084058
628.108115	41814.362254
628.454600	41233.517987
628.801032	41425.802718
629.147412	41376.860676
629.493739	41369.798020
629.840014	41005.186486
630.186236	41357.812677
630.532405	40928.986925
630.878521	41158.861019
631.224585	41023.659794
631.570597	40720.144524
631.916556	40878.429193
632.262462	40835.259272
632.608316	40854.070337
632.954117	40739.149674
633.299866	40740.553635
633.645562	40669.279281
633.991206	40167.878558
634.336797	39732.285057
634.682336	39702.572496
635.027823	39477.500101
635.373257	39296.908326
635.718639	39053.034947
636.063968	38918.965460
636.409245	38323.096034
636.754470	38377.230465
637.099642	38118.576423
637.444762	37627.129458
637.789829	37794.793194
638.134845	37437.551826
638.479808	37366.095991
638.824719	37285.503065
639.169577	36901.868736
639.514383	36935.311751
639.859137	36632.293034
640.203839	36874.591053
640.548489	36510.801227
640.893086	36581.815961
641.237632	36322.645201
641.582125	36442.473427
641.926566	36366.135235
642.270955	36334.413774
642.615292	36340.919383
642.959576	36305.338919
643.303809	36316.618501
643.647990	36460.674513
643.992118	36416.587103
644.336195	36395.439462
644.680219	36473.962995
645.024192	36791.268342
645.368112	37309.355284
645.711981	37290.695453
646.055797	38185.306176
646.399562	38079.905732
646.743274	39047.477075
647.086935	39470.089604
647.430544	39371.650993
647.774101	39483.350360
648.117606	39746.039845
648.461059	40050.928830
648.804460	39655.798150
649.147810	39054.756501
649.491108	38778.677710
649.834354	38431.662324
650.177548	37591.455733
650.520690	37136.138717
650.863781	37157.624115
651.206820	37000.786257
651.549807	36547.024438
651.892742	36057.626702
652.235626	35866.463627
652.578458	35735.991004
652.921238	35110.144357
653.263967	35441.504440
653.606644	35105.665292
653.949269	35044.921908
654.291843	34639.865197
654.634365	35030.206780
654.976836	34627.469000
655.319255	34633.694825
655.661622	34631.988394
656.003938	34414.780198
656.346203	34276.019918
656.688416	34491.544368
657.030577	34277.310453
657.372687	34120.815394
657.714746	34392.939399
658.056753	34498.642313
658.398708	33947.848364
658.740612	33993.990046
659.082465	34290.498112
659.424266	34108.459526
659.766016	34228.761621
660.107715	34090.628965
660.449362	34218.029005
660.790958	34192.427505
661.132503	34194.075962
661.473996	34237.374433
661.815438	34364.638362
662.156829	34541.585382
662.498168	34300.766942
662.839456	34330.101417
663.180693	34482.291331
663.521879	34643.078932
663.863013	34594.101602
664.204097	34593.857106
664.545129	35049.668155
664.886110	34988.518959
665.227040	35074.533646
665.567918	35179.208165
665.908746	35245.549749
666.249522	35409.732568
666.590248	35425.443324
666.930922	35515.185945
667.271545	35485.881718
667.612118	35559.142286
667.952639	35337.994428
668.293109	35398.238737
668.633528	35291.356194
668.973896	35225.952264
669.314213	35262.609014
669.654480	35008.925549
669.994695	35023.426428
670.334859	34903.492337
670.674973	34796.675328
671.015035	34953.699709
671.355047	34897.216101
671.695008	34836.576061
672.034918	34741.192389
672.374777	34828.265719
672.714585	34648.281403
673.054342	34875.022421
673.394049	34613.028614
673.733705	34892.565636
674.073310	34549.179880
674.412864	34639.260258
674.752368	34234.740430
675.091820	34555.700613
675.431223	34115.660814
675.770574	33824.662729
676.109875	33685.877243
676.449125	33403.222268
676.788324	33334.818851
677.127473	32781.499284
677.466571	32706.746534
677.805619	32349.658922
678.144616	32351.244365
678.483562	32270.837961
678.822458	31939.278752
679.161303	31861.140868
679.500098	31781.145318
679.838842	31647.695893
680.177535	31808.125573
680.516179	32085.096648
680.854771	32333.774247
681.193314	33190.644372
681.531805	34301.263496
681.870247	35043.291095
682.208638	35753.491370
682.546978	35976.645606
682.885268	36065.604328
683.223508	35554.935443
683.561697	35234.466772
683.899836	35032.790372
684.237925	34545.600661
684.575963	34371.222108
684.913951	33917.538427
685.251889	34039.809093
685.589776	34029.832649
685.927614	34017.771689
686.265401	34156.962988
686.603137	34228.232300
686.940824	34721.083227
687.278460	35106.965909
687.616046	35203.030137
687.953582	35808.550852
688.291068	35655.030073
688.628504	35953.421011
688.965889	35884.329477
689.303224	35536.406682
689.640510	35206.173297
689.977745	34469.196933
690.314930	33671.346117
690.652065	33182.190357
690.989150	32443.005968
691.326185	31525.810876
691.663170	30826.197024
692.000105	30064.844162
692.336990	29399.381607
692.673825	28923.673124
693.010610	28410.705474
693.347345	27810.004102
693.684030	27128.462787
694.020665	26848.625817
694.357251	26164.369840
694.693786	26109.776665
695.030272	25868.257505
695.366707	25307.661032
695.703093	25011.296639
696.039429	25007.248592
696.375716	24728.392126
696.711952	24691.213617
697.048139	24511.030175
697.384276	24336.356715
697.720363	24453.674447
698.056400	24244.390945
698.392388	24036.725654
698.728326	23997.964222
699.064214	23795.869405
699.400053	23745.319235
699.735842	23372.765363
700.071581	23088.834976
700.407270	22805.176810
700.742910	22607.495524
701.078501	22334.806910
701.414042	22042.220861
701.749533	21744.286148
702.084974	21388.063094
702.420366	21603.748861
702.755709	21147.746249
703.091002	20840.445072
703.426246	20867.362313
703.761440	20758.145715
704.096584	20481.724126
704.431679	20422.392266
704.766725	20331.412042
705.101721	20266.855026
705.436668	20346.704382
705.771565	20010.991262
706.106413	20370.944770
706.441212	20348.471307
706.775961	20488.471711
707.110661	20545.151924
707.445311	20904.281203
707.779913	20719.926207
708.114465	20965.858898
708.448967	21241.378120
708.783421	21936.770005
709.117825	22199.404038
709.452180	22412.521337
709.786485	22811.082522
710.120742	23615.365851
710.454949	23610.170942
710.789107	24071.605397
711.123216	24784.636280
711.457275	24893.593258
711.791286	25428.293323
712.125247	25499.557595
712.459159	25213.436826
712.793023	25895.177266
713.126837	24788.830520
713.460602	25069.365690
713.794318	24705.064187
714.127985	24328.001002
714.461602	23429.548920
714.795171	23403.544128
715.128691	22363.773380
715.462162	21829.060712
715.795584	21418.879667
716.128957	21149.752628
716.462281	20751.829149
716.795556	20496.966055
717.128782	19996.482822
717.461960	19437.255023
717.795088	19360.347179
718.128167	18951.212174
718.461198	18478.031830
718.794180	18337.892795
719.127113	17965.696844
719.459997	17761.693951
719.792833	17401.183396
720.125619	17370.437398
720.458357	17032.491047
720.791046	16859.801281
721.123686	16689.438007
721.456278	16449.887418
721.788821	16404.539718
722.121315	16134.177597
722.453761	16211.098043
722.786158	16130.333717
723.118506	16142.538350
723.450805	15993.932697
723.783056	16155.922614
724.115259	16044.951694
724.447412	15973.319418
724.779518	16211.077878
725.111574	16226.012296
725.443582	16434.088442
725.775542	16422.261895
726.107453	16879.282820
726.439315	16757.778410
726.771129	17160.233886
727.102895	17529.440432
727.434612	17725.105257
727.766281	17849.742744
728.097901	18117.314588
728.429473	18160.182039
728.760996	18150.374474
729.092471	18246.405935
729.423897	18124.578890
729.755276	17996.546185
730.086606	18104.313452
730.417887	18636.649216
730.749120	19147.257606
731.080305	19311.309355
731.411442	19641.807402
731.742530	19716.073680
732.073570	19825.355813
732.404562	20129.178594
732.735506	19930.239539
733.066401	19650.619338
733.397249	19122.404718
733.728048	18488.151947
734.058798	17654.844175
734.389501	16966.194833
734.720156	16500.603946
735.050762	15965.762729
735.381320	15603.238232
735.711831	15347.535786
736.042293	14999.547456
736.372707	15005.546429
736.703073	14787.945024
737.033391	14968.025121
737.363661	14928.784780
737.693883	15020.874058
738.024056	15174.188149
738.354182	15346.988821
738.684260	15616.201559
739.014290	15836.202554
739.344272	16018.755338
739.674207	16289.130063
740.004093	16411.146151
740.333931	16410.236222
740.663722	16452.239116
740.993464	16452.153417
741.323159	16284.053621
741.652806	16020.814649
741.982405	15812.191539
742.311956	15468.505834
742.641460	15362.936511
742.970915	15065.785697
743.300323	14727.093256
743.629683	14523.944838
743.958996	14239.840531
744.288260	13965.165702
744.617477	13663.533302
744.946647	13596.795987
745.275768	13322.680726
745.604842	13138.330771
745.933869	12961.454327
746.262847	12901.628433
746.591778	12834.054287
746.920662	12724.179818
747.249498	12722.405332
747.578286	12837.086541
747.907027	12978.221204
748.235720	13191.693905
748.564365	13211.883726
748.892963	13102.848610
749.221514	13169.971573
749.550017	13023.074871
749.878473	12980.837563
750.206881	12752.427924
750.535242	12660.757062
750.863555	12577.797313
751.191821	12468.636168
751.520039	12487.676606
751.848210	12394.848799
752.176334	12428.879108
752.504411	12332.895539
752.832440	12162.565033
753.160421	12221.884290
753.488356	12102.691248
753.816243	12006.125426
754.144082	11867.987728
754.471875	11802.324179
754.799620	11747.514234
755.127318	11719.949204
755.454969	11674.614108
755.782572	11628.931172
756.110129	11643.588327
756.437638	11557.011550
756.765100	11548.534850
757.092515	11552.630788
757.419882	11558.523897
757.747203	11565.485730
758.074477	11631.852520
758.401703	11583.361662
758.728882	11749.021539
759.056014	11781.136209
759.383099	11894.927654
759.710138	11996.360711
760.037129	12083.849936
760.364073	12093.970052
760.690970	12075.806775
761.017820	12086.662900
761.344623	12276.669029
761.671379	12620.004374
761.998088	13289.993885
762.324751	14880.780392
762.651366	17787.300492
762.977935	21383.768031
763.304456	23506.202185
763.630931	23938.002218
763.957359	22776.064147
764.283740	20895.164277
764.610074	19027.215130
764.936362	16914.807831
765.262602	15402.675927
765.588796	13934.707050
765.914943	12916.446905
766.241044	12047.606560
766.567097	11413.850343
766.893104	10857.793430
767.219064	10498.028965
767.544978	10109.890366
767.870845	9800.701277
768.196665	9608.519889
768.522438	9411.630064
768.848165	9245.118232
769.173846	9077.845186
769.499479	8955.385476
769.825066	8798.414028
770.150607	8609.448897
770.476101	8552.839259
770.801548	8436.557484
771.126949	8295.611864
771.452303	8202.615178
771.777611	8045.870582
772.102872	8025.635390
772.428087	7901.575115
772.753256	7778.923842
773.078378	7694.696243
773.403453	7542.801237
773.728482	7437.932634
774.053465	7371.107098
774.378401	7274.841224
774.703291	7190.389295
775.028135	7084.361226
775.352932	7044.470576
775.677683	6964.157433
776.002388	6877.845318
776.327046	6875.188630
776.651658	6782.806965
776.976224	6713.009669
777.300743	6693.384458
777.625216	6630.997658
777.949643	6587.953766
778.274024	6587.679023
778.598359	6520.752665
778.922647	6518.607654
779.246889	6477.149204
779.571086	6483.788404
779.895236	6493.144786
780.219339	6485.900647
780.543397	6482.863352
780.867409	6534.154572
781.191374	6529.214241
781.515294	6499.148800
781.839167	6547.019597
782.162995	6515.903075
782.486776	6469.171578
782.810511	6434.916938
783.134201	6358.644280
783.457844	6344.130798
783.781441	6302.344674
784.104993	6253.067395
784.428498	6230.069652
784.751958	6206.880344
785.075372	6186.181366
785.398739	6147.130068
785.722061	6174.974881
786.045337	6163.511297
786.368568	6284.224247
786.691752	6307.317772
787.014891	6553.787346
787.337983	6828.615930
787.661030	7268.670852
787.984031	7684.543359
788.306987	7935.139117
788.629897	8018.577775
788.952760	7931.892614
789.275579	7760.374916
789.598351	7456.852084
789.921078	7204.103754
790.243759	6920.758140
790.566395	6722.615588
790.888984	6534.257916
791.211529	6392.919085
791.534027	6230.407409
791.856480	6091.513538
792.178888	6032.708478
792.501249	5965.830011
792.823566	5857.714905
793.145836	5853.404718
793.468062	5832.670453
793.790241	5792.847858
794.112375	5833.613148
794.434464	5929.110246
794.756507	5959.092509
795.078505	6073.844294
795.400457	6289.015863
795.722364	6522.360793
796.044226	6712.684515
796.366042	6866.986672
796.687812	6815.196378
797.009538	6842.219484
797.331218	6758.858964
797.652852	6693.076947
797.974442	6572.023720
798.295986	6501.858420
798.617484	6379.005501
798.938938	6269.667915
799.260346	6203.119643
799.581709	6064.949178
799.903026	6007.406927
800.224299	5934.350526
800.545526	5825.786757
800.866708	5757.947950
801.187845	5703.637079
801.508936	5623.364266
801.829983	5601.223518
802.150984	5489.624975
802.471940	5465.026664
802.792851	5445.766936
803.113717	5424.402526
803.434538	5401.538373
803.755314	5365.824318
804.076045	5349.266649
804.396731	5316.451258
804.717372	5328.371066
805.037967	5327.904759
805.358518	5351.797308
805.679024	5409.382408
805.999485	5415.562863
806.319901	5432.352426
806.640272	5444.862049
806.960598	5492.246375
807.280879	5484.614068
807.601115	5521.873236
807.921306	5484.969469
808.241453	5479.104087
808.561554	5494.600593
808.881611	5461.984328
809.201623	5462.957271
809.521590	5416.734931
809.841513	5403.262448
810.161390	5418.660652
810.481223	5332.330892
810.801011	5317.953522
811.120755	5297.221776
811.440453	5244.592130
811.760107	5216.079364
812.079716	5192.295200
812.399281	5140.598168
812.718801	5135.836798
813.038276	5101.393114
813.357707	5066.982198
813.677093	5094.020427
813.996434	5026.552144
814.315731	5047.959404
814.634983	5046.535278
814.954191	5052.665321
815.273354	5113.983396
815.592473	5154.630219
815.911547	5229.756014
816.230577	5281.687461
816.549562	5369.776583
816.868502	5424.959574
817.187399	5482.476618
817.506250	5568.156069
817.825058	5596.550368
818.143821	5748.888996
818.462539	5921.125059
818.781213	6158.613816
819.099843	6523.575711
819.418429	7159.834861
819.736970	7778.704551
820.055466	8480.450811
820.373919	9427.184544
820.692327	10944.103025
821.010691	13791.059371
821.329011	20187.640855
821.647286	29675.480562
821.965517	39660.698152
822.283704	44653.008258
822.601847	45895.362815
822.919945	41382.322767
823.237999	36444.845290
823.556010	31432.042893
823.873976	26846.059869
824.191897	22724.084810
824.509775	19698.732111
824.827609	16965.146273
825.145398	15442.357369
825.463144	14725.621239
825.780845	15070.852057
826.098502	16369.954883
826.416116	18753.069622
826.733685	20875.191225
827.051210	21214.178574
827.368692	19720.061233
827.686129	17209.765743
828.003522	14823.558255
828.320872	12659.035507
828.638177	11055.147041
828.955439	9837.166463
829.272656	8783.991287
829.589830	7955.177703
829.906960	7229.397743
830.224046	6694.985024
830.541088	6291.584331
830.858086	6036.711155
831.175041	5833.713972
831.491952	5780.171877
831.808819	5820.002033
832.125642	6076.795889
832.442421	6648.553476
832.759157	7787.650079
833.075849	9544.567812
833.392497	11325.103350
833.709101	12355.918488
834.025662	12041.680684
834.342179	10997.088072
834.658653	9727.221418
834.975083	8657.370105
835.291469	7771.203314
835.607811	7043.243055
835.924110	6530.088882
836.240366	6039.720723
836.556578	5589.724646
836.872746	5239.689608
837.188871	4972.561386
837.504952	4749.465123
837.820990	4583.260801
838.136984	4469.708811
838.452935	4429.482924
838.768842	4463.709838
839.084706	4764.064304
839.400526	5524.542527
839.716303	6408.264358
840.032037	6929.612927
840.347727	6746.987046
840.663373	6151.422610
840.978977	5588.484522
841.294537	5162.018030
841.610054	4837.322352
841.925527	4595.931741
842.240957	4393.264754
842.556344	4206.341290
842.871687	4045.142834
843.186987	3893.446953
843.502244	3779.290024
843.817458	3690.961447
844.132629	3620.397896
844.447756	3571.198755
844.762840	3524.255530
845.077881	3483.344046
845.392879	3448.875157
845.707833	3423.437495
846.022745	3395.562434
846.337613	3384.116495
846.652438	3359.283771
846.967221	3350.865044
847.281960	3332.661437
847.596656	3321.732216
847.911309	3308.443734
848.225919	3296.516364
848.540485	3287.994294
848.855009	3280.223355
849.169490	3265.137702
849.483928	3260.356168
849.798323	3253.321237
850.112675	3241.948394
850.426984	3243.795977
850.741251	3237.449165
851.055474	3232.937332
851.369654	3240.315061
851.683792	3233.658217
851.997887	3234.580748
852.311938	3234.096797
852.625947	3234.132085
852.939914	3229.761405
853.253837	3230.815006
853.567718	3229.857187
853.881555	3223.638924
854.195350	3232.297105
854.509103	3224.901733
854.822812	3223.651527
855.136479	3219.285887
855.450103	3223.361660
855.763685	3218.988459
856.077224	3217.776062
856.390720	3228.891806
856.704173	3236.604771
857.017584	3240.846902
857.330953	3247.319744
857.644278	3255.640168
857.957561	3254.274016
858.270802	3258.679984
858.584000	3254.720158
858.897155	3249.729415
859.210268	3236.357755
859.523339	3230.492372
859.836367	3223.863255
860.149352	3217.597101
860.462295	3213.927141
860.775195	3207.441696
861.088054	3205.231150
861.400869	3204.540512
861.713642	3198.715459
862.026373	3204.721994
862.339062	3217.009806
862.651708	3221.579612
862.964312	3237.290368
863.276873	3245.580546
863.589392	3277.019702
863.901869	3298.984009
864.214303	3322.001918
864.526696	3341.039835
864.839045	3353.388141
865.151353	3371.178373
865.463619	3367.987323
865.775842	3374.051831
866.088023	3377.668859
866.400162	3368.907333
866.712258	3375.112994
867.024313	3372.141234
867.336325	3370.031511
867.648296	3376.033004
867.960224	3371.196017
868.272110	3374.543343
868.583954	3373.202397
868.895755	3382.473078
869.207515	3378.503170
869.519233	3399.499576
869.830909	3404.616347
870.142542	3415.152358
870.454134	3423.929007
870.765684	3433.212292
871.077191	3452.043522
871.388657	3464.984164
871.700081	3483.896053
872.011463	3502.497910
872.322803	3522.312166
872.634101	3538.985782
872.945357	3558.058988
873.256571	3590.796241
873.567744	3600.833178
873.878874	3608.591514
874.189963	3626.903505
874.501010	3627.596664
874.812015	3622.247999
875.122979	3640.610402
875.433900	3636.459012
875.744780	3638.911533
876.055618	3649.550889
876.366415	3644.938233
876.677169	3657.329389
876.987882	3671.013601
877.298554	3693.451777
877.609183	3735.356368
877.919771	3782.629788
878.230317	3853.896580
878.540822	3961.565544
878.851285	4120.747539
879.161707	4349.860419
879.472087	4737.893154
879.782425	5384.484149
880.092722	6602.258040
880.402977	8543.578660
880.713191	10866.096210
881.023363	13135.651398
881.333494	14351.872613
881.643583	14754.620476
881.953631	14340.998844
882.263637	13553.157239
882.573602	12556.201010
882.883526	11637.249076
883.193408	10716.862933
883.503248	9834.018262
883.813048	9012.103498
884.122806	8261.712625
884.432522	7500.934454
884.742197	6844.697211
885.051831	6291.904445
885.361424	5796.437159
885.670975	5409.004322
885.980485	5087.204787
886.289954	4818.884332
886.599382	4601.257720
886.908768	4424.378755
887.218113	4256.939351
887.527417	4124.467910
887.836680	4003.394518
888.145901	3901.845515
888.455082	3823.513546
888.764221	3753.912856
889.073319	3695.362374
889.382376	3660.343999
889.691392	3641.424549
890.000366	3628.783855
890.309300	3622.225314
890.618193	3627.054740
890.927044	3620.327320
891.235855	3629.648413
891.544625	3643.834220
891.853353	3677.589786
892.162041	3737.730752
892.470687	3830.785411
892.779293	3953.534986
893.087858	4125.496306
893.396381	4420.086213
893.704864	4835.857897
894.013306	5397.056787
894.321707	5948.937104
894.630068	6275.724861
894.938387	6285.013187
895.246665	6109.759994
895.554903	5796.343898
895.863100	5474.070494
896.171256	5212.474939
896.479371	4975.966686
896.787446	4761.137915
897.095480	4566.662802
897.403473	4418.135286
897.711425	4274.603554
898.019336	4153.348681
898.327207	4034.407697
898.635038	3931.116975
898.942827	3826.124864
899.250576	3740.515989
899.558284	3657.389883
899.865952	3602.625308
900.173579	3536.621481
900.481165	3494.295953
900.788711	3455.897484
901.096216	3424.168462
901.403681	3396.752147
901.711105	3385.717061
902.018489	3381.303531
902.325832	3417.168820
902.633135	3480.924293
902.940397	3663.875327
903.247619	4082.200356
903.554800	4843.432231
903.861941	5785.621364
904.169041	6440.328617
904.476101	6619.395443
904.783121	6344.377815
905.090100	5957.761644
905.397039	5555.545623
905.703938	5206.460843
906.010796	4891.746649
906.317614	4641.231550
906.624391	4407.228750
906.931129	4208.153585
907.237826	4034.049775
907.544483	3859.517467
907.851099	3691.132846
908.157675	3528.593443
908.464211	3389.321486
908.770707	3288.662247
909.077163	3207.590410
909.383578	3149.486071
909.689954	3105.658280
909.996289	3076.613672
910.302584	3055.801268
910.608839	3040.335008
910.915054	3028.203471
911.221229	3024.062163
911.527363	3028.831095
911.833458	3037.635470
912.139513	3050.805485
912.445527	3063.017680
912.751502	3096.107814
913.057436	3142.715802
913.363331	3203.383567
913.669186	3291.099644
913.975000	3416.929365
914.280775	3607.384157
914.586510	3885.277763
914.892205	4264.680043
915.197859	4759.728912
915.503475	5325.031302
915.809050	5788.900634
916.114585	6052.815121
916.420081	6103.072904
916.725536	6040.807092
917.030952	5804.177851
917.336328	5604.492706
917.641665	5407.192027
917.946961	5178.127037
918.252218	4987.994879
918.557435	4770.343062
918.862612	4575.315943
919.167750	4405.033328
919.472848	4216.305130
919.777906	4052.099626
920.082925	3895.123137
920.387904	3741.468767
920.692843	3634.550935
920.997743	3537.763302
921.302603	3438.215637
921.607423	3377.946122
921.912204	3312.766524
922.216946	3262.382712
922.521647	3209.725339
922.826310	3174.217972
923.130932	3133.379585
923.435516	3096.382557
923.740059	3067.852146
924.044564	3033.166487
924.349028	3010.584639
924.653454	2979.926862
924.957840	2955.159673
925.262186	2933.644028
925.566493	2915.395051
925.870761	2889.934704
926.174989	2876.300903
926.479178	2864.262628
926.783328	2844.347549
927.087438	2833.037721
927.391509	2820.339054
927.695541	2806.624595
927.999533	2795.564304
928.303486	2790.192954
928.607400	2780.791202
928.911275	2776.468413
929.215110	2771.230654
929.518906	2767.858122
929.822663	2766.882659
930.126381	2765.725714
930.430060	2772.203597
930.733699	2770.754265
931.037299	2773.942795
931.340861	2773.458844
931.644383	2777.453958
931.947866	2774.477157
932.251309	2769.125972
932.554714	2770.706374
932.858080	2773.375665
933.161407	2765.047679
933.464694	2762.597678
933.767943	2759.658685
934.071153	2754.572161
934.374323	2749.919176
934.677455	2750.204001
934.980548	2745.669483
935.283602	2743.665625
935.586617	2743.421129
935.889593	2746.191243
936.192530	2746.599576
936.495428	2750.093096
936.798287	2762.446443
937.101108	2774.772065
937.403890	2796.867442
937.706632	2822.572285
938.009336	2850.908611
938.312002	2879.935575
938.614628	2904.339801
938.917216	2923.685229
939.219765	2931.493976
939.522275	2944.353959
939.824747	2943.151644
940.127179	2937.941612
940.429573	2931.703184
940.731929	2932.439192
941.034246	2921.762028
941.336524	2922.636669
941.638763	2915.420257
941.940964	2909.418763
942.243126	2892.243552
942.545250	2882.040257
942.847335	2869.263452
943.149381	2853.683766
943.451389	2842.265553
943.753359	2831.522854
944.055290	2821.243941
944.357182	2812.464772
944.659036	2807.383289
944.960851	2804.434214
945.262628	2798.309212
945.564367	2800.066054
945.866067	2795.554221
946.167729	2795.276958
946.469352	2797.328707
946.770937	2792.678243
947.072484	2785.492078
947.373992	2784.022582
947.675462	2783.581481
947.976893	2778.323557
948.278286	2773.526900
948.579641	2774.240223
948.880958	2768.142947
949.182236	2768.674789
949.483476	2763.240425
949.784678	2762.663213
950.085841	2763.041300
950.386967	2765.856784
950.688054	2773.128648
950.989103	2782.174999
951.290114	2790.034158
951.591087	2799.839202
951.892021	2810.765903
952.192917	2822.922646
952.493776	2834.431600
952.794596	2837.128617
953.095378	2837.267249
953.396122	2834.653411
953.696828	2832.281548
953.997496	2831.139726
954.298126	2820.336534
954.598718	2812.036274
954.899272	2800.930612
955.199788	2793.051288
955.500266	2779.064607
955.800706	2766.421393
956.101108	2750.463621
956.401472	2740.018350
956.701798	2726.087121
957.002087	2708.652291
957.302337	2702.890252
957.602550	2694.413552
957.902724	2683.996007
958.202861	2672.550067
958.502960	2667.297185
958.803022	2659.082625
959.103045	2653.970895
959.403031	2644.677528
959.702979	2641.778864
960.002889	2635.253091
960.302762	2632.735034
960.602596	2626.131123
960.902393	2623.038375
961.202153	2619.887654
961.501875	2617.525873
961.801559	2617.969495
962.101205	2614.234000
962.400814	2611.804164
962.700385	2609.538165
962.999918	2606.400047
963.299414	2605.716970
963.598873	2602.137751
963.898293	2602.430138
964.197677	2600.837133
964.497022	2599.254211
964.796331	2599.407966
965.095601	2597.600713
965.394835	2598.971907
965.694030	2593.857656
965.993189	2594.893613
966.292309	2594.165166
966.591393	2594.329004
966.890439	2594.369333
967.189447	2597.197420
967.488419	2592.267172
967.787353	2596.252204
968.086249	2594.525609
968.385108	2597.925867
968.683930	2592.194075
968.982714	2595.649786
969.281462	2599.564242
969.580172	2598.326639
969.878844	2603.153544
970.177480	2606.059769
970.476078	2609.959101
970.774639	2613.072014
971.073162	2609.770058
971.371649	2613.538321
971.670098	2614.367590
971.968510	2617.024278
972.266885	2615.582508
972.565223	2622.297325
972.863524	2621.362191
973.161788	2623.736575
973.460014	2623.310597
973.758204	2625.657254
974.056356	2624.974178
974.354471	2627.129271
974.652550	2624.611215
974.950591	2625.138016
975.248595	2626.042903
975.546563	2625.039713
975.844493	2625.251442
976.142386	2620.878241
976.440243	2619.839763
976.738062	2616.789865
977.035845	2615.005296
977.333590	2614.138218
977.631299	2610.954729
977.928971	2609.311313
978.226606	2606.508432
978.524204	2605.217896
978.821765	2605.658997
979.119290	2605.112032
979.416777	2602.573811
979.714228	2604.035746
980.011642	2604.295365
980.309020	2609.810387
980.606360	2614.173506
980.903664	2620.943776
981.200931	2635.008595
981.498162	2655.294198
981.795356	2681.442663
982.092513	2720.010010
982.389633	2760.997112
982.686717	2801.109573
982.983764	2832.047134
983.280775	2850.149917
983.577749	2850.570854
983.874686	2839.762620
984.171587	2823.320897
984.468451	2809.442600
984.765279	2789.711524
985.062070	2773.486570
985.358824	2755.310690
985.655543	2731.917216
985.952224	2713.378372
986.248869	2686.546831
986.545478	2658.568427
986.842050	2640.553864
987.138586	2624.454939
987.435086	2610.443052
987.731549	2599.050044
988.027975	2597.383943
988.324366	2589.655854
988.620719	2586.119485
988.917037	2580.566654
989.213318	2581.196798
989.509563	2575.820407
989.805772	2573.826631
990.101944	2576.344687
990.398080	2571.913513
990.694180	2571.230437
990.990244	2573.859399
991.286271	2571.515262
991.582262	2570.098698
991.878217	2571.255643
992.174136	2574.923082
992.470019	2575.427198
992.765865	2576.596745
993.061676	2580.163362
993.357450	2581.590008
993.653188	2585.955647
993.948890	2590.328848
994.244556	2598.487956
994.540186	2604.890221
994.835780	2615.549741
995.131337	2631.225209
995.426859	2648.022333
995.722345	2663.796104
996.017795	2680.976356
996.313208	2697.667617
996.608586	2704.183308
996.903928	2706.802187
997.199234	2705.637681
997.494504	2705.098277
997.789738	2695.404138
998.084936	2687.285360
998.380099	2672.756755
998.675225	2661.734272
998.970316	2651.299083
999.265371	2639.061682
999.560390	2627.724127
999.855373	2615.937910
1000.150320	2607.478854
1000.445232	2599.050044
1000.740108	2589.655854
1001.034948	2583.848445
1001.329752	2578.797209
1001.624521	2576.231262
1001.919254	2566.819427
1002.213951	2566.151474
1002.508613	2563.588048
1002.803239	2564.555949
1003.097829	2558.746019
1003.392384	2562.237018
1003.686903	2559.030845
1003.981386	2560.621329
1004.275834	2557.407593
1004.570246	2559.199723
1004.864623	2555.756615
1005.158964	2554.135884
1005.453270	2555.544887
1005.747540	2554.110678
1006.041775	2553.009186
1006.335974	2552.772252
1006.630138	2549.931562
1006.924266	2552.563044
1007.218359	2550.710420
1007.512416	2550.695297
1007.806438	2549.606407
1008.100425	2548.318393
1008.394376	2552.371480
1008.688292	2552.000956
1008.982172	2546.957281
1009.276017	2549.437529
1009.569827	2552.013558
1009.863602	2553.258723
1010.157341	2549.094730
1010.451045	2549.145142
1010.744714	2547.637837
1011.038347	2548.809905
1011.331945	2546.896787
1011.625508	2548.741850
1011.919036	2546.821170
1012.212528	2547.620193
1012.505986	2546.556509
1012.799408	2545.671787
1013.092795	2545.429812
1013.386147	2547.201777
1013.679464	2545.071890
1013.972745	2547.756304
1014.265992	2547.877292
1014.559204	2545.417209
1014.852380	2544.151879
1015.145521	2546.765717
1015.438628	2545.253371
1015.731699	2547.355532
1016.024736	2542.957126
1016.317737	2547.254709
1016.610703	2546.180943
1016.903635	2545.344112
1017.196531	2544.764379
1017.489393	2545.427291
1017.782219	2543.907383
1018.075011	2545.384441
1018.367768	2548.144473
1018.660490	2546.601880
1018.953177	2546.601880
1019.245829	2546.601880
