Dividing Wavelength (nm)	Counts (n)	Blue Motor Position (mm): 29.500000	Red Motor Position (mm): 0.000000	
326.493990	2101.218458
326.888308	2101.218458
327.282561	2101.218458
327.676750	2076.196691
328.070874	2080.234655
328.464933	2083.332444
328.858929	2095.647983
329.252859	2110.058121
329.646726	2121.118413
330.040528	2135.876391
330.434265	2157.339103
330.827938	2176.611434
331.221547	2195.659434
331.615091	2218.256406
332.008571	2238.418501
332.401986	2260.521440
332.795338	2277.933586
333.188625	2301.755558
333.581847	2315.517908
333.975006	2336.035404
334.368100	2353.172807
334.761129	2373.450848
335.154095	2385.557179
335.546996	2432.155085
335.939833	2509.819101
336.332606	2523.805782
336.725315	2536.138965
337.117960	2544.340922
337.510540	2552.005997
337.903056	2562.332800
338.295508	2564.109807
338.687896	2573.861919
339.080220	2583.172930
339.472480	2585.159145
339.864676	2590.215422
340.256807	2591.788262
340.648875	2594.749940
341.040879	2594.422265
341.432818	2596.582400
341.824694	2599.707915
342.216506	2599.060127
342.608253	2598.011567
342.999937	2593.424117
343.391557	2596.385795
343.783113	2594.674323
344.174605	2591.619384
344.566033	2588.924887
344.957397	2588.597212
345.348697	2587.473035
345.739934	2585.864907
346.131106	2583.576223
346.522215	2581.917683
346.913260	2579.550861
347.304241	2580.039853
347.695159	2576.367373
348.086012	2578.981211
348.476802	2574.300500
348.867528	2576.674883
349.258191	2570.018039
349.648789	2572.760427
350.039324	2569.566856
350.429796	2570.733883
350.820203	2568.724983
351.210548	2569.156002
351.600828	2567.321022
351.991045	2565.102914
352.381198	2568.684654
352.771288	2566.753892
353.161314	2565.039900
353.551276	2566.196845
353.941175	2563.212482
354.331010	2564.470250
354.720782	2567.948646
355.110490	2573.277145
355.500135	2566.600137
355.889717	2566.953018
356.279235	2565.735579
356.668689	2569.758420
357.058080	2569.276990
357.447408	2568.019222
357.836672	2566.264900
358.225873	2568.188101
358.615010	2566.874880
359.004084	2569.037535
359.393095	2572.165571
359.782043	2571.767320
360.170927	2575.722105
360.559748	2571.701785
360.948505	2573.602300
361.337199	2578.124215
361.725830	2576.203535
362.114398	2576.077506
362.502903	2579.475244
362.891344	2578.469534
363.279722	2575.311251
363.668037	2578.653536
364.056289	2576.828638
364.444478	2578.446849
364.832603	2579.744946
365.220665	2578.300655
365.608665	2580.687642
365.996601	2579.331571
366.384474	2582.850297
366.772284	2583.147725
367.160031	2580.919535
367.547715	2581.927765
367.935336	2582.441963
368.322893	2584.662591
368.710388	2582.688980
369.097820	2586.757191
369.485189	2584.826429
369.872495	2585.433888
370.259738	2583.934145
370.646918	2582.880543
371.034035	2588.375401
371.421090	2586.663929
371.808081	2587.271388
372.195010	2588.415730
372.581875	2585.564958
372.968678	2589.302973
373.355418	2586.547983
373.742096	2589.544949
374.128710	2590.449836
374.515262	2588.496389
374.901751	2590.802717
375.288177	2590.396904
375.674540	2589.292891
376.060841	2592.670464
376.447079	2590.391863
376.833254	2592.360433
377.219367	2589.933118
377.605417	2591.793303
377.991404	2588.604774
378.377329	2591.836153
378.763191	2591.329517
379.148991	2594.066864
379.534727	2594.926381
379.920402	2596.831937
380.306013	2596.204313
380.691563	2598.679520
381.077049	2595.574169
381.462474	2597.520054
381.847835	2597.951073
382.233134	2596.690784
382.618371	2598.641711
383.003545	2599.453337
383.388657	2597.467122
383.773706	2598.067019
384.158693	2599.980137
384.543618	2602.039449
384.928480	2600.060796
385.313280	2603.072885
385.698017	2601.255549
386.082692	2601.850405
386.467305	2603.206476
386.851856	2604.050869
387.236344	2603.387957
387.620770	2603.733276
388.005133	2605.354007
388.389435	2608.517331
388.773674	2605.036415
389.157851	2606.717639
389.541965	2607.186467
389.926018	2610.395161
390.310008	2610.311982
390.693936	2609.031529
391.077802	2607.660335
391.461606	2611.146293
391.845348	2611.504215
392.229027	2610.465737
392.612645	2609.475151
392.996200	2611.161417
393.379694	2612.000769
393.763125	2614.561675
394.146494	2613.205604
394.529801	2613.470265
394.913047	2616.048815
395.296230	2613.487909
395.679351	2616.298352
396.062410	2617.682149
396.445408	2616.608383
396.828343	2616.472272
397.211217	2613.553444
397.594028	2615.665687
397.976778	2613.334154
398.359466	2618.476131
398.742092	2614.342385
399.124656	2620.951337
399.507158	2616.477313
399.889598	2623.504682
400.271977	2621.841101
400.654294	2626.080711
401.036549	2621.452932
401.418742	2623.461832
401.800874	2624.346554
402.182944	2625.563993
402.564952	2624.442336
402.946898	2624.321349
403.328783	2625.800927
403.710606	2627.983747
404.092367	2626.113479
404.474067	2630.353089
404.855705	2628.165228
405.237282	2630.017852
405.618797	2629.743110
406.000250	2631.320991
406.381642	2632.568676
406.762972	2635.059006
407.144240	2633.355096
407.525447	2637.168729
407.906593	2633.077833
408.287677	2632.215796
408.668700	2634.605302
409.049661	2636.331898
409.430560	2637.234264
409.811399	2639.606127
410.192176	2639.109573
410.572891	2638.124028
410.953545	2637.715694
411.334138	2639.618730
411.714669	2640.274080
412.095139	2640.372382
412.475547	2641.587301
412.855894	2641.957825
413.236180	2642.396406
413.616405	2644.354894
413.996568	2641.836838
414.376670	2643.656694
414.756711	2642.078813
415.136691	2648.871768
415.516609	2648.014772
415.896466	2650.570637
416.276262	2651.001655
416.655997	2648.823877
417.035670	2648.458393
417.415283	2655.047181
417.794834	2651.775472
418.174324	2654.313693
418.553753	2655.962151
418.933121	2657.093890
419.312428	2659.022131
419.691674	2660.640342
420.070859	2664.595127
420.449983	2662.001453
420.829045	2664.655621
421.208047	2665.338697
421.586988	2670.896569
421.965867	2672.996210
422.344686	2675.869667
422.723444	2678.249092
423.102141	2676.401509
423.480777	2681.861079
423.859352	2682.350071
424.237866	2687.638241
424.616319	2690.521781
424.994712	2693.516226
425.373044	2694.501772
425.751314	2702.847402
426.129524	2703.724563
426.507673	2708.059955
426.885762	2716.332489
427.263789	2721.885320
427.641756	2726.049313
428.019662	2734.997361
428.397508	2739.428535
428.775292	2749.581419
429.153016	2759.479724
429.530679	2770.000612
429.908282	2778.031171
430.285824	2791.254117
430.663305	2810.730615
431.040726	2819.207315
431.418086	2833.141064
431.795385	2861.931094
432.172624	2889.617111
432.549802	2902.262845
432.926920	2931.940118
433.303977	2954.867286
433.680974	2991.256855
434.057910	3026.668440
434.434786	3060.575241
434.811601	3100.080243
435.188355	3167.503155
435.565050	3202.793752
435.941683	3250.039446
436.318257	3327.456446
436.694770	3379.055176
437.071222	3457.571147
437.447614	3480.410095
437.823946	3543.797563
438.200218	3624.667753
438.576429	3689.635623
438.952580	3781.432514
439.328670	3864.956872
439.704700	3974.768326
440.080670	4036.812327
440.456580	4171.418697
440.832429	4289.832880
441.208218	4305.531033
441.583947	4443.028504
441.959616	4561.566196
442.335224	4702.479048
442.710773	4834.350592
443.086261	5021.982338
443.461689	5067.967743
443.837057	5208.895720
444.212365	5426.620634
444.587612	5566.409309
444.962800	5653.157485
445.337927	5861.185739
445.712995	5800.810360
446.088002	6260.520741
446.462949	6468.196115
446.837837	6669.096178
447.212664	6852.299271
447.587431	7647.619428
447.962139	8499.405549
448.336786	9208.872336
448.711374	9058.898009
449.085901	8410.124194
449.460369	8616.869475
449.834776	8850.635341
450.209124	9758.559751
450.583412	9857.883085
450.957640	10203.323111
451.331808	10061.651564
451.705917	9892.246110
452.079965	10135.348193
452.453954	10487.944137
452.827883	10696.897443
453.201752	10868.561334
453.575562	11157.169912
453.949311	11820.353866
454.323001	12107.001435
454.696632	12265.812905
455.070202	13182.040096
455.443713	13525.554401
455.817164	14041.942475
456.190556	14555.996494
456.563888	14583.044805
456.937160	15048.310537
457.310373	14563.941352
457.683526	15042.767789
458.056619	15320.079141
458.429653	15580.414408
458.802628	16162.183727
459.175542	16507.071747
459.548398	17520.961211
459.921194	18708.278971
460.293930	19411.487165
460.666607	20875.027388
461.039224	22215.762582
461.411782	22784.450106
461.784280	22377.568497
462.156719	22411.034197
462.529099	22410.509917
462.901419	21918.591604
463.273680	21560.646996
463.645882	21943.121859
464.018024	22243.188980
464.390106	23147.067864
464.762130	25369.029519
465.134094	28577.073633
465.505999	32697.715307
465.877845	36429.026150
466.249631	37710.326140
466.621358	36773.074817
466.993026	35549.135596
467.364634	34348.131103
467.736184	33211.424008
468.107674	32571.736873
468.479105	32260.400252
468.850477	32008.962622
469.221790	31167.866267
469.593043	30061.350642
469.964238	29626.851072
470.335373	29818.135134
470.706449	31621.572634
471.077467	34157.260416
471.448425	38270.509238
471.819324	40823.674700
472.190164	39362.047595
472.560945	36532.521038
472.931667	34108.391470
473.302330	33405.092536
473.672934	32900.309198
474.043479	33580.917899
474.413965	33081.369800
474.784393	32938.228757
475.154761	33935.190027
475.525070	34160.968184
475.895321	33905.590892
476.265513	34639.343437
476.635645	35724.406433
477.005719	35742.254638
477.375734	36354.790118
477.745691	37185.393311
478.115588	38625.512333
478.485427	40744.029511
478.855207	44130.578362
479.224928	46783.667055
479.594591	48465.186770
479.964194	47614.504662
480.333739	47945.665619
480.703226	48181.321918
481.072653	48949.167786
481.442022	49541.183250
481.811333	49880.755373
482.180584	48704.384479
482.549777	48337.577522
482.918912	47932.974515
483.287988	47721.916527
483.657005	47032.695014
484.025964	46481.727145
484.394864	46584.047445
484.763706	46251.336332
485.132489	45460.212936
485.501213	45370.306478
485.869879	45612.385206
486.238487	45258.022337
486.607036	45518.476071
486.975527	45045.343618
487.343959	45295.412575
487.712333	45427.132884
488.080648	45374.362086
488.448905	45893.951292
488.817104	45738.159474
489.185244	46807.604974
489.553326	48607.932082
489.921350	51358.362936
490.289315	54169.890053
490.657222	54699.967380
491.025070	54979.222097
491.392861	54108.395538
491.760593	52921.544085
492.128267	51290.604787
492.495883	49801.004319
492.863440	48421.759750
493.230939	47061.263233
493.598380	45992.788154
493.965763	45660.755077
494.333088	44881.942178
494.700354	44400.819496
495.067563	44107.809991
495.434713	43975.940968
495.801805	44079.735805
496.168839	43677.688662
496.535815	43366.750293
496.902733	43396.694747
497.269593	42971.473420
497.636395	42917.696911
498.003139	43343.737426
498.369825	42794.539002
498.736453	43117.858445
499.103023	42641.234993
499.469535	42526.092519
499.835989	42633.960608
500.202385	42295.568115
500.568723	42322.737414
500.935003	42521.588248
501.301226	42328.456603
501.667390	42964.143582
502.033497	43222.928694
502.399546	42643.669870
502.765537	41948.391411
503.131470	42371.082079
503.497345	42738.403233
503.863163	41368.935982
504.228923	42032.364432
504.594625	42440.493726
504.960269	41700.918648
505.325856	42424.858588
505.691385	41778.801955
506.056856	41936.305245
506.422270	42382.890982
506.787625	41948.512399
507.152924	42156.505366
507.518164	42267.902263
507.883347	41457.110804
508.248472	41720.957235
508.613540	42221.669841
508.978550	42532.376317
509.343503	42277.167903
509.708398	42484.429903
510.073236	43051.534505
510.438016	43041.764748
510.802738	42485.584327
511.167403	43126.226761
511.532010	43351.664640
511.896561	43667.497970
512.261053	44544.378955
512.625488	44085.044140
512.989866	43949.119509
513.354186	43778.574753
513.718449	43793.506651
514.082655	44472.252646
514.446803	44132.690605
514.810894	44693.231625
515.174927	44602.281648
515.538904	44489.165717
515.902822	45179.138362
516.266684	44604.862719
516.630488	45043.753134
516.994235	44904.241722
517.357925	45473.980327
517.721558	45659.893040
518.085133	45964.015769
518.448651	46077.391319
518.812112	45853.523759
519.175516	45956.703575
519.538863	46284.764223
519.902152	46255.722136
520.265385	46728.920124
520.628560	46754.864422
520.991678	46533.935855
521.354739	46777.867207
521.717743	47086.602592
522.080690	46986.323960
522.443580	47530.181281
522.806413	47572.980677
523.169189	47529.820839
523.531908	47713.366730
523.894569	47555.291268
524.257174	47721.770333
524.619722	48024.738638
524.982213	47994.443824
525.344647	47918.675282
525.707025	47977.850866
526.069345	48375.166886
526.431608	48282.981826
526.793815	48593.007747
527.155964	48126.834606
527.518057	48299.330288
527.880093	48078.603367
528.242072	48618.634452
528.603995	48299.549578
528.965860	48293.565729
529.327669	48391.212879
529.689421	48284.060633
530.051117	48250.647865
530.412755	48378.438595
530.774337	48465.791709
531.135862	48259.626160
531.497331	48452.263772
531.858743	48349.404069
532.220098	48699.726453
532.581396	48398.701513
532.942638	48052.659069
533.303824	48371.935506
533.664953	48349.893061
534.026025	48044.938542
534.387040	48543.783400
534.747999	48485.575717
535.108902	48648.435233
535.469748	48151.201023
535.830537	48261.219165
536.191270	48438.380435
536.551947	48107.153942
536.912567	48412.037885
537.273131	48553.293537
537.633638	48007.767594
537.994089	48347.642186
538.354483	47933.670194
538.714821	48521.224236
539.075103	48861.550012
539.435328	48626.155854
539.795497	48472.819077
540.155609	48498.987707
540.515665	48949.775245
540.875665	48390.975944
541.235609	48723.024145
541.595496	48708.969408
541.955328	49373.678311
542.315102	48720.337210
542.674821	48501.183129
543.034483	48530.366369
543.394090	48519.560656
543.753640	48456.044638
544.113134	49482.620166
544.472571	48446.070715
544.831953	49706.641481
545.191278	48902.973173
545.550548	48610.979460
545.909761	49082.559238
546.268918	49286.065577
546.628019	49600.613413
546.987064	49146.770935
547.346053	48384.871107
547.704986	49272.429256
548.063863	48824.711780
548.422684	48993.444241
548.781449	48817.122323
549.140158	49221.702646
549.498811	49062.041742
549.857408	48476.007607
550.215949	49331.829172
550.574434	49257.346124
550.932864	48991.543726
551.291237	49726.085211
551.649555	49331.738431
552.007817	49554.446526
552.366022	49176.062559
552.724173	49354.894971
553.082267	49743.686400
553.440305	50014.383759
553.798288	49305.370676
554.156215	49636.531634
554.514086	49827.384677
554.871902	49563.412218
555.229661	49571.654504
555.587365	49388.804293
555.945014	49487.182410
556.302606	49408.071583
556.660143	49627.724738
557.017625	49702.853054
557.375050	49478.872068
557.732421	49824.012145
558.089735	49796.913423
558.446994	49708.050483
558.804197	50174.662204
559.161345	50088.725654
559.518437	49321.686370
559.875474	49629.411004
560.232455	49818.015693
560.589381	49968.640329
560.946251	49662.296971
561.303065	50324.434885
561.659825	50111.514190
562.016528	49782.473038
562.373177	49495.709522
562.729770	49961.534822
563.086307	49473.079782
563.442789	49938.557243
563.799216	49966.397015
564.155587	49734.735831
564.511904	49770.550709
564.868164	49851.466269
565.224370	50075.114539
565.580520	49816.107616
565.936615	50016.748060
566.292654	49725.984388
566.648638	49987.438791
567.004567	49935.154464
567.360441	49982.551393
567.716260	49828.453402
568.072023	50119.494337
568.427732	50083.392114
568.783385	49607.981059
569.138982	49998.516727
569.494525	49962.843002
569.850013	49701.794412
570.205445	49677.980001
570.560823	49617.607142
570.916145	49493.340179
571.271412	49518.848418
571.626625	49242.205018
571.981782	49289.372574
572.336884	48969.818873
572.691931	49286.491555
573.046923	48891.050844
573.401860	48721.239577
573.756743	48706.093430
574.111570	48792.738262
574.466342	48629.891349
574.821059	48737.499819
575.175722	48248.628883
575.530330	48275.160476
575.884882	47959.032239
576.239380	47912.273016
576.593823	47879.268582
576.948211	47802.116243
577.302544	47299.493040
577.656823	47317.250504
578.011047	47527.902680
578.365216	47250.374558
578.719330	47024.026750
579.073389	46880.323618
579.427394	46938.866538
579.781344	46903.003769
580.135239	46550.869091
580.489080	46605.835312
580.842866	46067.455205
581.196597	46517.035387
581.550273	46467.158211
581.903895	46329.650657
582.257463	46731.987666
582.610975	46082.921465
582.964434	46371.777059
583.317837	45994.343350
583.671186	45815.475650
584.024481	46059.439770
584.377721	45543.296192
584.730906	45824.401013
585.084037	45869.839453
585.437113	45577.485298
585.790135	45587.068531
586.143103	45182.790678
586.496016	45282.214835
586.848874	45316.577860
587.201679	45305.373895
587.554428	44775.896466
587.907124	44976.438607
588.259765	44712.178802
588.612352	44962.295650
588.964884	44315.818081
589.317362	44639.135003
589.669786	44545.530858
590.022155	44305.282069
590.374470	44719.894288
590.726731	44249.093368
591.078937	43749.691462
591.431090	43844.122356
591.783188	43484.718334
592.135232	43148.082683
592.487222	43408.884257
592.839157	43471.208042
593.191038	43132.843275
593.542866	42868.223027
593.894639	42259.236519
594.246358	42550.544635
594.598022	42515.904347
594.949633	42101.808846
595.301190	42060.942733
595.652692	41884.898079
596.004141	42211.660630
596.355535	41207.881199
596.706876	41154.444969
597.058162	40987.502118
597.409395	41444.195368
597.760573	41526.061186
598.111698	41120.192849
598.462768	41114.292178
598.813785	41143.241004
599.164748	40581.527916
599.515657	40975.486528
599.866511	40450.891456
600.217312	41066.706207
600.568060	40024.775324
600.918753	40778.427824
601.269392	40704.098531
601.619978	40367.213343
601.970510	40576.030538
602.320988	40763.342171
602.671412	41058.889898
603.021783	40818.111787
603.372100	40452.371034
603.722363	40564.113250
604.072572	40615.459923
604.422728	40646.773050
604.772830	40457.744904
605.122878	40550.744110
605.472872	40481.919757
605.822813	40751.450089
606.172701	40574.926525
606.522534	40825.345843
606.872314	41072.218708
607.222041	40832.925217
607.571714	41216.234391
607.921333	40652.028453
608.270899	40939.180138
608.620411	41303.133801
608.969870	41067.444736
609.319276	41080.667682
609.668627	41122.642850
610.017926	41612.370781
610.367171	41778.244907
610.716362	41859.110056
611.065500	41793.375931
611.414585	41977.171359
611.763616	42275.768983
612.112594	42209.061915
612.461518	42419.136878
612.810389	42726.286820
613.159207	42592.328239
613.507971	42666.554188
613.856682	43133.478460
614.205340	43022.963765
614.553945	43733.436262
614.902496	43165.895600
615.250994	43647.179599
615.599439	43710.478847
615.947830	43918.343264
616.296169	43979.787368
616.644454	44071.702726
616.992686	44252.294501
617.340864	44772.798677
617.688990	44466.588910
618.037063	45097.060816
618.385082	45033.963213
618.733048	45328.984139
619.080961	45361.358429
619.428821	45371.062651
619.776628	45477.294886
620.124382	45317.162634
620.472083	45454.355115
620.819731	45577.926399
621.167326	45252.560247
621.514868	45244.877529
621.862357	44798.596782
622.209793	44841.343246
622.557176	44493.710317
622.904506	44248.813584
623.251783	43887.488882
623.599007	43662.169470
623.946179	43451.250114
624.293297	43398.209613
624.640363	42808.560972
624.987376	42775.543934
625.334336	42542.229252
625.681243	42172.972295
626.028097	42131.818835
626.374899	41990.028822
626.721647	41960.059162
627.068343	41854.751979
627.414987	41608.307611
627.761577	41372.447146
628.108115	41724.423028
628.454600	41157.482264
628.801032	41336.780983
629.147412	41286.649228
629.493739	41284.738631
629.840014	40929.380135
630.186236	41266.648450
630.532405	40852.648732
630.878521	41067.696793
631.224585	40929.120515
631.570597	40629.428960
631.916556	40788.913424
632.262462	40761.907963
632.608316	40762.709506
632.954117	40657.921562
633.299866	40659.713692
633.645562	40577.462226
633.991206	40080.926216
634.336797	39645.282303
634.682336	39654.053911
635.027823	39401.592927
635.373257	39217.016120
635.718639	38977.052155
636.063968	38837.906227
636.409245	38259.156560
636.754470	38301.109042
637.099642	38053.031341
637.444762	37566.315498
637.789829	37721.671257
638.134845	37359.494600
638.479808	37285.555997
638.824719	37200.375620
639.169577	36821.759761
639.514383	36871.248768
639.859137	36548.428399
640.203839	36810.492782
640.548489	36435.768693
640.893086	36512.668974
641.237632	36234.639257
641.582125	36375.968005
641.926566	36280.463346
642.270955	36253.649448
642.615292	36261.601869
642.959576	36234.649340
643.303809	36222.323718
643.647990	36365.119442
643.992118	36342.696390
644.336195	36320.389284
644.680219	36421.109017
645.024192	36694.417694
645.368112	37224.275731
645.711981	37212.204688
646.055797	38089.095755
646.399562	38005.788167
646.743274	38975.862443
647.086935	39406.427393
647.430544	39293.041761
647.774101	39405.378833
648.117606	39662.452473
648.461059	39973.085853
648.804460	39577.627498
649.147810	38960.171852
649.491108	38700.978406
649.834354	38348.848769
650.177548	37491.870259
650.520690	37050.297950
650.863781	37086.957220
651.206820	36920.939421
651.549807	36479.387277
651.892742	35964.619934
652.235626	35783.014887
652.578458	35648.847098
652.921238	35034.529570
653.263967	35363.490064
653.606644	35032.871030
653.949269	34977.534284
654.291843	34540.428437
654.634365	34954.632323
654.976836	34549.784819
655.319255	34562.367539
655.661622	34554.195828
656.003938	34322.506918
656.346203	34196.861200
656.688416	34421.172381
657.030577	34217.696289
657.372687	34048.439548
657.714746	34307.466636
658.056753	34436.701656
658.398708	33869.556725
658.740612	33932.359419
659.082465	34211.982141
659.424266	34040.401428
659.766016	34154.911238
660.107715	34011.843292
660.449362	34150.447296
660.790958	34113.291472
661.132503	34129.471055
661.473996	34159.846528
661.815438	34283.841268
662.156829	34468.536542
662.498168	34228.449070
662.839456	34257.846558
663.180693	34406.316101
663.521879	34562.491047
663.863013	34532.526429
664.204097	34509.574055
664.545129	34973.423223
664.886110	34915.641518
665.227040	34988.453424
665.567918	35115.465295
665.908746	35161.380124
666.249522	35326.843396
666.590248	35334.319427
666.930922	35437.879851
667.271545	35405.535808
667.612118	35470.924614
667.952639	35254.268425
668.293109	35318.162529
668.633528	35208.106579
668.973896	35143.085777
669.314213	35179.225809
669.654480	34917.287455
669.994695	34933.343530
670.334859	34831.764280
670.674973	34716.952001
671.015035	34872.746340
671.355047	34807.481042
671.695008	34752.746714
672.034918	34657.955378
672.374777	34733.693673
672.714585	34561.177827
673.054342	34792.655008
673.394049	34539.458015
673.733705	34820.043597
674.073310	34473.902851
674.412864	34547.276845
674.752368	34154.739839
675.091820	34470.134588
675.431223	34029.570509
675.770574	33753.746297
676.109875	33606.547126
676.449125	33339.197093
676.788324	33244.430962
677.127473	32709.370455
677.466571	32630.415903
677.805619	32283.957564
678.144616	32287.410755
678.483562	32197.015304
678.822458	31856.200537
679.161303	31779.068362
679.500098	31707.645295
679.838842	31576.381210
680.177535	31723.900495
680.516179	31998.053565
680.854771	32241.778230
681.193314	33108.768471
681.531805	34213.761668
681.870247	34952.643587
682.208638	35668.222773
682.546978	35879.936111
682.885268	35984.860167
683.223508	35470.722968
683.561697	35147.491745
683.899836	34951.345490
684.237925	34440.222902
684.575963	34278.306081
684.913951	33806.658248
685.251889	33961.898060
685.589776	33950.678972
685.927614	33941.788898
686.265401	34062.516970
686.603137	34136.437930
686.940824	34652.246271
687.278460	35012.698853
687.616046	35111.548318
687.953582	35737.896560
688.291068	35578.442343
688.628504	35877.314711
688.965889	35808.152601
689.303224	35442.321107
689.640510	35118.684072
689.977745	34392.331940
690.314930	33591.310238
690.652065	33098.514764
690.989150	32365.064688
691.326185	31443.776179
691.663170	30765.937592
692.000105	29989.849437
692.336990	29314.135696
692.673825	28850.518420
693.010610	28333.338886
693.347345	27743.317198
693.684030	27060.528198
694.020665	26768.342921
694.357251	26092.808141
694.693786	26044.607148
695.030272	25798.492977
695.366707	25246.494192
695.703093	24955.097856
696.039429	24935.089516
696.375716	24661.468288
696.711952	24624.151147
697.048139	24449.331493
697.384276	24268.923721
697.720363	24398.867023
698.056400	24190.120404
698.392388	23968.874244
698.728326	23942.534215
699.064214	23720.625143
699.400053	23673.697042
699.735842	23304.377070
700.071581	23036.391852
700.407270	22725.524059
700.742910	22548.093088
701.078501	22276.821037
701.414042	21985.157520
701.749533	21677.173267
702.084974	21323.453146
702.420366	21537.394674
702.755709	21086.057649
703.091002	20784.626896
703.426246	20800.935029
703.761440	20696.502486
704.096584	20413.058570
704.431679	20368.164574
704.766725	20266.441651
705.101721	20211.104905
705.436668	20293.270672
705.771565	19957.025710
706.106413	20308.028650
706.441212	20293.686567
706.775961	20417.335989
707.110661	20483.864096
707.445311	20836.074392
707.779913	20664.952424
708.114465	20900.175183
708.448967	21182.323523
708.783421	21887.044063
709.117825	22138.257362
709.452180	22344.934588
709.786485	22741.620463
710.120742	23530.543396
710.454949	23529.653633
710.789107	23992.149251
711.123216	24707.219280
711.457275	24827.652445
711.791286	25366.836617
712.125247	25434.138541
712.459159	25132.440607
712.793023	25820.691698
713.126837	24711.963006
713.460602	25007.513253
713.794318	24638.258816
714.127985	24264.452217
714.461602	23371.671433
714.795171	23338.697245
715.128691	22304.272641
715.462162	21772.125920
715.795584	21358.121161
716.128957	21095.071232
716.462281	20689.646517
716.795556	20443.986048
717.128782	19931.235167
717.461960	19380.801661
717.795088	19296.914341
718.128167	18884.520230
718.461198	18426.909489
718.794180	18275.536242
719.127113	17902.488337
719.459997	17701.290846
719.792833	17336.427254
720.125619	17311.433213
720.458357	16982.709653
720.791046	16803.231973
721.123686	16641.978065
721.456278	16396.678039
721.788821	16355.779158
722.121315	16079.392857
722.453761	16160.358829
722.786158	16081.847899
723.118506	16084.660863
723.450805	15947.649863
723.783056	16099.784324
724.115259	15992.584188
724.447412	15925.504074
724.779518	16161.772873
725.111574	16175.003381
725.443582	16382.056172
725.775542	16354.415526
726.107453	16834.640882
726.439315	16708.848970
726.771129	17096.286849
727.102895	17464.102037
727.434612	17668.316658
727.766281	17798.418757
728.097901	18047.403866
728.429473	18089.474815
728.760996	18087.445751
729.092471	18179.030913
729.423897	18064.679900
729.755276	17938.063760
730.086606	18052.492911
730.417887	18572.387107
730.749120	19070.929496
731.080305	19249.403986
731.411442	19580.597712
731.742530	19652.121602
732.073570	19750.194730
732.404562	20052.111954
732.735506	19882.956037
733.066401	19592.000802
733.397249	19056.688236
733.728048	18424.812369
734.058798	17587.315398
734.389501	16900.798465
734.720156	16440.538598
735.050762	15902.607153
735.381320	15549.741508
735.711831	15299.513754
736.042293	14942.773982
736.372707	14952.755466
736.703073	14727.622577
737.033391	14912.779116
737.363661	14872.880904
737.693883	14965.454133
738.024056	15125.097393
738.354182	15295.863959
738.684260	15559.959927
739.014290	15784.203052
739.344272	15965.790455
739.674207	16240.540902
740.004093	16349.782705
740.333931	16354.095412
740.663722	16402.737506
740.993464	16399.251548
741.323159	16226.944910
741.652806	15965.238449
741.982405	15756.338075
742.311956	15423.117805
742.641460	15315.784078
742.970915	15004.727242
743.300323	14680.568447
743.629683	14476.447086
743.958996	14197.520044
744.288260	13918.146860
744.617477	13615.584368
744.946647	13549.628431
745.275768	13266.169392
745.604842	13084.874376
745.933869	12914.077563
746.262847	12862.635108
746.591778	12790.458388
746.920662	12668.268381
747.249498	12675.570492
747.578286	12790.496197
747.907027	12934.005244
748.235720	13142.968633
748.564365	13165.066531
748.892963	13061.304461
749.221514	13129.170995
749.550017	12975.239362
749.878473	12930.153803
750.206881	12710.180534
750.535242	12613.534053
750.863555	12526.869057
751.191821	12422.484404
751.520039	12439.024430
751.848210	12358.721370
752.176334	12376.534287
752.504411	12287.883076
752.832440	12118.457457
753.160421	12182.288547
753.488356	12063.587018
753.816243	11976.034779
754.144082	11824.638846
754.471875	11757.082344
754.799620	11719.248484
755.127318	11672.900116
755.454969	11649.035293
755.782572	11585.410891
756.110129	11605.260434
756.437638	11519.399502
756.765100	11510.418686
757.092515	11511.389108
757.419882	11532.476255
757.747203	11522.260356
758.074477	11599.415216
758.401703	11549.906044
758.728882	11702.771473
759.056014	11744.698749
759.383099	11855.654545
759.710138	11959.061214
760.037129	12037.698172
760.364073	12055.531254
760.690970	12041.955427
761.017820	12041.259748
761.344623	12237.738719
761.671379	12580.827047
761.998088	13239.128642
762.324751	14833.086036
762.651366	17726.985607
762.977935	21304.536216
763.304456	23439.870682
763.630931	23854.298899
763.957359	22688.700951
764.283740	20819.667957
764.610074	18970.774372
764.936362	16856.852206
765.262602	15359.132960
765.588796	13887.988157
765.914943	12879.530536
766.241044	12011.282526
766.567097	11375.955989
766.893104	10823.727833
767.219064	10469.949738
767.544978	10086.592673
767.870845	9772.702708
768.196665	9583.946785
768.522438	9380.987410
768.848165	9217.086896
769.173846	9048.593890
769.499479	8929.859594
769.825066	8770.213813
770.150607	8579.786747
770.476101	8522.032768
770.801548	8412.755676
771.126949	8272.291486
771.452303	8183.347888
771.777611	8019.238166
772.102872	7999.242429
772.428087	7879.593163
772.753256	7751.295798
773.078378	7672.003489
773.403453	7521.502362
773.728482	7410.571771
774.053465	7349.472987
774.378401	7260.965448
774.703291	7165.755696
775.028135	7071.523928
775.352932	7030.080602
775.677683	6945.933662
776.002388	6853.665423
776.327046	6855.381936
776.651658	6763.746362
776.976224	6686.727614
777.300743	6675.884092
777.625216	6611.606860
777.949643	6567.388379
778.274024	6569.430046
778.598359	6499.831876
778.922647	6504.605849
779.246889	6460.737728
779.571086	6465.057997
779.895236	6472.957485
780.219339	6469.501774
780.543397	6461.395599
780.867409	6514.640266
781.191374	6512.553228
781.515294	6477.146684
781.839167	6532.405292
782.162995	6500.910683
782.486776	6452.752540
782.810511	6416.922539
783.134201	6337.436146
783.457844	6334.308110
783.781441	6281.837260
784.104993	6233.159879
784.428498	6211.500561
784.751958	6189.994999
785.075372	6163.198746
785.398739	6127.517459
785.722061	6157.605586
786.045337	6147.621580
786.368568	6263.926041
786.691752	6288.088291
787.014891	6538.058946
787.337983	6810.193033
787.661030	7245.930207
787.984031	7663.549474
788.306987	7914.843432
788.629897	7993.558528
788.952760	7907.669870
789.275579	7734.972542
789.598351	7436.836183
789.921078	7178.356060
790.243759	6903.824904
790.566395	6706.441046
790.888984	6514.796541
791.211529	6373.157762
791.534027	6207.888575
791.856480	6075.142391
792.178888	6014.767012
792.501249	5948.352331
792.823566	5843.750909
793.145836	5838.346792
793.468062	5817.365510
793.790241	5777.351351
794.112375	5812.727648
794.434464	5909.318676
794.756507	5944.006856
795.078505	6058.304937
795.400457	6272.372494
795.722364	6501.606362
796.044226	6689.452358
796.366042	6849.635021
796.687812	6794.217617
797.009538	6824.194838
797.331218	6742.243321
797.652852	6669.040726
797.974442	6551.501182
798.295986	6482.500389
798.617484	6360.824579
798.938938	6253.677375
799.260346	6188.122210
799.581709	6043.095776
799.903026	5996.596173
800.224299	5923.033135
800.545526	5807.613397
800.866708	5744.170476
801.187845	5693.297672
801.508936	5610.302636
801.829983	5582.881280
802.150984	5479.671216
802.471940	5451.045024
802.792851	5433.499288
803.113717	5411.371143
803.434538	5384.768975
803.755314	5350.617678
804.076045	5343.686091
804.396731	5302.986336
804.717372	5317.973686
805.037967	5318.298841
805.358518	5338.670143
805.679024	5400.799844
805.999485	5408.162449
806.319901	5419.583183
806.640272	5431.374442
806.960598	5480.442513
807.280879	5477.228777
807.601115	5507.495865
807.921306	5475.161904
808.241453	5468.381552
808.561554	5484.548533
808.881611	5450.961845
809.201623	5451.188697
809.521590	5401.432509
809.841513	5388.572525
810.161390	5410.204116
810.481223	5323.690355
810.801011	5306.111851
811.120755	5290.385972
811.440453	5232.556375
811.760107	5205.079566
812.079716	5181.524775
812.399281	5127.123163
812.718801	5122.210559
813.038276	5089.367442
813.357707	5054.717071
813.677093	5082.239250
813.996434	5014.965052
814.315731	5034.736457
814.634983	5031.399213
814.954191	5041.731058
815.273354	5099.853042
815.592473	5141.034227
815.911547	5219.734201
816.230577	5274.037510
816.549562	5358.829718
816.868502	5409.919291
817.187399	5466.909535
817.506250	5550.559922
817.825058	5577.726700
818.143821	5734.166307
818.462539	5907.098048
818.781213	6138.469366
819.099843	6506.524008
819.418429	7131.642208
819.736970	7753.771004
820.055466	8458.345351
820.373919	9399.836285
820.692327	10902.594164
821.010691	13729.280031
821.329011	20119.524784
821.647286	29586.728528
821.965517	39585.567316
822.283704	44580.778606
822.601847	45801.282282
822.919945	41295.035188
823.237999	36369.386779
823.556010	31332.775013
823.873976	26756.309687
824.191897	22647.693685
824.509775	19644.524583
824.827609	16916.980569
825.145398	15393.632097
825.463144	14680.966698
825.780845	15021.897412
826.098502	16304.077084
826.416116	18696.260860
826.733685	20789.965478
827.051210	21134.898868
827.368692	19661.455299
827.686129	17157.549471
828.003522	14775.001861
828.320872	12619.583437
828.638177	11023.889367
828.955439	9803.423500
829.272656	8755.604549
829.589830	7930.924712
829.906960	7207.546862
830.224046	6679.758219
830.541088	6277.363236
830.858086	6022.588362
831.175041	5816.195962
831.491952	5764.224186
831.808819	5803.487213
832.125642	6058.975411
832.442421	6628.227544
832.759157	7769.222141
833.075849	9512.049849
833.392497	11293.475151
833.709101	12320.942963
834.025662	12002.589057
834.342179	10963.219080
834.658653	9694.821922
834.975083	8627.362637
835.291469	7750.148935
835.607811	7026.246805
835.924110	6512.356623
836.240366	6028.610020
836.556578	5578.490435
836.872746	5227.399275
837.188871	4962.365653
837.504952	4742.024380
837.820990	4575.341148
838.136984	4457.854537
838.452935	4418.999844
838.768842	4460.707831
839.084706	4757.989714
839.400526	5507.384960
839.716303	6389.972531
840.032037	6910.822026
840.347727	6729.978193
840.663373	6137.244365
840.978977	5575.569086
841.294537	5145.505731
841.610054	4825.153007
841.925527	4588.380093
842.240957	4381.811252
842.556344	4199.538253
842.871687	4038.669992
843.186987	3889.245151
843.502244	3773.245681
843.817458	3684.481044
844.132629	3616.932103
844.447756	3564.824216
844.762840	3523.443905
845.077881	3479.578304
845.392879	3443.639919
845.707833	3419.850714
846.022745	3393.286353
846.337613	3379.730691
846.652438	3357.610108
846.967221	3346.653160
847.281960	3330.269410
847.596656	3320.068635
847.911309	3306.591110
848.225919	3294.094090
848.540485	3278.877367
848.855009	3273.952160
849.169490	3262.418000
849.483928	3254.909201
849.798323	3250.256216
850.112675	3240.473857
850.426984	3240.753641
850.741251	3233.973289
851.055474	3231.162846
851.369654	3232.256776
851.683792	3228.039851
851.997887	3231.493041
852.311938	3230.129409
852.625947	3231.447671
852.939914	3220.770507
853.253837	3229.184193
853.567718	3226.184706
853.881555	3220.710013
854.195350	3225.564644
854.509103	3222.512226
854.822812	3220.314283
855.136479	3218.615414
855.450103	3223.354098
855.763685	3211.383879
856.077224	3215.810012
856.390720	3223.341496
856.704173	3231.820716
857.017584	3241.507293
857.330953	3245.091554
857.644278	3252.880137
857.957561	3251.398037
858.270802	3249.676483
858.584000	3250.425095
858.897155	3246.999631
859.210268	3236.642580
859.523339	3225.662947
859.836367	3221.398131
860.149352	3214.927810
860.462295	3211.966132
860.775195	3202.035059
861.088054	3200.139585
861.400869	3200.247970
861.713642	3197.671940
862.026373	3204.936243
862.339062	3209.233827
862.651708	3216.979559
862.964312	3234.885738
863.276873	3244.413519
863.589392	3272.984258
863.901869	3295.419913
864.214303	3318.205929
864.526696	3335.713856
864.839045	3355.891074
865.151353	3365.602857
865.463619	3368.972868
865.775842	3369.444216
866.088023	3373.693909
866.400162	3369.350955
866.712258	3369.408928
867.024313	3368.103269
867.336325	3369.098897
867.648296	3369.512272
867.960224	3364.090511
868.272110	3368.531768
868.583954	3370.064278
868.895755	3377.258005
869.207515	3375.246584
869.519233	3391.995818
869.830909	3400.848084
870.142542	3409.153385
870.454134	3416.150507
870.765684	3431.745316
871.077191	3446.253757
871.388657	3458.506281
871.700081	3479.306082
872.011463	3497.018176
872.322803	3515.632637
872.634101	3533.947149
872.945357	3555.263668
873.256571	3582.984973
873.567744	3596.147425
873.878874	3603.951132
874.189963	3615.409674
874.501010	3620.876806
874.812015	3619.286322
875.122979	3636.640494
875.433900	3632.456336
875.744780	3632.801655
876.055618	3642.843633
876.366415	3644.000578
876.677169	3646.107781
876.987882	3665.659896
877.298554	3689.673432
877.609183	3729.712797
877.919771	3780.268008
878.230317	3847.227134
878.540822	3951.848720
878.851285	4108.313533
879.161707	4338.154860
879.472087	4730.215477
879.782425	5371.556110
880.092722	6582.842036
880.402977	8529.332359
880.713191	10847.348159
881.023363	13122.113379
881.333494	14334.140354
881.643583	14739.577673
881.953631	14321.471935
882.263637	13523.429555
882.573602	12534.455993
882.883526	11616.842485
883.193408	10698.649244
883.503248	9809.130086
883.813048	8999.422476
884.122806	8245.230572
884.432522	7490.647979
884.742197	6834.536765
885.051831	6277.171672
885.361424	5785.850736
885.670975	5399.753804
885.980485	5079.597685
886.289954	4809.706911
886.599382	4589.859672
886.908768	4414.873660
887.218113	4251.641098
887.527417	4116.823000
887.836680	3995.711800
888.145901	3893.550297
888.455082	3818.220335
888.764221	3748.604521
889.073319	3688.161086
889.382376	3652.578102
889.691392	3630.538177
890.000366	3622.885705
890.309300	3618.320941
890.618193	3621.794296
890.927044	3615.298769
891.235855	3625.547435
891.544625	3638.979589
891.853353	3671.515196
892.162041	3730.045513
892.470687	3825.111592
892.779293	3946.873101
893.087858	4124.374649
893.396381	4412.695881
893.704864	4828.817926
894.013306	5388.262494
894.321707	5933.816163
894.630068	6260.518221
894.938387	6273.088338
895.246665	6093.716522
895.554903	5786.639677
895.863100	5462.475841
896.171256	5198.352147
896.479371	4965.922187
896.787446	4746.833641
897.095480	4561.435126
897.403473	4409.600613
897.711425	4267.523253
898.019336	4144.057834
898.327207	4028.577602
898.635038	3929.133281
898.942827	3820.861899
899.250576	3735.920978
899.558284	3653.238493
899.865952	3596.792693
900.173579	3533.261552
900.481165	3490.131960
900.788711	3449.212914
901.096216	3420.516146
901.403681	3392.189903
901.711105	3382.329406
902.018489	3377.820093
902.325832	3410.784198
902.633135	3474.867346
902.940397	3655.310407
903.247619	4077.680961
903.554800	4833.544007
903.861941	5773.177276
904.169041	6430.914262
904.476101	6609.681139
904.783121	6333.720816
905.090100	5944.309325
905.397039	5542.841915
905.703938	5198.541190
906.010796	4881.008991
906.317614	4633.750477
906.624391	4398.371443
906.931129	4206.656362
907.237826	4026.722458
907.544483	3856.442363
907.851099	3685.098585
908.157675	3524.827701
908.464211	3383.297307
908.770707	3286.723923
909.077163	3204.275852
909.383578	3144.674290
909.689954	3101.781632
909.996289	3072.409349
910.302584	3050.971843
910.608839	3039.984648
910.915054	3026.444109
911.221229	3023.399252
911.527363	3028.647093
911.833458	3033.335366
912.139513	3047.911862
912.445527	3060.658420
912.751502	3097.451281
913.057436	3140.815287
913.363331	3200.883155
913.669186	3292.284316
913.975000	3413.120773
914.280775	3604.616564
914.586510	3880.246692
914.892205	4259.832973
915.197859	4752.182305
915.503475	5313.721473
915.809050	5782.188338
916.114585	6039.403131
916.420081	6088.718218
916.725536	6028.625144
917.030952	5794.294669
917.336328	5596.252940
917.641665	5395.713320
917.946961	5173.985729
918.252218	4977.685719
918.557435	4762.544397
918.862612	4569.868976
919.167750	4395.598808
919.472848	4212.471333
919.777906	4044.230385
920.082925	3890.192888
920.387904	3737.009867
920.692843	3628.897281
920.997743	3532.041592
921.302603	3437.988785
921.607423	3372.325236
921.912204	3307.231337
922.216946	3258.397679
922.521647	3208.712067
922.826310	3168.488701
923.130932	3133.671972
923.435516	3091.180086
923.740059	3065.427351
924.044564	3031.507948
924.349028	3008.807632
924.653454	2980.037767
924.957840	2951.885443
925.262186	2933.694440
925.566493	2911.815832
925.870761	2883.867675
926.174989	2878.728219
926.479178	2862.631814
926.783328	2842.353773
927.087438	2831.454798
927.391509	2819.267809
927.695541	2804.492187
927.999533	2798.536064
928.303486	2788.269754
928.607400	2782.222890
928.911275	2775.457662
929.215110	2768.367279
929.518906	2767.749737
929.822663	2765.675302
930.126381	2765.755961
930.430060	2770.325767
930.733699	2771.565891
931.037299	2773.557147
931.340861	2771.860798
931.644383	2776.256684
931.947866	2774.656118
932.251309	2769.872063
932.554714	2769.350304
932.858080	2768.115221
933.161407	2766.875097
933.464694	2759.946031
933.767943	2758.658016
934.071153	2755.439240
934.374323	2750.239289
934.677455	2748.386665
934.980548	2747.121336
935.283602	2744.164699
935.586617	2742.397775
935.889593	2743.995820
936.192530	2744.736870
936.495428	2750.521594
936.798287	2759.089035
937.101108	2772.589245
937.403890	2795.055147
937.706632	2819.776966
938.009336	2851.475741
938.312002	2881.359701
938.614628	2902.358627
938.917216	2919.647264
939.219765	2930.447937
939.522275	2940.754576
939.824747	2943.194494
940.127179	2936.429266
940.429573	2931.229315
940.731929	2928.570107
941.034246	2924.753953
941.336524	2918.255906
941.638763	2911.427663
941.940964	2909.769123
942.243126	2890.527039
942.545250	2884.931358
942.847335	2866.332021
943.149381	2852.141173
943.451389	2841.310254
943.753359	2828.152843
944.055290	2819.734116
944.357182	2812.850420
944.659036	2807.753814
944.960851	2804.777012
945.262628	2798.195786
945.564367	2797.038841
945.866067	2796.819551
946.167729	2796.184366
946.469352	2795.077832
946.770937	2793.336114
947.072484	2784.327572
947.373992	2785.323200
947.675462	2782.081738
947.976893	2773.665531
948.278286	2771.568411
948.579641	2768.699995
948.880958	2765.448451
949.182236	2766.343255
949.483476	2764.425096
949.784678	2763.658841
950.085841	2763.061464
950.386967	2766.915426
950.688054	2771.502876
950.989103	2779.987138
951.290114	2789.187244
951.591087	2800.083698
951.892021	2810.236582
952.192917	2824.122440
952.493776	2831.885817
952.794596	2836.067454
953.095378	2838.093998
953.396122	2836.556446
953.696828	2832.251301
953.997496	2831.096877
954.298126	2820.639003
954.598718	2812.984011
954.899272	2799.385498
955.199788	2791.123047
955.500266	2780.826490
955.800706	2764.440220
956.101108	2750.725761
956.401472	2736.640777
956.701798	2725.293140
957.002087	2708.995089
957.302337	2701.932433
957.602550	2691.509847
957.902724	2678.702796
958.202861	2674.687517
958.502960	2666.329284
958.803022	2660.594971
959.103045	2648.564257
959.403031	2648.239103
959.702979	2638.537402
960.002889	2633.002216
960.302762	2633.937350
960.602596	2627.711525
960.902393	2623.141719
961.202153	2622.070473
961.501875	2617.646861
961.801559	2618.153497
962.101205	2612.527569
962.400814	2613.369442
962.700385	2608.648401
962.999918	2607.340222
963.299414	2603.037597
963.598873	2603.261928
963.898293	2603.261928
964.197677	2600.794284
964.497022	2598.467791
964.796331	2598.586258
965.095601	2598.871083
965.394835	2598.407297
965.694030	2597.832606
965.993189	2596.055599
966.292309	2596.756319
966.591393	2594.339086
966.890439	2594.334045
967.189447	2593.913109
967.488419	2594.021493
967.787353	2593.028386
968.086249	2596.756319
968.385108	2597.018459
968.683930	2595.619539
968.982714	2598.556011
969.281462	2599.861670
969.580172	2601.961311
969.878844	2603.461054
970.177480	2607.221755
970.476078	2610.138062
970.774639	2610.909359
971.073162	2610.526231
971.371649	2612.777106
971.670098	2613.709720
971.968510	2616.192488
972.266885	2615.277519
972.565223	2620.424537
972.863524	2621.452932
973.161788	2623.996194
973.460014	2626.499127
973.758204	2623.965947
974.056356	2629.405352
974.354471	2627.449385
974.652550	2625.054837
974.950591	2625.274127
975.248595	2623.340844
975.546563	2623.481997
975.844493	2622.136008
976.142386	2620.699280
976.440243	2620.905967
976.738062	2616.711727
977.035845	2616.142077
977.333590	2609.767537
977.631299	2608.527414
977.928971	2607.816611
978.226606	2606.591611
978.524204	2606.326950
978.821765	2606.024481
979.119290	2605.031373
979.416777	2603.183791
979.714228	2604.590272
980.011642	2602.853595
980.309020	2611.809205
980.606360	2614.014710
980.903664	2620.903446
981.200931	2634.743934
981.498162	2652.375370
981.795356	2681.435101
982.092513	2719.137891
982.389633	2759.898140
982.686717	2802.034625
982.983764	2830.738955
983.280775	2847.314268
983.577749	2848.251923
983.874686	2838.782116
984.171587	2823.295691
984.468451	2805.828093
984.765279	2791.090280
985.062070	2773.635284
985.358824	2753.339599
985.655543	2733.064078
985.952224	2712.748228
986.248869	2684.185051
986.545478	2659.279230
986.842050	2638.499594
987.138586	2621.533591
987.435086	2610.337188
987.731549	2597.532657
988.027975	2595.813624
988.324366	2587.853642
988.620719	2583.737540
988.917037	2582.184864
989.213318	2579.104719
989.509563	2577.058011
989.805772	2576.410223
990.101944	2573.393092
990.398080	2571.353945
990.694180	2570.083574
990.990244	2572.125242
991.286271	2571.379151
991.582262	2572.072310
991.878217	2574.421487
992.174136	2574.217321
992.470019	2574.708833
992.765865	2575.838052
993.061676	2579.076993
993.357450	2583.114957
993.653188	2584.468507
993.948890	2590.948910
994.244556	2594.331524
994.540186	2607.425922
994.835780	2617.170472
995.131337	2633.118162
995.426859	2647.324134
995.722345	2662.906340
996.017795	2686.314938
996.313208	2694.685774
996.608586	2703.258256
996.903928	2706.940819
997.199234	2705.022660
997.494504	2702.418904
997.789738	2691.436750
998.084936	2684.492561
998.380099	2674.193484
998.675225	2660.796617
998.970316	2651.041985
999.265371	2637.995478
999.560390	2626.179014
999.855373	2616.447066
1000.150320	2605.641353
1000.445232	2599.551639
1000.740108	2589.822212
1001.034948	2583.586305
1001.329752	2579.954154
1001.624521	2575.288566
1001.919254	2568.803121
1002.213951	2566.615261
1002.508613	2563.157029
1002.803239	2562.136195
1003.097829	2560.414641
1003.392384	2564.326577
1003.686903	2557.899106
1003.981386	2557.198385
1004.275834	2559.355999
1004.570246	2559.794579
1004.864623	2556.974054
1005.158964	2555.476831
1005.453270	2553.946841
1005.747540	2553.009186
1006.041775	2553.576316
1006.335974	2555.993549
1006.630138	2551.398538
1006.924266	2556.706873
1007.218359	2552.585729
1007.512416	2550.113043
1007.806438	2551.375852
1008.100425	2552.099258
1008.394376	2553.498178
1008.688292	2553.384752
1008.982172	2551.557334
1009.276017	2550.342416
1009.569827	2550.047508
1009.863602	2552.396686
1010.157341	2549.424926
1010.451045	2549.467776
1010.744714	2545.586087
1011.038347	2547.501726
1011.331945	2548.578012
1011.625508	2547.479041
1011.919036	2547.345450
1012.212528	2546.939637
1012.505986	2545.424770
1012.799408	2548.751932
1013.092795	2544.721529
1013.386147	2547.612631
1013.679464	2544.073741
1013.972745	2549.331665
1014.265992	2545.281098
1014.559204	2547.292518
1014.852380	2546.445604
1015.145521	2545.669266
1015.438628	2544.555171
1015.731699	2547.058104
1016.024736	2544.683721
1016.317737	2548.063814
1016.610703	2545.530635
1016.903635	2542.626930
1017.196531	2544.280428
1017.489393	2543.693134
1017.782219	2544.872764
1018.075011	2544.565254
1018.367768	2545.218083
1018.660490	2546.669935
1018.953177	2546.669935
1019.245829	2546.669935
