Dividing Wavelength (nm)	Counts (n)	Blue Motor Position (mm): 45.600000	Red Motor Position (mm): 0.000000	
326.493990	2047.436908
326.888308	2047.436908
327.282561	2047.436908
327.676750	2023.889679
328.070874	2025.316325
328.464933	2030.183559
328.858929	2038.650177
329.252859	2049.108051
329.646726	2062.358724
330.040528	2080.549727
330.434265	2097.412387
330.827938	2118.902826
331.221547	2139.700106
331.615091	2157.797848
332.008571	2180.145283
332.401986	2200.246884
332.795338	2221.729761
333.188625	2241.780951
333.581847	2257.791655
333.975006	2275.407968
334.368100	2295.083591
334.761129	2309.428194
335.154095	2327.215906
335.546996	2377.745911
335.939833	2490.183807
336.332606	2493.914260
336.725315	2509.892197
337.117960	2520.158507
337.510540	2531.445651
337.903056	2536.126362
338.295508	2544.408978
338.687896	2553.624207
339.080220	2557.831050
339.472480	2560.540670
339.864676	2565.778429
340.256807	2568.409911
340.648875	2567.835220
341.040879	2570.265056
341.432818	2571.931157
341.824694	2570.925447
342.216506	2572.833524
342.608253	2572.959553
342.999937	2570.033163
343.391557	2573.135993
343.783113	2569.753379
344.174605	2568.334294
344.566033	2563.749365
344.957397	2564.810528
345.348697	2562.234498
345.739934	2558.632593
346.131106	2561.853891
346.522215	2557.205947
346.913260	2558.337686
347.304241	2558.211657
347.695159	2552.807540
348.086012	2551.453990
348.476802	2550.102961
348.867528	2544.555171
349.258191	2542.833617
349.648789	2544.184647
350.039324	2539.927392
350.429796	2544.628268
350.820203	2543.940151
351.210548	2543.065510
351.600828	2543.065510
351.991045	2542.263967
352.381198	2538.195756
352.771288	2541.971580
353.161314	2540.000489
353.551276	2538.667104
353.941175	2540.358411
354.331010	2543.166333
354.720782	2541.979142
355.110490	2545.044163
355.500135	2538.536034
355.889717	2541.515356
356.279235	2542.684903
356.668689	2540.204656
357.058080	2538.420087
357.447408	2546.014585
357.836672	2544.119112
358.225873	2543.292362
358.615010	2545.026519
359.004084	2546.629606
359.393095	2545.316386
359.782043	2547.438711
360.170927	2546.770758
360.559748	2550.145811
360.948505	2548.777138
361.337199	2546.715306
361.725830	2550.859134
362.114398	2550.816284
362.502903	2550.309648
362.891344	2552.174875
363.279722	2550.269319
363.668037	2552.994063
364.056289	2552.585729
364.444478	2553.248641
364.832603	2552.749567
365.220665	2554.982798
365.608665	2553.435164
365.996601	2555.902809
366.384474	2555.318035
366.772284	2554.279557
367.160031	2557.034548
367.547715	2554.640000
367.935336	2554.047664
368.322893	2556.074208
368.710388	2551.907694
369.097820	2553.510781
369.485189	2554.864331
369.872495	2558.546894
370.259738	2562.063099
370.646918	2559.829867
371.034035	2562.811710
371.421090	2560.437327
371.808081	2559.567728
372.195010	2561.972358
372.581875	2562.713407
372.968678	2561.012018
373.355418	2559.482028
373.742096	2561.322049
374.128710	2562.700805
374.515262	2563.948490
374.901751	2563.867832
375.288177	2567.351269
375.674540	2567.613409
376.060841	2569.211455
376.447079	2566.446382
376.833254	2569.962587
377.219367	2568.795560
377.605417	2569.846640
377.991404	2568.679613
378.377329	2573.740932
378.763191	2570.446537
379.148991	2573.962742
379.534727	2574.628175
379.920402	2575.472568
380.306013	2579.472723
380.691563	2585.186871
381.077049	2585.146542
381.462474	2587.273909
381.847835	2588.768611
382.233134	2596.234560
382.618371	2599.990220
383.003545	2605.106991
383.388657	2608.973556
383.773706	2617.283898
384.158693	2624.459980
384.543618	2630.564818
384.928480	2636.384830
385.313280	2645.350522
385.698017	2651.951913
386.082692	2662.800476
386.467305	2671.435972
386.851856	2684.348888
387.236344	2696.145188
387.620770	2702.350848
388.005133	2714.530276
388.389435	2730.142730
388.773674	2742.216293
389.157851	2760.276227
389.541965	2773.456323
389.926018	2790.613891
390.310008	2808.237764
390.693936	2823.472131
391.077802	2844.771006
391.461606	2867.413349
391.845348	2881.276522
392.229027	2905.859709
392.612645	2935.993206
392.996200	2962.771815
393.379694	2988.501864
393.763125	3019.736853
394.146494	3041.028167
394.529801	3072.336253
394.913047	3111.382510
395.296230	3127.347844
395.679351	3154.549910
396.062410	3194.390149
396.445408	3196.525078
396.828343	3233.265007
397.211217	3268.467384
397.594028	3268.918567
397.976778	3310.651760
398.359466	3349.103161
398.742092	3368.297354
399.124656	3396.651324
399.507158	3451.476392
399.889598	3469.435503
400.271977	3533.075029
400.654294	3540.210782
401.036549	3595.108948
401.418742	3608.341977
401.800874	3675.880835
402.182944	3709.321329
402.564952	3790.602373
402.946898	3797.899443
403.328783	3804.737769
403.710606	3863.263044
404.092367	3926.829474
404.474067	3995.739526
404.855705	3990.831963
405.237282	3975.305209
405.618797	4072.574272
406.000250	4146.921209
406.381642	4229.558324
406.762972	4237.077205
407.144240	4208.357751
407.525447	4278.535654
407.906593	4300.126916
408.287677	4378.138772
408.668700	4409.053648
409.049661	4452.629382
409.430560	4488.782016
409.811399	4485.424608
410.192176	4529.635527
410.572891	4599.871403
410.953545	4697.475703
411.334138	4607.410449
411.714669	4717.499166
412.095139	4642.844719
412.475547	4741.706787
412.855894	4751.118621
413.236180	4844.264021
413.616405	4785.395947
413.996568	4874.304257
414.376670	4885.109970
414.756711	4877.485225
415.136691	4945.991985
415.516609	5031.318555
415.896466	5064.995983
416.276262	5143.897603
416.655997	5253.245271
417.035670	5336.436912
417.415283	5460.429132
417.794834	5516.564901
418.174324	5477.841277
418.553753	5479.519982
418.933121	5632.216532
419.312428	5640.214322
419.691674	5585.477474
420.070859	5786.712774
420.449983	5681.385426
420.829045	5862.413260
421.208047	5792.880625
421.586988	5944.226146
421.965867	6011.689388
422.344686	6087.082364
422.723444	6243.688329
423.102141	5894.895935
423.480777	6247.101190
423.859352	6081.496765
424.237866	6429.417039
424.616319	6421.457057
424.994712	6569.455252
425.373044	6493.076730
425.751314	6777.798579
426.129524	6527.321288
426.507673	6777.367560
426.885762	6812.292674
427.263789	6848.389856
427.641756	6939.765811
428.019662	7001.656056
428.397508	7041.156017
428.775292	7038.847169
429.153016	7182.363778
429.530679	7131.032229
429.908282	7173.133425
430.285824	7119.377081
430.663305	7370.514763
431.040726	7276.212418
431.418086	7278.301977
431.795385	7405.230669
432.172624	7588.814368
432.549802	7464.766696
432.926920	7596.149247
433.303977	7555.177269
433.680974	7601.308868
434.057910	7783.604553
434.434786	7827.283630
434.811601	7791.607385
435.188355	8116.482024
435.565050	8015.759770
435.941683	8031.503293
436.318257	8339.603493
436.694770	8285.395966
437.071222	8491.952203
437.447614	8271.799974
437.823946	8241.623627
438.200218	8384.971357
438.576429	8280.082589
438.952580	8433.893234
439.328670	8447.524514
439.704700	8527.204992
440.080670	8417.080986
440.456580	8667.845623
440.832429	8650.995566
441.208218	8395.976196
441.583947	8512.378959
441.959616	8621.005742
442.335224	8656.684508
442.710773	8737.837003
443.086261	8911.625740
443.461689	8647.973394
443.837057	8798.222464
444.212365	8991.066763
444.587612	8991.795210
444.962800	8887.650013
445.337927	9023.463738
445.712995	8584.621214
446.088002	9215.934992
446.462949	9276.920351
446.837837	9289.671950
447.212664	9340.133900
447.587431	10245.915820
447.962139	11205.713703
448.336786	11946.501179
448.711374	11544.774149
449.085901	10403.464480
449.460369	10389.306400
449.834776	10309.328494
450.209124	11233.828218
450.583412	11001.486479
450.957640	11209.355937
451.331808	10793.168358
451.705917	10313.626078
452.079965	10243.581766
452.453954	10438.150139
452.827883	10391.012830
453.201752	10348.311737
453.575562	10375.619667
453.949311	10724.752338
454.323001	10806.303084
454.696632	10726.327699
455.070202	11299.922787
455.443713	11362.780934
455.817164	11509.554128
456.190556	11815.900006
456.563888	11649.955304
456.937160	11864.148890
457.310373	11373.165711
457.683526	11409.570403
458.056619	11445.052565
458.429653	11532.420802
458.802628	11704.079652
459.175542	11761.430339
459.548398	12311.452991
459.921194	12885.068243
460.293930	13211.155280
460.666607	14032.777657
461.039224	14762.696405
461.411782	15018.373645
461.784280	14614.315082
462.156719	14527.360220
462.529099	14417.092541
462.901419	13843.426877
463.273680	13500.008354
463.645882	13726.804824
464.018024	13699.726266
464.390106	14101.569242
464.762130	15270.365803
465.134094	16956.203266
465.505999	19231.472602
465.877845	21232.883776
466.249631	22091.208273
466.621358	21424.288825
466.993026	20580.883622
467.364634	19875.989162
467.736184	19177.862451
468.107674	18632.873391
468.479105	18500.263319
468.850477	18235.736332
469.221790	17805.022668
469.593043	17170.517840
469.964238	16837.388311
470.335373	16948.318902
470.706449	17811.245973
471.077467	18949.228480
471.448425	21284.447218
471.819324	22776.041462
472.190164	22243.715780
472.560945	20582.209446
472.931667	19177.708696
473.302330	18927.060006
473.672934	18484.408890
474.043479	18915.661957
474.413965	18736.748887
474.784393	18570.542045
475.154761	19197.442293
475.525070	19339.822122
475.895321	19184.017700
476.265513	19683.570841
476.635645	20271.623957
477.005719	20346.207828
477.375734	20716.654498
477.745691	21313.070889
478.115588	21979.418166
478.485427	23254.232713
478.855207	25119.653720
479.224928	26831.944638
479.594591	27999.919491
479.964194	27437.876207
480.333739	27806.387074
480.703226	28081.495442
481.072653	28593.482589
481.442022	29094.162427
481.811333	29391.398940
482.180584	28883.711898
482.549777	28686.648153
482.918912	28493.937444
483.287988	28430.917980
483.657005	28261.474717
484.025964	27915.275997
484.394864	28110.194731
484.763706	28038.837198
485.132489	27550.266212
485.501213	27629.999622
485.869879	27820.817377
486.238487	27784.306820
486.607036	28049.708447
486.975527	27774.068237
487.343959	28102.020500
487.712333	28429.435881
488.080648	28406.738086
488.448905	28818.101281
488.817104	28764.874258
489.185244	29660.538582
489.553326	30818.894913
489.921350	32753.248658
490.289315	35135.415661
490.657222	35811.598229
491.025070	36181.117327
491.392861	35789.966638
491.760593	34963.308148
492.128267	33961.096517
492.495883	33023.444422
492.863440	32187.111958
493.230939	31319.242035
493.598380	30808.164817
493.965763	30712.730733
494.333088	30254.973800
494.700354	30076.413610
495.067563	30059.339222
495.434713	29981.934825
495.801805	30278.765525
496.168839	30146.094959
496.535815	30017.318684
496.902733	30155.259777
497.269593	29980.306532
497.636395	30145.444650
498.003139	30446.189806
498.369825	30210.730113
498.736453	30607.320207
499.103023	30475.685597
499.469535	30574.368704
499.835989	30703.984332
500.202385	30575.538252
500.568723	30645.524591
500.935003	30996.978714
501.301226	30898.419115
501.667390	31590.849322
502.033497	31777.775307
502.399546	31580.202405
502.765537	31190.019618
503.131470	31668.359583
503.497345	32085.320979
503.863163	31091.245770
504.228923	31842.632271
504.594625	32249.617224
504.960269	31764.776691
505.325856	32431.184462
505.691385	32111.126646
506.056856	32438.746193
506.422270	32931.077881
506.787625	32491.809378
507.152924	32939.231947
507.518164	33140.555467
507.883347	32713.443707
508.248472	32880.368914
508.613540	33554.035947
508.978550	33794.647699
509.343503	33674.877445
509.708398	34030.790469
510.073236	34634.705576
510.438016	34728.118157
510.802738	34445.516113
511.167403	35009.792628
511.532010	35252.773723
511.896561	35735.985963
512.261053	36481.489438
512.625488	36264.639164
512.989866	36217.133851
513.354186	36274.366070
513.718449	36238.505822
514.082655	37116.067363
514.446803	36836.656370
514.810894	37452.234187
515.174927	37485.954465
515.538904	37475.042888
515.902822	38113.568037
516.266684	37831.356683
516.630488	38182.863737
516.994235	38208.964311
517.357925	38789.357395
517.721558	39056.523425
518.085133	39422.594373
518.448651	39637.163525
518.812112	39522.348726
519.175516	39683.433756
519.538863	40117.585487
519.902152	40194.203463
520.265385	40731.920659
520.628560	40743.230488
520.991678	40718.654863
521.354739	40942.676178
521.717743	41309.432723
522.080690	41227.347615
522.443580	41901.400296
522.806413	41933.381376
523.169189	42070.195771
523.531908	42289.735500
523.894569	42160.233299
524.257174	42360.515821
524.619722	42704.141031
524.982213	42844.658154
525.344647	42875.648647
525.707025	43004.528266
526.069345	43458.176659
526.431608	43357.683778
526.793815	43751.844035
527.155964	43301.822752
527.518057	43578.945061
527.880093	43433.124645
528.242072	44051.666660
528.603995	43790.827278
528.965860	43707.086151
529.327669	43949.439622
529.689421	43996.539122
530.051117	43943.102892
530.412755	44230.743568
530.774337	44314.157020
531.135862	44243.200259
531.497331	44393.918157
531.858743	44395.637190
532.220098	44798.939580
532.581396	44531.745823
532.942638	44277.656546
533.303824	44534.286565
533.664953	44599.622439
534.026025	44282.957319
534.387040	44855.919742
534.747999	44915.657415
535.108902	45236.887300
535.469748	44573.670579
535.830537	44817.468341
536.191270	45088.379949
536.551947	44796.411441
536.912567	45087.742243
537.273131	45235.919398
537.633638	44873.001692
537.994089	45065.263738
538.354483	44818.713506
538.714821	45475.996788
539.075103	45740.846409
539.435328	45592.197905
539.795497	45347.901069
540.155609	45479.457541
540.515665	46068.682726
540.875665	45390.627369
541.235609	45661.659964
541.595496	45784.845599
541.955328	46356.406581
542.315102	45775.025432
542.674821	45673.917530
543.034483	45572.255101
543.394090	45578.806080
543.753640	45560.287401
544.113134	46632.719785
544.472571	45734.882724
544.831953	46868.078656
545.191278	46117.720550
545.550548	45816.304920
545.909761	46451.273535
546.268918	46597.386338
546.628019	47021.743107
546.987064	46455.969370
547.346053	45735.591006
547.704986	46642.464336
548.063863	46305.034703
548.422684	46505.360075
548.781449	46102.685308
549.140158	46626.388096
549.498811	46381.085550
549.857408	45776.620957
550.215949	46618.861653
550.574434	46456.770913
550.932864	46379.800056
551.291237	47110.472456
551.649555	46866.072276
552.007817	47041.413689
552.366022	46713.153916
552.724173	46785.123948
553.082267	47181.036007
553.440305	47528.973925
553.798288	46789.003116
554.156215	47178.959052
554.514086	47381.273158
554.871902	46994.581370
555.229661	47170.459666
555.587365	46844.692743
555.945014	46994.495671
556.302606	46993.202615
556.660143	47098.782020
557.017625	47316.955597
557.375050	47023.787295
557.732421	47427.480374
558.089735	47472.964185
558.446994	47362.671301
558.804197	47827.427877
559.161345	47698.664204
559.518437	47048.141109
559.875474	47303.634348
560.232455	47515.849281
560.589381	47585.686906
560.946251	47376.292498
561.303065	48036.232469
561.659825	47729.742918
562.016528	47537.334678
562.373177	47114.800287
562.729770	47747.152543
563.086307	47276.777601
563.442789	47805.917273
563.799216	47652.605702
564.155587	47561.577587
564.511904	47512.678395
564.868164	47575.649968
565.224370	47883.510713
565.580520	47626.532855
565.936615	47806.169331
566.292654	47471.958475
566.648638	47825.429059
567.004567	47764.058052
567.360441	47876.006956
567.716260	47579.798838
568.072023	47948.503789
568.427732	47891.417763
568.783385	47427.639171
569.138982	47817.128799
569.494525	47960.645408
569.850013	47550.660969
570.205445	47678.103858
570.560823	47451.415773
570.916145	47327.264757
571.271412	47579.458560
571.626625	47212.462560
571.981782	47297.184192
572.336884	46885.972231
572.691931	47227.749859
573.046923	46899.270795
573.401860	46735.871875
573.756743	46737.008656
574.111570	46890.002634
574.466342	46781.683361
574.821059	46940.837629
575.175722	46436.306349
575.530330	46536.443829
575.884882	46187.837958
576.239380	46080.935250
576.593823	46169.883889
576.948211	46107.151771
577.302544	45649.596483
577.656823	45650.897101
578.011047	45903.365647
578.365216	45726.534573
578.719330	45452.562985
579.073389	45438.162929
579.427394	45480.183467
579.781344	45416.954795
580.135239	45164.171176
580.489080	45234.149953
580.842866	44729.522892
581.196597	45223.545886
581.550273	45225.159055
581.903895	45145.309699
582.257463	45588.719509
582.610975	45026.194795
582.964434	45364.468821
583.317837	44872.845416
583.671186	44824.349516
584.024481	45096.755826
584.377721	44641.552236
584.730906	44870.864243
585.084037	44970.699253
585.437113	44680.316189
585.790135	44799.547039
586.143103	44349.979460
586.496016	44526.036717
586.848874	44636.357327
587.201679	44665.843036
587.554428	44155.332948
587.907124	44434.443992
588.259765	44205.197521
588.612352	44359.194689
588.964884	43827.252135
589.317362	44130.535512
589.669786	44125.857321
590.022155	43973.473323
590.374470	44429.322180
590.726731	43999.745296
591.078937	43341.703320
591.431090	43694.354717
591.783188	43226.676792
592.135232	43007.852907
592.487222	43271.147331
592.839157	43417.897840
593.191038	43063.292996
593.542866	42857.833209
593.894639	42274.901905
594.246358	42563.989393
594.598022	42568.730598
594.949633	42143.189158
595.301190	42123.531178
595.652692	42056.682958
596.004141	42529.286090
596.355535	41448.324073
596.706876	41479.536377
597.058162	41178.627384
597.409395	41683.458612
597.760573	41905.173599
598.111698	41498.337361
598.462768	41411.795872
598.813785	41433.346805
599.164748	41044.401621
599.515657	41307.796869
599.866511	40809.556949
600.217312	41509.896726
600.568060	40440.025248
600.918753	41281.129165
601.269392	41193.430732
601.619978	40917.896386
601.970510	41124.031688
602.320988	41260.752821
602.671412	41521.264528
603.021783	41382.874773
603.372100	40967.791206
603.722363	41059.880484
604.072572	41097.008582
604.422728	41084.415780
604.772830	40881.063196
605.122878	41035.052802
605.472872	40890.878322
605.822813	41158.127532
606.172701	40903.539180
606.522534	41225.936092
606.872314	41445.014556
607.222041	41268.690118
607.571714	41587.389343
607.921333	41097.053953
608.270899	41303.209419
608.620411	41700.381766
608.969870	41424.363469
609.319276	41445.715276
609.668627	41499.040602
610.017926	41894.037691
610.367171	42015.126206
610.716362	42065.792323
611.065500	41961.263998
611.414585	42177.547142
611.763616	42363.802653
612.112594	42259.491097
612.461518	42371.671894
612.810389	42760.649845
613.159207	42570.333685
613.507971	42537.092316
613.856682	43034.616392
614.205340	42855.279865
614.553945	43538.585583
614.902496	42860.812531
615.250994	43299.783605
615.599439	43366.778019
615.947830	43473.713495
616.296169	43468.851302
616.644454	43512.459804
616.992686	43677.774362
617.340864	44138.500535
617.688990	43658.494469
618.037063	44337.404301
618.385082	44150.924459
618.733048	44495.802396
619.080961	44365.980082
619.428821	44379.926434
619.776628	44404.910393
620.124382	44217.306373
620.472083	44316.967464
620.819731	44408.285445
621.167326	43964.921005
621.514868	43956.729130
621.862357	43421.529991
622.209793	43498.405067
622.557176	43073.176178
622.904506	42817.317456
623.251783	42448.788945
623.599007	42146.009683
623.946179	42069.989083
624.293297	41801.502271
624.640363	41253.128076
624.987376	41108.368823
625.334336	40891.332026
625.681243	40505.076298
626.028097	40423.311303
626.374899	40222.602804
626.721647	40198.939628
627.068343	39990.019089
627.414987	39704.651972
627.761577	39451.943971
628.108115	39764.273699
628.454600	39035.048110
628.801032	39262.109241
629.147412	39144.173967
629.493739	39070.923481
629.840014	38635.314857
630.186236	39056.122653
630.532405	38499.846450
630.878521	38735.538036
631.224585	38512.850106
631.570597	38168.292282
631.916556	38342.428859
632.262462	38221.673060
632.608316	38166.096860
632.954117	38032.980151
633.299866	37980.355546
633.645562	37882.224445
633.991206	37352.903292
634.336797	36954.952086
634.682336	36828.915678
635.027823	36592.548578
635.373257	36472.075083
635.718639	36134.695862
636.063968	36038.223301
636.409245	35384.831789
636.754470	35346.082960
637.099642	35124.877129
637.444762	34554.657094
637.789829	34706.108479
638.134845	34335.560986
638.479808	34234.102724
638.824719	34178.768499
639.169577	33672.918957
639.514383	33759.205867
639.859137	33397.729930
640.203839	33572.388267
640.548489	33257.628703
640.893086	33256.882613
641.237632	32984.128463
641.582125	33082.798967
641.926566	32888.681777
642.270955	32916.103133
642.615292	32855.652137
642.959576	32726.318814
643.303809	32737.921030
643.647990	32826.531912
643.992118	32775.281021
644.336195	32638.128869
644.680219	32724.619945
645.024192	32927.493620
645.368112	33459.050526
645.711981	33477.488546
646.055797	34220.514294
646.399562	34019.561298
646.743274	34903.111730
647.086935	35293.244106
647.430544	35247.684678
647.774101	35299.177544
648.117606	35564.435497
648.461059	35689.960228
648.804460	35293.463396
649.147810	34776.009118
649.491108	34424.386117
649.834354	34275.304074
650.177548	33445.179791
650.520690	32943.539613
650.863781	32933.593416
651.206820	32763.812396
651.549807	32362.884389
651.892742	31789.135547
652.235626	31683.520853
652.578458	31557.950752
652.921238	30871.527080
653.263967	31189.046675
653.606644	30893.138506
653.949269	30795.919854
654.291843	30404.323023
654.634365	30765.720822
654.976836	30309.057819
655.319255	30387.730066
655.661622	30270.014082
656.003938	30130.134666
656.346203	29957.039087
656.688416	30192.503821
657.030577	29960.930857
657.372687	29787.247984
657.714746	29947.241604
658.056753	30121.229468
658.398708	29528.541010
658.740612	29586.163919
659.082465	29794.071186
659.424266	29684.894917
659.766016	29700.111640
660.107715	29554.830627
660.449362	29664.344653
660.790958	29645.031993
661.132503	29565.616176
661.473996	29637.739964
661.815438	29724.410001
662.156829	29839.277733
662.498168	29645.339503
662.839456	29628.491967
663.180693	29749.114176
663.521879	29848.356851
663.863013	29803.175510
664.204097	29783.885534
664.545129	30202.331551
664.886110	30126.167278
665.227040	30227.761651
665.567918	30241.851676
665.908746	30306.101182
666.249522	30391.805838
666.590248	30418.677709
666.930922	30526.341632
667.271545	30517.696053
667.612118	30549.016742
667.952639	30367.706603
668.293109	30412.020865
668.633528	30275.367788
668.973896	30233.687528
669.314213	30210.238600
669.654480	30023.622647
669.994695	30014.472953
670.334859	29920.825958
670.674973	29760.812173
671.015035	29949.706728
671.355047	29887.445958
671.695008	29827.501598
672.034918	29732.695138
672.374777	29824.580249
672.714585	29700.872854
673.054342	29837.740181
673.394049	29684.088332
673.733705	29906.267106
674.073310	29630.407606
674.412864	29676.524081
674.752368	29376.353616
675.091820	29590.469064
675.431223	29198.957933
675.770574	28991.829524
676.109875	28820.367279
676.449125	28635.553538
676.788324	28524.441466
677.127473	28047.976810
677.466571	27953.208159
677.805619	27661.179158
678.144616	27606.023894
678.483562	27561.200474
678.822458	27246.632474
679.161303	27188.288680
679.500098	27111.148944
679.838842	27035.513993
680.177535	27125.117982
680.516179	27371.703501
680.854771	27509.793308
681.193314	28283.980948
681.531805	29314.087805
681.870247	30071.306921
682.208638	30787.604471
682.546978	31051.448381
682.885268	31180.360767
683.223508	30735.204197
683.561697	30468.527159
683.899836	30301.659925
684.237925	29881.492355
684.575963	29746.709545
684.913951	29382.289575
685.251889	29541.650530
685.589776	29589.375134
685.927614	29595.306051
686.265401	29784.606419
686.603137	29887.115762
686.940824	30399.223896
687.278460	30748.825395
687.616046	30924.252508
687.953582	31578.264081
688.291068	31486.434423
688.628504	31816.992963
688.965889	31811.977015
689.303224	31523.174352
689.640510	31221.816696
689.977745	30593.867887
690.314930	29849.085298
690.652065	29400.697348
690.989150	28727.179030
691.326185	27877.527837
691.663170	27243.350683
692.000105	26503.785688
692.336990	25903.585911
692.673825	25475.992721
693.010610	25005.806822
693.347345	24500.700851
693.684030	23873.667012
694.020665	23689.843858
694.357251	23008.415969
694.693786	23004.930011
695.030272	22783.338532
695.366707	22287.727574
695.703093	22020.780834
696.039429	22094.265733
696.375716	21864.860466
696.711952	21857.848221
697.048139	21722.883929
697.384276	21572.523954
697.720363	21672.124551
698.056400	21569.607647
698.392388	21414.715674
698.728326	21406.990106
699.064214	21241.315105
699.400053	21251.783061
699.735842	20868.917509
700.071581	20659.807927
700.407270	20410.699310
700.742910	20241.349308
701.078501	19992.434775
701.414042	19792.437078
701.749533	19494.441872
702.084974	19173.832049
702.420366	19405.432739
702.755709	18992.557198
703.091002	18697.720274
703.426246	18756.452237
703.761440	18701.586839
704.096584	18449.415721
704.431679	18396.738183
704.766725	18346.432509
705.101721	18270.570706
705.436668	18400.690448
705.771565	18124.420094
706.106413	18448.294064
706.441212	18510.217077
706.775961	18631.819790
707.110661	18704.611531
707.445311	19067.866995
707.779913	18945.288819
708.114465	19251.647300
708.448967	19563.926616
708.783421	20192.356854
709.117825	20563.471477
709.452180	20795.117537
709.786485	21243.497925
710.120742	22017.892252
710.454949	22139.870532
710.789107	22638.821254
711.123216	23358.594680
711.457275	23562.411050
711.791286	24128.099088
712.125247	24273.685090
712.459159	23995.327698
712.793023	24732.969494
713.126837	23703.092010
713.460602	23945.896664
713.794318	23601.374128
714.127985	23328.597294
714.461602	22420.924941
714.795171	22395.953585
715.128691	21418.904873
715.462162	20904.641646
715.795584	20468.808690
716.128957	20210.235306
716.462281	19821.005297
716.795556	19545.642351
717.128782	19076.028623
717.461960	18476.038054
717.795088	18440.465152
718.128167	18084.889886
718.461198	17640.481927
718.794180	17522.045059
719.127113	17185.142227
719.459997	16998.110378
719.792833	16621.634488
720.125619	16666.082342
720.458357	16337.280644
720.791046	16208.829523
721.123686	16055.381841
721.456278	15835.330435
721.788821	15829.321379
722.121315	15559.924638
722.453761	15669.274827
722.786158	15554.722168
723.118506	15636.562780
723.450805	15536.289189
723.783056	15708.149685
724.115259	15597.219095
724.447412	15593.909577
724.779518	15811.747917
725.111574	15863.664240
725.443582	16134.759850
725.775542	16094.357522
726.107453	16601.046416
726.439315	16538.067281
726.771129	16949.788398
727.102895	17365.040843
727.434612	17647.726066
727.766281	17806.111558
728.097901	18129.809087
728.429473	18212.569710
728.760996	18223.531699
729.092471	18337.544955
729.423897	18229.455055
729.755276	18096.149303
730.086606	18214.341676
730.417887	18797.487229
730.749120	19362.008240
731.080305	19568.206555
731.411442	19970.599017
731.742530	20074.040973
732.073570	20246.481202
732.404562	20558.601722
732.735506	20389.556710
733.066401	20178.849083
733.397249	19681.120840
733.728048	19060.920285
734.058798	18192.095064
734.389501	17437.015917
734.720156	16912.330104
735.050762	16353.308993
735.381320	15971.393698
735.711831	15693.416913
736.042293	15334.945504
736.372707	15373.563263
736.703073	15167.332180
737.033391	15374.952101
737.363661	15371.337594
737.693883	15500.252500
738.024056	15701.404621
738.354182	15920.969556
738.684260	16290.110567
739.014290	16569.496355
739.344272	16779.215916
739.674207	17146.378274
740.004093	17321.142475
740.333931	17369.492182
740.663722	17440.343079
740.993464	17472.019169
741.323159	17314.190724
741.652806	17015.870363
741.982405	16853.056217
742.311956	16476.013198
742.641460	16376.135337
742.970915	16039.058585
743.300323	15696.953282
743.629683	15472.314426
743.958996	15165.237580
744.288260	14845.154558
744.617477	14541.977045
744.946647	14512.052756
745.275768	14199.339901
745.604842	13989.489269
745.933869	13819.607425
746.262847	13794.245380
746.591778	13719.666550
746.920662	13598.414198
747.249498	13604.824025
747.578286	13774.854582
747.907027	13941.910859
748.235720	14214.400348
748.564365	14286.685453
748.892963	14199.113049
749.221514	14308.901818
749.550017	14179.329040
749.878473	14148.388959
750.206881	13923.901337
750.535242	13848.503319
750.863555	13768.134724
751.191821	13669.479343
751.520039	13689.293598
751.848210	13616.844656
752.176334	13661.902489
752.504411	13585.402979
752.832440	13407.656936
753.160421	13523.416952
753.488356	13414.699428
753.816243	13322.090911
754.144082	13152.453564
754.471875	13109.434877
754.799620	13068.669587
755.127318	13049.256103
755.454969	13032.411088
755.782572	13005.705575
756.110129	13020.743337
756.437638	12920.779777
756.765100	12941.750977
757.092515	12962.344090
757.419882	12997.770799
757.747203	13015.719827
758.074477	13111.779014
758.401703	13089.799583
758.728882	13286.949028
759.056014	13320.780211
759.383099	13502.181091
759.710138	13624.723979
760.037129	13753.679215
760.364073	13815.856807
760.690970	13836.197863
761.017820	13852.432899
761.344623	14081.460080
761.671379	14458.515702
761.998088	15152.995138
762.324751	16943.852439
762.651366	20363.544357
762.977935	24842.629713
763.304456	27818.034660
763.630931	28861.054432
763.957359	27627.511812
764.283740	25342.830642
764.610074	23065.091141
764.936362	20434.181004
765.262602	18556.104180
765.588796	16631.878113
765.914943	15350.842783
766.241044	14246.542745
766.567097	13465.526862
766.893104	12742.365781
767.219064	12289.813838
767.544978	11813.379429
767.870845	11426.690162
768.196665	11206.200175
768.522438	10977.359517
768.848165	10773.497776
769.173846	10564.247041
769.499479	10435.102762
769.825066	10267.980950
770.150607	10039.551146
770.476101	9955.023599
770.801548	9833.027676
771.126949	9677.208131
771.452303	9567.608405
771.777611	9369.244043
772.102872	9360.729534
772.428087	9221.659222
772.753256	9063.989574
773.078378	8972.361562
773.403453	8789.024879
773.728482	8674.794853
774.053465	8604.536292
774.378401	8503.418308
774.703291	8384.810040
775.028135	8263.746730
775.352932	8222.457160
775.677683	8119.993187
776.002388	8012.278853
776.327046	8025.146398
776.651658	7929.014115
776.976224	7824.637025
777.300743	7825.148702
777.625216	7733.840803
777.949643	7695.979217
778.274024	7709.597894
778.598359	7624.793083
778.922647	7643.107595
779.246889	7589.699091
779.571086	7603.814322
779.895236	7609.780527
780.219339	7626.098742
780.543397	7624.803166
780.867409	7706.580763
781.191374	7720.741364
781.515294	7678.781320
781.839167	7780.453832
782.162995	7746.506702
782.486776	7686.950510
782.810511	7643.301680
783.134201	7554.224491
783.457844	7545.745270
783.781441	7495.157292
784.104993	7427.328567
784.428498	7407.360556
784.751958	7395.564256
785.075372	7361.629729
785.398739	7308.919424
785.722061	7350.549273
786.045337	7361.405398
786.368568	7508.168510
786.691752	7540.600773
787.014891	7886.093731
787.337983	8243.398113
787.661030	8841.404988
787.984031	9475.216658
788.306987	9875.897648
788.629897	10076.825438
788.952760	10024.183188
789.275579	9805.371906
789.598351	9402.107324
789.921078	9045.531389
790.243759	8626.233418
790.566395	8336.538471
790.888984	8085.894823
791.211529	7873.626958
791.534027	7658.218454
791.856480	7455.473328
792.178888	7381.547328
792.501249	7285.392359
792.823566	7126.832947
793.145836	7131.349821
793.468062	7105.660101
793.790241	7058.991620
794.112375	7126.598534
794.434464	7280.119312
794.756507	7318.701783
795.078505	7485.528688
795.400457	7800.371431
795.722364	8155.916450
796.044226	8440.484543
796.366042	8715.182057
796.687812	8663.958893
797.009538	8742.144669
797.331218	8629.681567
797.652852	8550.134680
797.974442	8388.351451
798.295986	8298.719735
798.617484	8108.365766
798.938938	7969.066082
799.260346	7859.927622
799.581709	7661.522930
799.903026	7587.014676
800.224299	7476.232800
800.545526	7306.280380
800.866708	7210.909311
801.187845	7145.555793
801.508936	7036.563526
801.829983	7001.189750
802.150984	6851.291040
802.471940	6805.562733
802.792851	6792.521268
803.113717	6757.853253
803.434538	6725.047945
803.755314	6670.757238
804.076045	6668.440828
804.396731	6614.843281
804.717372	6648.606408
805.037967	6654.534805
805.358518	6695.595003
805.679024	6782.411234
805.999485	6790.275434
806.319901	6836.540624
806.640272	6861.242278
806.960598	6938.893691
807.280879	6941.862931
807.601115	7021.613984
807.921306	6964.197763
808.241453	6982.066133
808.561554	6999.148082
808.881611	6955.761392
809.201623	6967.950902
809.521590	6914.991060
809.841513	6891.428707
810.161390	6933.078720
810.481223	6798.381610
810.801011	6783.159846
811.120755	6758.032214
811.440453	6676.136150
811.760107	6645.380070
812.079716	6617.746985
812.399281	6551.032355
812.718801	6539.725047
813.038276	6497.016392
813.357707	6434.543893
813.677093	6475.909081
813.996434	6377.367126
814.315731	6424.327994
814.634983	6415.561428
814.954191	6427.841679
815.273354	6533.884870
815.592473	6599.261074
815.911547	6728.213789
816.230577	6805.547610
816.549562	6948.907943
816.868502	7052.445681
817.187399	7151.348079
817.506250	7298.322919
817.825058	7329.540264
818.143821	7601.462623
818.462539	7878.766414
818.781213	8242.483143
819.099843	8797.957803
819.418429	9804.199837
819.736970	10774.753023
820.055466	11959.013323
820.373919	13496.819824
820.692327	15836.109293
821.010691	19973.684203
821.329011	28987.448762
821.647286	42034.824515
821.965517	55527.152671
822.283704	60909.264957
822.601847	62890.471186
822.919945	60172.149962
823.237999	55938.170547
823.556010	49751.885837
823.873976	42987.537057
824.191897	36447.801927
824.509775	31605.884563
824.827609	27086.480058
825.145398	24476.163035
825.463144	23121.131128
825.780845	23425.183281
826.098502	25207.546238
826.416116	29025.421253
826.733685	32721.381004
827.051210	33940.687405
827.368692	32149.217604
827.686129	28155.648295
828.003522	23999.741229
828.320872	20269.547002
828.638177	17402.365546
828.955439	15250.710344
829.272656	13436.394033
829.589830	11949.833382
829.906960	10679.424804
830.224046	9735.327594
830.541088	8977.541347
830.858086	8519.272737
831.175041	8142.358266
831.491952	8032.564456
831.808819	8081.824091
832.125642	8476.148186
832.442421	9371.517603
832.759157	11170.110554
833.075849	14119.044402
833.392497	17364.738374
833.709101	19557.647859
834.025662	19411.242669
834.342179	17684.891972
834.658653	15474.356093
834.975083	13532.496070
835.291469	11908.959706
835.607811	10589.772924
835.924110	9679.567391
836.240366	8812.844331
836.556578	8001.203438
836.872746	7355.429110
837.188871	6857.020311
837.504952	6437.364418
837.820990	6122.912365
838.136984	5908.559983
838.452935	5811.026259
838.768842	5840.708573
839.084706	6259.515031
839.400526	7475.549724
839.716303	9070.538033
840.032037	10169.091156
840.347727	10101.587585
840.663373	9112.278787
840.978977	8063.396153
841.294537	7256.458657
841.610054	6651.074053
841.925527	6217.633125
842.240957	5852.295665
842.556344	5523.645201
842.871687	5244.367799
843.186987	4963.777176
843.502244	4735.697732
843.817458	4569.190941
844.132629	4436.530457
844.447756	4344.665510
844.762840	4264.065022
845.077881	4192.271429
845.392879	4127.520329
845.707833	4081.489553
846.022745	4036.219992
846.337613	4010.464737
846.652438	3963.418168
846.967221	3945.575004
847.281960	3912.862957
847.596656	3899.650093
847.911309	3877.595045
848.225919	3857.982436
848.540485	3838.100125
848.855009	3824.839370
849.169490	3802.532264
849.483928	3789.662198
849.798323	3784.207670
850.112675	3764.592540
850.426984	3771.488838
850.741251	3753.128956
851.055474	3750.031167
851.369654	3756.123402
851.683792	3753.275150
851.997887	3760.151283
852.311938	3763.470883
852.625947	3765.479783
852.939914	3755.813371
853.253837	3766.946759
853.567718	3766.172942
853.881555	3754.590891
854.195350	3765.373919
854.509103	3762.013990
854.822812	3760.952827
855.136479	3753.358329
855.450103	3763.128085
855.763685	3745.209303
856.077224	3753.005448
856.390720	3768.506996
856.704173	3792.409627
857.017584	3805.874549
857.330953	3814.540292
857.644278	3836.111390
857.957561	3842.864015
858.270802	3838.067357
858.584000	3846.521372
858.897155	3833.719362
859.210268	3822.850634
859.523339	3800.052016
859.836367	3796.545894
860.149352	3789.866365
860.462295	3782.304634
860.775195	3772.333232
861.088054	3767.581944
861.400869	3764.930297
861.713642	3765.142026
862.026373	3779.078296
862.339062	3782.700365
862.651708	3803.525371
862.964312	3839.408304
863.276873	3850.564378
863.589392	3907.726021
863.901869	3950.356539
864.214303	3997.657685
864.526696	4033.170093
864.839045	4078.537957
865.151353	4102.864045
865.463619	4112.890900
865.775842	4119.610758
866.088023	4138.497441
866.400162	4127.147283
866.712258	4137.547184
867.024313	4137.199344
867.336325	4137.332935
867.648296	4142.568173
867.960224	4138.507524
868.272110	4152.960512
868.583954	4152.975635
868.895755	4171.254859
869.207515	4163.438550
869.519233	4209.439079
869.830909	4221.600863
870.142542	4246.491560
870.454134	4262.739198
870.765684	4290.447901
871.077191	4324.531142
871.388657	4349.099205
871.700081	4386.252509
872.011463	4430.995270
872.322803	4465.096155
872.634101	4506.718442
872.945357	4541.028535
873.256571	4597.063480
873.567744	4626.191267
873.878874	4641.614677
874.189963	4677.663969
874.501010	4689.135114
874.812015	4687.363149
875.122979	4729.227411
875.433900	4727.662132
875.744780	4740.186879
876.055618	4766.211836
876.366415	4765.753091
876.677169	4788.501298
876.987882	4835.258000
877.298554	4884.822624
877.609183	4966.201971
877.919771	5075.027879
878.230317	5216.797728
878.540822	5434.598260
878.851285	5757.395943
879.161707	6218.737138
879.472087	6978.013045
879.782425	8221.285092
880.092722	10406.307691
880.402977	13732.352614
880.713191	17512.192124
881.023363	21274.125455
881.333494	23517.466643
881.643583	24758.593679
881.953631	24729.397836
882.263637	23874.211457
882.573602	22378.339794
882.883526	20804.032818
883.193408	19100.800853
883.503248	17400.429743
883.813048	15838.980230
884.122806	14414.400565
884.432522	12929.359821
884.742197	11655.125007
885.051831	10563.808461
885.361424	9562.184124
885.670975	8742.144669
885.980485	8045.928555
886.289954	7472.391441
886.599382	7001.915676
886.908768	6618.651872
887.218113	6255.698878
887.527417	5966.487882
887.836680	5698.734557
888.145901	5477.967306
888.455082	5316.612575
888.764221	5161.662629
889.073319	5033.120768
889.382376	4959.938337
889.691392	4900.924070
890.000366	4877.207961
890.309300	4860.950240
890.618193	4864.940313
890.927044	4847.923899
891.235855	4867.052557
891.544625	4896.911311
891.853353	4961.642247
892.162041	5078.062654
892.470687	5267.274802
892.779293	5517.563049
893.087858	5891.256222
893.396381	6471.004038
893.704864	7276.729137
894.013306	8438.629398
894.321707	9627.514957
894.630068	10460.910949
894.938387	10671.933649
895.246665	10432.637638
895.554903	9819.252723
895.863100	9115.394220
896.171256	8553.640803
896.479371	8038.392030
896.787446	7534.059876
897.095480	7102.481654
897.403473	6778.249762
897.711425	6463.863243
898.019336	6198.968253
898.327207	5921.389719
898.635038	5688.266601
898.942827	5440.647644
899.250576	5246.772429
899.558284	5052.902255
899.865952	4930.066980
900.173579	4779.616264
900.481165	4670.719779
900.788711	4581.912292
901.096216	4504.727186
901.403681	4439.842495
901.711105	4414.198145
902.018489	4402.051485
902.325832	4474.830623
902.633135	4595.856124
902.940397	4940.781953
903.247619	5736.442388
903.554800	7188.196393
903.861941	9120.679870
904.169041	10658.929993
904.476101	11294.790892
904.783121	10932.304204
905.090100	10181.855357
905.397039	9332.874638
905.703938	8574.503618
906.010796	7877.059983
906.317614	7318.845456
906.624391	6784.982223
906.931129	6356.584969
907.237826	5955.641839
907.544483	5576.612605
907.851099	5199.783834
908.157675	4846.406511
908.464211	4523.185371
908.770707	4283.823824
909.077163	4086.719750
909.383578	3941.516875
909.689954	3823.949606
909.996289	3752.592073
910.302584	3690.253165
910.608839	3657.538597
910.915054	3626.442239
911.221229	3612.480764
911.527363	3626.303608
911.833458	3639.002274
912.139513	3666.128723
912.445527	3697.537632
912.751502	3775.294910
913.057436	3881.786764
913.363331	4018.205428
913.669186	4218.727405
913.975000	4481.454699
914.280775	4897.213780
914.586510	5481.183562
914.892205	6284.856912
915.197859	7330.954308
915.503475	8565.336280
915.809050	9639.628850
916.114585	10293.859713
916.420081	10557.607842
916.725536	10525.646926
917.030952	10081.498587
917.336328	9664.610287
917.641665	9244.236030
917.946961	8755.644879
918.252218	8330.859612
918.557435	7817.430695
918.862612	7383.904067
919.167750	7006.470358
919.472848	6582.637869
919.777906	6201.917328
920.082925	5841.729406
920.387904	5474.231811
920.692843	5204.449422
920.997743	4958.148728
921.302603	4723.288932
921.607423	4561.362029
921.912204	4395.263571
922.216946	4273.854943
922.521647	4155.599556
922.826310	4048.659039
923.130932	3957.479689
923.435516	3854.728371
923.740059	3781.830766
924.044564	3707.776216
924.349028	3647.229437
924.653454	3582.097730
924.957840	3513.903521
925.262186	3465.785707
925.566493	3407.414187
925.870761	3348.130218
926.174989	3313.865495
926.479178	3275.613220
926.783328	3235.500759
927.087438	3205.737786
927.391509	3172.166222
927.695541	3142.657828
927.999533	3117.820063
928.303486	3094.802155
928.607400	3077.518559
928.911275	3063.166394
929.215110	3047.866492
929.518906	3040.753424
929.822663	3040.382899
930.126381	3037.683361
930.430060	3043.379865
930.733699	3047.422870
931.037299	3056.239848
931.340861	3055.219015
931.644383	3063.761250
931.947866	3061.384346
932.251309	3055.733213
932.554714	3055.352605
932.858080	3044.927499
933.161407	3041.408774
933.464694	3033.443751
933.767943	3027.812782
934.071153	3022.995959
934.374323	3010.808970
934.677455	3007.708660
934.980548	3000.431755
935.283602	2996.328256
935.586617	2989.401710
935.889593	3000.875376
936.192530	3001.770181
936.495428	3020.959333
936.798287	3039.462888
937.101108	3074.745924
937.403890	3129.601240
937.706632	3191.221784
938.009336	3271.650873
938.312002	3345.395392
938.614628	3410.141451
938.917216	3460.742033
939.219765	3494.477435
939.522275	3526.143442
939.824747	3531.366078
940.127179	3524.689070
940.429573	3521.160262
940.731929	3518.097761
941.034246	3505.598220
941.336524	3489.506857
941.638763	3475.058910
941.940964	3461.500727
942.243126	3413.876946
942.545250	3393.276271
942.847335	3354.945858
943.149381	3320.653409
943.451389	3286.703758
943.753359	3255.002462
944.055290	3229.937845
944.357182	3201.349462
944.659036	3188.371011
944.960851	3178.631502
945.262628	3162.908143
945.564367	3169.809483
945.866067	3163.162722
946.167729	3157.047802
946.469352	3157.045281
946.770937	3150.237203
947.072484	3136.593320
947.373992	3137.180615
947.675462	3132.230202
947.976893	3114.439970
948.278286	3106.462344
948.579641	3097.297526
948.880958	3092.150508
949.182236	3099.739965
949.483476	3088.266299
949.784678	3089.115733
950.085841	3091.969026
950.386967	3103.195676
950.688054	3120.842235
950.989103	3137.480563
951.290114	3158.784479
951.591087	3189.001156
951.892021	3218.749004
952.192917	3245.106677
952.493776	3267.925460
952.794596	3278.970628
953.095378	3282.053294
953.396122	3278.958025
953.696828	3269.352107
953.997496	3261.745006
954.298126	3235.069740
954.598718	3214.700958
954.899272	3190.311856
955.199788	3161.239521
955.500266	3128.487145
955.800706	3091.762339
956.101108	3055.803789
956.401472	3023.734488
956.701798	2990.903974
957.002087	2951.320834
957.302337	2920.539549
957.602550	2892.210785
957.902724	2861.021166
958.202861	2837.436127
958.502960	2816.306131
958.803022	2796.310394
959.103045	2774.827517
959.403031	2756.674322
959.702979	2746.541603
960.002889	2734.193297
960.302762	2721.310628
960.602596	2708.191025
960.902393	2698.852288
961.202153	2692.046730
961.501875	2681.969463
961.801559	2676.562826
962.101205	2670.636950
962.400814	2664.204437
962.700385	2657.524908
962.999918	2652.531646
963.299414	2644.170892
963.598873	2642.603093
963.898293	2636.349542
964.197677	2637.604789
964.497022	2637.030097
964.796331	2635.268214
965.095601	2630.716052
965.394835	2627.683798
965.694030	2628.495424
965.993189	2625.069960
966.292309	2623.504682
966.591393	2619.990997
966.890439	2623.361009
967.189447	2619.965792
967.488419	2621.775566
967.787353	2623.986112
968.086249	2626.852008
968.385108	2628.082049
968.683930	2629.768315
968.982714	2635.449696
969.281462	2639.621251
969.580172	2643.538227
969.878844	2648.894453
970.177480	2658.492810
970.476078	2666.654438
970.774639	2674.077537
971.073162	2681.568692
971.371649	2687.174455
971.670098	2691.686287
971.968510	2699.517720
972.266885	2701.834130
972.565223	2703.621219
972.863524	2708.586756
973.161788	2710.819987
973.460014	2713.688403
973.758204	2716.093034
974.056356	2718.583364
974.354471	2721.421533
974.652550	2718.401882
974.950591	2720.035216
975.248595	2717.358363
975.546563	2713.388455
975.844493	2714.338712
976.142386	2705.665407
976.440243	2702.688606
976.738062	2697.564273
977.035845	2690.088242
977.333590	2681.372087
977.631299	2677.752538
977.928971	2674.183401
978.226606	2665.368944
978.524204	2667.075374
978.821765	2659.037255
979.119290	2658.122285
979.416777	2660.509272
979.714228	2662.245949
980.011642	2666.951866
980.309020	2674.962260
980.606360	2689.022038
980.903664	2711.364432
981.200931	2748.724423
981.498162	2798.838533
981.795356	2876.310985
982.092513	2960.929273
982.389633	3069.795511
982.686717	3168.493742
982.983764	3242.654156
983.280775	3290.540076
983.577749	3298.487455
983.874686	3284.788120
984.171587	3250.813263
984.468451	3211.966132
984.765279	3170.177487
985.062070	3119.677728
985.358824	3073.089905
985.655543	3017.879188
985.952224	2962.734006
986.248869	2900.042217
986.545478	2840.470902
986.842050	2784.960237
987.138586	2737.767475
987.435086	2698.862370
987.731549	2668.912875
988.027975	2643.570995
988.324366	2627.535084
988.620719	2612.555296
988.917037	2602.934253
989.213318	2594.407142
989.509563	2584.034968
989.805772	2578.784606
990.101944	2581.264854
990.398080	2578.751838
990.694180	2571.555591
990.990244	2575.031467
991.286271	2572.485684
991.582262	2575.248237
991.878217	2574.262691
992.174136	2578.746797
992.470019	2582.348702
992.765865	2586.016141
993.061676	2589.504620
993.357450	2599.770929
993.653188	2606.044645
993.948890	2626.100876
994.244556	2645.763897
994.540186	2667.902124
994.835780	2697.344983
995.131337	2736.108935
995.426859	2776.838938
995.722345	2825.155877
996.017795	2878.355173
996.313208	2914.999321
996.608586	2942.899587
996.903928	2959.137143
997.199234	2956.112451
997.494504	2955.469704
997.789738	2937.808021
998.084936	2914.379259
998.380099	2882.246944
998.675225	2853.066225
998.970316	2819.565237
999.265371	2786.505350
999.560390	2750.574526
999.855373	2718.472458
1000.150320	2690.625125
1000.445232	2662.891217
1000.740108	2641.914976
1001.034948	2622.395628
1001.329752	2610.231324
1001.624521	2595.153232
1001.919254	2586.023703
1002.213951	2578.320820
1002.508613	2567.762123
1002.803239	2560.313818
1003.097829	2553.276367
1003.392384	2550.286963
1003.686903	2546.072559
1003.981386	2544.061138
1004.275834	2541.094419
1004.570246	2535.632329
1004.864623	2536.360776
1005.158964	2532.544622
1005.453270	2531.536392
1005.747540	2530.255938
1006.041775	2530.276103
1006.335974	2523.493231
1006.630138	2523.432737
1006.924266	2524.662778
1007.218359	2520.529032
1007.512416	2519.011645
1007.806438	2518.086593
1008.100425	2519.195647
1008.394376	2514.668691
1008.688292	2521.544825
1008.982172	2518.956192
1009.276017	2520.617252
1009.569827	2515.374452
1009.863602	2519.510719
1010.157341	2517.411078
1010.451045	2520.203878
1010.744714	2513.567199
1011.038347	2517.814371
1011.331945	2511.999400
1011.625508	2509.884636
1011.919036	2511.989318
1012.212528	2511.094513
1012.505986	2513.110974
1012.799408	2507.250633
1013.092795	2509.574605
1013.386147	2507.699296
1013.679464	2507.686693
1013.972745	2507.122083
1014.265992	2507.759789
1014.559204	2509.095695
1014.852380	2507.432114
1015.145521	2507.908503
1015.438628	2510.698782
1015.731699	2508.871364
1016.024736	2509.854389
1016.317737	2510.761797
1016.610703	2510.776920
1016.903635	2511.896056
1017.196531	2512.581653
1017.489393	2512.465707
1017.782219	2516.002076
1018.075011	2513.768845
1018.367768	2518.517612
1018.660490	2517.080883
1018.953177	2517.080883
1019.245829	2517.080883
