Dividing Wavelength (nm)	Counts (n)	Blue Motor Position (mm): 44.600000	Red Motor Position (mm): 0.000000	
326.493990	2127.361882
326.888308	2127.361882
327.282561	2127.361882
327.676750	2097.198138
328.070874	2096.351224
328.464933	2097.472881
328.858929	2104.240630
329.252859	2115.159769
329.646726	2125.103445
330.040528	2141.507360
330.434265	2156.971099
330.827938	2174.042967
331.221547	2192.448219
331.615091	2209.709130
332.008571	2228.005998
332.401986	2248.268916
332.795338	2266.157450
333.188625	2286.538835
333.581847	2306.375776
333.975006	2324.163487
334.368100	2344.209635
334.761129	2362.206554
335.154095	2380.079965
335.546996	2399.831206
335.939833	2424.346337
336.332606	2442.431477
336.725315	2452.599484
337.117960	2461.381174
337.510540	2469.303347
337.903056	2482.823722
338.295508	2489.069712
338.687896	2497.193531
339.080220	2504.001609
339.472480	2511.568381
339.864676	2514.855213
340.256807	2522.525329
340.648875	2518.855369
341.040879	2525.799558
341.432818	2526.790145
341.824694	2530.361803
342.216506	2529.219981
342.608253	2528.811648
342.999937	2529.409025
343.391557	2528.673016
343.783113	2529.242667
344.174605	2527.969775
344.566033	2526.129754
344.957397	2525.449198
345.348697	2523.382325
345.739934	2518.315966
346.131106	2517.685821
346.522215	2516.672549
346.913260	2515.936541
347.304241	2513.985614
347.695159	2509.930006
348.086012	2511.447393
348.476802	2507.346415
348.867528	2505.899604
349.258191	2503.666372
349.648789	2504.682165
350.039324	2503.179901
350.429796	2502.088491
350.820203	2499.144458
351.210548	2499.913233
351.600828	2499.651093
351.991045	2498.388284
352.381198	2499.704026
352.771288	2495.973572
353.161314	2495.963489
353.551276	2499.139416
353.941175	2496.903665
354.331010	2496.409632
354.720782	2498.083295
355.110490	2496.107162
355.500135	2497.584220
355.889717	2497.705208
356.279235	2499.119252
356.668689	2496.926350
357.058080	2498.012718
357.447408	2497.279231
357.836672	2495.802173
358.225873	2494.889724
358.615010	2495.202275
359.004084	2498.799138
359.393095	2500.868532
359.782043	2501.939777
360.170927	2500.813079
360.559748	2503.099243
360.948505	2503.182422
361.337199	2503.177381
361.725830	2504.651918
362.114398	2506.048318
362.502903	2505.798781
362.891344	2507.956394
363.279722	2505.627381
363.668037	2506.184429
364.056289	2506.320540
364.444478	2507.832886
364.832603	2509.690551
365.220665	2511.903618
365.608665	2510.111488
365.996601	2511.649040
366.384474	2513.403361
366.772284	2511.021416
367.160031	2512.687517
367.547715	2513.118536
367.935336	2513.695748
368.322893	2513.783968
368.710388	2511.964112
369.097820	2516.128105
369.485189	2512.327075
369.872495	2515.777745
370.259738	2512.773217
370.646918	2516.733043
371.034035	2516.589370
371.421090	2518.205060
371.808081	2519.500637
372.195010	2519.006604
372.581875	2518.139525
372.968678	2519.520801
373.355418	2521.285205
373.742096	2518.653723
374.128710	2522.472397
374.515262	2522.550535
374.901751	2521.456604
375.288177	2525.610515
375.674540	2525.910464
376.060841	2531.029756
376.447079	2530.283665
376.833254	2536.217103
377.219367	2539.153575
377.605417	2548.961140
377.991404	2552.936090
378.377329	2564.674416
378.763191	2572.493246
379.148991	2587.498240
379.534727	2600.464088
379.920402	2614.385234
380.306013	2622.307408
380.691563	2644.793474
381.077049	2659.889210
381.462474	2672.139213
381.847835	2696.704756
382.233134	2715.866182
382.618371	2728.950497
383.003545	2766.373502
383.388657	2784.229269
383.773706	2811.816984
384.158693	2831.674089
384.543618	2865.825385
384.928480	2897.488873
385.313280	2937.845830
385.698017	2952.313941
386.082692	3003.700943
386.467305	3024.785569
386.851856	3063.158832
387.236344	3097.642845
387.620770	3135.607775
388.005133	3174.023887
388.389435	3213.775906
388.773674	3245.338570
389.157851	3295.394708
389.541965	3322.979901
389.926018	3317.583346
390.310008	3395.436406
390.693936	3427.425047
391.077802	3481.660301
391.461606	3493.378463
391.845348	3564.791448
392.229027	3578.800815
392.612645	3606.963221
392.996200	3692.352805
393.379694	3742.051021
393.763125	3815.321671
394.146494	3801.934887
394.529801	3871.031462
394.913047	3931.389197
395.296230	3911.970673
395.679351	3974.506186
396.062410	4010.512627
396.445408	4004.894262
396.828343	4043.454047
397.211217	4074.996547
397.594028	4010.681506
397.976778	4078.795056
398.359466	4111.887711
398.742092	4141.822082
399.124656	4074.620981
399.507158	4153.389010
399.889598	4184.150131
400.271977	4244.969131
400.654294	4222.251171
401.036549	4233.361874
401.418742	4204.166032
401.800874	4304.527843
402.182944	4326.416533
402.564952	4395.772728
402.946898	4380.220768
403.328783	4377.480901
403.710606	4294.374959
404.092367	4488.739167
404.474067	4454.618117
404.855705	4463.664467
405.237282	4389.372983
405.618797	4499.242411
406.000250	4534.724572
406.381642	4610.838433
406.762972	4576.863577
407.144240	4588.896811
407.525447	4584.904217
407.906593	4644.856139
408.287677	4691.748952
408.668700	4616.887818
409.049661	4667.528729
409.430560	4709.824010
409.811399	4638.768946
410.192176	4801.038647
410.572891	4737.474738
410.953545	4841.582127
411.334138	4721.791709
411.714669	4791.765445
412.095139	4685.142520
412.475547	4827.537472
412.855894	4808.179442
413.236180	4819.436338
413.616405	4770.746354
413.996568	4856.037636
414.376670	4799.067556
414.756711	4749.036625
415.136691	4783.533241
415.516609	4864.547103
415.896466	4903.053957
416.276262	4938.563845
416.655997	4917.270011
417.035670	5101.040233
417.415283	5188.045508
417.794834	5136.010717
418.174324	5085.326957
418.553753	4993.716588
418.933121	5180.113252
419.312428	5245.252521
419.691674	5185.804715
420.070859	5307.137726
420.449983	5220.737390
420.829045	5337.072098
421.208047	5243.697325
421.586988	5317.073840
421.965867	5328.769317
422.344686	5459.899811
422.723444	5312.224250
423.102141	5133.883351
423.480777	5432.153300
423.859352	5203.055543
424.237866	5460.401406
424.616319	5451.604592
424.994712	5562.971242
425.373044	5439.435247
425.751314	5580.118727
426.129524	5380.403335
426.507673	5576.151339
426.885762	5660.179812
427.263789	5592.895532
427.641756	5474.239373
428.019662	5596.815029
428.397508	5606.088231
428.775292	5552.664603
429.153016	5649.084232
429.530679	5578.326597
429.908282	5660.111757
430.285824	5531.431263
430.663305	5807.346216
431.040726	5537.495772
431.418086	5542.305032
431.795385	5643.178521
432.172624	5660.880532
432.549802	5653.480119
432.926920	5664.999155
433.303977	5676.109858
433.680974	5710.014138
434.057910	5729.830914
434.434786	5734.415844
434.811601	5703.939548
435.188355	5936.026709
435.565050	5811.248069
435.941683	5795.315503
436.318257	6005.942472
436.694770	5992.379248
437.071222	6033.283170
437.447614	5957.542354
437.823946	5870.776535
438.200218	6027.480802
438.576429	5888.539040
438.952580	5990.040152
439.328670	6029.482140
439.704700	5937.874292
440.080670	5930.400782
440.456580	6200.389858
440.832429	6082.452064
441.208218	5926.660246
441.583947	6085.534730
441.959616	6091.183343
442.335224	6013.337845
442.710773	6147.263658
443.086261	6173.578482
443.461689	5974.359643
443.837057	6120.338856
444.212365	6276.685201
444.587612	6172.177041
444.962800	6319.945863
445.337927	6295.801257
445.712995	5917.175315
446.088002	6490.157902
446.462949	6323.487273
446.837837	6253.742910
447.212664	6426.105001
447.587431	6570.009779
447.962139	7106.224711
448.336786	8036.912451
448.711374	7773.648274
449.085901	6850.199630
449.460369	6772.109637
449.834776	6702.675304
450.209124	7095.792043
450.583412	7246.850218
450.957640	7395.710450
451.331808	7153.883779
451.705917	6706.962805
452.079965	6629.223172
452.453954	6847.600915
452.827883	6719.361523
453.201752	6815.824002
453.575562	6611.316993
453.949311	6818.326935
454.323001	6708.457508
454.696632	6783.764784
455.070202	6919.497852
455.443713	7078.521050
455.817164	7176.858838
456.190556	7257.035869
456.563888	7334.548651
456.937160	7373.410906
457.310373	7032.515480
457.683526	7059.498256
458.056619	6951.035310
458.429653	6936.146262
458.802628	6872.771397
459.175542	6980.543704
459.548398	7330.828279
459.921194	7491.880542
460.293930	7500.521079
460.666607	8025.211933
461.039224	8339.532917
461.411782	8459.225033
461.784280	8482.956264
462.156719	8370.727577
462.529099	8241.631188
462.901419	7835.530958
463.273680	7732.232675
463.645882	7744.303718
464.018024	7609.485620
464.390106	7775.952081
464.762130	8169.630909
465.134094	8632.081157
465.505999	9658.449997
465.877845	10877.408559
466.249631	11525.456448
466.621358	11137.650565
466.993026	10508.564976
467.364634	10258.206153
467.736184	9892.044464
468.107674	9562.852077
468.479105	9594.659237
468.850477	9351.531948
469.221790	9124.067525
469.593043	8802.346128
469.964238	8661.239191
470.335373	8679.278960
470.706449	8734.003205
471.077467	8712.036377
471.448425	10022.285194
471.819324	11095.945099
472.190164	11119.928388
472.560945	9874.579386
472.931667	9081.915917
473.302330	8946.689486
473.672934	8594.532122
474.043479	8941.759238
474.413965	8890.069767
474.784393	8776.578270
475.154761	8925.511599
475.525070	9021.487606
475.895321	8844.444804
476.265513	9025.276033
476.635645	9184.745373
477.005719	9191.137557
477.375734	9303.714084
477.745691	9547.768944
478.115588	9676.194859
478.485427	9922.646788
478.855207	10457.152769
479.224928	11275.929415
479.594591	11893.606872
479.964194	11709.173738
480.333739	11645.418265
480.703226	11567.401368
481.072653	11660.594659
481.442022	11893.511090
481.811333	12084.898496
482.180584	11887.607899
482.549777	11597.756676
482.918912	11420.229923
483.287988	11446.998450
483.657005	11454.701333
484.025964	11135.694597
484.394864	11264.821232
484.763706	11237.493137
485.132489	10995.560602
485.501213	10963.435850
485.869879	11028.053360
486.238487	10873.337828
486.607036	10988.591207
486.975527	10765.620973
487.343959	10956.025353
487.712333	11010.570638
488.080648	10940.831316
488.448905	10982.559467
488.817104	10915.244939
489.185244	11184.135044
489.553326	11340.551966
489.921350	11878.826209
490.289315	12943.167541
490.657222	13277.612811
491.025070	13190.630222
491.392861	13060.790263
491.760593	12684.926874
492.128267	12333.518121
492.495883	12008.497289
492.863440	11668.789055
493.230939	11336.093065
493.598380	11267.432550
493.965763	11133.479010
494.333088	11032.645851
494.700354	10949.991092
495.067563	11011.593992
495.434713	10843.363127
495.801805	10968.340892
496.168839	10895.344985
496.535815	10831.919707
496.902733	10837.192754
497.269593	10764.227094
497.636395	10870.971006
498.003139	10856.442400
498.369825	10725.037164
498.736453	10881.680937
499.103023	10804.226129
499.469535	10836.098824
499.835989	10821.973511
500.202385	10795.862855
500.568723	10643.597323
500.935003	10866.915398
501.301226	10671.384163
501.667390	10924.941599
502.033497	11021.610765
502.399546	10876.264217
502.765537	10793.301948
503.131470	10854.108346
503.497345	11042.539115
503.863163	10648.061265
504.228923	10954.321443
504.594625	11011.851091
504.960269	10773.654051
505.325856	10984.560805
505.691385	10785.021853
506.056856	10941.731162
506.422270	10962.861158
506.787625	10851.257574
507.152924	10969.036572
507.518164	10947.727614
507.883347	10872.332117
508.248472	10791.421598
508.613540	11023.410457
508.978550	10910.962479
509.343503	10881.559949
509.708398	11001.640234
510.073236	11116.558377
510.438016	11127.280911
510.802738	11063.628782
511.167403	11123.769748
511.532010	11017.217399
511.896561	11252.868657
512.261053	11322.628143
512.625488	11185.753255
512.989866	11176.482573
513.354186	11158.369707
513.718449	11060.253730
514.082655	11256.493246
514.446803	11157.890797
514.810894	11278.255907
515.174927	11139.394804
515.538904	11163.010089
515.902822	11313.949797
516.266684	11199.734895
516.630488	11140.697942
516.994235	11197.123577
517.357925	11258.945767
517.721558	11351.113183
518.085133	11360.908145
518.448651	11373.458098
518.812112	11256.304203
519.175516	11270.898343
519.538863	11397.050698
519.902152	11311.638428
520.265385	11461.259874
520.628560	11380.823223
520.991678	11365.445184
521.354739	11425.127404
521.717743	11349.280724
522.080690	11331.064514
522.443580	11468.826646
522.806413	11423.821745
523.169189	11457.688217
523.531908	11511.547904
523.894569	11336.277068
524.257174	11340.970382
524.619722	11459.122425
524.982213	11402.971533
525.344647	11454.754265
525.707025	11410.624004
526.069345	11503.285453
526.431608	11415.055179
526.793815	11530.686645
527.155964	11311.638428
527.518057	11369.278981
527.880093	11315.663789
528.242072	11387.142310
528.603995	11289.422063
528.965860	11212.047913
529.327669	11266.567992
529.689421	11212.524302
530.051117	11184.213182
530.412755	11289.963987
530.774337	11172.605926
531.135862	11149.721608
531.497331	11182.244612
531.858743	11037.485358
532.220098	11204.372757
532.581396	11067.664226
532.942638	11057.065200
533.303824	11012.672799
533.664953	11033.838084
534.026025	10945.217120
534.387040	11038.246573
534.747999	11044.792511
535.108902	11104.988929
535.469748	10862.706034
535.830537	10961.608431
536.191270	10944.634866
536.551947	10970.937087
536.912567	10966.833587
537.273131	10890.722247
537.633638	10868.783145
537.994089	10862.403565
538.354483	10810.250308
538.714821	10959.460900
539.075103	10966.435336
539.435328	10930.254975
539.795497	10758.984294
540.155609	10909.278734
540.515665	11000.810964
540.875665	10733.337423
541.235609	10803.308639
541.595496	10801.831581
541.955328	10956.554675
542.315102	10831.700417
542.674821	10792.807915
543.034483	10787.441607
543.394090	10797.680191
543.753640	10719.917872
544.113134	10945.433889
544.472571	10792.225662
544.831953	10938.106572
545.191278	10741.778836
545.550548	10773.606160
545.909761	10907.753785
546.268918	10886.442307
546.628019	10971.574793
546.987064	10836.623104
547.346053	10754.948850
547.704986	10852.278407
548.063863	10850.019970
548.422684	10836.862559
548.781449	10753.101267
549.140158	10850.019970
549.498811	10726.990611
549.857408	10585.273694
550.215949	10818.996710
550.574434	10670.025572
550.932864	10768.103741
551.291237	10820.083078
551.649555	10775.088260
552.007817	10787.718871
552.366022	10752.766030
552.724173	10745.060627
553.082267	10728.692000
553.440305	10864.631755
553.798288	10669.707980
554.156215	10817.265073
554.514086	10798.123812
554.871902	10641.573300
555.229661	10678.943373
555.587365	10660.964098
555.945014	10549.010154
556.302606	10678.313229
556.660143	10567.743081
557.017625	10729.385159
557.375050	10620.455907
557.732421	10758.515466
558.089735	10669.224029
558.446994	10672.036993
558.804197	10705.290964
559.161345	10706.082425
559.518437	10551.845803
559.875474	10646.221244
560.232455	10674.050934
560.589381	10621.693510
560.946251	10623.001689
561.303065	10725.596732
561.659825	10656.800105
562.016528	10598.264747
562.373177	10468.253390
562.729770	10596.026475
563.086307	10504.229584
563.442789	10599.252813
563.799216	10479.457354
564.155587	10520.015957
564.511904	10484.511111
564.868164	10468.119799
565.224370	10485.569753
565.580520	10411.883207
565.936615	10413.360265
566.292654	10285.803950
566.648638	10411.883207
567.004567	10376.441375
567.360441	10353.965391
567.716260	10265.813254
568.072023	10358.406647
568.427732	10314.047014
568.783385	10227.800433
569.138982	10291.974322
569.494525	10301.345827
569.850013	10181.739411
570.205445	10260.509960
570.560823	10160.468262
570.916145	10081.700233
571.271412	10146.421087
571.626625	10092.211039
571.981782	10065.003932
572.336884	10043.233709
572.691931	10052.751407
573.046923	9989.268157
573.401860	9952.014030
573.756743	9883.557681
574.111570	9926.475545
574.466342	9911.634388
574.821059	9944.419532
575.175722	9830.068518
575.530330	9842.900776
575.884882	9839.377009
576.239380	9762.786759
576.593823	9742.193645
576.948211	9756.896170
577.302544	9637.962748
577.656823	9651.289038
578.011047	9651.709975
578.365216	9627.068815
578.719330	9554.098113
579.073389	9563.903157
579.427394	9509.995578
579.781344	9491.252568
580.135239	9434.852139
580.489080	9447.961660
580.842866	9347.259571
581.196597	9357.566210
581.550273	9389.549810
581.903895	9363.187096
582.257463	9425.450387
582.610975	9304.946646
582.964434	9329.592847
583.317837	9249.607379
583.671186	9233.765553
584.024481	9232.462415
584.377721	9153.419643
584.730906	9132.425758
585.084037	9159.882403
585.437113	9091.869676
585.790135	9114.343139
586.143103	9011.017130
586.496016	8980.389599
586.848874	9042.620123
587.201679	9039.068630
587.554428	8919.063963
587.907124	8963.552146
588.259765	8937.781767
588.612352	8939.677241
588.964884	8811.775606
589.317362	8824.670878
589.669786	8826.130292
590.022155	8876.312458
590.374470	8890.379797
590.726731	8829.228081
591.078937	8680.209052
591.431090	8796.707597
591.783188	8669.451230
592.135232	8656.530753
592.487222	8659.036206
592.839157	8714.398158
593.191038	8645.838466
593.542866	8588.991894
593.894639	8493.320877
594.246358	8541.675624
594.598022	8555.894199
594.949633	8461.780898
595.301190	8434.228471
595.652692	8463.787277
596.004141	8575.385820
596.355535	8350.721758
596.706876	8326.244435
597.058162	8259.983509
597.409395	8337.120725
597.760573	8406.502125
598.111698	8313.576016
598.462768	8297.419117
598.813785	8261.652131
599.164748	8229.560146
599.515657	8221.393476
599.866511	8135.817369
600.217312	8255.673323
600.568060	8111.962629
600.918753	8222.212664
601.269392	8189.941717
601.619978	8101.862678
601.970510	8162.785022
602.320988	8158.510123
602.671412	8215.737302
603.021783	8152.322107
603.372100	8128.563149
603.722363	8126.962582
604.072572	8104.567257
604.422728	8114.316848
604.772830	8041.116774
605.122878	8053.797796
605.472872	8052.867703
605.822813	8079.149759
606.172701	8022.343517
606.522534	8094.673992
606.872314	8090.119310
607.222041	8067.827327
607.571714	8119.763815
607.921333	8076.730005
608.270899	8085.478928
608.620411	8170.480343
608.969870	8079.754697
609.319276	8069.619457
609.668627	8086.996315
610.017926	8120.951007
610.367171	8169.204931
610.716362	8147.202815
611.065500	8135.482132
611.414585	8163.367275
611.763616	8155.669433
612.112594	8138.216958
612.461518	8148.828587
612.810389	8209.766055
613.159207	8148.241293
613.507971	8103.647246
613.856682	8216.291829
614.205340	8176.151641
614.553945	8247.448680
614.902496	8152.097776
615.250994	8204.558543
615.599439	8187.292591
615.947830	8198.557049
616.296169	8170.533275
616.644454	8186.319648
616.992686	8183.834360
617.340864	8241.210252
617.688990	8144.664594
618.037063	8238.175478
618.385082	8187.685801
618.733048	8270.983307
619.080961	8207.492495
619.428821	8226.616112
619.776628	8231.858912
620.124382	8179.075510
620.472083	8159.656986
620.819731	8192.074126
621.167326	8088.861542
621.514868	8097.683561
621.862357	7983.445974
622.209793	7998.841657
622.557176	7933.979652
622.904506	7904.756083
623.251783	7840.718305
623.599007	7790.911705
623.946179	7798.304557
624.293297	7754.091118
624.640363	7677.039602
624.987376	7651.327197
625.334336	7602.725432
625.681243	7552.603760
626.028097	7536.356121
626.374899	7515.924325
626.721647	7508.055084
627.068343	7434.867612
627.414987	7411.877430
627.761577	7363.094184
628.108115	7405.538179
628.454600	7298.522045
628.801032	7346.153387
629.147412	7313.869837
629.493739	7296.142620
629.840014	7232.125007
630.186236	7292.349152
630.532405	7177.753642
630.878521	7219.328038
631.224585	7184.486103
631.570597	7107.288394
631.916556	7135.440718
632.262462	7138.583877
632.608316	7097.266580
632.954117	7073.061480
633.299866	7057.610343
633.645562	7052.470887
633.991206	6974.338044
634.336797	6917.062974
634.682336	6872.146293
635.027823	6843.721747
635.373257	6828.557957
635.718639	6763.252329
636.063968	6777.473424
636.409245	6671.737743
636.754470	6668.619789
637.099642	6631.345498
637.444762	6575.739050
637.789829	6581.206182
638.134845	6526.401277
638.479808	6509.735223
638.824719	6510.380491
639.169577	6432.643378
639.514383	6459.898376
639.859137	6389.307099
640.203839	6393.720629
640.548489	6381.949535
640.893086	6358.374579
641.237632	6328.956925
641.582125	6353.146902
641.926566	6324.939126
642.270955	6334.827349
642.615292	6334.497153
642.959576	6343.412434
643.303809	6337.219377
643.647990	6336.319531
643.992118	6335.767524
644.336195	6277.068329
644.680219	6305.964223
645.024192	6297.963912
645.368112	6386.234515
645.711981	6411.336941
646.055797	6485.953580
646.399562	6444.825326
646.743274	6573.596560
647.086935	6620.713704
647.430544	6618.974506
647.774101	6642.985522
648.117606	6646.824361
648.461059	6640.807743
648.804460	6601.849707
649.147810	6507.199523
649.491108	6480.178938
649.834354	6460.629343
650.177548	6369.883533
650.520690	6283.609226
650.863781	6261.004692
651.206820	6286.351614
651.549807	6205.572164
651.892742	6145.095962
652.235626	6153.764226
652.578458	6138.890302
652.921238	6045.875972
653.263967	6084.135809
653.606644	6025.837386
653.949269	6029.136821
654.291843	5968.635413
654.634365	6017.217013
654.976836	5973.542976
655.319255	5972.076001
655.661622	5950.479698
656.003938	5948.238905
656.346203	5908.217184
656.688416	5938.675836
657.030577	5888.604575
657.372687	5859.960739
657.714746	5850.974882
658.056753	5888.113063
658.398708	5830.280946
658.740612	5826.036294
659.082465	5871.305856
659.424266	5859.774216
659.766016	5862.085585
660.107715	5839.675136
660.449362	5852.583010
660.790958	5843.377863
661.132503	5832.216749
661.473996	5867.598087
661.815438	5860.313620
662.156829	5853.334142
662.498168	5846.820972
662.839456	5821.824410
663.180693	5858.589545
663.521879	5860.056521
663.863013	5846.329459
664.204097	5866.020206
664.545129	5909.419499
664.886110	5903.047481
665.227040	5937.032420
665.567918	5902.598818
665.908746	5929.568991
666.249522	5931.905566
666.590248	5924.348877
666.930922	5946.038441
667.271545	5961.814732
667.612118	5965.638447
667.952639	5938.653151
668.293109	5957.459175
668.633528	5916.356127
668.973896	5921.130100
669.314213	5908.370939
669.654480	5892.544237
669.994695	5884.642228
670.334859	5875.787442
670.674973	5870.864755
671.015035	5871.963726
671.355047	5871.618407
671.695008	5860.185070
672.034918	5828.017468
672.374777	5841.684036
672.714585	5824.344987
673.054342	5829.192057
673.394049	5823.818187
673.733705	5853.087126
674.073310	5841.323593
674.412864	5806.093490
674.752368	5794.806346
675.091820	5795.635616
675.431223	5731.998610
675.770574	5733.858796
676.109875	5684.546229
676.449125	5694.774730
676.788324	5655.587321
677.127473	5600.074135
677.466571	5595.685810
677.805619	5584.749027
678.144616	5569.353343
678.483562	5544.336617
678.822458	5513.076422
679.161303	5510.311349
679.500098	5499.533362
679.838842	5482.748841
680.177535	5490.741590
680.516179	5500.952447
680.854771	5513.938460
681.193314	5595.814360
681.531805	5707.198654
681.870247	5856.106777
682.208638	5958.316171
682.546978	5968.721113
682.885268	5946.111538
683.223508	5858.753383
683.561697	5806.000228
683.899836	5778.362102
684.237925	5732.056584
684.575963	5694.963774
684.913951	5659.123690
685.251889	5719.400767
685.589776	5684.596641
685.927614	5660.121839
686.265401	5727.156582
686.603137	5711.017328
686.940824	5792.091685
687.278460	5814.139171
687.616046	5820.123021
687.953582	5889.118773
688.291068	5870.988263
688.628504	5938.181803
688.965889	5900.784003
689.303224	5840.927863
689.640510	5794.748373
689.977745	5720.214913
690.314930	5621.501559
690.652065	5563.750101
690.989150	5468.963806
691.326185	5393.081837
691.663170	5340.515206
692.000105	5261.875726
692.336990	5189.792267
692.673825	5164.120191
693.010610	5096.397331
693.347345	5028.036764
693.684030	5011.463971
694.020665	4966.393535
694.357251	4880.484711
694.693786	4890.723295
695.030272	4855.089899
695.366707	4819.625382
695.703093	4787.205721
696.039429	4810.072395
696.375716	4792.241834
696.711952	4764.989356
697.048139	4754.299589
697.384276	4734.823092
697.720363	4745.222992
698.056400	4756.426956
698.392388	4709.617322
698.728326	4682.480791
699.064214	4664.572092
699.400053	4655.422398
699.735842	4622.173468
700.071581	4599.054736
700.407270	4571.255293
700.742910	4558.281884
701.078501	4499.350795
701.414042	4501.092514
701.749533	4470.104541
702.084974	4407.168256
702.420366	4457.231955
702.755709	4398.585692
703.091002	4346.908824
703.426246	4394.086462
703.761440	4347.954863
704.096584	4315.106705
704.431679	4333.857276
704.766725	4316.775327
705.101721	4310.892300
705.436668	4333.012883
705.771565	4284.804329
706.106413	4310.851971
706.441212	4347.233978
706.775961	4349.499977
707.110661	4333.658151
707.445311	4358.321996
707.779913	4384.442735
708.114465	4393.536976
708.448967	4421.822890
708.783421	4480.718691
709.117825	4521.499105
709.452180	4528.589488
709.786485	4571.512392
710.120742	4660.944982
710.454949	4642.401097
710.789107	4708.735120
711.123216	4786.134476
711.457275	4775.164925
711.791286	4849.194269
712.125247	4867.249162
712.459159	4765.352319
712.793023	4842.237477
713.126837	4800.317762
713.460602	4795.115292
713.794318	4712.873908
714.127985	4726.628696
714.461602	4637.286847
714.795171	4611.559318
715.128691	4540.474008
715.462162	4485.543075
715.795584	4433.767904
716.128957	4415.934823
716.462281	4367.411196
716.795556	4339.536136
717.128782	4303.136485
717.461960	4231.965475
717.795088	4243.948298
718.128167	4204.657544
718.461198	4144.526661
718.794180	4139.175477
719.127113	4119.028505
719.459997	4098.964713
719.792833	4055.721695
720.125619	4047.587793
720.458357	4013.338194
720.791046	4015.667207
721.123686	3988.392044
721.456278	3947.049542
721.788821	3965.054023
722.121315	3936.957152
722.453761	3912.545364
722.786158	3922.496602
723.118506	3947.515848
723.450805	3900.600350
723.783056	3919.676076
724.115259	3936.901699
724.447412	3942.189869
724.779518	3938.950928
725.111574	3941.136268
725.443582	3968.512254
725.775542	3952.405768
726.107453	4004.201103
726.439315	4005.710928
726.771129	4019.821118
727.102895	4055.938465
727.434612	4106.022328
727.766281	4116.079430
728.097901	4117.627064
728.429473	4123.252992
728.760996	4126.585195
729.092471	4122.504381
729.423897	4105.067030
729.755276	4113.604224
730.086606	4114.342753
730.417887	4153.242816
730.749120	4215.284297
731.080305	4281.192342
731.411442	4305.702432
731.742530	4277.252680
732.073570	4278.752424
732.404562	4335.296526
732.735506	4329.063139
733.066401	4288.161737
733.397249	4224.431470
733.728048	4144.781240
734.058798	4062.091193
734.389501	3993.153414
734.720156	3930.317952
735.050762	3886.661560
735.381320	3879.530848
735.711831	3830.414886
736.042293	3800.798107
736.372707	3823.374914
736.703073	3793.299391
737.033391	3783.915283
737.363661	3801.786173
737.693883	3825.593022
738.024056	3836.887727
738.354182	3831.450843
738.684260	3896.368302
739.014290	3917.488216
739.344272	3909.737442
739.674207	3956.148824
740.004093	3958.306438
740.333931	3955.443063
740.663722	3952.027681
740.993464	3953.577836
741.323159	3930.839712
741.652806	3898.324269
741.982405	3872.793346
742.311956	3837.979137
742.641460	3829.845235
742.970915	3809.320178
743.300323	3761.998866
743.629683	3731.651120
743.958996	3721.619224
744.288260	3696.355482
744.617477	3661.281654
744.946647	3646.851351
745.275768	3625.779328
745.604842	3621.769090
745.933869	3574.503231
746.262847	3563.059812
746.591778	3603.358796
746.920662	3569.991399
747.249498	3544.057183
747.578286	3587.574943
747.907027	3604.679578
748.235720	3600.991974
748.564365	3629.592961
748.892963	3629.414000
749.221514	3611.623768
749.550017	3587.917742
749.878473	3585.964295
750.206881	3555.601425
750.535242	3557.491858
750.863555	3554.701579
751.191821	3549.859551
751.520039	3531.895399
751.848210	3507.624764
752.176334	3544.427707
752.504411	3548.175805
752.832440	3507.281965
753.160421	3493.340654
753.488356	3499.269051
753.816243	3512.872605
754.144082	3470.768888
754.471875	3456.439408
754.799620	3474.544712
755.127318	3463.020635
755.454969	3465.268989
755.782572	3470.274855
756.110129	3447.864406
756.437638	3436.781429
756.765100	3449.943882
757.092515	3460.157259
757.419882	3469.453147
757.747203	3440.993313
758.074477	3442.707305
758.401703	3456.452011
758.728882	3477.032522
759.056014	3488.193636
759.383099	3490.426868
759.710138	3486.651043
760.037129	3505.411697
760.364073	3535.396480
760.690970	3523.244779
761.017820	3496.892147
761.344623	3516.560209
761.671379	3559.775500
761.998088	3613.917493
762.324751	3739.764857
762.651366	3986.340295
762.977935	4462.968788
763.304456	4910.192231
763.630931	5004.141695
763.957359	4638.935304
764.283740	4298.145743
764.610074	4104.512503
764.936362	3907.163932
765.262602	3749.809356
765.588796	3635.372643
765.914943	3544.228582
766.241044	3456.794810
766.567097	3428.657609
766.893104	3384.343347
767.219064	3348.941844
767.544978	3323.806651
767.870845	3267.706170
768.196665	3252.179416
768.522438	3260.020931
768.848165	3251.309817
769.173846	3218.171792
769.499479	3200.142106
769.825066	3183.123170
770.150607	3169.343176
770.476101	3179.669980
770.801548	3175.314423
771.126949	3131.277423
771.452303	3114.848303
771.777611	3118.654374
772.102872	3127.433544
772.428087	3101.665686
772.753256	3090.615477
773.078378	3083.918304
773.403453	3054.069632
773.728482	3039.455327
774.053465	3058.089952
774.378401	3046.452448
774.703291	3016.858355
775.028135	3016.354239
775.352932	3009.399968
775.677683	2999.909995
776.002388	2995.859428
776.327046	2999.804131
776.651658	2986.727378
776.976224	2975.415029
777.300743	2975.823362
777.625216	2965.625108
777.949643	2962.343317
778.274024	2966.083853
778.598359	2951.124229
778.922647	2957.435754
779.246889	2955.691514
779.571086	2942.183743
779.895236	2933.991868
780.219339	2946.186419
780.543397	2959.492544
780.867409	2960.571351
781.191374	2953.428036
781.515294	2953.440639
781.839167	2951.860238
782.162995	2944.195163
782.486776	2952.805454
782.810511	2949.584157
783.134201	2937.109821
783.457844	2943.254988
783.781441	2934.707712
784.104993	2914.117119
784.428498	2914.795154
784.751958	2927.549273
785.075372	2921.772111
785.398739	2906.361303
785.722061	2920.025351
786.045337	2934.523709
786.368568	2916.637696
786.691752	2910.326171
787.014891	2960.525981
787.337983	2991.977740
787.661030	3015.555216
787.984031	3085.259251
788.306987	3129.913791
788.629897	3122.916670
788.952760	3108.360338
789.275579	3090.355857
789.598351	3032.465767
789.921078	2988.373315
790.243759	2979.299238
790.566395	2960.349541
790.888984	2938.196190
791.211529	2923.591967
791.534027	2909.635533
791.856480	2899.953997
792.178888	2886.148797
792.501249	2876.840307
792.823566	2873.414843
793.145836	2873.485419
793.468062	2867.395705
793.790241	2867.786394
794.112375	2873.472816
794.434464	2886.302552
794.756507	2888.283726
795.078505	2896.289078
795.400457	2911.321799
795.722364	2944.174998
796.044226	2969.232054
796.366042	2974.684062
796.687812	2962.360961
797.009538	2981.935761
797.331218	2969.537043
797.652852	2954.153963
797.974442	2940.164761
798.295986	2933.026487
798.617484	2930.372319
798.938938	2915.117788
799.260346	2897.365364
799.581709	2891.421844
799.903026	2884.974208
800.224299	2878.771068
800.545526	2869.240767
800.866708	2855.493541
801.187845	2843.152796
801.508936	2846.394258
801.829983	2853.429188
802.150984	2839.928978
802.471940	2826.201916
802.792851	2829.110662
803.113717	2828.215857
803.434538	2830.723831
803.755314	2825.559169
804.076045	2819.224959
804.396731	2819.915597
804.717372	2818.418375
805.037967	2812.973928
805.358518	2819.746719
805.679024	2834.885304
805.999485	2828.099911
806.319901	2832.125272
806.640272	2826.285095
806.960598	2829.829026
807.280879	2839.150120
807.601115	2845.902745
807.921306	2832.004284
808.241453	2829.455981
808.561554	2836.329594
808.881611	2838.686334
809.201623	2829.834067
809.521590	2830.605364
809.841513	2827.144612
810.161390	2830.433965
810.481223	2822.214363
810.801011	2814.478713
811.120755	2812.245482
811.440453	2814.607262
811.760107	2810.581901
812.079716	2813.765390
812.399281	2801.951446
812.718801	2795.841567
813.038276	2790.760084
813.357707	2796.310394
813.677093	2804.368679
813.996434	2795.758388
814.315731	2793.799900
814.634983	2790.311421
814.954191	2790.255969
815.273354	2805.810449
815.592473	2813.145328
815.911547	2815.668425
816.230577	2821.624548
816.549562	2831.830364
816.868502	2827.505054
817.187399	2839.349245
817.506250	2856.894981
817.825058	2850.220494
818.143821	2865.759850
818.462539	2881.982283
818.781213	2905.917682
819.099843	2944.258178
819.418429	3000.588031
819.736970	3063.680592
820.055466	3137.152888
820.373919	3241.456882
820.692327	3384.134139
821.010691	3555.850962
821.329011	4002.237573
821.647286	4905.050254
821.965517	6296.106246
822.283704	7053.040537
822.601847	7033.753083
822.919945	6395.994189
823.237999	5880.828595
823.556010	5296.389986
823.873976	4737.585644
824.191897	4324.851255
824.509775	4024.458980
824.827609	3754.706837
825.145398	3627.180768
825.463144	3617.529479
825.780845	3704.721276
826.098502	3814.295796
826.416116	4100.305660
826.733685	4419.856840
827.051210	4487.418384
827.368692	4365.717369
827.686129	4098.924384
828.003522	3774.589148
828.320872	3512.151720
828.638177	3309.119249
828.955439	3174.454906
829.272656	3089.846701
829.589830	3020.906401
829.906960	2972.937302
830.224046	2929.260745
830.541088	2894.312946
830.858086	2879.194525
831.175041	2859.019828
831.491952	2861.855477
831.808819	2872.535161
832.125642	2897.438461
832.442421	2942.876901
832.759157	3023.873120
833.075849	3203.605378
833.392497	3487.571054
833.709101	3695.798434
834.025662	3645.275990
834.342179	3483.754900
834.658653	3303.551294
834.975083	3154.360867
835.291469	3056.756567
835.607811	2969.710963
835.924110	2910.742066
836.240366	2860.171731
836.556578	2816.850576
836.872746	2796.547329
837.188871	2771.475150
837.504952	2754.294898
837.820990	2744.381469
838.136984	2730.659448
838.452935	2726.268603
838.768842	2722.389435
839.084706	2742.276787
839.400526	2820.903663
839.716303	2954.385856
840.032037	3033.486601
840.347727	3020.379601
840.663373	2961.824078
840.978977	2882.178888
841.294537	2811.824545
841.610054	2761.952410
841.925527	2739.350397
842.240957	2717.587736
842.556344	2695.157122
842.871687	2681.243537
843.186987	2673.187773
843.502244	2666.712411
843.817458	2662.024138
844.132629	2647.137611
844.447756	2640.551343
844.762840	2633.644963
845.077881	2637.599748
845.392879	2633.269397
845.707833	2631.026083
846.022745	2623.106431
846.337613	2625.092645
846.652438	2626.247069
846.967221	2626.882255
847.281960	2621.508385
847.596656	2620.318672
847.911309	2622.309928
848.225919	2618.705503
848.540485	2615.058228
848.855009	2615.590070
849.169490	2612.499843
849.483928	2614.065121
849.798323	2614.617127
850.112675	2610.075048
850.426984	2613.593773
850.741251	2609.696961
851.055474	2612.368773
851.369654	2616.164762
851.683792	2613.432456
851.997887	2611.559668
852.311938	2611.486571
852.625947	2614.390276
852.939914	2616.131994
853.253837	2618.264402
853.567718	2612.230141
853.881555	2611.660491
854.195350	2613.681993
854.509103	2614.498660
854.822812	2612.809874
855.136479	2610.521190
855.450103	2614.239041
855.763685	2613.349277
856.077224	2611.413474
856.390720	2610.369955
856.704173	2612.477158
857.017584	2617.790534
857.330953	2619.890174
857.644278	2619.812037
857.957561	2618.854217
858.270802	2613.697117
858.584000	2614.271808
858.897155	2618.886985
859.210268	2619.837242
859.523339	2616.908332
859.836367	2611.322733
860.149352	2610.105295
860.462295	2609.253340
860.775195	2609.417177
861.088054	2609.412136
861.400869	2607.325098
861.713642	2605.530448
862.026373	2608.005654
862.339062	2608.547578
862.651708	2616.111830
862.964312	2612.875409
863.276873	2613.951695
863.589392	2616.802468
863.901869	2621.732716
864.214303	2623.136677
864.526696	2626.083232
864.839045	2630.519447
865.151353	2633.239150
865.463619	2631.447020
865.775842	2632.034314
866.088023	2633.534057
866.400162	2634.265025
866.712258	2634.711167
867.024313	2630.874849
867.336325	2625.516102
867.648296	2629.727986
867.960224	2634.418780
868.272110	2633.360137
868.583954	2626.526853
868.895755	2625.931997
869.207515	2633.259314
869.519233	2639.825417
869.830909	2638.076137
870.142542	2631.109262
870.454134	2633.776033
870.765684	2638.524800
871.077191	2639.613689
871.388657	2646.661222
871.700081	2642.245171
872.011463	2643.283649
872.322803	2641.282311
872.634101	2647.394710
872.945357	2654.144815
873.256571	2661.577996
873.567744	2657.393838
873.878874	2656.761174
874.189963	2657.557676
874.501010	2663.702842
874.812015	2668.050838
875.122979	2664.678306
875.433900	2656.854435
875.744780	2658.202944
876.055618	2662.147647
876.366415	2666.372133
876.677169	2670.339522
876.987882	2661.071360
877.298554	2661.845177
877.609183	2672.260201
877.919771	2677.528207
878.230317	2684.812674
878.540822	2696.639221
878.851285	2710.406612
879.161707	2736.842423
879.472087	2773.610079
879.782425	2824.954231
880.092722	2940.313475
880.402977	3130.100314
880.713191	3397.914133
881.023363	3693.852549
881.333494	3889.282960
881.643583	4064.735278
881.953631	4065.390628
882.263637	3886.333885
882.573602	3663.514885
882.883526	3528.540511
883.193408	3411.968870
883.503248	3307.579176
883.813048	3190.871424
884.122806	3073.410018
884.432522	2987.513798
884.742197	2919.818664
885.051831	2882.138559
885.361424	2844.587004
885.670975	2811.028043
885.980485	2777.438835
886.289954	2757.906884
886.599382	2745.858527
886.908768	2733.827813
887.218113	2713.325440
887.527417	2701.451002
887.836680	2689.276616
888.145901	2687.055988
888.455082	2675.529389
888.764221	2669.169974
889.073319	2658.986843
889.382376	2657.615649
889.691392	2660.048006
890.000366	2659.019611
890.309300	2656.118427
890.618193	2660.259734
890.927044	2661.371309
891.235855	2661.726710
891.544625	2662.460198
891.853353	2661.134375
892.162041	2669.321208
892.470687	2691.162007
892.779293	2697.723069
893.087858	2715.001624
893.396381	2736.461816
893.704864	2778.179885
894.013306	2849.565144
894.321707	2945.546192
894.630068	2996.121568
894.938387	3018.829446
895.246665	3011.343332
895.554903	2964.402628
895.863100	2921.489806
896.171256	2862.052082
896.479371	2800.166877
896.787446	2762.695981
897.095480	2739.247053
897.403473	2731.781105
897.711425	2717.335678
898.019336	2699.883204
898.327207	2685.747808
898.635038	2684.772345
898.942827	2677.470234
899.250576	2671.894718
899.558284	2658.916267
899.865952	2655.339568
900.173579	2654.459887
900.481165	2651.031902
900.788711	2639.870788
901.096216	2634.015487
901.403681	2632.230919
901.711105	2632.755199
902.018489	2629.556587
902.325832	2636.226033
902.633135	2636.841054
902.940397	2653.978457
903.247619	2690.418437
903.554800	2761.833943
903.861941	2891.164745
904.169041	3019.421781
904.476101	3083.860330
904.783121	3081.987542
905.090100	3020.792975
905.397039	2947.126594
905.703938	2869.863350
906.010796	2805.049235
906.317614	2752.263313
906.624391	2711.586242
906.931129	2686.352747
907.237826	2661.542708
907.544483	2643.165182
907.851099	2631.706639
908.157675	2621.553755
908.464211	2613.618979
908.770707	2599.982658
909.077163	2596.963007
909.383578	2592.501586
909.689954	2593.177100
909.996289	2587.094948
910.302584	2589.910432
910.608839	2588.783735
910.915054	2585.822057
911.221229	2589.618046
911.527363	2591.299270
911.833458	2592.433530
912.139513	2592.088211
912.445527	2593.398911
912.751502	2598.581217
913.057436	2604.494491
913.363331	2609.548247
913.669186	2622.854373
913.975000	2635.419449
914.280775	2655.566420
914.586510	2673.454955
914.892205	2710.323433
915.197859	2779.067128
915.503475	2862.901516
915.809050	2932.338369
916.114585	2952.407203
916.420081	2963.996815
916.725536	2972.070223
917.030952	2945.863785
917.336328	2900.067423
917.641665	2849.459279
917.946961	2798.873821
918.252218	2762.209509
918.557435	2731.844119
918.862612	2712.130687
919.167750	2692.523119
919.472848	2677.742456
919.777906	2657.610608
920.082925	2645.549647
920.387904	2635.142185
920.692843	2629.740589
920.997743	2625.415279
921.302603	2618.881944
921.607423	2611.456324
921.912204	2604.418873
922.216946	2602.142792
922.521647	2602.190683
922.826310	2597.197420
923.130932	2593.562748
923.435516	2588.261975
923.740059	2585.552355
924.044564	2584.334916
924.349028	2579.276118
924.653454	2571.154820
924.957840	2570.063410
925.262186	2569.234140
925.566493	2567.873028
925.870761	2562.940259
926.174989	2565.463357
926.479178	2563.991340
926.783328	2565.246587
927.087438	2564.376988
927.391509	2559.900444
927.695541	2558.803993
927.999533	2558.141081
928.303486	2552.285781
928.607400	2558.078067
928.911275	2554.808878
929.215110	2555.784342
929.518906	2556.391801
929.822663	2555.970864
930.126381	2556.570762
930.430060	2554.282078
930.733699	2554.864331
931.037299	2555.922973
931.340861	2558.607388
931.644383	2553.979608
931.947866	2555.633107
932.251309	2558.284754
932.554714	2555.214691
932.858080	2556.222922
933.161407	2554.458518
933.464694	2555.202088
933.767943	2556.069167
934.071153	2553.326779
934.374323	2550.349978
934.677455	2554.372818
934.980548	2551.466593
935.283602	2552.537838
935.586617	2552.406768
935.889593	2552.411810
936.192530	2549.193033
936.495428	2553.634289
936.798287	2555.517160
937.101108	2554.425751
937.403890	2559.663509
937.706632	2562.632749
938.009336	2563.734241
938.312002	2567.971331
938.614628	2569.892011
938.917216	2573.665314
939.219765	2577.647826
939.522275	2579.260995
939.824747	2573.826631
940.127179	2569.821434
940.429573	2566.937894
940.731929	2569.972669
941.034246	2566.040569
941.336524	2565.889334
941.638763	2565.453275
941.940964	2567.258008
942.243126	2564.308933
942.545250	2565.082750
942.847335	2557.636966
943.149381	2558.675443
943.451389	2558.743499
943.753359	2557.256358
944.055290	2556.807696
944.357182	2556.754764
944.659036	2556.437171
944.960851	2554.912222
945.262628	2557.125288
945.564367	2557.851215
945.866067	2555.978426
946.167729	2555.640669
946.469352	2558.874569
946.770937	2555.817109
947.072484	2556.059084
947.373992	2553.508261
947.675462	2555.340720
947.976893	2556.207798
948.278286	2553.170503
948.579641	2553.195709
948.880958	2549.167827
949.182236	2553.644372
949.483476	2551.592622
949.784678	2554.617314
950.085841	2553.281409
950.386967	2554.813919
950.688054	2551.794268
950.989103	2554.450956
951.290114	2554.965154
951.591087	2555.985988
951.892021	2559.114024
952.192917	2558.418344
952.493776	2557.505896
952.794596	2560.868345
953.095378	2558.829198
953.396122	2561.874055
953.696828	2556.883313
953.997496	2558.236863
954.298126	2555.353323
954.598718	2555.943138
954.899272	2555.234856
955.199788	2551.340564
955.500266	2550.967519
955.800706	2546.417878
956.101108	2543.625078
956.401472	2545.434853
956.701798	2543.115922
957.002087	2541.875798
957.302337	2542.899152
957.602550	2544.280428
957.902724	2541.512835
958.202861	2543.123484
958.502960	2541.003678
958.803022	2540.318082
959.103045	2540.406302
959.403031	2538.704912
959.702979	2538.425128
960.002889	2537.104346
960.302762	2538.384799
960.602596	2538.006712
960.902393	2536.010416
961.202153	2537.926054
961.501875	2539.060314
961.801559	2537.610982
962.101205	2537.535365
962.400814	2537.328677
962.700385	2538.062165
962.999918	2538.334388
963.299414	2536.718698
963.598873	2536.154088
963.898293	2536.325488
964.197677	2535.024870
964.497022	2537.918492
964.796331	2536.489325
965.095601	2537.389171
965.394835	2535.997813
965.694030	2535.468492
965.993189	2536.441434
966.292309	2537.800025
966.591393	2534.656866
966.890439	2535.929757
967.189447	2535.801208
967.488419	2534.974458
967.787353	2535.821372
968.086249	2537.429500
968.385108	2537.744572
968.683930	2533.827596
968.982714	2538.178112
969.281462	2536.605272
969.580172	2535.697864
969.878844	2535.302133
970.177480	2537.159799
970.476078	2536.045704
970.774639	2538.326826
971.073162	2535.700385
971.371649	2534.588810
971.670098	2535.458409
971.968510	2533.552853
972.266885	2533.348686
972.565223	2535.811290
972.863524	2536.988399
973.161788	2538.765406
973.460014	2536.196938
973.758204	2539.730787
974.056356	2536.910262
974.354471	2539.609799
974.652550	2536.784233
974.950591	2538.410005
975.248595	2537.684079
975.546563	2537.230375
975.844493	2536.905220
976.142386	2534.742565
976.440243	2536.302802
976.738062	2535.569315
977.035845	2533.769623
977.333590	2535.392874
977.631299	2533.424304
977.928971	2534.460261
978.226606	2534.505631
978.524204	2535.473533
978.821765	2536.159130
979.119290	2533.366330
979.416777	2532.874818
979.714228	2535.400436
980.011642	2535.884387
980.309020	2538.155427
980.606360	2536.844727
980.903664	2536.189377
981.200931	2538.939326
981.498162	2540.255067
981.795356	2539.214069
982.092513	2542.614327
982.389633	2543.375541
982.686717	2546.178423
982.983764	2550.223949
983.280775	2554.125802
983.577749	2552.058929
983.874686	2550.155893
984.171587	2547.131201
984.468451	2546.125491
984.765279	2542.984852
985.062070	2542.009389
985.358824	2540.504604
985.655543	2540.272711
985.952224	2536.247350
986.248869	2536.363296
986.545478	2531.801052
986.842050	2530.984385
987.138586	2530.833151
987.435086	2532.158974
987.731549	2528.655372
988.027975	2534.971938
988.324366	2534.556043
988.620719	2534.586290
988.917037	2533.073943
989.213318	2530.949097
989.509563	2533.242822
989.805772	2532.819365
990.101944	2532.879859
990.398080	2531.680064
990.694180	2531.937163
990.990244	2533.063861
991.286271	2532.879859
991.582262	2533.290713
991.878217	2532.438758
992.174136	2530.971782
992.470019	2529.862728
992.765865	2532.663089
993.061676	2532.884900
993.357450	2535.045035
993.653188	2530.744930
993.948890	2532.302647
994.244556	2532.862215
994.540186	2534.636701
994.835780	2531.624612
995.131337	2534.684592
995.426859	2536.000333
995.722345	2534.997144
996.017795	2535.889428
996.313208	2535.980169
996.608586	2536.819521
996.903928	2535.670138
997.199234	2535.095446
997.494504	2538.510828
997.789738	2535.050076
998.084936	2535.208872
998.380099	2532.443799
998.675225	2534.987061
998.970316	2536.315405
999.265371	2535.339942
999.560390	2533.530168
999.855373	2532.146371
1000.150320	2532.950435
1000.445232	2530.379447
1000.740108	2532.867256
1001.034948	2534.248532
1001.329752	2530.616381
1001.624521	2532.763913
1001.919254	2525.706297
1002.213951	2529.842564
1002.508613	2529.041020
1002.803239	2530.427338
1003.097829	2526.452388
1003.392384	2531.296937
1003.686903	2533.000847
1003.981386	2530.409694
1004.275834	2529.973634
1004.570246	2531.952287
1004.864623	2530.258459
1005.158964	2531.211237
1005.453270	2530.989426
1005.747540	2528.796524
1006.041775	2530.739889
1006.335974	2530.951618
1006.630138	2528.879703
1006.924266	2528.446164
1007.218359	2533.250384
1007.512416	2532.743748
1007.806438	2529.792152
1008.100425	2531.725435
1008.394376	2529.361134
1008.688292	2531.775846
1008.982172	2528.443644
1009.276017	2531.750641
1009.569827	2529.446833
1009.863602	2530.954138
1010.157341	2528.378109
1010.451045	2532.862215
1010.744714	2528.539426
1011.038347	2532.922709
1011.331945	2529.126720
1011.625508	2531.286854
1011.919036	2531.294416
1012.212528	2530.114786
1012.505986	2532.879859
1012.799408	2528.751154
1013.092795	2532.158974
1013.386147	2529.938346
1013.679464	2530.381967
1013.972745	2530.218130
1014.265992	2531.606968
1014.559204	2530.041689
1014.852380	2532.141330
1015.145521	2529.401463
1015.438628	2529.555218
1015.731699	2529.782070
1016.024736	2530.820548
1016.317737	2530.487832
1016.610703	2529.524971
1016.903635	2528.625125
1017.196531	2525.366019
1017.489393	2526.094466
1017.782219	2525.981040
1018.075011	2529.409025
1018.367768	2529.187214
1018.660490	2529.938346
1018.953177	2529.938346
1019.245829	2529.938346
