Dividing Wavelength (nm)	Counts (n)	Blue Motor Position (mm): 31.700000	Red Motor Position (mm): 0.000000	
326.493990	2129.738786
326.888308	2129.738786
327.282561	2129.738786
327.676750	2096.235278
328.070874	2097.372058
328.464933	2100.805083
328.858929	2105.488315
329.252859	2113.972577
329.646726	2127.477828
330.040528	2139.879067
330.434265	2159.063178
330.827938	2173.803512
331.221547	2192.949814
331.615091	2211.458410
332.008571	2229.921636
332.401986	2249.635068
332.795338	2268.851947
333.188625	2290.186110
333.581847	2307.081537
333.975006	2324.160966
334.368100	2341.898266
334.761129	2361.790659
335.154095	2378.660881
335.546996	2401.048645
335.939833	2425.863725
336.332606	2439.489963
336.725315	2451.326593
337.117960	2460.461163
337.510540	2470.888790
337.903056	2479.068062
338.295508	2487.885040
338.687896	2497.034735
339.080220	2505.783657
339.472480	2512.004441
339.864676	2515.165244
340.256807	2519.016686
340.648875	2525.527336
341.040879	2523.911646
341.432818	2528.930115
341.824694	2527.420289
342.216506	2528.836854
342.608253	2528.917512
342.999937	2529.076308
343.391557	2528.776360
343.783113	2525.663447
344.174605	2529.769467
344.566033	2523.576410
344.957397	2523.800741
345.348697	2522.132119
345.739934	2521.932993
346.131106	2516.692714
346.522215	2520.092972
346.913260	2512.748011
347.304241	2513.652898
347.695159	2510.976046
348.086012	2509.922444
348.476802	2508.359687
348.867528	2506.612927
349.258191	2505.561846
349.648789	2503.346259
350.039324	2502.859788
350.429796	2501.670076
350.820203	2501.687720
351.210548	2498.005157
351.600828	2500.979438
351.991045	2497.896772
352.381198	2498.297544
352.771288	2497.667399
353.161314	2495.348469
353.551276	2497.319560
353.941175	2498.652945
354.331010	2498.748727
354.720782	2495.441730
355.110490	2494.627584
355.500135	2497.720332
355.889717	2495.290495
356.279235	2495.177069
356.668689	2500.404746
357.058080	2496.908706
357.447408	2491.486945
357.836672	2489.861173
358.225873	2494.980464
358.615010	2493.795793
359.004084	2499.484735
359.393095	2497.427945
359.782043	2500.457678
360.170927	2497.367451
360.559748	2497.402739
360.948505	2501.138234
361.337199	2501.854078
361.725830	2501.710405
362.114398	2503.285765
362.502903	2503.157216
362.891344	2504.351969
363.279722	2504.140241
363.668037	2506.383554
364.056289	2503.870539
364.444478	2504.011692
364.832603	2504.364572
365.220665	2507.956394
365.608665	2506.234840
365.996601	2510.358504
366.384474	2505.304748
366.772284	2507.094357
367.160031	2508.750376
367.547715	2508.528565
367.935336	2509.700634
368.322893	2507.633761
368.710388	2509.672907
369.097820	2512.697600
369.485189	2508.226096
369.872495	2510.171982
370.259738	2507.784995
370.646918	2510.746673
371.034035	2510.114008
371.421090	2511.669204
371.808081	2510.542506
372.195010	2512.425377
372.581875	2510.421519
372.968678	2511.429749
373.355418	2513.088289
373.742096	2512.937054
374.128710	2515.984432
374.515262	2514.865296
374.901751	2514.048629
375.288177	2513.592404
375.674540	2513.443690
376.060841	2515.316479
376.447079	2514.169617
376.833254	2514.938393
377.219367	2510.953360
377.605417	2512.604338
377.991404	2512.775738
378.377329	2514.910666
378.763191	2513.194153
379.148991	2513.463855
379.534727	2516.521315
379.920402	2518.941069
380.306013	2518.391583
380.691563	2517.050636
381.077049	2518.749505
381.462474	2517.547190
381.847835	2514.580471
382.233134	2517.350585
382.618371	2516.601973
383.003545	2520.569361
383.388657	2521.002901
383.773706	2520.403003
384.158693	2519.850997
384.543618	2520.549197
384.928480	2518.089114
385.313280	2521.290246
385.698017	2522.681605
386.082692	2520.241686
386.467305	2519.664474
386.851856	2522.855525
387.236344	2520.491223
387.620770	2523.210926
388.005133	2521.960720
388.389435	2521.917870
388.773674	2523.967099
389.157851	2522.386697
389.541965	2524.791328
389.926018	2521.456604
390.310008	2524.766122
390.693936	2522.555576
391.077802	2525.358458
391.461606	2520.536594
391.845348	2524.108251
392.229027	2525.981040
392.612645	2526.023890
392.996200	2525.073632
393.379694	2526.560773
393.763125	2527.783252
394.146494	2522.230422
394.529801	2526.575896
394.913047	2527.264014
395.296230	2528.020187
395.679351	2528.897348
396.062410	2526.366688
396.445408	2527.253931
396.828343	2526.555732
397.211217	2522.623632
397.594028	2526.109589
397.976778	2528.204189
398.359466	2526.374250
398.742092	2526.132275
399.124656	2527.737882
399.507158	2528.940197
399.889598	2532.156453
400.271977	2531.354910
400.654294	2528.282327
401.036549	2530.571011
401.418742	2530.278624
401.800874	2531.944725
402.182944	2530.649148
402.564952	2531.833820
402.946898	2532.206865
403.328783	2532.020342
403.710606	2533.988913
404.092367	2531.488501
404.474067	2535.196269
404.855705	2533.295754
405.237282	2533.298275
405.618797	2534.719880
406.000250	2534.787936
406.381642	2535.801208
406.762972	2535.039993
407.144240	2536.534696
407.525447	2537.401774
407.906593	2536.154088
408.287677	2539.370345
408.668700	2535.309695
409.049661	2537.033770
409.430560	2538.914120
409.811399	2536.842206
410.192176	2536.176774
410.572891	2540.244985
410.953545	2540.446631
411.334138	2540.610468
411.714669	2540.963349
412.095139	2540.552495
412.475547	2540.618030
412.855894	2542.001827
413.236180	2542.891591
413.616405	2542.863864
413.996568	2545.719678
414.376670	2546.876623
414.756711	2548.764535
415.136691	2548.930893
415.516609	2547.342929
415.896466	2553.604042
416.276262	2555.023127
416.655997	2555.307953
417.035670	2557.331976
417.415283	2567.895714
417.794834	2568.818245
418.174324	2574.517269
418.553753	2582.220152
418.933121	2593.255238
419.312428	2601.260590
419.691674	2607.569594
420.070859	2618.529063
420.449983	2627.126751
420.829045	2641.153761
421.208047	2650.386635
421.586988	2663.780980
421.965867	2679.572395
422.344686	2699.419417
422.723444	2704.732794
423.102141	2708.105326
423.480777	2740.356107
423.859352	2744.149576
424.237866	2779.813218
424.616319	2798.236115
424.994712	2827.845332
425.373044	2838.766992
425.751314	2876.192518
426.129524	2877.344422
426.507673	2923.309663
426.885762	2954.779066
427.263789	2978.114567
427.641756	2985.915752
428.019662	3034.469626
428.397508	3068.240315
428.775292	3094.335848
429.153016	3141.122797
429.530679	3160.947134
429.908282	3211.189794
430.285824	3217.299673
430.663305	3317.641319
431.040726	3297.058288
431.418086	3329.677074
431.795385	3401.647107
432.172624	3446.455403
432.549802	3487.190447
432.926920	3530.630069
433.303977	3581.409612
433.680974	3635.591934
434.057910	3688.461035
434.434786	3738.262593
434.811601	3771.128396
435.188355	3911.002771
435.565050	3906.342224
435.941683	3950.621199
436.318257	4091.869289
436.694770	4142.180004
437.071222	4210.895972
437.447614	4229.570927
437.823946	4232.915732
438.200218	4364.978840
438.576429	4349.855378
438.952580	4458.502326
439.328670	4530.981515
439.704700	4532.088048
440.080670	4569.175817
440.456580	4790.474909
440.832429	4772.367085
441.208218	4724.408068
441.583947	4867.523905
441.959616	4919.399898
442.335224	4922.497688
442.710773	5059.415426
443.086261	5129.928565
443.461689	5022.597359
443.837057	5174.348693
444.212365	5336.618394
444.587612	5294.744049
444.962800	5457.238082
445.337927	5492.034646
445.712995	5223.968770
446.088002	5718.815993
446.462949	5618.819665
446.837837	5601.611687
447.212664	5776.965703
447.587431	5938.300270
447.962139	6436.555313
448.336786	7246.648572
448.711374	7066.845737
449.085901	6312.338762
449.460369	6283.541170
449.834776	6259.424290
450.209124	6640.038968
450.583412	6805.746736
450.957640	6956.898172
451.331808	6775.562827
451.705917	6397.448562
452.079965	6343.344378
452.453954	6564.779582
452.827883	6470.961188
453.201752	6576.664102
453.575562	6405.932824
453.949311	6616.068281
454.323001	6522.030597
454.696632	6607.168124
455.070202	6756.028356
455.443713	6921.221926
455.817164	7030.340222
456.190556	7121.106197
456.563888	7205.018723
456.937160	7254.051506
457.310373	6935.364883
457.683526	6962.014943
458.056619	6871.990018
458.429653	6861.222113
458.802628	6800.564429
459.175542	6912.107520
459.548398	7270.757890
459.921194	7430.479288
460.293930	7439.800381
460.666607	7964.355124
461.039224	8268.356866
461.411782	8399.746979
461.784280	8423.289167
462.156719	8329.102769
462.529099	8204.999644
462.901419	7794.468239
463.273680	7694.154319
463.645882	7707.286525
464.018024	7581.655930
464.390106	7747.509891
464.762130	8126.864280
465.134094	8598.817103
465.505999	9618.450962
465.877845	10829.250417
466.249631	11473.512399
466.621358	11098.712693
466.993026	10468.013935
467.364634	10223.580988
467.736184	9859.314773
468.107674	9526.770018
468.479105	9570.282737
468.850477	9326.754677
469.221790	9104.099515
469.593043	8776.220348
469.964238	8639.148854
470.335373	8656.321545
470.706449	8715.265236
471.077467	8693.542904
471.448425	10001.866000
471.819324	11067.167672
472.190164	11085.043604
472.560945	9841.854736
472.931667	9060.392711
473.302330	8924.740302
473.672934	8570.085047
474.043479	8924.047143
474.413965	8868.052527
474.784393	8756.310311
475.154761	8910.362931
475.525070	8993.884768
475.895321	8827.519130
476.265513	9000.823917
476.635645	9170.393208
477.005719	9162.592023
477.375734	9285.639027
477.745691	9515.687041
478.115588	9649.985900
478.485427	9897.864476
478.855207	10435.221229
479.224928	11242.836760
479.594591	11869.593336
479.964194	11679.554439
480.333739	11618.057403
480.703226	11538.550845
481.072653	11626.733229
481.442022	11855.692354
481.811333	12053.320708
482.180584	11854.991634
482.549777	11565.495812
482.918912	11389.907383
483.287988	11412.902606
483.657005	11423.436097
484.025964	11107.045720
484.394864	11238.392983
484.763706	11203.523322
485.132489	10967.506581
485.501213	10931.086765
485.869879	11010.212716
486.238487	10844.484783
486.607036	10960.217073
486.975527	10740.906716
487.343959	10925.775910
487.712333	10980.850516
488.080648	10904.227498
488.448905	10945.678385
488.817104	10890.671835
489.185244	11153.603296
489.553326	11315.605816
489.921350	11845.373112
490.289315	12902.308989
490.657222	13243.330444
491.025070	13149.736382
491.392861	13025.963452
491.760593	12641.152014
492.128267	12297.095785
492.495883	11973.683080
492.863440	11638.378294
493.230939	11303.809516
493.598380	11232.550286
493.965763	11108.830288
494.333088	11006.383960
494.700354	10926.602659
495.067563	10991.825107
495.434713	10818.661473
495.801805	10947.036976
496.168839	10868.241221
496.535815	10811.233333
496.902733	10805.332662
497.269593	10745.063147
497.636395	10836.678557
498.003139	10828.622793
498.369825	10694.596156
498.736453	10861.914573
499.103023	10776.973651
499.469535	10809.710904
499.835989	10797.765890
500.202385	10761.260375
500.568723	10619.976997
500.935003	10838.397590
501.301226	10641.943825
501.667390	10895.332382
502.033497	10993.334933
502.399546	10854.120949
502.765537	10760.726012
503.131470	10838.505975
503.497345	11010.585762
503.863163	10619.661925
504.228923	10930.643144
504.594625	10995.122022
504.960269	10744.128013
505.325856	10962.631786
505.691385	10757.103943
506.056856	10914.788715
506.422270	10938.426685
506.787625	10827.808647
507.152924	10945.945566
507.518164	10926.474110
507.883347	10851.310506
508.248472	10767.466035
508.613540	10994.857362
508.978550	10884.698068
509.343503	10857.609428
509.708398	10979.131482
510.073236	11087.632236
510.438016	11096.330747
510.802738	11041.122551
511.167403	11091.430746
511.532010	10991.986424
511.896561	11222.165509
512.261053	11295.027826
512.625488	11158.324337
512.989866	11147.508541
513.354186	11134.882971
513.718449	11034.939576
514.082655	11230.730429
514.446803	11127.961467
514.810894	11246.584858
515.174927	11118.514345
515.538904	11138.731892
515.902822	11283.367637
516.266684	11175.328149
516.630488	11113.218613
516.994235	11176.127172
517.357925	11235.721172
517.721558	11324.450521
518.085133	11339.815957
518.448651	11344.554642
518.812112	11227.531817
519.175516	11250.184242
519.538863	11363.650533
519.902152	11283.942329
520.265385	11441.765732
520.628560	11360.018382
520.991678	11335.304125
521.354739	11393.040460
521.717743	11328.266674
522.080690	11307.703807
522.443580	11447.265631
522.806413	11398.343754
523.169189	11427.595049
523.531908	11490.521252
523.894569	11306.665330
524.257174	11309.964765
524.619722	11434.733323
524.982213	11376.230732
525.344647	11424.091447
525.707025	11373.390042
526.069345	11471.243879
526.431608	11394.701520
526.793815	11496.177426
527.155964	11286.311671
527.518057	11339.384939
527.880093	11292.487085
528.242072	11361.271108
528.603995	11260.533731
528.965860	11182.486587
529.327669	11237.969526
529.689421	11181.478356
530.051117	11157.288380
530.412755	11264.067580
530.774337	11148.602472
531.135862	11132.644699
531.497331	11154.039356
531.858743	11007.944197
532.220098	11174.887048
532.581396	11046.153623
532.942638	11029.795078
533.303824	10992.614048
533.664953	11004.675009
534.026025	10919.252657
534.387040	11018.328974
534.747999	11024.045642
535.108902	11078.855587
535.469748	10837.008752
535.830537	10943.672006
536.191270	10924.248440
536.551947	10942.391553
536.912567	10938.257807
537.273131	10869.519153
537.633638	10840.204844
537.994089	10832.917856
538.354483	10785.266349
538.714821	10931.028792
539.075103	10938.348548
539.435328	10899.090562
539.795497	10725.785775
540.155609	10884.851823
540.515665	10974.052520
540.875665	10705.744668
541.235609	10781.803077
541.595496	10774.463157
541.955328	10929.902094
542.315102	10812.276852
542.674821	10766.031827
543.034483	10769.568196
543.394090	10766.558627
543.753640	10688.191370
544.113134	10921.679972
544.472571	10772.751685
544.831953	10913.861143
545.191278	10723.827287
545.550548	10745.615154
545.909761	10885.575228
546.268918	10858.368121
546.628019	10943.157808
546.987064	10804.654627
547.346053	10735.676519
547.704986	10829.046250
548.063863	10816.360186
548.422684	10801.856787
548.781449	10724.054139
549.140158	10834.284009
549.498811	10699.642351
549.857408	10565.434233
550.215949	10784.580752
550.574434	10639.589606
550.932864	10742.537529
551.291237	10801.614811
551.649555	10748.082798
552.007817	10759.465724
552.366022	10721.735208
552.724173	10715.716070
553.082267	10706.964627
553.440305	10831.004738
553.798288	10636.688422
554.156215	10786.937492
554.514086	10768.746488
554.871902	10619.735022
555.229661	10653.248612
555.587365	10627.563933
555.945014	10524.432008
556.302606	10653.198201
556.660143	10542.156705
557.017625	10693.711434
557.375050	10596.318862
557.732421	10732.404810
558.089735	10647.484053
558.446994	10651.038066
558.804197	10685.106184
559.161345	10678.913127
559.518437	10536.553462
559.875474	10619.583787
560.232455	10651.693416
560.589381	10602.592578
560.946251	10601.226425
561.303065	10695.838801
561.659825	10642.745368
562.016528	10568.773997
562.373177	10449.943919
562.729770	10562.225538
563.086307	10477.919802
563.442789	10575.882024
563.799216	10450.286717
564.155587	10501.807310
564.511904	10454.087747
564.868164	10445.762282
565.224370	10459.103695
565.580520	10388.552747
565.936615	10385.815401
566.292654	10262.158418
566.648638	10392.487368
567.004567	10350.398774
567.360441	10333.800775
567.716260	10240.521785
568.072023	10330.768521
568.427732	10288.571543
568.783385	10196.668788
569.138982	10264.807544
569.494525	10285.446028
569.850013	10161.133694
570.205445	10241.091436
570.560823	10137.863728
570.916145	10064.091483
571.271412	10121.164906
571.626625	10067.043078
571.981782	10048.897445
572.336884	10019.736891
572.691931	10029.186534
573.046923	9973.081012
573.401860	9929.127192
573.756743	9862.783086
574.111570	9908.632381
574.466342	9893.241738
574.821059	9922.727447
575.175722	9812.931116
575.530330	9824.467797
575.884882	9816.185181
576.239380	9745.054500
576.593823	9719.112722
576.948211	9735.720804
577.302544	9618.188822
577.656823	9629.939752
578.011047	9634.272624
578.365216	9605.129713
578.719330	9532.116162
579.073389	9544.419097
579.427394	9489.294080
579.781344	9468.360689
580.135239	9420.590715
580.489080	9431.557745
580.842866	9327.659564
581.196597	9336.070730
581.550273	9371.469712
581.903895	9344.068520
582.257463	9402.011543
582.610975	9281.580898
582.964434	9308.818252
583.317837	9234.347807
583.671186	9212.872491
584.024481	9212.202018
584.377721	9131.465418
584.730906	9105.037169
585.084037	9144.401019
585.437113	9072.357890
585.790135	9092.633410
586.143103	8993.521805
586.496016	8970.380388
586.848874	9021.664047
587.201679	9011.385134
587.554428	8897.485304
587.907124	8944.491543
588.259765	8923.452287
588.612352	8918.181761
588.964884	8800.538874
589.317362	8813.446749
589.669786	8815.541348
590.022155	8854.658181
590.374470	8873.156695
590.726731	8807.205800
591.078937	8667.583483
591.431090	8774.987786
591.783188	8648.399372
592.135232	8642.733115
592.487222	8638.097774
592.839157	8691.324797
593.191038	8634.276579
593.542866	8570.316940
593.894639	8475.744894
594.246358	8529.743213
594.598022	8545.587560
594.949633	8444.681304
595.301190	8413.574864
595.652692	8443.320192
596.004141	8557.963592
596.355535	8330.766350
596.706876	8312.900501
597.058162	8246.080007
597.409395	8324.742171
597.760573	8391.744147
598.111698	8293.134137
598.462768	8282.830018
598.813785	8247.602435
599.164748	8215.495326
599.515657	8203.787247
599.866511	8116.068649
600.217312	8242.636899
600.568060	8095.099970
600.918753	8196.999333
601.269392	8176.885129
601.619978	8084.624452
601.970510	8150.300604
602.320988	8144.329357
602.671412	8207.225313
603.021783	8134.299982
603.372100	8106.918955
603.722363	8113.517825
604.072572	8085.917508
604.422728	8101.865198
604.772830	8032.471195
605.122878	8042.440077
605.472872	8033.880197
605.822813	8063.118890
606.172701	8006.093357
606.522534	8084.775687
606.872314	8079.916014
607.222041	8050.513484
607.571714	8104.668080
607.921333	8064.106956
608.270899	8072.187925
608.620411	8159.651945
608.969870	8067.444200
609.319276	8060.371461
609.668627	8075.290756
610.017926	8111.781148
610.367171	8156.758322
610.716362	8135.071278
611.065500	8126.098025
611.414585	8151.724730
611.763616	8144.536045
612.112594	8121.871017
612.461518	8134.390723
612.810389	8190.879372
613.159207	8136.855847
613.507971	8090.741892
613.856682	8207.195067
614.205340	8162.984147
614.553945	8242.210921
614.902496	8136.460116
615.250994	8191.486831
615.599439	8176.076024
615.947830	8186.165893
616.296169	8162.616143
616.644454	8173.893204
616.992686	8169.139396
617.340864	8224.408086
617.688990	8127.181873
618.037063	8225.363385
618.385082	8166.873398
618.733048	8253.800534
619.080961	8199.005712
619.428821	8212.984832
619.776628	8217.350471
620.124382	8162.779981
620.472083	8151.646592
620.819731	8180.010644
621.167326	8072.351763
621.514868	8083.437260
621.862357	7972.131104
622.209793	7986.269020
622.557176	7917.225377
622.904506	7891.069350
623.251783	7824.763053
623.599007	7783.299563
623.946179	7784.338041
624.293297	7738.680310
624.640363	7655.372723
624.987376	7644.080538
625.334336	7590.752692
625.681243	7536.005761
626.028097	7525.636108
626.374899	7504.790937
626.721647	7499.384299
627.068343	7429.012312
627.414987	7401.737149
627.761577	7355.345931
628.108115	7394.190542
628.454600	7282.138295
628.801032	7335.090575
629.147412	7293.216230
629.493739	7283.648120
629.840014	7224.033955
630.186236	7279.668129
630.532405	7171.666449
630.878521	7214.831329
631.224585	7172.576377
631.570597	7095.474450
631.916556	7136.388455
632.262462	7128.234388
632.608316	7085.268634
632.954117	7065.272897
633.299866	7046.361009
633.645562	7039.545369
633.991206	6960.003523
634.336797	6906.902529
634.682336	6868.224276
635.027823	6832.474933
635.373257	6822.644683
635.718639	6749.734475
636.063968	6763.915241
636.409245	6660.740466
636.754470	6658.986144
637.099642	6620.499455
637.444762	6559.645167
637.789829	6568.192443
638.134845	6514.337796
638.479808	6503.237176
638.824719	6503.539645
639.169577	6427.657677
639.514383	6450.471418
639.859137	6378.370315
640.203839	6392.997223
640.548489	6377.352002
640.893086	6350.356623
641.237632	6326.567418
641.582125	6344.276992
641.926566	6316.081818
642.270955	6330.128994
642.615292	6324.714794
642.959576	6341.675757
643.303809	6327.830227
643.647990	6337.773903
643.992118	6330.300393
644.336195	6268.909221
644.680219	6299.108253
645.024192	6288.456295
645.368112	6382.057919
645.711981	6403.666825
646.055797	6479.579041
646.399562	6442.534122
646.743274	6567.683286
647.086935	6616.262365
647.430544	6609.923114
647.774101	6635.920345
648.117606	6643.088866
648.461059	6635.388503
648.804460	6590.681030
649.147810	6500.517473
649.491108	6473.113761
649.834354	6447.068639
650.177548	6365.069231
650.520690	6277.320387
650.863781	6259.273056
651.206820	6279.052023
651.549807	6204.674839
651.892742	6140.548842
652.235626	6143.598740
652.578458	6132.868644
652.921238	6044.464449
653.263967	6081.395942
653.606644	6014.986302
653.949269	6020.425707
654.291843	5963.616944
654.634365	6009.546897
654.976836	5968.542152
655.319255	5961.708868
655.661622	5940.911588
656.003938	5938.859838
656.346203	5902.969343
656.688416	5931.086379
657.030577	5886.464605
657.372687	5856.958732
657.714746	5840.012893
658.056753	5881.226847
658.398708	5824.450851
658.740612	5814.093801
659.082465	5864.583477
659.424266	5856.142065
659.766016	5855.655594
660.107715	5831.339588
660.449362	5848.555128
660.790958	5840.101113
661.132503	5828.506460
661.473996	5862.617427
661.815438	5847.171332
662.156829	5848.908009
662.498168	5839.874262
662.839456	5813.935004
663.180693	5849.926322
663.521879	5849.875911
663.863013	5837.736812
664.204097	5859.101222
664.545129	5899.014558
664.886110	5895.982304
665.227040	5927.393733
665.567918	5894.505246
665.908746	5923.615389
666.249522	5926.519093
666.590248	5913.573410
666.930922	5940.291526
667.271545	5954.179904
667.612118	5956.594617
667.952639	5935.257933
668.293109	5951.593793
668.633528	5911.549387
668.973896	5914.435448
669.314213	5903.556638
669.654480	5888.712960
669.994695	5878.638214
670.334859	5871.487337
670.674973	5862.766141
671.015035	5862.619948
671.355047	5865.914342
671.695008	5850.450602
672.034918	5823.190563
672.374777	5835.952244
672.714585	5822.144523
673.054342	5824.365152
673.394049	5818.361137
673.733705	5850.715263
674.073310	5836.952913
674.412864	5797.140400
674.752368	5786.957270
675.091820	5790.521365
675.431223	5730.211521
675.770574	5727.154062
676.109875	5679.502555
676.449125	5685.753586
676.788324	5650.241177
677.127473	5599.431388
677.466571	5589.671714
677.805619	5579.884314
678.144616	5566.174896
678.483562	5545.130599
678.822458	5512.267317
679.161303	5505.116440
679.500098	5494.144369
679.838842	5476.888499
680.177535	5485.062730
680.516179	5497.524463
680.854771	5507.453015
681.193314	5587.113328
681.531805	5696.644998
681.870247	5845.406928
682.208638	5949.899965
682.546978	5959.009330
682.885268	5937.589467
683.223508	5854.770871
683.561697	5801.624507
683.899836	5769.650988
684.237925	5727.133897
684.575963	5686.681158
684.913951	5651.524151
685.251889	5714.841043
685.589776	5680.931722
685.927614	5651.665303
686.265401	5724.008382
686.603137	5708.194282
686.940824	5782.263955
687.278460	5806.416123
687.616046	5818.429193
687.953582	5883.850767
688.291068	5863.844948
688.628504	5929.589156
688.965889	5889.544750
689.303224	5834.202963
689.640510	5785.984327
689.977745	5711.765939
690.314930	5612.598882
690.652065	5555.641405
690.989150	5462.503567
691.326185	5393.185181
691.663170	5337.861038
692.000105	5258.714923
692.336990	5177.605278
692.673825	5155.020909
693.010610	5089.017081
693.347345	5017.485629
693.684030	5005.817878
694.020665	4965.370180
694.357251	4875.473804
694.693786	4881.979413
695.030272	4850.078992
695.366707	4815.484074
695.703093	4786.378972
696.039429	4806.258762
696.375716	4786.774702
696.711952	4762.312503
697.048139	4749.092077
697.384276	4731.533739
697.720363	4738.946755
698.056400	4752.520062
698.392388	4697.163152
698.728326	4676.832178
699.064214	4657.393489
699.400053	4652.566584
699.735842	4621.956698
700.071581	4592.125670
700.407270	4569.541301
700.742910	4549.885842
701.078501	4493.553468
701.414042	4495.975743
701.749533	4466.520281
702.084974	4398.873038
702.420366	4458.083910
702.755709	4399.102410
703.091002	4340.872042
703.426246	4392.959764
703.761440	4347.596941
704.096584	4310.589831
704.431679	4329.680680
704.766725	4315.283145
705.101721	4305.578924
705.436668	4334.464735
705.771565	4279.818628
706.106413	4309.442968
706.441212	4340.307433
706.775961	4348.007795
707.110661	4326.275381
707.445311	4356.489537
707.779913	4379.414184
708.114465	4391.104619
708.448967	4412.373248
708.783421	4476.111076
709.117825	4514.575080
709.452180	4521.201677
709.786485	4563.723809
710.120742	4653.869722
710.454949	4636.800376
710.789107	4704.382084
711.123216	4775.802631
711.457275	4764.530611
711.791286	4839.933670
712.125247	4861.885374
712.459159	4757.104992
712.793023	4831.693904
713.126837	4798.966733
713.460602	4792.713182
713.794318	4711.411973
714.127985	4714.993713
714.461602	4631.403820
714.795171	4597.915435
715.128691	4536.841857
715.462162	4480.849761
715.795584	4430.148356
716.128957	4414.389709
716.462281	4363.554714
716.795556	4337.232329
717.128782	4300.036175
717.461960	4228.522367
717.795088	4240.951332
718.128167	4200.465825
718.461198	4139.435096
718.794180	4134.373778
719.127113	4113.354687
719.459997	4091.526490
719.792833	4049.815983
720.125619	4038.264179
720.458357	4006.215044
720.791046	4010.356352
721.123686	3985.274091
721.456278	3945.759006
721.788821	3959.692756
722.121315	3934.766770
722.453761	3903.776277
722.786158	3918.115839
723.118506	3943.067030
723.450805	3896.093559
723.783056	3916.469902
724.115259	3933.261986
724.447412	3937.670475
724.779518	3928.162859
725.111574	3931.711831
725.443582	3964.255000
725.775542	3952.501550
726.107453	3999.134743
726.439315	3997.745905
726.771129	4015.059748
727.102895	4049.768092
727.434612	4095.319959
727.766281	4112.714460
728.097901	4109.873770
728.429473	4115.771920
728.760996	4121.836428
729.092471	4114.488946
729.423897	4098.936987
729.755276	4107.209520
730.086606	4109.041979
730.417887	4146.588493
730.749120	4209.091239
731.080305	4274.921147
731.411442	4298.052481
731.742530	4273.413842
732.073570	4271.941825
732.404562	4327.157583
732.735506	4321.476203
733.066401	4285.162251
733.397249	4222.241089
733.728048	4141.970796
734.058798	4057.183630
734.389501	3987.688803
734.720156	3921.117846
735.050762	3884.408164
735.381320	3875.855847
735.711831	3825.797189
736.042293	3795.134371
736.372707	3820.108247
736.703073	3787.839821
737.033391	3778.916979
737.363661	3799.666368
737.693883	3821.232424
738.024056	3831.246676
738.354182	3823.604287
738.684260	3892.232035
739.014290	3910.556629
739.344272	3906.042276
739.674207	3950.593473
740.004093	3952.476344
740.333931	3947.750262
740.663722	3948.322433
740.993464	3946.164819
741.323159	3922.569699
741.652806	3892.731109
741.982405	3868.228581
742.311956	3834.311698
742.641460	3824.446160
742.970915	3803.744661
743.300323	3761.325872
743.629683	3726.105851
743.958996	3714.102864
744.288260	3690.845500
744.617477	3657.286539
744.946647	3644.179539
745.275768	3617.453862
745.604842	3613.667956
745.933869	3567.785894
746.262847	3560.105696
746.591778	3596.807817
746.920662	3569.429310
747.249498	3537.617109
747.578286	3584.671239
747.907027	3603.585648
748.235720	3595.875203
748.564365	3622.865541
748.892963	3623.498206
749.221514	3604.505658
749.550017	3583.753749
749.878473	3580.517328
750.206881	3555.175448
750.535242	3549.531876
750.863555	3552.735529
751.191821	3543.956360
751.520039	3526.493803
751.848210	3498.684278
752.176334	3536.629043
752.504411	3541.781102
752.832440	3502.500431
753.160421	3485.781444
753.488356	3497.602950
753.816243	3506.477901
754.144082	3467.114052
754.471875	3451.627627
754.799620	3472.561018
755.127318	3464.167497
755.454969	3458.687763
755.782572	3469.788384
756.110129	3445.210238
756.437638	3432.521654
756.765100	3447.244344
757.092515	3459.653144
757.419882	3463.033238
757.747203	3433.446706
758.074477	3438.278652
758.401703	3457.543421
758.728882	3477.045125
759.056014	3484.490909
759.383099	3486.146928
759.710138	3483.056701
760.037129	3500.345338
760.364073	3531.618136
760.690970	3513.727081
761.017820	3489.587515
761.344623	3510.967049
761.671379	3555.031775
761.998088	3605.750823
762.324751	3733.420565
762.651366	3978.511383
762.977935	4449.982776
763.304456	4893.818563
763.630931	4985.915403
763.957359	4627.169251
764.283740	4286.780461
764.610074	4093.212756
764.936362	3902.145464
765.262602	3742.260228
765.588796	3631.743013
765.914943	3542.224723
766.241044	3452.414047
766.567097	3423.578647
766.893104	3378.230948
767.219064	3345.833972
767.544978	3319.680466
767.870845	3265.120058
768.196665	3244.174064
768.522438	3253.855600
768.848165	3246.329157
769.173846	3212.359342
769.499479	3197.273689
769.825066	3182.442614
770.150607	3163.797907
770.476101	3178.583611
770.801548	3174.197807
771.126949	3127.622587
771.452303	3108.433435
771.777611	3117.318468
772.102872	3124.214767
772.428087	3097.915067
772.753256	3086.882502
773.078378	3078.534351
773.403453	3047.659805
773.728482	3037.491797
774.053465	3056.103737
774.378401	3043.011861
774.703291	3012.578415
775.028135	3015.222500
775.352932	3009.004237
775.677683	2996.963441
776.002388	2993.444716
776.327046	2996.093842
776.651658	2985.477172
776.976224	2973.701037
777.300743	2972.718012
777.625216	2963.651496
777.949643	2958.685960
778.274024	2961.657720
778.598359	2950.020216
778.922647	2955.890640
779.246889	2954.963068
779.571086	2940.255501
779.895236	2934.952208
780.219339	2945.745318
780.543397	2958.496917
780.867409	2960.576393
781.191374	2953.710341
781.515294	2949.216152
781.839167	2950.844445
782.162995	2942.866819
782.486776	2951.766976
782.810511	2948.129784
783.134201	2935.262238
783.457844	2944.225410
783.781441	2932.582865
784.104993	2910.069072
784.428498	2912.541758
784.751958	2923.690270
785.075372	2920.428643
785.398739	2906.336098
785.722061	2919.548962
786.045337	2931.327618
786.368568	2916.993097
786.691752	2909.880029
787.014891	2955.812502
787.337983	2985.131853
787.661030	3013.216121
787.984031	3079.303127
788.306987	3125.323821
788.629897	3121.447173
788.952760	3103.745162
789.275579	3087.258068
789.598351	3028.236239
789.921078	2984.143787
790.243759	2977.066007
790.566395	2959.686629
790.888984	2936.300716
791.211529	2917.172058
791.534027	2908.649987
791.856480	2899.873338
792.178888	2884.603683
792.501249	2875.630430
792.823566	2875.098588
793.145836	2871.365613
793.468062	2865.991743
793.790241	2866.833616
794.112375	2870.130531
794.434464	2884.092006
794.756507	2889.828839
795.078505	2892.470404
795.400457	2906.706623
795.722364	2942.125769
796.044226	2963.328863
796.366042	2970.928402
796.687812	2956.772842
797.009538	2978.394351
797.331218	2966.262814
797.652852	2954.579940
797.974442	2932.900458
798.295986	2930.674788
798.617484	2925.497523
798.938938	2911.029412
799.260346	2892.072153
799.581709	2888.621483
799.903026	2882.206615
800.224299	2877.591438
800.545526	2868.421580
800.866708	2848.682942
801.187845	2843.639267
801.508936	2843.329236
801.829983	2852.231914
802.150984	2839.250943
802.471940	2823.454487
802.792851	2826.595126
803.113717	2822.053047
803.434538	2830.559994
803.755314	2823.779642
804.076045	2817.468117
804.396731	2816.263281
804.717372	2819.124136
805.037967	2811.025522
805.358518	2820.432316
805.679024	2827.578151
805.999485	2825.019766
806.319901	2830.484376
806.640272	2818.438539
806.960598	2824.802996
807.280879	2836.856395
807.601115	2845.378465
807.921306	2830.375992
808.241453	2826.277533
808.561554	2836.836230
808.881611	2834.252639
809.201623	2830.817092
809.521590	2826.093531
809.841513	2825.907009
810.161390	2826.542194
810.481223	2821.642192
810.801011	2811.010399
811.120755	2806.851447
811.440453	2811.602735
811.760107	2809.311530
812.079716	2813.135245
812.399281	2798.329377
812.718801	2793.797379
813.038276	2786.220525
813.357707	2795.037503
813.677093	2800.925571
813.996434	2794.861063
814.315731	2793.121865
814.634983	2787.793365
814.954191	2788.577264
815.273354	2800.857515
815.592473	2810.798671
815.911547	2813.926707
816.230577	2817.437870
816.549562	2830.582679
816.868502	2828.573779
817.187399	2839.011488
817.506250	2854.684435
817.825058	2849.542458
818.143821	2859.009745
818.462539	2873.414842
818.781213	2900.705129
819.099843	2936.399019
819.418429	2994.858759
819.736970	3058.062226
820.055466	3129.886065
820.373919	3236.244329
820.692327	3372.794063
821.010691	3542.640618
821.329011	3980.878205
821.647286	4878.299371
821.965517	6250.907261
822.283704	6995.894018
822.601847	6973.339895
822.919945	6338.129305
823.237999	5834.576009
823.556010	5253.131845
823.873976	4703.404100
824.191897	4297.752533
824.509775	4004.622039
824.827609	3735.810072
825.145398	3614.482102
825.463144	3602.980709
825.780845	3693.935728
826.098502	3801.017397
826.416116	4077.050817
826.733685	4390.671080
827.051210	4460.359991
827.368692	4342.258359
827.686129	4074.873039
828.003522	3754.853031
828.320872	3495.601612
828.638177	3300.745892
828.955439	3163.366888
829.272656	3085.677666
829.589830	3016.755011
829.906960	2965.247022
830.224046	2923.236566
830.541088	2888.843294
830.858086	2873.205635
831.175041	2853.915659
831.491952	2858.881196
831.808819	2869.631457
832.125642	2890.978223
832.442421	2940.825152
832.759157	3021.493696
833.075849	3196.043647
833.392497	3475.114363
833.709101	3677.050383
834.025662	3628.667909
834.342179	3468.996922
834.658653	3293.416055
834.975083	3144.029022
835.291469	3048.451266
835.607811	2963.525468
835.924110	2905.426169
836.240366	2852.993128
836.556578	2811.010399
836.872746	2791.123047
837.188871	2768.672268
837.504952	2752.245669
837.820990	2740.940881
838.136984	2732.461660
838.452935	2723.248952
838.768842	2721.950855
839.084706	2738.506004
839.400526	2817.858807
839.716303	2950.872171
840.032037	3027.515354
840.347727	3012.656553
840.663373	2953.954837
840.978977	2879.796943
841.294537	2804.840027
841.610054	2759.822523
841.925527	2737.696899
842.240957	2716.221583
842.556344	2692.477749
842.871687	2676.585511
843.186987	2667.715601
843.502244	2664.743841
843.817458	2660.368119
844.132629	2649.310348
844.447756	2639.200314
844.762840	2634.716208
845.077881	2636.508338
845.392879	2635.863070
845.707833	2628.906278
846.022745	2623.113992
846.337613	2627.764457
846.652438	2622.960237
846.967221	2626.415948
847.281960	2620.797582
847.596656	2620.253137
847.911309	2620.071656
848.225919	2615.491768
848.540485	2610.564040
848.855009	2613.046808
849.169490	2618.259361
849.483928	2615.007817
849.798323	2613.402209
850.112675	2609.538165
850.426984	2614.118053
850.741251	2609.941457
851.055474	2609.865840
851.369654	2618.264402
851.683792	2612.530090
851.997887	2613.618979
852.311938	2612.880450
852.625947	2613.800461
852.939914	2614.060080
853.253837	2614.118053
853.567718	2610.513628
853.881555	2612.492281
854.195350	2614.438167
854.509103	2612.759462
854.822812	2611.073196
855.136479	2608.839965
855.450103	2611.352980
855.763685	2615.423712
856.077224	2611.342898
856.390720	2610.513628
856.704173	2612.146962
857.017584	2615.033023
857.330953	2616.699124
857.644278	2619.471759
857.957561	2619.176851
858.270802	2614.677621
858.584000	2615.272477
858.897155	2618.468569
859.210268	2618.763477
859.523339	2615.612755
859.836367	2610.679986
860.149352	2611.526900
860.462295	2613.031685
860.775195	2609.270984
861.088054	2608.829883
861.400869	2607.670417
861.713642	2604.827207
862.026373	2605.190170
862.339062	2609.588577
862.651708	2612.593104
862.964312	2615.504371
863.276873	2615.151490
863.589392	2614.836418
863.901869	2620.119547
864.214303	2625.871503
864.526696	2628.140023
864.839045	2629.254118
865.151353	2632.757720
865.463619	2631.537760
865.775842	2631.252935
866.088023	2631.268059
866.400162	2633.914664
866.712258	2632.853502
867.024313	2629.070116
867.336325	2628.417286
867.648296	2629.609519
867.960224	2634.265025
868.272110	2634.091105
868.583954	2625.379991
868.895755	2626.698253
869.207515	2632.951804
869.519233	2640.836169
869.830909	2634.582617
870.142542	2629.750671
870.454134	2632.561115
870.765684	2637.352731
871.077191	2641.057979
871.388657	2644.145686
871.700081	2641.226858
872.011463	2642.542599
872.322803	2643.757517
872.634101	2647.082158
872.945357	2653.207160
873.256571	2660.511792
873.567744	2653.751605
873.878874	2652.670277
874.189963	2655.667243
874.501010	2660.174035
874.812015	2667.004798
875.122979	2666.470436
875.433900	2656.743530
875.744780	2654.101965
876.055618	2660.453819
876.366415	2665.837771
876.677169	2664.779129
876.987882	2663.508758
877.298554	2659.417862
877.609183	2670.533606
877.919771	2675.093330
878.230317	2682.614731
878.540822	2694.988243
878.851285	2707.732280
879.161707	2733.132134
879.472087	2767.434665
879.782425	2819.378714
880.092722	2930.490786
880.402977	3115.291925
880.713191	3374.540823
881.023363	3665.317097
881.333494	3853.584029
881.643583	4028.005431
881.953631	4026.989639
882.263637	3848.994058
882.573602	3628.085656
882.883526	3500.433558
883.193408	3388.613204
883.503248	3284.341978
883.813048	3174.338960
884.122806	3059.040209
884.432522	2973.461582
884.742197	2910.515214
885.051831	2873.954246
885.361424	2837.398319
885.670975	2802.208544
885.980485	2773.673093
886.289954	2755.040988
886.599382	2740.310737
886.908768	2728.804303
887.218113	2711.603886
887.527417	2696.755168
887.836680	2686.166224
888.145901	2682.967612
888.455082	2675.012671
888.764221	2663.836433
889.073319	2655.813437
889.382376	2655.901657
889.691392	2656.035247
890.000366	2658.152532
890.309300	2657.960968
890.618193	2655.137922
890.927044	2661.555311
891.235855	2661.318377
891.544625	2658.029024
891.853353	2659.506082
892.162041	2665.754592
892.470687	2687.804599
892.779293	2697.922195
893.087858	2709.615151
893.396381	2728.955538
893.704864	2772.082609
894.013306	2838.998885
894.321707	2932.419028
894.630068	2982.770072
894.938387	3002.982579
895.246665	2998.432937
895.554903	2951.794703
895.863100	2912.982859
896.171256	2852.965402
896.479371	2789.469549
896.787446	2754.446132
897.095480	2732.595251
897.403473	2726.684498
897.711425	2714.469782
898.019336	2694.955476
898.327207	2681.004082
898.635038	2681.644309
898.942827	2675.320182
899.250576	2666.798111
899.558284	2655.813437
899.865952	2650.026192
900.173579	2648.894453
900.481165	2649.917807
900.788711	2641.521766
901.096216	2632.886269
901.403681	2627.729169
901.711105	2632.752678
902.018489	2629.652369
902.325832	2634.176804
902.633135	2633.498769
902.940397	2649.922848
903.247619	2685.044567
903.554800	2754.877151
903.861941	2880.432129
904.169041	3006.496263
904.476101	3066.201168
904.783121	3060.406362
905.090100	3004.459637
905.397039	2928.489448
905.703938	2856.640403
906.010796	2794.024231
906.317614	2743.169071
906.624391	2707.081971
906.931129	2681.508198
907.237826	2655.178251
907.544483	2641.352887
907.851099	2626.786473
908.157675	2615.726181
908.464211	2611.849534
908.770707	2599.922164
909.077163	2594.308839
909.383578	2589.277768
909.689954	2591.384970
909.996289	2588.009917
910.302584	2587.974629
910.608839	2585.590164
910.915054	2586.462283
911.221229	2591.069898
911.527363	2592.463777
911.833458	2588.572006
912.139513	2588.433374
912.445527	2592.521750
912.751502	2596.579879
913.057436	2605.094388
913.363331	2610.740480
913.669186	2616.794906
913.975000	2635.185035
914.280775	2647.959319
914.586510	2666.815755
914.892205	2702.123997
915.197859	2767.742176
915.503475	2855.017152
915.809050	2920.559713
916.114585	2936.363731
916.420081	2944.127108
916.725536	2958.161680
917.030952	2933.061775
917.336328	2882.408261
917.641665	2836.284224
917.946961	2787.415278
918.252218	2750.561923
918.557435	2727.186093
918.862612	2703.046528
919.167750	2684.079186
919.472848	2669.500169
919.777906	2654.328817
920.082925	2644.750625
920.387904	2631.210085
920.692843	2627.293109
920.997743	2622.130967
921.302603	2616.835235
921.607423	2610.463217
921.912204	2603.019953
922.216946	2604.628081
922.521647	2599.160950
922.826310	2596.894951
923.130932	2591.246338
923.435516	2584.206367
923.740059	2583.798033
924.044564	2582.250399
924.349028	2582.696541
924.653454	2570.582649
924.957840	2570.060889
925.262186	2570.532237
925.566493	2568.205745
925.870761	2565.019735
926.174989	2567.207596
926.479178	2561.748027
926.783328	2563.146947
927.087438	2562.168963
927.391509	2561.420352
927.695541	2559.998746
927.999533	2558.952707
928.303486	2556.482541
928.607400	2556.742161
928.911275	2555.257541
929.215110	2551.927859
929.518906	2553.813250
929.822663	2552.283260
930.126381	2557.732747
930.430060	2556.757284
930.733699	2554.072870
931.037299	2557.838612
931.340861	2556.790052
931.644383	2557.563869
931.947866	2556.142263
932.251309	2555.771739
932.554714	2557.049671
932.858080	2557.334496
933.161407	2553.828374
933.464694	2555.928014
933.767943	2551.950544
934.071153	2553.283929
934.374323	2549.999618
934.677455	2553.435164
934.980548	2551.965667
935.283602	2553.898950
935.586617	2551.615307
935.889593	2552.989022
936.192530	2553.914073
936.495428	2553.964485
936.798287	2555.151677
937.101108	2555.955741
937.403890	2555.738971
937.706632	2563.714077
938.009336	2562.854560
938.312002	2568.253636
938.614628	2573.400654
938.917216	2574.003072
939.219765	2574.728998
939.522275	2574.877712
939.824747	2574.212279
940.127179	2571.530386
940.429573	2567.852864
940.731929	2568.024263
941.034246	2564.450085
941.336524	2569.881928
941.638763	2568.445199
941.940964	2565.773388
942.243126	2564.399673
942.545250	2562.937739
942.847335	2561.314487
943.149381	2561.264076
943.451389	2558.955227
943.753359	2559.736606
944.055290	2557.326935
944.357182	2557.964641
944.659036	2557.778118
944.960851	2553.745195
945.262628	2554.203940
945.564367	2558.110834
945.866067	2557.263920
946.167729	2554.685370
946.469352	2556.482541
946.770937	2557.531101
947.072484	2554.012376
947.373992	2555.877603
947.675462	2554.884496
947.976893	2551.955585
948.278286	2554.733261
948.579641	2554.138405
948.880958	2552.132026
949.182236	2551.426264
949.483476	2556.845504
949.784678	2550.218908
950.085841	2552.245452
950.386967	2554.982798
950.688054	2550.783517
950.989103	2551.925338
951.290114	2555.398693
951.591087	2555.852397
951.892021	2555.970864
952.192917	2559.701318
952.493776	2559.328273
952.794596	2561.311967
953.095378	2559.671071
953.396122	2561.632080
953.696828	2558.499003
953.997496	2560.104610
954.298126	2553.425082
954.598718	2558.607388
954.899272	2557.498334
955.199788	2554.650082
955.500266	2551.963147
955.800706	2548.081458
956.101108	2544.245140
956.401472	2544.378731
956.701798	2543.834286
957.002087	2544.560213
957.302337	2546.191026
957.602550	2546.581715
957.902724	2541.439738
958.202861	2542.664739
958.502960	2539.161137
958.803022	2542.891591
959.103045	2542.669780
959.403031	2541.268339
959.702979	2536.582587
960.002889	2543.695655
960.302762	2542.495860
960.602596	2537.666435
960.902393	2539.824048
961.202153	2541.671631
961.501875	2541.074255
961.801559	2538.780530
962.101205	2535.760878
962.400814	2541.079296
962.700385	2540.529810
962.999918	2538.188194
963.299414	2538.168029
963.598873	2538.556198
963.898293	2537.850437
964.197677	2540.565098
964.497022	2540.484440
964.796331	2538.757844
965.095601	2538.452855
965.394835	2538.094933
965.694030	2536.895138
965.993189	2539.168698
966.292309	2537.648791
966.591393	2540.335726
966.890439	2538.344470
967.189447	2535.856660
967.488419	2536.350693
967.787353	2536.237268
968.086249	2537.157278
968.385108	2537.560570
968.683930	2537.502597
968.982714	2539.844213
969.281462	2535.720549
969.580172	2540.209697
969.878844	2539.196425
970.177480	2536.499407
970.476078	2536.159130
970.774639	2539.453524
971.073162	2538.178112
971.371649	2536.396064
971.670098	2534.732483
971.968510	2538.720036
972.266885	2536.564943
972.565223	2537.086702
972.863524	2537.432021
973.161788	2539.650129
973.460014	2538.919161
973.758204	2538.102494
974.056356	2539.287166
974.354471	2537.152237
974.652550	2537.439583
974.950591	2539.163657
975.248595	2536.209541
975.546563	2536.819521
975.844493	2539.088040
976.142386	2540.812115
976.440243	2539.282124
976.738062	2537.689120
977.035845	2536.217103
977.333590	2537.469830
977.631299	2535.488656
977.928971	2537.298430
978.226606	2536.075951
978.524204	2538.707433
978.821765	2535.254242
979.119290	2534.167874
979.416777	2536.630478
979.714228	2534.314067
980.011642	2534.004036
980.309020	2541.301107
980.606360	2537.046373
980.903664	2537.573173
981.200931	2537.810108
981.498162	2541.999306
981.795356	2541.492670
982.092513	2542.737835
982.389633	2544.905532
982.686717	2551.469114
982.983764	2551.653116
983.280775	2554.133364
983.577749	2552.999104
983.874686	2551.138918
984.171587	2546.879143
984.468451	2545.860830
984.765279	2541.893442
985.062070	2541.898483
985.358824	2541.848072
985.655543	2539.690458
985.952224	2537.878163
986.248869	2538.919161
986.545478	2533.414221
986.842050	2534.190559
987.138586	2530.225692
987.435086	2532.393388
987.731549	2531.301978
988.027975	2534.654345
988.324366	2535.904551
988.620719	2534.634181
988.917037	2532.093439
989.213318	2535.009747
989.509563	2532.219468
989.805772	2533.273069
990.101944	2531.201155
990.398080	2534.631660
990.694180	2533.255425
990.990244	2534.364479
991.286271	2534.732483
991.582262	2535.423121
991.878217	2534.525796
992.174136	2533.865405
992.470019	2534.392205
992.765865	2534.051927
993.061676	2533.184849
993.357450	2535.632329
993.653188	2535.143337
993.948890	2534.261135
994.244556	2532.978162
994.540186	2537.043852
994.835780	2536.287679
995.131337	2534.505631
995.426859	2535.740714
995.722345	2535.874304
996.017795	2535.846578
996.313208	2538.599048
996.608586	2538.178112
996.903928	2537.467309
997.199234	2538.198276
997.494504	2540.325643
997.789738	2539.062834
998.084936	2537.358924
998.380099	2535.297092
998.675225	2537.994110
998.970316	2532.637884
999.265371	2537.323636
999.560390	2535.302133
999.855373	2537.268183
1000.150320	2536.010416
1000.445232	2534.780374
1000.740108	2531.967410
1001.034948	2535.554191
1001.329752	2531.596885
1001.624521	2535.952442
1001.919254	2524.975330
1002.213951	2529.666123
1002.508613	2531.052441
1002.803239	2531.380116
1003.097829	2527.488345
1003.392384	2532.874818
1003.686903	2531.483459
1003.981386	2534.843388
1004.275834	2533.600744
1004.570246	2533.610826
1004.864623	2532.547143
1005.158964	2533.431865
1005.453270	2531.009591
1005.747540	2532.378264
1006.041775	2530.462626
1006.335974	2531.629653
1006.630138	2531.906916
1006.924266	2529.582944
1007.218359	2531.876669
1007.512416	2531.770805
1007.806438	2531.191072
1008.100425	2532.728624
1008.394376	2530.344159
1008.688292	2531.238963
1008.982172	2532.191742
1009.276017	2532.325332
1009.569827	2533.759540
1009.863602	2531.564118
1010.157341	2531.110414
1010.451045	2531.329704
1010.744714	2532.181659
1011.038347	2533.174767
1011.331945	2532.542102
1011.625508	2531.664941
1011.919036	2532.756351
1012.212528	2531.947246
1012.505986	2532.423635
1012.799408	2529.771988
1013.092795	2527.823582
1013.386147	2531.609488
1013.679464	2532.887421
1013.972745	2532.847092
1014.265992	2529.867770
1014.559204	2533.719211
1014.852380	2531.778367
1015.145521	2532.703419
1015.438628	2529.819879
1015.731699	2533.527647
1016.024736	2529.817358
1016.317737	2532.960518
1016.610703	2532.781557
1016.903635	2528.567152
1017.196531	2529.179652
1017.489393	2528.302491
1017.782219	2529.451874
1018.075011	2529.497245
1018.367768	2529.605630
1018.660490	2533.381454
1018.953177	2533.381454
1019.245829	2533.381454
