Dividing Wavelength (nm)	Counts (n)	Blue Motor Position (mm): 1.200000	Red Motor Position (mm): 0.000000	
326.493990	2061.048024
326.888308	2061.048024
327.282561	2061.048024
327.676750	2038.851823
328.070874	2042.194108
328.464933	2047.033616
328.858929	2050.990922
329.252859	2064.559187
329.646726	2078.467731
330.040528	2096.608323
330.434265	2112.170365
330.827938	2133.824641
331.221547	2153.522950
331.615091	2175.424243
332.008571	2195.503158
332.401986	2215.183823
332.795338	2236.707029
333.188625	2255.896182
333.581847	2272.741197
333.975006	2292.613426
334.368100	2310.239820
334.761129	2325.461584
335.154095	2344.068483
335.546996	2355.527026
335.939833	2372.142669
336.332606	2381.919987
336.725315	2394.124620
337.117960	2404.068296
337.510540	2414.117836
337.903056	2426.617377
338.295508	2432.525609
338.687896	2437.468461
339.080220	2444.291662
339.472480	2446.678649
339.864676	2452.133177
340.256807	2453.910184
340.648875	2455.651903
341.040879	2458.855556
341.432818	2460.463684
341.824694	2460.400670
342.216506	2461.320680
342.608253	2459.105093
342.999937	2455.546038
343.391557	2455.788014
343.783113	2456.544187
344.174605	2455.931687
344.566033	2453.922787
344.957397	2449.378187
345.348697	2450.280553
345.739934	2450.046140
346.131106	2445.458690
346.522215	2443.182609
346.913260	2444.601693
347.304241	2439.873091
347.695159	2438.471650
348.086012	2436.180446
348.476802	2435.678851
348.867528	2433.349838
349.258191	2428.848088
349.648789	2432.157605
350.039324	2426.312387
350.429796	2430.834302
350.820203	2433.223809
351.210548	2428.875814
351.600828	2428.585948
351.991045	2430.216761
352.381198	2429.115269
352.771288	2427.993612
353.161314	2429.780701
353.551276	2429.238777
353.941175	2425.334403
354.331010	2429.069898
354.720782	2426.254414
355.110490	2426.811462
355.500135	2429.982347
355.889717	2429.004363
356.279235	2428.739703
356.668689	2429.778181
357.058080	2427.219795
357.447408	2432.467636
357.836672	2430.574683
358.225873	2430.912440
358.615010	2429.947059
359.004084	2430.345310
359.393095	2430.821699
359.782043	2431.845054
360.170927	2433.924530
360.559748	2434.002668
360.948505	2434.421083
361.337199	2433.659869
361.725830	2434.637853
362.114398	2436.130034
362.502903	2438.469130
362.891344	2434.474015
363.279722	2435.739345
363.668037	2435.451999
364.056289	2436.303954
364.444478	2439.245467
364.832603	2439.502566
365.220665	2439.784871
365.608665	2439.686568
365.996601	2438.983327
366.384474	2437.377720
366.772284	2439.719336
367.160031	2440.084820
367.547715	2441.191353
367.935336	2441.123297
368.322893	2438.665735
368.710388	2437.448296
369.097820	2440.160437
369.485189	2437.034922
369.872495	2440.898966
370.259738	2440.961980
370.646918	2443.417022
371.034035	2444.057249
371.421090	2441.609769
371.808081	2441.181271
372.195010	2444.417691
372.581875	2443.210335
372.968678	2443.590942
373.355418	2442.759152
373.742096	2443.348967
374.128710	2443.399378
374.515262	2442.136569
374.901751	2445.496498
375.288177	2448.163269
375.674540	2443.449790
376.060841	2444.785696
376.447079	2448.264092
376.833254	2449.579833
377.219367	2447.548248
377.605417	2446.895418
377.991404	2444.982301
378.377329	2446.051025
378.763191	2445.146138
379.148991	2449.118567
379.534727	2447.850717
379.920402	2447.255861
380.306013	2448.616972
380.691563	2447.729729
381.077049	2449.786520
381.462474	2447.444904
381.847835	2449.128650
382.233134	2449.710903
382.618371	2446.764348
383.003545	2449.327775
383.388657	2448.357353
383.773706	2446.648402
384.158693	2451.525718
384.543618	2450.933383
384.928480	2450.368773
385.313280	2448.533793
385.698017	2453.015379
386.082692	2451.475307
386.467305	2449.874740
386.851856	2453.201902
387.236344	2452.914556
387.620770	2450.910697
388.005133	2446.713937
388.389435	2453.471604
388.773674	2448.954730
389.157851	2453.035544
389.541965	2453.171655
389.926018	2453.189299
390.310008	2449.418516
390.693936	2453.978240
391.077802	2451.563527
391.461606	2453.632921
391.845348	2454.131995
392.229027	2456.145936
392.612645	2453.776593
392.996200	2457.930504
393.379694	2456.655092
393.763125	2455.694753
394.146494	2455.268775
394.529801	2455.634259
394.913047	2455.883796
395.296230	2454.114351
395.679351	2455.442695
396.062410	2457.479321
396.445408	2455.379680
396.828343	2456.118209
397.211217	2457.476800
397.594028	2456.191306
397.976778	2459.460494
398.359466	2458.948817
398.742092	2459.949486
399.124656	2457.033179
399.507158	2456.279526
399.889598	2460.143571
400.271977	2457.060905
400.654294	2458.238015
401.036549	2457.237346
401.418742	2457.514609
401.800874	2458.026286
402.182944	2457.625514
402.564952	2459.599126
402.946898	2459.853704
403.328783	2459.894034
403.710606	2462.870835
404.092367	2459.422686
404.474067	2460.866976
404.855705	2461.545012
405.237282	2460.824127
405.618797	2459.127778
406.000250	2461.575258
406.381642	2459.866307
406.762972	2458.737089
407.144240	2458.532922
407.525447	2457.438992
407.906593	2456.077880
408.287677	2461.537450
408.668700	2462.182717
409.049661	2462.439816
409.430560	2461.345886
409.811399	2458.802624
410.192176	2463.773202
410.572891	2464.433593
410.953545	2460.554425
411.334138	2463.306895
411.714669	2464.136165
412.095139	2462.971658
412.475547	2461.154322
412.855894	2465.048613
413.236180	2463.138016
413.616405	2462.381843
413.996568	2464.262193
414.376670	2462.790177
414.756711	2464.685650
415.136691	2463.911833
415.516609	2462.641463
415.896466	2463.437965
416.276262	2464.471401
416.655997	2464.791515
417.035670	2465.915692
417.415283	2464.791515
417.794834	2463.047275
418.174324	2465.005764
418.553753	2463.508541
418.933121	2466.739921
419.312428	2467.899386
419.691674	2467.062554
420.070859	2465.527523
420.449983	2465.988789
420.829045	2467.110445
421.208047	2468.224540
421.586988	2466.369396
421.965867	2465.726649
422.344686	2465.376288
422.723444	2467.518779
423.102141	2465.139354
423.480777	2468.090950
423.859352	2465.424179
424.237866	2467.128089
424.616319	2463.309415
424.994712	2466.528192
425.373044	2468.287555
425.751314	2466.916361
426.129524	2462.633901
426.507673	2465.540126
426.885762	2462.243211
427.263789	2469.719242
427.641756	2468.809314
428.019662	2470.296455
428.397508	2469.305868
428.775292	2468.043059
429.153016	2472.133955
429.530679	2472.020529
429.908282	2466.427369
430.285824	2469.704119
430.663305	2470.704788
431.040726	2470.009109
431.418086	2469.361321
431.795385	2468.726135
432.172624	2471.483646
432.549802	2469.512555
432.926920	2469.280662
433.303977	2469.449541
433.680974	2471.324850
434.057910	2473.263174
434.434786	2469.603296
434.811601	2470.674541
435.188355	2471.466002
435.565050	2469.134469
435.941683	2472.824593
436.318257	2469.603296
436.694770	2471.375262
437.071222	2472.408698
437.447614	2470.087247
437.823946	2474.664614
438.200218	2470.077164
438.576429	2470.251084
438.952580	2471.113122
439.328670	2474.387351
439.704700	2471.410550
440.080670	2472.577577
440.456580	2471.231589
440.832429	2472.232258
441.208218	2471.360138
441.583947	2471.841568
441.959616	2470.218317
442.335224	2473.789974
442.710773	2471.372741
443.086261	2471.561784
443.461689	2471.327371
443.837057	2472.625468
444.212365	2473.369038
444.587612	2469.855354
444.962800	2469.769654
445.337927	2474.316775
445.712995	2471.884418
446.088002	2474.846096
446.462949	2472.648153
446.837837	2474.649491
447.212664	2471.589511
447.587431	2473.719398
447.962139	2473.361476
448.336786	2475.259471
448.711374	2475.498925
449.085901	2475.398102
449.460369	2471.690334
449.834776	2474.001703
450.209124	2473.888277
450.583412	2476.219810
450.957640	2473.865592
451.331808	2473.721919
451.705917	2474.563791
452.079965	2475.531693
452.453954	2474.427680
452.827883	2476.335757
453.201752	2475.718216
453.575562	2476.305510
453.949311	2472.673359
454.323001	2477.142342
454.696632	2475.705613
455.070202	2476.797022
455.443713	2474.036991
455.817164	2475.924903
456.190556	2476.121508
456.563888	2474.319295
456.937160	2476.678555
457.310373	2474.410036
457.683526	2476.522280
458.056619	2476.270222
458.429653	2476.539924
458.802628	2478.470686
459.175542	2474.939357
459.548398	2474.536065
459.921194	2477.366673
460.293930	2479.816674
460.666607	2476.149234
461.039224	2477.190233
461.411782	2475.846765
461.784280	2477.628813
462.156719	2476.161837
462.529099	2477.825418
462.901419	2477.979173
463.273680	2474.752835
463.645882	2476.391210
464.018024	2477.205356
464.390106	2471.904583
464.762130	2476.774337
465.134094	2476.403813
465.505999	2479.962867
465.877845	2478.886581
466.249631	2479.909935
466.621358	2478.218628
466.993026	2479.615027
467.364634	2480.333392
467.736184	2478.788278
468.107674	2477.585963
468.479105	2475.652681
468.850477	2477.429687
469.221790	2478.069914
469.593043	2479.690645
469.964238	2479.655357
470.335373	2478.120325
470.706449	2475.612351
471.077467	2477.412043
471.448425	2479.857003
471.819324	2478.495891
472.190164	2478.742908
472.560945	2477.646457
472.931667	2479.844400
473.302330	2478.594194
473.672934	2481.646612
474.043479	2477.535552
474.413965	2478.042187
474.784393	2480.076293
475.154761	2478.511015
475.525070	2479.204173
475.895321	2476.849955
476.265513	2476.786940
476.635645	2478.526138
477.005719	2478.551344
477.375734	2478.816005
477.745691	2480.746767
478.115588	2480.270377
478.485427	2478.589153
478.855207	2481.548310
479.224928	2481.084524
479.594591	2479.857003
479.964194	2477.207877
480.333739	2481.245841
480.703226	2478.803402
481.072653	2480.245172
481.442022	2480.033443
481.811333	2478.137969
482.180584	2478.160655
482.549777	2479.055459
482.918912	2476.454224
483.287988	2478.858854
483.657005	2482.342292
484.025964	2479.567137
484.394864	2478.528659
484.763706	2479.846921
485.132489	2480.003196
485.501213	2480.063690
485.869879	2481.944041
486.238487	2481.472693
486.607036	2479.425984
486.975527	2479.698207
487.343959	2480.078814
487.712333	2482.110399
488.080648	2479.365490
488.448905	2481.820532
488.817104	2482.511170
489.185244	2480.663588
489.553326	2482.201139
489.921350	2478.321972
490.289315	2480.587970
490.657222	2481.114771
491.025070	2481.220635
491.392861	2480.855151
491.760593	2480.081334
492.128267	2479.942702
492.495883	2481.727271
492.863440	2479.289873
493.230939	2483.698362
493.598380	2482.589308
493.965763	2483.060656
494.333088	2481.177785
494.700354	2483.491675
495.067563	2480.093937
495.434713	2481.278608
495.801805	2482.982518
496.168839	2482.304483
496.535815	2482.322127
496.902733	2484.363794
497.269593	2480.643423
497.636395	2485.094762
498.003139	2481.760038
498.369825	2482.037302
498.736453	2480.431694
499.103023	2481.119812
499.469535	2481.311376
499.835989	2481.628968
500.202385	2480.618217
500.568723	2482.359936
500.935003	2480.081334
501.301226	2479.133597
501.667390	2480.030923
502.033497	2483.615183
502.399546	2480.686273
502.765537	2480.837507
503.131470	2481.344143
503.497345	2480.726602
503.863163	2483.403455
504.228923	2482.029740
504.594625	2484.053763
504.960269	2480.061170
505.325856	2483.647951
505.691385	2481.523104
506.056856	2482.488485
506.422270	2481.172744
506.787625	2482.748105
507.152924	2482.793475
507.518164	2483.358084
507.883347	2484.066366
508.248472	2484.313383
508.613540	2484.623414
508.978550	2483.534525
509.343503	2483.133753
509.708398	2482.047384
510.073236	2484.068887
510.438016	2480.721561
510.802738	2482.974957
511.167403	2483.632827
511.532010	2481.810450
511.896561	2484.210039
512.261053	2482.405306
512.625488	2484.089052
512.989866	2482.783393
513.354186	2482.264154
513.718449	2483.216932
514.082655	2481.132415
514.446803	2482.738022
514.810894	2483.070738
515.174927	2484.262971
515.538904	2484.005872
515.902822	2482.281798
516.266684	2482.654843
516.630488	2481.351705
516.994235	2485.785400
517.357925	2484.633496
517.721558	2486.468476
518.085133	2482.047384
518.448651	2479.352888
518.812112	2481.689462
519.175516	2481.500419
519.538863	2477.964050
519.902152	2486.539052
520.265385	2483.315234
520.628560	2485.349340
520.991678	2483.595018
521.354739	2482.743063
521.717743	2482.501088
522.080690	2486.360091
522.443580	2483.549648
522.806413	2483.312714
523.169189	2485.162817
523.531908	2483.814309
523.894569	2480.930769
524.257174	2481.402117
524.619722	2485.321614
524.982213	2484.638537
525.344647	2484.227683
525.707025	2484.119298
526.069345	2485.659371
526.431608	2484.172231
526.793815	2483.100985
527.155964	2484.832622
527.518057	2485.911429
527.880093	2481.709627
528.242072	2481.805409
528.603995	2484.315903
528.965860	2483.615183
529.327669	2485.382108
529.689421	2482.702734
530.051117	2487.070894
530.412755	2484.099134
530.774337	2485.813126
531.135862	2483.370687
531.497331	2483.158959
531.858743	2483.310193
532.220098	2484.930924
532.581396	2482.107878
532.942638	2486.113075
533.303824	2486.118116
533.664953	2484.313383
534.026025	2484.832622
534.387040	2484.527632
534.747999	2483.100985
535.108902	2486.891933
535.469748	2482.995121
535.830537	2485.077118
536.191270	2482.523773
536.551947	2482.039823
536.912567	2481.891108
537.273131	2482.211222
537.633638	2478.261478
537.994089	2483.900008
538.354483	2481.243320
538.714821	2484.487303
539.075103	2486.297077
539.435328	2484.520070
539.795497	2482.750625
540.155609	2483.708444
540.515665	2482.795996
540.875665	2485.550986
541.235609	2483.103506
541.595496	2485.755153
541.955328	2487.310349
542.315102	2485.830770
542.674821	2484.928404
543.034483	2484.535194
543.394090	2485.193064
543.753640	2485.248517
544.113134	2485.966881
544.472571	2483.587457
544.831953	2482.319607
545.191278	2486.498723
545.550548	2485.160297
545.909761	2485.740029
546.268918	2483.363125
546.628019	2487.103662
546.987064	2483.874803
547.346053	2486.982674
547.704986	2482.952271
548.063863	2484.439412
548.422684	2484.104175
548.781449	2484.671305
549.140158	2486.155925
549.498811	2487.199443
549.857408	2483.710965
550.215949	2485.349340
550.574434	2485.606439
550.932864	2485.588795
551.291237	2485.775318
551.649555	2484.827581
552.007817	2487.426295
552.366022	2484.429329
552.724173	2484.668784
553.082267	2485.513177
553.440305	2485.621562
553.798288	2485.770276
554.156215	2483.963023
554.514086	2482.811119
554.871902	2481.331540
555.229661	2486.438229
555.587365	2481.157621
555.945014	2487.436378
556.302606	2482.339771
556.660143	2487.461583
557.017625	2486.334886
557.375050	2485.994608
557.732421	2484.943527
558.089735	2484.557879
558.446994	2486.105513
558.804197	2489.853611
559.161345	2483.572333
559.518437	2486.889412
559.875474	2485.855976
560.232455	2485.646768
560.589381	2488.810092
560.946251	2487.111223
561.303065	2483.985708
561.659825	2481.424802
562.016528	2485.518219
562.373177	2484.404124
562.729770	2485.704741
563.086307	2484.552838
563.442789	2485.601398
563.799216	2486.675163
564.155587	2486.856645
564.511904	2485.876141
564.868164	2486.743219
565.224370	2484.925883
565.580520	2485.160297
565.936615	2486.476038
566.292654	2484.825060
566.648638	2485.798003
567.004567	2482.735502
567.360441	2485.573671
567.716260	2483.277426
568.072023	2489.455360
568.427732	2487.058291
568.783385	2486.574340
569.138982	2486.728096
569.494525	2481.860862
569.850013	2486.755822
570.205445	2485.394710
570.560823	2483.710965
570.916145	2483.506798
571.271412	2486.607108
571.626625	2485.533342
571.981782	2485.813126
572.336884	2483.007724
572.691931	2482.780872
573.046923	2484.043681
573.401860	2478.553865
573.756743	2486.554176
574.111570	2485.137612
574.466342	2484.333548
574.821059	2485.460245
575.175722	2484.000831
575.530330	2487.244814
575.884882	2486.327324
576.239380	2484.141984
576.593823	2486.665081
576.948211	2484.794813
577.302544	2488.217757
577.656823	2484.260451
578.011047	2486.546614
578.365216	2486.896974
578.719330	2486.425626
579.073389	2484.520070
579.427394	2485.941676
579.781344	2487.832108
580.135239	2487.864876
580.489080	2487.184320
580.842866	2488.626090
581.196597	2485.528301
581.550273	2486.118116
581.903895	2487.023003
582.257463	2485.755153
582.610975	2483.201808
582.964434	2486.239104
583.317837	2487.479228
583.671186	2484.825060
584.024481	2485.913949
584.377721	2485.268682
584.730906	2487.159114
585.084037	2486.783548
585.437113	2487.123826
585.790135	2485.886223
586.143103	2484.255410
586.496016	2484.414206
586.848874	2485.218270
587.201679	2486.939824
587.554428	2485.823208
587.907124	2485.276243
588.259765	2488.260606
588.612352	2483.537045
588.964884	2486.571820
589.317362	2488.472335
589.669786	2483.257261
590.022155	2483.383290
590.374470	2480.653505
590.726731	2485.614001
591.078937	2481.669298
591.431090	2486.912098
591.783188	2484.837663
592.135232	2486.274392
592.487222	2486.634834
592.839157	2487.912767
593.191038	2486.518888
593.542866	2485.568630
593.894639	2487.867396
594.246358	2486.244145
594.598022	2484.545276
594.949633	2487.544763
595.301190	2486.723054
595.652692	2486.087869
596.004141	2486.090390
596.355535	2485.200626
596.706876	2485.026706
597.058162	2484.346150
597.409395	2487.065853
597.760573	2485.568630
598.111698	2486.760863
598.462768	2484.126860
598.813785	2485.878661
599.164748	2485.130050
599.515657	2487.073415
599.866511	2486.395379
600.217312	2483.907570
600.568060	2486.755822
600.918753	2490.282109
601.269392	2488.129536
601.619978	2485.767756
601.970510	2485.987046
602.320988	2485.389669
602.671412	2486.034937
603.021783	2486.176089
603.372100	2483.050574
603.722363	2484.499906
604.072572	2484.749443
604.422728	2483.915132
604.772830	2486.629793
605.122878	2485.324134
605.472872	2487.726244
605.822813	2485.818167
606.172701	2486.034937
606.522534	2483.446304
606.872314	2485.326655
607.222041	2486.168528
607.571714	2480.925727
607.921333	2482.473362
608.270899	2482.647282
608.620411	2481.840697
608.969870	2484.958651
609.319276	2484.724237
609.668627	2486.670122
610.017926	2487.595174
610.367171	2486.695328
610.716362	2485.145173
611.065500	2486.644917
611.414585	2485.230873
611.763616	2487.396048
612.112594	2484.237766
612.461518	2483.441263
612.810389	2485.349340
613.159207	2484.381438
613.507971	2485.571151
613.856682	2486.503764
614.205340	2487.270020
614.553945	2485.361943
614.902496	2487.418734
615.250994	2488.883189
615.599439	2487.728765
615.947830	2489.309166
616.296169	2485.437560
616.644454	2484.462097
616.992686	2486.660040
617.340864	2486.160966
617.688990	2487.154073
618.037063	2485.006542
618.385082	2486.435709
618.733048	2484.610811
619.080961	2485.906388
619.428821	2488.230359
619.776628	2485.145173
620.124382	2485.959320
620.472083	2485.798003
620.819731	2486.133239
621.167326	2485.432519
621.514868	2484.951089
621.862357	2487.537201
622.209793	2486.299598
622.557176	2487.055771
622.904506	2485.545945
623.251783	2486.576861
623.599007	2487.839670
623.946179	2485.215749
624.293297	2489.220946
624.640363	2483.007724
624.987376	2484.323465
625.334336	2481.442446
625.681243	2486.816316
626.028097	2479.927579
626.374899	2486.970071
626.721647	2486.939824
627.068343	2485.147694
627.414987	2484.714155
627.761577	2487.307828
628.108115	2485.845894
628.454600	2487.149032
628.801032	2483.985708
629.147412	2485.853455
629.493739	2486.435709
629.840014	2486.382777
630.186236	2484.353712
630.532405	2486.009731
630.878521	2482.163331
631.224585	2487.544762
631.570597	2486.007211
631.916556	2486.304639
632.262462	2486.647437
632.608316	2485.303970
632.954117	2486.241624
633.299866	2484.207519
633.645562	2486.639875
633.991206	2486.808754
634.336797	2482.755666
634.682336	2484.827581
635.027823	2485.987046
635.373257	2486.584423
635.718639	2483.133753
636.063968	2485.460245
636.409245	2485.031747
636.754470	2483.637868
637.099642	2485.578713
637.444762	2484.535194
637.789829	2484.575523
638.134845	2488.008549
638.479808	2485.772797
638.824719	2487.224649
639.169577	2486.919659
639.514383	2488.033754
639.859137	2485.566110
640.203839	2484.636017
640.548489	2486.531491
640.893086	2483.963023
641.237632	2486.644917
641.582125	2486.128198
641.926566	2484.900677
642.270955	2483.688280
642.615292	2483.484113
642.959576	2483.481592
643.303809	2482.203660
643.647990	2486.198774
643.992118	2486.256748
644.336195	2484.774648
644.680219	2485.014103
645.024192	2484.389000
645.368112	2485.999649
645.711981	2484.527632
646.055797	2483.799185
646.399562	2485.402272
646.743274	2486.297077
647.086935	2484.852786
647.430544	2482.667446
647.774101	2487.587612
648.117606	2485.056953
648.461059	2487.965699
648.804460	2484.015955
649.147810	2487.708600
649.491108	2484.285657
649.834354	2487.232211
650.177548	2482.211222
650.520690	2484.973774
650.863781	2485.790441
651.206820	2483.436222
651.549807	2487.529639
651.892742	2482.611993
652.235626	2486.851604
652.578458	2484.520070
652.921238	2482.859010
653.263967	2485.069556
653.606644	2484.930924
653.949269	2487.070894
654.291843	2487.693477
654.634365	2488.802530
654.976836	2483.708444
655.319255	2487.164155
655.661622	2484.101654
656.003938	2484.048722
656.346203	2484.867910
656.688416	2483.378249
657.030577	2485.737509
657.372687	2481.729792
657.714746	2484.449494
658.056753	2483.184164
658.398708	2487.335555
658.740612	2485.087200
659.082465	2484.840183
659.424266	2483.340440
659.766016	2480.386324
660.107715	2483.751294
660.449362	2480.358598
660.790958	2484.933445
661.132503	2484.343630
661.473996	2484.973774
661.815438	2483.259782
662.156829	2485.188023
662.498168	2483.287508
662.839456	2485.213229
663.180693	2482.609473
663.521879	2486.022334
663.863013	2484.520070
664.204097	2486.143322
664.545129	2483.342961
664.886110	2486.339927
665.227040	2486.430667
665.567918	2484.469659
665.908746	2484.346150
666.249522	2485.891264
666.590248	2484.641058
666.930922	2487.413692
667.271545	2482.307004
667.612118	2485.863538
667.952639	2487.539721
668.293109	2484.184833
668.633528	2485.558548
668.973896	2487.191882
669.314213	2482.410347
669.654480	2484.973774
669.994695	2483.098465
670.334859	2485.155256
670.674973	2485.664412
671.015035	2483.143835
671.355047	2485.039309
671.695008	2486.528970
672.034918	2485.225832
672.374777	2483.569813
672.714585	2485.188023
673.054342	2485.281284
673.394049	2483.688280
673.733705	2483.045533
674.073310	2485.591315
674.412864	2483.400934
674.752368	2484.693990
675.091820	2482.735502
675.431223	2484.078969
675.770574	2482.478403
676.109875	2484.600729
676.449125	2481.170223
676.788324	2482.627117
677.127473	2484.391521
677.466571	2480.812302
677.805619	2484.625934
678.144616	2483.877323
678.483562	2485.379587
678.822458	2487.794300
679.161303	2484.888074
679.500098	2485.661892
679.838842	2483.385811
680.177535	2484.038640
680.516179	2485.969402
680.854771	2482.609473
681.193314	2486.206336
681.531805	2484.520070
681.870247	2485.278764
682.208638	2484.764566
682.546978	2484.091572
682.885268	2485.160297
683.223508	2484.792293
683.561697	2483.393372
683.899836	2485.903867
684.237925	2484.651140
684.575963	2483.466469
684.913951	2485.409834
685.251889	2481.389514
685.589776	2482.198619
685.927614	2485.818167
686.265401	2481.581078
686.603137	2484.842704
686.940824	2482.788434
687.278460	2487.156594
687.616046	2483.093424
687.953582	2485.314052
688.291068	2486.337406
688.628504	2484.245327
688.965889	2485.125009
689.303224	2486.884371
689.640510	2484.971253
689.977745	2484.784731
690.314930	2485.820688
690.652065	2484.696511
690.989150	2482.811119
691.326185	2483.239617
691.663170	2484.361274
692.000105	2482.780872
692.336990	2485.848414
692.673825	2487.769094
693.010610	2483.405975
693.347345	2482.506129
693.684030	2479.995635
694.020665	2482.861531
694.357251	2479.249544
694.693786	2484.446973
695.030272	2483.534525
695.366707	2484.421768
695.703093	2486.481079
696.039429	2481.697024
696.375716	2483.925214
696.711952	2483.723568
697.048139	2483.186685
697.384276	2484.772128
697.720363	2483.529483
698.056400	2484.898157
698.392388	2486.985194
698.728326	2485.072077
699.064214	2485.326655
699.400053	2482.647282
699.735842	2482.412868
700.071581	2481.291211
700.407270	2485.268682
700.742910	2482.778352
701.078501	2484.396562
701.414042	2486.760863
701.749533	2484.048722
702.084974	2484.562920
702.420366	2483.743733
702.755709	2486.160966
703.091002	2484.383959
703.426246	2485.180461
703.761440	2483.516881
704.096584	2486.362612
704.431679	2485.230873
704.766725	2484.527632
705.101721	2483.249699
705.436668	2482.538897
705.771565	2483.342961
706.106413	2486.947386
706.441212	2483.388331
706.775961	2485.079638
707.110661	2486.924701
707.445311	2481.359267
707.779913	2484.941007
708.114465	2484.630976
708.448967	2486.266830
708.783421	2484.255410
709.117825	2483.847076
709.452180	2482.022178
709.786485	2484.121819
710.120742	2482.395224
710.454949	2480.285501
710.789107	2481.114771
711.123216	2478.974801
711.457275	2481.923876
711.791286	2485.253558
712.125247	2485.427478
712.459159	2486.642396
712.793023	2483.035450
713.126837	2484.068887
713.460602	2483.587457
713.794318	2486.869248
714.127985	2485.664412
714.461602	2487.065853
714.795171	2483.466469
715.128691	2482.438074
715.462162	2485.233393
715.795584	2481.681901
716.128957	2486.201295
716.462281	2484.595688
716.795556	2484.250368
717.128782	2484.575523
717.461960	2484.784731
717.795088	2480.043526
718.128167	2484.187354
718.461198	2485.341778
718.794180	2483.025368
719.127113	2483.494195
719.459997	2485.596357
719.792833	2484.310862
720.125619	2482.274236
720.458357	2482.433032
720.791046	2485.989567
721.123686	2482.821201
721.456278	2482.977477
721.788821	2484.593167
722.121315	2485.823208
722.453761	2484.855307
722.786158	2483.940337
723.118506	2483.100985
723.450805	2483.597539
723.783056	2483.441263
724.115259	2481.928917
724.447412	2481.076962
724.779518	2483.799185
725.111574	2483.169041
725.443582	2483.075780
725.775542	2484.348671
726.107453	2484.615852
726.439315	2486.738178
726.771129	2487.005359
727.102895	2480.898001
727.434612	2482.934627
727.766281	2478.218628
728.097901	2484.210039
728.429473	2482.775831
728.760996	2483.317755
729.092471	2482.274236
729.423897	2483.733650
729.755276	2483.461428
730.086606	2481.258444
730.417887	2483.741212
730.749120	2484.333547
731.080305	2483.746253
731.411442	2483.864720
731.742530	2481.608804
732.073570	2483.393372
732.404562	2485.616521
732.735506	2479.786427
733.066401	2480.913125
733.397249	2484.537714
733.728048	2482.301963
734.058798	2483.277426
734.389501	2485.140132
734.720156	2482.760708
735.050762	2482.959833
735.381320	2484.371356
735.711831	2481.767600
736.042293	2482.433033
736.372707	2484.305821
736.703073	2483.821870
737.033391	2483.103506
737.363661	2482.896819
737.693883	2485.029227
738.024056	2480.066211
738.354182	2483.103506
738.684260	2481.197950
739.014290	2481.248361
739.344272	2484.562920
739.674207	2483.012765
740.004093	2483.002683
740.333931	2482.198619
740.663722	2482.233907
740.993464	2484.109216
741.323159	2480.182157
741.652806	2481.283649
741.982405	2481.795327
742.311956	2482.390183
742.641460	2485.729947
742.970915	2481.492857
743.300323	2481.823053
743.629683	2478.412712
743.958996	2480.033443
744.288260	2478.100161
744.617477	2482.760708
744.946647	2485.417396
745.275768	2484.802375
745.604842	2484.830101
745.933869	2484.688949
746.262847	2485.982005
746.591778	2482.604432
746.920662	2484.220122
747.249498	2483.075780
747.578286	2483.474031
747.907027	2483.456387
748.235720	2483.133753
748.564365	2482.052425
748.892963	2483.345481
749.221514	2482.213742
749.550017	2484.033599
749.878473	2482.526294
750.206881	2483.902529
750.535242	2481.303814
750.863555	2480.840028
751.191821	2484.751963
751.520039	2484.636017
751.848210	2482.140646
752.176334	2481.129894
752.504411	2482.710296
752.832440	2483.416058
753.160421	2481.858341
753.488356	2482.440594
753.816243	2481.369349
754.144082	2485.999649
754.471875	2482.478403
754.799620	2483.431181
755.127318	2484.656181
755.454969	2484.202478
755.782572	2482.450677
756.110129	2486.090390
756.437638	2484.389000
756.765100	2483.045533
757.092515	2483.027889
757.419882	2483.070738
757.747203	2482.937148
758.074477	2483.012765
758.401703	2485.079638
758.728882	2479.788947
759.056014	2482.556541
759.383099	2481.833135
759.710138	2479.541931
760.037129	2479.698207
760.364073	2481.197950
760.690970	2479.791468
761.017820	2483.468990
761.344623	2480.633341
761.671379	2484.399082
761.998088	2484.194916
762.324751	2481.228197
762.651366	2481.397075
762.977935	2481.243320
763.304456	2481.137456
763.630931	2482.329689
763.957359	2483.005203
764.283740	2483.416057
764.610074	2481.661736
764.936362	2481.344143
765.262602	2481.341623
765.588796	2483.693321
765.914943	2480.961016
766.241044	2483.950420
766.567097	2480.615697
766.893104	2483.705924
767.219064	2480.267857
767.544978	2483.766418
767.870845	2482.443115
768.196665	2484.149545
768.522438	2483.635348
768.848165	2480.257775
769.173846	2482.349853
769.499479	2483.000162
769.825066	2481.707106
770.150607	2482.554020
770.476101	2480.373721
770.801548	2484.149545
771.126949	2482.246510
771.452303	2483.196767
771.777611	2481.177785
772.102872	2482.503609
772.428087	2482.453197
772.753256	2481.855820
773.078378	2481.679380
773.403453	2483.259782
773.728482	2484.313383
774.053465	2480.613176
774.378401	2485.079638
774.703291	2481.482775
775.028135	2483.915132
775.352932	2482.052425
775.677683	2480.635861
776.002388	2482.629638
776.327046	2480.529997
776.651658	2477.999338
776.976224	2476.918010
777.300743	2481.747436
777.625216	2480.207363
777.949643	2482.327168
778.274024	2481.800368
778.598359	2482.435553
778.922647	2479.887250
779.246889	2483.045533
779.571086	2481.828094
779.895236	2480.915645
780.219339	2479.216776
780.543397	2480.479585
780.867409	2481.041674
781.191374	2481.510501
781.515294	2481.422281
781.839167	2483.592498
782.162995	2479.637713
782.486776	2483.652992
782.810511	2483.211891
783.134201	2481.215594
783.457844	2482.697693
783.781441	2482.581747
784.104993	2480.787096
784.428498	2483.264823
784.751958	2481.543269
785.075372	2480.585450
785.398739	2481.470172
785.722061	2484.996459
786.045337	2481.195429
786.368568	2484.406644
786.691752	2481.626448
787.014891	2482.904380
787.337983	2479.857003
787.661030	2483.466469
787.984031	2478.306848
788.306987	2481.593680
788.629897	2482.370018
788.952760	2481.815491
789.275579	2482.508650
789.598351	2481.006386
789.921078	2478.032105
790.243759	2480.938330
790.566395	2479.816674
790.888984	2482.576705
791.211529	2481.296252
791.534027	2481.399596
791.856480	2478.942033
792.178888	2480.383803
792.501249	2476.134111
792.823566	2480.494709
793.145836	2476.461786
793.468062	2481.596201
793.790241	2479.791468
794.112375	2482.309524
794.434464	2481.576036
794.756507	2481.749956
795.078505	2479.395737
795.400457	2480.668629
795.722364	2481.671818
796.044226	2482.859010
796.366042	2480.950933
796.687812	2481.782724
797.009538	2477.684266
797.331218	2481.525625
797.652852	2481.649133
797.974442	2480.487147
798.295986	2480.156952
798.617484	2479.945223
798.938938	2479.224338
799.260346	2481.145018
799.581709	2480.063690
799.903026	2480.373721
800.224299	2480.787096
800.545526	2482.816160
800.866708	2480.935810
801.187845	2479.456231
801.508936	2479.783906
801.829983	2476.383648
802.150984	2480.953454
802.471940	2483.398413
802.792851	2479.695686
803.113717	2480.620738
803.434538	2482.717858
803.755314	2480.146869
804.076045	2478.974801
804.396731	2481.104688
804.717372	2481.147538
805.037967	2481.124853
805.358518	2481.782724
805.679024	2482.990080
805.999485	2481.122332
806.319901	2484.472179
806.640272	2481.616366
806.960598	2481.946561
807.280879	2483.705924
807.601115	2479.920017
807.921306	2479.534369
808.241453	2479.415902
808.561554	2476.731488
808.881611	2477.827938
809.201623	2475.423308
809.521590	2480.913125
809.841513	2480.237610
810.161390	2479.637713
810.481223	2481.578557
810.801011	2480.981180
811.120755	2479.776344
811.440453	2481.679380
811.760107	2483.411016
812.079716	2480.572847
812.399281	2481.581078
812.718801	2479.836838
813.038276	2481.031592
813.357707	2484.197436
813.677093	2478.228710
813.996434	2480.245172
814.315731	2480.882878
814.634983	2481.525625
814.954191	2479.857003
815.273354	2479.662918
815.592473	2480.875316
815.911547	2483.779021
816.230577	2483.484113
816.549562	2479.776344
816.868502	2480.086375
817.187399	2479.189050
817.506250	2480.398927
817.825058	2480.169554
818.143821	2481.026551
818.462539	2480.832466
818.781213	2480.121663
819.099843	2479.834318
819.418429	2478.420274
819.736970	2482.909422
820.055466	2478.221148
820.373919	2482.803557
820.692327	2479.078145
821.010691	2483.932776
821.329011	2481.384473
821.647286	2482.173413
821.965517	2479.995635
822.283704	2480.857672
822.601847	2479.153762
822.919945	2482.364977
823.237999	2482.259113
823.556010	2479.995635
823.873976	2478.813484
824.191897	2480.948413
824.509775	2479.574698
824.827609	2476.781899
825.145398	2477.134780
825.463144	2480.590491
825.780845	2479.756180
826.098502	2479.423464
826.416116	2482.745584
826.733685	2480.282980
827.051210	2478.750470
827.368692	2480.270378
827.686129	2481.956643
828.003522	2478.286683
828.320872	2481.278608
828.638177	2480.600573
828.955439	2481.336582
829.272656	2480.023361
829.589830	2479.355408
829.906960	2482.511170
830.224046	2477.913638
830.541088	2479.632672
830.858086	2476.670994
831.175041	2482.606952
831.491952	2478.798361
831.808819	2484.825060
832.125642	2479.534369
832.442421	2482.599391
832.759157	2479.783906
833.075849	2482.435553
833.392497	2479.836838
833.709101	2478.521097
834.025662	2481.208032
834.342179	2481.533187
834.658653	2482.047384
834.975083	2478.866416
835.291469	2488.056440
835.607811	2477.394399
835.924110	2480.222487
836.240366	2484.169710
836.556578	2480.378762
836.872746	2479.491519
837.188871	2483.214411
837.504952	2481.734833
837.820990	2479.690645
838.136984	2480.151910
838.452935	2480.542600
838.768842	2480.416571
839.084706	2478.984883
839.400526	2478.125367
839.716303	2478.488330
840.032037	2478.117805
840.347727	2477.162506
840.663373	2479.166365
840.978977	2473.842906
841.294537	2480.361118
841.610054	2481.197950
841.925527	2477.664101
842.240957	2481.603763
842.556344	2480.620738
842.871687	2479.138638
843.186987	2476.597897
843.502244	2478.871457
843.817458	2480.650985
844.132629	2480.315748
844.447756	2476.734008
844.762840	2480.134266
845.077881	2479.584781
845.392879	2482.745584
845.707833	2479.657877
846.022745	2480.789616
846.337613	2480.225007
846.652438	2480.638382
846.967221	2481.311376
847.281960	2479.229379
847.596656	2480.628299
847.911309	2480.782055
848.225919	2476.575212
848.540485	2482.541417
848.855009	2479.365490
849.169490	2481.384473
849.483928	2478.465644
849.798323	2477.830459
850.112675	2479.365490
850.426984	2478.422795
850.741251	2479.360449
851.055474	2479.065542
851.369654	2478.931951
851.683792	2480.739205
851.997887	2480.282980
852.311938	2479.000007
852.625947	2481.868423
852.939914	2480.696355
853.253837	2481.371870
853.567718	2482.170893
853.881555	2477.744759
854.195350	2480.008238
854.509103	2479.546972
854.822812	2479.728453
855.136479	2479.801550
855.450103	2480.033443
855.763685	2478.352218
856.077224	2476.512197
856.390720	2479.368011
856.704173	2474.972125
857.017584	2482.564103
857.330953	2478.672332
857.644278	2481.979329
857.957561	2480.593011
858.270802	2480.555203
858.584000	2477.719554
858.897155	2481.848259
859.210268	2475.405664
859.523339	2477.838021
859.836367	2480.706437
860.149352	2479.252064
860.462295	2479.133597
860.775195	2481.666777
861.088054	2478.929431
861.400869	2480.290542
861.713642	2482.054946
862.026373	2477.399440
862.339062	2480.088896
862.651708	2480.252733
862.964312	2480.769452
863.276873	2478.821046
863.589392	2482.740543
863.901869	2479.136118
864.214303	2478.866416
864.526696	2480.172075
864.839045	2479.889770
865.151353	2478.889101
865.463619	2478.448000
865.775842	2480.938330
866.088023	2478.601756
866.400162	2480.023361
866.712258	2478.027064
867.024313	2480.358598
867.336325	2479.652836
867.648296	2479.519246
867.960224	2481.875985
868.272110	2478.677373
868.583954	2482.319607
868.895755	2479.937661
869.207515	2479.229379
869.519233	2480.351036
869.830909	2479.080665
870.142542	2479.942703
870.454134	2482.347333
870.765684	2480.852631
871.077191	2477.969091
871.388657	2477.689307
871.700081	2474.447845
872.011463	2478.566468
872.322803	2475.695530
872.634101	2479.753659
872.945357	2476.986066
873.256571	2478.349698
873.567744	2478.213587
873.878874	2478.188381
874.189963	2476.852475
874.501010	2478.493371
874.812015	2479.718371
875.122979	2480.739205
875.433900	2477.830459
875.744780	2479.231900
876.055618	2480.396406
876.366415	2480.643423
876.677169	2480.620738
876.987882	2478.072434
877.298554	2478.931951
877.609183	2479.494040
877.919771	2477.966570
878.230317	2478.488330
878.540822	2480.098978
878.851285	2479.494040
879.161707	2478.571509
879.472087	2479.287352
879.782425	2479.630151
880.092722	2479.080665
880.402977	2479.247023
880.713191	2478.102681
881.023363	2477.323823
881.333494	2480.456900
881.643583	2479.383134
881.953631	2480.620738
882.263637	2477.250726
882.573602	2481.596201
882.883526	2479.279791
883.193408	2480.247692
883.503248	2478.263998
883.813048	2477.459934
884.122806	2477.260809
884.432522	2479.443628
884.742197	2476.552527
885.051831	2478.276601
885.361424	2477.308700
885.670975	2477.706951
885.980485	2480.335913
886.289954	2480.136787
886.599382	2476.315592
886.908768	2476.245016
887.218113	2475.443473
887.527417	2480.141828
887.836680	2471.367700
888.145901	2478.206025
888.455082	2480.066211
888.764221	2477.041518
889.073319	2478.125367
889.382376	2478.589153
889.691392	2478.836169
890.000366	2481.591160
890.309300	2476.350880
890.618193	2479.960347
890.927044	2477.769965
891.235855	2479.093268
891.544625	2477.570840
891.853353	2481.505460
892.162041	2477.386837
892.470687	2476.194605
892.779293	2478.914307
893.087858	2478.458083
893.396381	2479.083186
893.704864	2479.665439
894.013306	2478.085037
894.321707	2480.766931
894.630068	2477.311220
894.938387	2477.313741
895.246665	2479.975470
895.554903	2480.663588
895.863100	2477.575881
896.171256	2477.354070
896.479371	2477.762403
896.787446	2478.011941
897.095480	2479.042857
897.403473	2476.910448
897.711425	2477.122177
898.019336	2480.424133
898.327207	2479.461272
898.635038	2478.689976
898.942827	2476.691158
899.250576	2477.006230
899.558284	2480.121663
899.865952	2479.231900
900.173579	2478.700058
900.481165	2477.525469
900.788711	2477.530510
901.096216	2479.521766
901.403681	2478.725264
901.711105	2477.550675
902.018489	2478.145531
902.325832	2475.418267
902.633135	2473.759727
902.940397	2474.334419
903.247619	2472.683441
903.554800	2477.608648
903.861941	2477.162506
904.169041	2479.153762
904.476101	2480.391365
904.783121	2477.611169
905.090100	2476.194605
905.397039	2477.742239
905.703938	2478.858854
906.010796	2477.908597
906.317614	2478.115284
906.624391	2477.701910
906.931129	2479.315079
907.237826	2478.195943
907.544483	2479.529328
907.851099	2476.613020
908.157675	2478.140490
908.464211	2475.942547
908.770707	2480.010758
909.077163	2479.108392
909.383578	2478.740387
909.689954	2476.466827
909.996289	2478.062352
910.302584	2478.027064
910.608839	2477.369193
910.915054	2476.635706
911.221229	2476.401292
911.527363	2476.975983
911.833458	2476.779378
912.139513	2478.707620
912.445527	2478.309369
912.751502	2475.826600
913.057436	2479.345326
913.363331	2478.400109
913.669186	2477.475058
913.975000	2477.454893
914.280775	2475.803915
914.586510	2476.567650
914.892205	2479.486478
915.197859	2477.840541
915.503475	2479.425984
915.809050	2480.197281
916.114585	2476.698720
916.420081	2478.362301
916.725536	2479.569657
917.030952	2479.075624
917.336328	2477.656539
917.641665	2474.515900
917.946961	2472.693523
918.252218	2476.683597
918.557435	2476.494553
918.862612	2476.333236
919.167750	2476.494553
919.472848	2478.357260
919.777906	2476.948257
920.082925	2477.596045
920.387904	2475.020016
920.692843	2478.987404
920.997743	2477.827938
921.302603	2478.664770
921.607423	2477.328864
921.912204	2476.819708
922.216946	2476.930613
922.521647	2479.415902
922.826310	2476.121508
923.130932	2476.497074
923.435516	2478.097640
923.740059	2477.744759
924.044564	2479.970429
924.349028	2478.581591
924.653454	2479.990593
924.957840	2474.102526
925.262186	2479.095789
925.566493	2477.520428
925.870761	2480.930769
926.174989	2476.489512
926.479178	2478.206025
926.783328	2477.946406
927.087438	2477.071765
927.391509	2478.168216
927.695541	2473.840386
927.999533	2479.431025
928.303486	2475.680407
928.607400	2477.248206
928.911275	2475.125880
929.215110	2474.788123
929.518906	2478.117805
929.822663	2477.328864
930.126381	2477.906076
930.430060	2476.935654
930.733699	2476.149234
931.037299	2479.138638
931.340861	2476.771817
931.644383	2478.463124
931.947866	2475.846765
932.251309	2478.816005
932.554714	2477.815336
932.858080	2475.196456
933.161407	2472.060858
933.464694	2473.709316
933.767943	2471.907103
934.071153	2477.598566
934.374323	2476.308031
934.677455	2477.817856
934.980548	2476.978504
935.283602	2477.182671
935.586617	2477.616210
935.889593	2476.623103
936.192530	2477.810294
936.495428	2478.765593
936.798287	2475.995479
937.101108	2478.637044
937.403890	2477.298617
937.706632	2479.438587
938.009336	2479.574698
938.312002	2473.225365
938.614628	2476.189563
938.917216	2476.529841
939.219765	2475.597228
939.522275	2479.128556
939.824747	2477.096971
940.127179	2478.324492
940.429573	2476.000520
940.731929	2475.995479
941.034246	2478.455562
941.336524	2477.291056
941.638763	2479.602425
941.940964	2477.654019
942.243126	2478.553865
942.545250	2476.812146
942.847335	2475.914821
943.149381	2474.883905
943.451389	2475.743421
943.753359	2477.399440
944.055290	2475.735860
944.357182	2478.130408
944.659036	2475.882053
944.960851	2477.822897
945.262628	2477.835500
945.564367	2477.490181
945.866067	2476.323154
946.167729	2479.239462
946.469352	2478.158134
946.770937	2478.886581
947.072484	2477.033957
947.373992	2474.997331
947.675462	2475.443473
947.976893	2473.598410
948.278286	2472.743935
948.579641	2476.734008
948.880958	2470.873667
949.182236	2478.611838
949.483476	2473.976497
949.784678	2476.401292
950.085841	2477.747280
950.386967	2480.013279
950.688054	2476.078658
950.989103	2478.425315
951.290114	2478.513535
951.591087	2477.338947
951.892021	2476.534882
952.192917	2476.300469
952.493776	2476.187043
952.794596	2475.118318
953.095378	2476.635706
953.396122	2477.124698
953.696828	2473.787454
953.997496	2476.819708
954.298126	2475.806436
954.598718	2475.904738
954.899272	2474.601600
955.199788	2478.432877
955.500266	2475.743421
955.800706	2476.547485
956.101108	2478.558906
956.401472	2476.136631
956.701798	2477.825418
957.002087	2476.313072
957.302337	2478.271560
957.602550	2475.118318
957.902724	2476.050932
958.202861	2477.313741
958.502960	2477.611169
958.803022	2478.271560
959.103045	2473.656384
959.403031	2477.444811
959.702979	2475.022536
960.002889	2477.228041
960.302762	2476.683597
960.602596	2477.311220
960.902393	2475.899697
961.202153	2473.653863
961.501875	2477.223000
961.801559	2476.507156
962.101205	2476.552527
962.400814	2474.833493
962.700385	2476.809625
962.999918	2476.633185
963.299414	2472.244861
963.598873	2473.298462
963.898293	2472.058338
964.197677	2476.134111
964.497022	2473.220324
964.796331	2477.696868
965.095601	2476.434059
965.394835	2477.618731
965.694030	2476.257619
965.993189	2476.068576
966.292309	2474.044553
966.591393	2476.423977
966.890439	2476.507156
967.189447	2478.417753
967.488419	2477.064204
967.787353	2475.791312
968.086249	2476.292907
968.385108	2478.425315
968.683930	2478.619400
968.982714	2476.824749
969.281462	2477.429687
969.580172	2476.522280
969.878844	2477.608648
970.177480	2476.338277
970.476078	2475.083030
970.774639	2475.113277
971.073162	2475.945067
971.371649	2474.518421
971.670098	2473.737042
971.968510	2475.637557
972.266885	2474.709985
972.565223	2475.778709
972.863524	2475.987917
973.161788	2474.662094
973.460014	2476.456745
973.758204	2476.928093
974.056356	2475.090592
974.354471	2477.646457
974.652550	2476.736529
974.950591	2476.799543
975.248595	2477.505305
975.546563	2473.747124
975.844493	2475.975314
976.142386	2475.186374
976.440243	2477.664101
976.738062	2475.909779
977.035845	2475.047742
977.333590	2478.952116
977.631299	2473.840386
977.928971	2473.588328
978.226606	2473.578246
978.524204	2473.648822
978.821765	2473.865592
979.119290	2475.912300
979.416777	2475.314923
979.714228	2478.299286
980.011642	2476.615541
980.309020	2477.553196
980.606360	2474.475571
980.903664	2473.437093
981.200931	2474.682258
981.498162	2476.996148
981.795356	2476.587815
982.092513	2476.915490
982.389633	2478.087558
982.686717	2476.920531
982.983764	2475.771148
983.280775	2475.312403
983.577749	2476.464306
983.874686	2472.214614
984.171587	2479.221818
984.468451	2474.170581
984.765279	2475.509008
985.062070	2474.077320
985.358824	2475.614872
985.655543	2473.890797
985.952224	2477.689307
986.248869	2475.577063
986.545478	2475.889615
986.842050	2474.979687
987.138586	2474.145376
987.435086	2477.522949
987.731549	2475.662763
988.027975	2476.250057
988.324366	2476.507156
988.620719	2477.338947
988.917037	2475.572022
989.213318	2475.594707
989.509563	2474.969604
989.805772	2477.038998
990.101944	2474.573874
990.398080	2476.126549
990.694180	2475.627475
990.990244	2477.006230
991.286271	2473.716878
991.582262	2474.215952
991.878217	2476.660911
992.174136	2478.407671
992.470019	2478.208546
992.765865	2475.193936
993.061676	2473.333750
993.357450	2474.709985
993.653188	2473.250571
993.948890	2475.085551
994.244556	2476.469347
994.540186	2475.662763
994.835780	2476.660911
995.131337	2474.210911
995.426859	2474.644450
995.722345	2477.308700
996.017795	2476.703761
996.313208	2478.654688
996.608586	2475.430870
996.903928	2476.691158
997.199234	2475.907259
997.494504	2476.141673
997.789738	2476.824749
998.084936	2478.372383
998.380099	2474.503297
998.675225	2474.271404
998.970316	2472.650673
999.265371	2476.179481
999.560390	2473.994141
999.855373	2477.182671
1000.150320	2475.556899
1000.445232	2472.819552
1000.740108	2475.453555
1001.034948	2474.891466
1001.329752	2474.563791
1001.624521	2474.299131
1001.919254	2472.902731
1002.213951	2474.906590
1002.508613	2475.017495
1002.803239	2475.314923
1003.097829	2475.672845
1003.392384	2474.437762
1003.686903	2476.567650
1003.981386	2474.914152
1004.275834	2473.505149
1004.570246	2478.362301
1004.864623	2474.934316
1005.158964	2476.222331
1005.453270	2476.522280
1005.747540	2477.069245
1006.041775	2474.168061
1006.335974	2473.447176
1006.630138	2475.002372
1006.924266	2476.623103
1007.218359	2473.895838
1007.512416	2473.069089
1007.806438	2470.109932
1008.100425	2473.694192
1008.394376	2470.919037
1008.688292	2475.221662
1008.982172	2474.704944
1009.276017	2474.654532
1009.569827	2474.808287
1009.863602	2473.694192
1010.157341	2473.989100
1010.451045	2477.094451
1010.744714	2473.069089
1011.038347	2475.635037
1011.331945	2474.258802
1011.625508	2477.550675
1011.919036	2471.889459
1012.212528	2475.360294
1012.505986	2474.311734
1012.799408	2474.324337
1013.092795	2474.964563
1013.386147	2476.829790
1013.679464	2473.079172
1013.972745	2476.000520
1014.265992	2473.905921
1014.559204	2476.108905
1014.852380	2475.249388
1015.145521	2475.423308
1015.438628	2474.462968
1015.731699	2473.492546
1016.024736	2472.322998
1016.317737	2476.605459
1016.610703	2475.478761
1016.903635	2476.771817
1017.196531	2474.314254
1017.489393	2475.763586
1017.782219	2474.679738
1018.075011	2475.987917
1018.367768	2473.704275
1018.660490	2476.176961
1018.953177	2476.176961
1019.245829	2476.176961
