Dividing Wavelength (nm)	Counts (n)	Blue Motor Position (mm): 43.800000	Red Motor Position (mm): 0.000000	
326.493990	2047.467155
326.888308	2047.467155
327.282561	2047.467155
327.676750	2022.377332
328.070874	2025.028979
328.464933	2030.344876
328.858929	2041.740404
329.252859	2051.605943
329.646726	2063.145144
330.040528	2081.958730
330.434265	2097.641759
330.827938	2118.111365
331.221547	2140.168933
331.615091	2160.570483
332.008571	2179.197546
332.401986	2199.505835
332.795338	2220.156921
333.188625	2239.824983
333.581847	2260.907088
333.975006	2279.206477
334.368100	2295.938067
334.761129	2311.979018
335.154095	2327.314208
335.546996	2380.745398
335.939833	2487.237252
336.332606	2496.656648
336.725315	2509.471261
337.117960	2520.682787
337.510540	2531.037317
337.903056	2538.962011
338.295508	2545.245809
338.687896	2553.041954
339.080220	2552.290822
339.472480	2561.301884
339.864676	2568.195662
340.256807	2567.323543
340.648875	2570.965776
341.040879	2573.118349
341.432818	2571.910993
341.824694	2574.267732
342.216506	2570.438976
342.608253	2571.207752
342.999937	2572.904100
343.391557	2568.261197
343.783113	2568.871177
344.174605	2567.076526
344.566033	2567.527709
344.957397	2564.404715
345.348697	2564.631567
345.739934	2560.293654
346.131106	2561.390105
346.522215	2555.295350
346.913260	2558.146122
347.304241	2555.239897
347.695159	2552.275698
348.086012	2551.746377
348.476802	2548.474668
348.867528	2547.446273
349.258191	2544.814791
349.648789	2546.178423
350.039324	2540.464275
350.429796	2546.226314
350.820203	2543.471323
351.210548	2543.990562
351.600828	2540.718853
351.991045	2541.311189
352.381198	2544.212373
352.771288	2543.196580
353.161314	2539.902186
353.551276	2536.567463
353.941175	2539.365303
354.331010	2540.670962
354.720782	2545.777651
355.110490	2546.372507
355.500135	2541.170037
355.889717	2541.109543
356.279235	2543.690613
356.668689	2540.310520
357.058080	2542.415202
357.447408	2542.042156
357.836672	2544.033412
358.225873	2544.903011
358.615010	2544.477033
359.004084	2545.016437
359.393095	2545.949050
359.782043	2547.287477
360.170927	2545.497867
360.559748	2545.891077
360.948505	2547.708413
361.337199	2550.826367
361.725830	2548.966181
362.114398	2549.762683
362.502903	2551.212015
362.891344	2555.151677
363.279722	2549.003990
363.668037	2553.606563
364.056289	2551.670760
364.444478	2551.438867
364.832603	2556.560679
365.220665	2555.433981
365.608665	2556.646379
365.996601	2556.661502
366.384474	2555.801986
366.772284	2557.591595
367.160031	2554.750905
367.547715	2557.669733
367.935336	2555.065977
368.322893	2557.420196
368.710388	2552.126984
369.097820	2555.938097
369.485189	2554.657644
369.872495	2562.660475
370.259738	2559.781977
370.646918	2561.972358
371.034035	2559.592933
371.421090	2560.830537
371.808081	2562.814231
372.195010	2559.928170
372.581875	2561.241391
372.968678	2563.688871
373.355418	2561.198541
373.742096	2561.886658
374.128710	2563.451937
374.515262	2563.285578
374.901751	2565.135682
375.288177	2565.748182
375.674540	2564.424879
376.060841	2565.259190
376.447079	2565.019735
376.833254	2567.976372
377.219367	2567.099211
377.605417	2567.096691
377.991404	2568.336815
378.377329	2569.811352
378.763191	2569.508883
379.148991	2572.707495
379.534727	2569.932340
379.920402	2574.108936
380.306013	2572.364697
380.691563	2575.719584
381.077049	2573.844275
381.462474	2571.626168
381.847835	2574.209759
382.233134	2578.832497
382.618371	2578.726633
383.003545	2578.343505
383.388657	2581.794175
383.773706	2583.210739
384.158693	2585.441450
384.543618	2591.498396
384.928480	2592.244487
385.313280	2595.037286
385.698017	2598.931577
386.082692	2603.539192
386.467305	2607.342742
386.851856	2611.226952
387.236344	2621.528549
387.620770	2622.020062
388.005133	2628.548356
388.389435	2641.234420
388.773674	2644.105357
389.157851	2659.536329
389.541965	2668.930519
389.926018	2678.009637
390.310008	2694.378264
390.693936	2702.025694
391.077802	2714.588249
391.461606	2733.147257
391.845348	2740.217476
392.229027	2755.643406
392.612645	2775.613937
392.996200	2794.714869
393.379694	2812.868064
393.763125	2838.131807
394.146494	2858.603932
394.529801	2878.415667
394.913047	2911.780544
395.296230	2922.442584
395.679351	2945.125256
396.062410	2977.807056
396.445408	2983.526245
396.828343	3016.278622
397.211217	3049.444373
397.594028	3052.146432
397.976778	3090.166814
398.359466	3120.849797
398.742092	3139.179432
399.124656	3165.859739
399.507158	3216.856051
399.889598	3238.913620
400.271977	3292.367495
400.654294	3302.913588
401.036549	3355.432329
401.418742	3374.646687
401.800874	3437.061213
402.182944	3474.547233
402.564952	3546.434087
402.946898	3564.375553
403.328783	3585.336671
403.710606	3637.915906
404.092367	3701.220195
404.474067	3767.513889
404.855705	3775.068058
405.237282	3774.979838
405.618797	3868.810834
406.000250	3940.306998
406.381642	4028.496944
406.762972	4042.493707
407.144240	4031.630021
407.525447	4104.416721
407.906593	4135.185403
408.287677	4216.794122
408.668700	4258.454218
409.049661	4302.781083
409.430560	4350.856047
409.811399	4355.141028
410.192176	4401.302874
410.572891	4483.307323
410.953545	4589.431173
411.334138	4511.938557
411.714669	4621.750011
412.095139	4560.449580
412.475547	4664.718286
412.855894	4681.316285
413.236180	4775.074184
413.616405	4723.851020
413.996568	4817.215710
414.376670	4835.590716
414.756711	4835.835212
415.136691	4904.427672
415.516609	4987.316844
415.896466	5029.402917
416.276262	5113.166729
416.655997	5221.735539
417.035670	5306.681502
417.415283	5438.979022
417.794834	5495.797867
418.174324	5458.795798
418.553753	5465.989525
418.933121	5615.784891
419.312428	5627.427436
419.691674	5572.035237
420.070859	5780.396208
420.449983	5674.726062
420.829045	5862.209094
421.208047	5784.880314
421.586988	5946.265293
421.965867	6014.393967
422.344686	6090.727118
422.723444	6243.920222
423.102141	5894.691768
423.480777	6252.689309
423.859352	6086.374082
424.237866	6432.151865
424.616319	6422.883704
424.994712	6573.160500
425.373044	6504.641137
425.751314	6786.197141
426.129524	6538.457197
426.507673	6787.780063
426.885762	6825.939077
427.263789	6859.107349
427.641756	6945.258148
428.019662	7008.015472
428.397508	7051.301339
428.775292	7049.360495
429.153016	7192.067999
429.530679	7141.290977
429.908282	7188.098090
430.285824	7130.099615
430.663305	7379.684622
431.040726	7291.282948
431.418086	7285.520909
431.795385	7421.687515
432.172624	7601.001358
432.549802	7481.548697
432.926920	7607.983356
433.303977	7566.477016
433.680974	7611.434026
434.057910	7795.542005
434.434786	7841.151845
434.811601	7808.119684
435.188355	8140.568657
435.565050	8032.546812
435.941683	8040.239613
436.318257	8355.778035
436.694770	8297.719066
437.071222	8510.624637
437.447614	8287.707335
437.823946	8258.357737
438.200218	8397.574242
438.576429	8300.630333
438.952580	8448.991490
439.328670	8462.063202
439.704700	8545.585039
440.080670	8440.993700
440.456580	8689.109210
440.832429	8670.676231
441.208218	8414.300790
441.583947	8536.349645
441.959616	8639.065675
442.335224	8668.594234
442.710773	8753.199919
443.086261	8931.014018
443.461689	8666.076178
443.837057	8816.325248
444.212365	9011.314558
444.587612	9006.885904
444.962800	8910.307479
445.337927	9041.027118
445.712995	8601.811548
446.088002	9235.595492
446.462949	9298.335173
446.837837	9307.968818
447.212664	9355.527063
447.587431	10264.361402
447.962139	11229.749925
448.336786	11969.471196
448.711374	11574.879920
449.085901	10435.243914
449.460369	10419.460062
449.834776	10329.966978
450.209124	11252.936712
450.583412	11022.767710
450.957640	11236.172355
451.331808	10825.802267
451.705917	10348.155461
452.079965	10271.542525
452.453954	10458.302152
452.827883	10420.848899
453.201752	10385.795236
453.575562	10402.673019
453.949311	10755.132852
454.323001	10835.176293
454.696632	10748.357541
455.070202	11337.053405
455.443713	11386.416384
455.817164	11542.982019
456.190556	11852.047600
456.563888	11685.107270
456.937160	11895.474620
457.310373	11404.335165
457.683526	11445.347472
458.056619	11480.985909
458.429653	11566.763663
458.802628	11730.177706
459.175542	11799.191102
459.548398	12342.970285
459.921194	12915.446236
460.293930	13242.929672
460.666607	14067.561618
461.039224	14798.987671
461.411782	15056.429316
461.784280	14656.872503
462.156719	14566.101487
462.529099	14473.442559
462.901419	13900.802770
463.273680	13548.988205
463.645882	13778.058235
464.018024	13731.989651
464.390106	14144.721519
464.762130	15309.003726
465.134094	16982.684447
465.505999	19257.391694
465.877845	21255.206005
466.249631	22131.073718
466.621358	21489.201243
466.993026	20648.425002
467.364634	19944.329564
467.736184	19242.749663
468.107674	18702.532055
468.479105	18555.043017
468.850477	18286.031924
469.221790	17871.505405
469.593043	17233.910349
469.964238	16895.759832
470.335373	17010.315012
470.706449	17869.935086
471.077467	19004.098919
471.448425	21333.260710
471.819324	22820.368328
472.190164	22314.092808
472.560945	20638.085595
472.931667	19234.656091
473.302330	18991.208689
473.672934	18534.384369
474.043479	18982.081680
474.413965	18788.829047
474.784393	18635.225090
475.154761	19255.430686
475.525070	19389.520337
475.895321	19232.397654
476.265513	19741.377752
476.635645	20330.267700
477.005719	20384.422295
477.375734	20767.721387
477.745691	21375.820652
478.115588	22022.464579
478.485427	23290.644967
478.855207	25163.572252
479.224928	26865.556532
479.594591	28038.978351
479.964194	27502.392894
480.333739	27884.827428
480.703226	28157.178285
481.072653	28660.582867
481.442022	29163.269084
481.811333	29463.242944
482.180584	28958.124370
482.549777	28754.612989
482.918912	28557.433297
483.287988	28516.897379
483.657005	28329.910901
484.025964	27981.869639
484.394864	28177.126131
484.763706	28128.325241
485.132489	27637.294171
485.501213	27710.940388
485.869879	27895.106341
486.238487	27855.737450
486.607036	28128.965468
486.975527	27849.748559
487.343959	28187.510908
487.712333	28510.275824
488.080648	28481.861360
488.448905	28905.693849
488.817104	28843.672533
489.185244	29736.052546
489.553326	30883.338503
489.921350	32814.158399
490.289315	35200.605342
490.657222	35869.634513
491.025070	36274.827336
491.392861	35893.821969
491.760593	35068.302780
492.128267	34080.705453
492.495883	33131.534322
492.863440	32301.425162
493.230939	31434.076999
493.598380	30929.621337
493.965763	30810.720682
494.333088	30367.129390
494.700354	30184.385043
495.067563	30170.153866
495.434713	30084.940722
495.801805	30385.955579
496.168839	30263.238771
496.535815	30113.297212
496.902733	30263.810942
497.269593	30108.258579
497.636395	30255.361968
498.003139	30549.344417
498.369825	30318.429324
498.736453	30731.070451
499.103023	30582.984036
499.469535	30684.512875
499.835989	30822.945480
500.202385	30695.031242
500.568723	30767.535638
500.935003	31096.614599
501.301226	31005.578922
501.667390	31692.320187
502.033497	31894.462895
502.399546	31694.825641
502.765537	31302.578501
503.131470	31782.002314
503.497345	32215.176061
503.863163	31208.583667
504.228923	31983.484630
504.594625	32368.144833
504.960269	31884.725906
505.325856	32551.516805
505.691385	32240.477612
506.056856	32557.588874
506.422270	33046.820252
506.787625	32602.069495
507.152924	33062.679722
507.518164	33253.910852
507.883347	32831.321008
508.248472	33004.391381
508.613540	33690.222718
508.978550	33924.676701
509.343503	33781.097077
509.708398	34147.636853
510.073236	34760.489926
510.438016	34868.133684
510.802738	34564.257972
511.167403	35123.904186
511.532010	35381.330707
511.896561	35871.477055
512.261053	36608.811340
512.625488	36406.320793
512.989866	36335.374114
513.354186	36405.877171
513.718449	36364.786726
514.082655	37249.680625
514.446803	36969.992369
514.810894	37590.296267
515.174927	37606.642209
515.538904	37597.001002
515.902822	38251.529294
516.266684	37940.477499
516.630488	38315.400713
516.994235	38326.511416
517.357925	38924.104917
517.721558	39178.234523
518.085133	39560.016227
518.448651	39748.840206
518.812112	39652.223972
519.175516	39809.712139
519.538863	40237.509496
519.902152	40312.476494
520.265385	40867.333613
520.628560	40877.952804
520.991678	40835.145846
521.354739	41073.463873
521.717743	41429.502925
522.080690	41349.300688
522.443580	42016.348686
522.806413	42046.540156
523.169189	42197.948691
523.531908	42424.183073
523.894569	42296.440235
524.257174	42477.331958
524.619722	42826.144516
524.982213	42954.688898
525.344647	42994.324970
525.707025	43122.004794
526.069345	43571.443824
526.431608	43472.034791
526.793815	43864.929719
527.155964	43430.057103
527.518057	43686.382132
527.880093	43522.592523
528.242072	44159.633052
528.603995	43910.763890
528.965860	43836.676572
529.327669	44048.092482
529.689421	44106.443838
530.051117	44067.687447
530.412755	44354.156056
530.774337	44408.885342
531.135862	44353.689749
531.497331	44495.078991
531.858743	44502.353376
532.220098	44907.679789
532.581396	44633.176359
532.942638	44411.461372
533.303824	44653.172096
533.664953	44707.004057
534.026025	44381.920210
534.387040	44963.513088
534.747999	45035.410025
535.108902	45351.079517
535.469748	44682.183936
535.830537	44937.125169
536.191270	45182.808322
536.551947	44915.218835
536.912567	45199.388677
537.273131	45349.625144
537.633638	44972.388040
537.994089	45182.863775
538.354483	44920.133960
538.714821	45576.640904
539.075103	45845.984713
539.435328	45721.206073
539.795497	45462.068080
540.155609	45587.862513
540.515665	46160.519946
540.875665	45484.450803
541.235609	45762.319203
541.595496	45880.070475
541.955328	46459.087323
542.315102	45900.020841
542.674821	45777.407377
543.034483	45668.082394
543.394090	45691.735488
543.753640	45682.520259
544.113134	46731.060094
544.472571	45840.938518
544.831953	46973.988257
545.191278	46247.721825
545.550548	45921.632268
545.909761	46573.541680
546.268918	46712.112917
546.628019	47124.393602
546.987064	46558.718168
547.346053	45833.991808
547.704986	46754.566994
548.063863	46409.583193
548.422684	46613.414687
548.781449	46199.639300
549.140158	46745.034173
549.498811	46504.306473
549.857408	45910.035093
550.215949	46732.229642
550.574434	46585.317816
550.932864	46505.624735
551.291237	47230.323368
551.649555	46985.154412
552.007817	47151.358734
552.366022	46833.539190
552.724173	46901.040240
553.082267	47305.645768
553.440305	47632.546951
553.798288	46896.006648
554.156215	47292.289231
554.514086	47492.793564
554.871902	47116.320194
555.229661	47305.060994
555.587365	46981.025708
555.945014	47119.294475
556.302606	47123.415618
556.660143	47215.998929
557.017625	47451.657748
557.375050	47149.899320
557.732421	47561.386023
558.089735	47623.064541
558.446994	47479.875607
558.804197	47967.907190
559.161345	47819.006629
559.518437	47176.854370
559.875474	47425.458872
560.232455	47669.498609
560.589381	47715.794045
560.946251	47518.725259
561.303065	48182.138585
561.659825	47851.093573
562.016528	47663.421498
562.373177	47243.584123
562.729770	47879.109786
563.086307	47406.781397
563.442789	47940.934497
563.799216	47792.447310
564.155587	47680.218623
564.511904	47652.222575
564.868164	47708.683498
565.224370	48028.617806
565.580520	47754.278214
565.936615	47939.666646
566.292654	47597.155531
566.648638	47957.547619
567.004567	47898.727436
567.360441	47993.546499
567.716260	47712.913026
568.072023	48061.854133
568.427732	48020.741003
568.783385	47563.457938
569.138982	47950.447154
569.494525	48092.411087
569.850013	47697.754276
570.205445	47798.448804
570.560823	47590.964994
570.916145	47465.760376
571.271412	47708.938076
571.626625	47355.253243
571.981782	47438.472610
572.336884	47027.260650
572.691931	47347.318467
573.046923	47002.432967
573.401860	46861.555402
573.756743	46861.298304
574.111570	47007.988319
574.466342	46912.171108
574.821059	47076.800069
575.175722	46570.219560
575.530330	46682.463371
575.884882	46308.014025
576.239380	46206.412090
576.593823	46289.795295
576.948211	46226.344812
577.302544	45782.468695
577.656823	45769.013856
578.011047	46034.544032
578.365216	45862.958278
578.719330	45586.619868
579.073389	45562.064408
579.427394	45617.312934
579.781344	45545.746193
580.135239	45289.229600
580.489080	45356.244179
580.842866	44842.122104
581.196597	45332.059243
581.550273	45331.489593
581.903895	45271.900634
582.257463	45717.026957
582.610975	45143.535213
582.964434	45470.310367
583.317837	44980.781561
583.671186	44939.431497
584.024481	45211.096757
584.377721	44749.417805
584.730906	44979.939688
585.084037	45104.345283
585.437113	44799.594930
585.790135	44926.697542
586.143103	44480.008461
586.496016	44632.253828
586.848874	44742.879429
587.201679	44774.565601
587.554428	44267.864105
587.907124	44548.099326
588.259765	44321.756560
588.612352	44479.708513
588.964884	43919.202781
589.317362	44248.755611
589.669786	44258.366571
590.022155	44098.708187
590.374470	44553.137960
590.726731	44116.206032
591.078937	43471.618896
591.431090	43798.424297
591.783188	43331.275693
592.135232	43140.883915
592.487222	43374.175912
592.839157	43540.284452
593.191038	43177.843135
593.542866	42992.757171
593.894639	42391.960018
594.246358	42679.547762
594.598022	42672.911083
594.949633	42266.417643
595.301190	42240.801020
595.652692	42184.123327
596.004141	42650.170438
596.355535	41563.325395
596.706876	41588.679879
597.058162	41302.244038
597.409395	41806.354381
597.760573	42021.324305
598.111698	41622.153140
598.462768	41537.066025
598.813785	41562.634757
599.164748	41145.507003
599.515657	41436.134563
599.866511	40933.201329
600.217312	41629.853503
600.568060	40562.280791
600.918753	41402.263051
601.269392	41299.441156
601.619978	41028.186750
601.970510	41231.292318
602.320988	41374.120809
602.671412	41631.731333
603.021783	41503.214677
603.372100	41073.110993
603.722363	41182.471263
604.072572	41205.332896
604.422728	41199.376773
604.772830	40982.894503
605.122878	41146.487507
605.472872	41009.269820
605.822813	41266.207349
606.172701	41027.400330
606.522534	41344.262055
606.872314	41545.862838
607.222041	41368.058822
607.571714	41717.050341
607.921333	41197.390558
608.270899	41421.684096
608.620411	41810.858652
608.969870	41537.968392
609.319276	41566.297156
609.668627	41603.881478
610.017926	41992.720798
610.367171	42127.634677
610.716362	42177.118644
611.065500	42053.771691
611.414585	42274.710341
611.763616	42468.056235
612.112594	42348.394366
612.461518	42488.208247
612.810389	42857.445040
613.159207	42654.286540
613.507971	42635.714930
613.856682	43130.282369
614.205340	42952.639669
614.553945	43657.519006
614.902496	42961.370948
615.250994	43399.923606
615.599439	43460.556084
615.947830	43575.529679
616.296169	43591.177421
616.644454	43603.321561
616.992686	43768.772230
617.340864	44225.415069
617.688990	43764.580510
618.037063	44429.972489
618.385082	44263.924443
618.733048	44590.394607
619.080961	44453.287825
619.428821	44479.267412
619.776628	44500.646945
620.124382	44312.644674
620.472083	44413.850879
620.819731	44511.866033
621.167326	44069.840020
621.514868	44061.055809
621.862357	43523.676371
622.209793	43619.488541
622.557176	43179.436139
622.904506	42937.042339
623.251783	42557.824062
623.599007	42250.933739
623.946179	42181.534694
624.293297	41919.619026
624.640363	41356.396112
624.987376	41209.622918
625.334336	40995.008396
625.681243	40585.626374
626.028097	40525.145131
626.374899	40329.298825
626.721647	40304.493827
627.068343	40098.421540
627.414987	39800.403648
627.761577	39551.526924
628.108115	39881.336853
628.454600	39115.081468
628.801032	39347.408084
629.147412	39239.373637
629.493739	39157.830453
629.840014	38710.586845
630.186236	39143.997527
630.532405	38595.451933
630.878521	38823.148249
631.224585	38602.910320
631.570597	38259.469111
631.916556	38423.286447
632.262462	38325.049482
632.608316	38258.866693
632.954117	38107.269115
633.299866	38067.297806
633.645562	37976.362952
633.991206	37443.674308
634.336797	37050.754174
634.682336	36934.608510
635.027823	36694.258897
635.373257	36580.734633
635.718639	36249.966886
636.063968	36145.428478
636.409245	35479.219833
636.754470	35446.734637
637.099642	35215.393567
637.444762	34651.694264
637.789829	34792.569309
638.134845	34402.389042
638.479808	34332.513609
638.824719	34272.894403
639.169577	33767.019655
639.514383	33868.389697
639.859137	33479.570542
640.203839	33652.441790
640.548489	33360.251472
640.893086	33339.633153
641.237632	33084.500357
641.582125	33186.886191
641.926566	32982.157372
642.270955	33008.658718
642.615292	32935.035186
642.959576	32820.898422
643.303809	32844.163347
643.647990	32910.220107
643.992118	32872.610578
644.336195	32714.557802
644.680219	32818.019923
645.024192	33013.397402
645.368112	33543.822569
645.711981	33561.368305
646.055797	34284.635250
646.399562	34095.342444
646.743274	34967.068849
647.086935	35359.515114
647.430544	35313.920398
647.774101	35372.589347
648.117606	35648.922715
648.461059	35783.793745
648.804460	35385.920678
649.147810	34873.578130
649.491108	34530.817478
649.834354	34380.938932
650.177548	33558.930907
650.520690	33061.467325
650.863781	33047.563822
651.206820	32856.478886
651.549807	32465.474391
651.892742	31879.044526
652.235626	31784.326286
652.578458	31654.526657
652.921238	30960.730297
653.263967	31274.290066
653.606644	30987.342548
653.949269	30891.059030
654.291843	30497.619658
654.634365	30867.847037
654.976836	30399.619627
655.319255	30474.122840
655.661622	30351.285044
656.003938	30214.445443
656.346203	30032.268226
656.688416	30278.672264
657.030577	30044.926563
657.372687	29880.337931
657.714746	30033.641940
658.056753	30221.152698
658.398708	29618.291192
658.740612	29671.356898
659.082465	29895.254705
659.424266	29768.618400
659.766016	29788.178077
660.107715	29649.150616
660.449362	29751.370092
660.790958	29721.738190
661.132503	29656.188066
661.473996	29741.398690
661.815438	29809.255141
662.156829	29926.396433
662.498168	29731.104654
662.839456	29715.696367
663.180693	29836.225314
663.521879	29925.667986
663.863013	29890.833613
664.204097	29866.981394
664.545129	30266.018968
664.886110	30206.150225
665.227040	30317.781535
665.567918	30317.849591
665.908746	30391.798277
666.249522	30475.310031
666.590248	30503.031336
666.930922	30600.504567
667.271545	30596.529617
667.612118	30657.756951
667.952639	30464.002723
668.293109	30501.730719
668.633528	30362.194101
668.973896	30323.004171
669.314213	30295.108946
669.654480	30112.896440
669.994695	30101.949575
670.334859	30010.981953
670.674973	29839.002990
671.015035	30041.324658
671.355047	29970.821601
671.695008	29893.407122
672.034918	29813.169597
672.374777	29906.229297
672.714585	29777.198444
673.054342	29908.850697
673.394049	29765.006413
673.733705	29997.272536
674.073310	29702.891836
674.412864	29771.302814
674.752368	29462.983325
675.091820	29685.336018
675.431223	29268.684652
675.770574	29071.295753
676.109875	28923.579863
676.449125	28704.145998
676.788324	28604.444578
677.127473	28126.212997
677.466571	28034.521971
677.805619	27761.490558
678.144616	27683.030039
678.483562	27626.117933
678.822458	27313.543709
679.161303	27269.254652
679.500098	27177.563626
679.838842	27115.212114
680.177535	27208.019757
680.516179	27441.883925
680.854771	27574.677999
681.193314	28330.863679
681.531805	29360.761327
681.870247	30096.026219
682.208638	30824.198207
682.546978	31095.472778
682.885268	31220.571531
683.223508	30793.086726
683.561697	30523.679903
683.899836	30354.627329
684.237925	29949.116913
684.575963	29807.785645
684.913951	29434.699931
685.251889	29612.566962
685.589776	29627.652615
685.927614	29651.628343
686.265401	29823.768623
686.603137	29937.247517
686.940824	30443.102099
687.278460	30778.797575
687.616046	30955.149740
687.953582	31619.525926
688.291068	31532.074509
688.628504	31869.486498
688.965889	31857.685157
689.303224	31587.179362
689.640510	31303.105302
689.977745	30665.449752
690.314930	29930.923389
690.652065	29494.215793
690.989150	28818.285283
691.326185	27971.830182
691.663170	27338.504983
692.000105	26607.124300
692.336990	25992.363151
692.673825	25576.856127
693.010610	25076.582102
693.347345	24571.468569
693.684030	23956.064672
694.020665	23752.069340
694.357251	23086.344646
694.693786	23085.094439
695.030272	22858.464327
695.366707	22355.455476
695.703093	22077.367786
696.039429	22141.808855
696.375716	21913.623547
696.711952	21923.292480
697.048139	21781.341149
697.384276	21626.003035
697.720363	21741.311867
698.056400	21630.590485
698.392388	21463.226698
698.728326	21464.124023
699.064214	21311.520734
699.400053	21319.130356
699.735842	20928.135943
700.071581	20721.010055
700.407270	20479.180864
700.742910	20305.495470
701.078501	20055.721420
701.414042	19846.916828
701.749533	19540.742349
702.084974	19228.110152
702.420366	19463.532037
702.755709	19050.790086
703.091002	18745.822964
703.426246	18817.901382
703.761440	18741.411954
704.096584	18496.374069
704.431679	18434.960212
704.766725	18390.706443
705.101721	18315.767170
705.436668	18436.039019
705.771565	18165.538265
706.106413	18479.680288
706.441212	18547.987922
706.775961	18649.516761
707.110661	18729.603051
707.445311	19101.249516
707.779913	18971.316296
708.114465	19267.045504
708.448967	19581.648792
708.783421	20204.463185
709.117825	20577.944630
709.452180	20808.098508
709.786485	21268.214702
710.120742	22015.729598
710.454949	22135.010859
710.789107	22642.579434
711.123216	23368.467779
711.457275	23576.012083
711.791286	24139.887826
712.125247	24284.783191
712.459159	24017.536502
712.793023	24766.362097
713.126837	23746.017435
713.460602	23996.915662
713.794318	23656.214320
714.127985	23381.579821
714.461602	22485.534889
714.795171	22457.705199
715.128691	21485.990028
715.462162	20960.694235
715.795584	20535.036849
716.128957	20248.530432
716.462281	19885.075842
716.795556	19602.599827
717.128782	19133.999372
717.461960	18521.962966
717.795088	18485.800248
718.128167	18146.298702
718.461198	17695.291873
718.794180	17559.954536
719.127113	17236.869507
719.459997	17036.851645
719.792833	16677.760175
720.125619	16708.919547
720.458357	16378.429062
720.791046	16237.483442
721.123686	16093.263592
721.456278	15871.167998
721.788821	15859.089393
722.121315	15596.528457
722.453761	15705.205651
722.786158	15587.729122
723.118506	15666.557645
723.450805	15557.159566
723.783056	15729.955196
724.115259	15623.917045
724.447412	15621.978722
724.779518	15838.080384
725.111574	15883.236520
725.443582	16150.478168
725.775542	16104.800273
726.107453	16631.605891
726.439315	16542.107766
726.771129	16963.402034
727.102895	17390.208804
727.434612	17657.584042
727.766281	17822.608734
728.097901	18141.093710
728.429473	18232.124346
728.760996	18233.636692
729.092471	18365.755252
729.423897	18253.539167
729.755276	18122.733828
730.086606	18234.206342
730.417887	18812.852666
730.749120	19369.769096
731.080305	19585.895964
731.411442	19989.170628
731.742530	20090.681822
732.073570	20259.835219
732.404562	20585.120712
732.735506	20429.427196
733.066401	20218.679239
733.397249	19724.270596
733.728048	19110.487430
734.058798	18237.783041
734.389501	17473.602091
734.720156	16959.878267
735.050762	16380.894186
735.381320	16008.133627
735.711831	15736.869138
736.042293	15364.214443
736.372707	15394.562189
736.703073	15190.428226
737.033391	15389.974739
737.363661	15385.440222
737.693883	15511.184243
738.024056	15711.370982
738.354182	15932.617142
738.684260	16286.228879
739.014290	16569.382929
739.344272	16793.855427
739.674207	17145.549005
740.004093	17322.967373
740.333931	17371.286833
740.663722	17457.704812
740.993464	17495.442890
741.323159	17333.150504
741.652806	17035.858538
741.982405	16876.459774
742.311956	16513.342942
742.641460	16399.125519
742.970915	16076.063175
743.300323	15726.801954
743.629683	15510.594427
743.958996	15198.972982
744.288260	14887.535538
744.617477	14577.108846
744.946647	14540.212641
745.275768	14226.773860
745.604842	14021.248538
745.933869	13846.711189
746.262847	13817.976612
746.591778	13741.507349
746.920662	13613.086476
747.249498	13631.438796
747.578286	13783.273309
747.907027	13951.930152
748.235720	14224.086925
748.564365	14304.274038
748.892963	14223.839908
749.221514	14320.163755
749.550017	14196.050548
749.878473	14157.304239
750.206881	13936.403398
750.535242	13865.497049
750.863555	13788.500986
751.191821	13681.459645
751.520039	13701.815825
751.848210	13631.648004
752.176334	13676.300024
752.504411	13601.978293
752.832440	13417.295622
753.160421	13541.255075
753.488356	13428.660903
753.816243	13332.256398
754.144082	13175.758818
754.471875	13115.630455
754.799620	13087.238677
755.127318	13066.300244
755.454969	13053.967062
755.782572	13019.256197
756.110129	13035.728167
756.437638	12940.362139
756.765100	12941.110750
757.092515	12977.964106
757.419882	13007.807736
757.747203	13022.227957
758.074477	13116.757153
758.401703	13099.496242
758.728882	13302.087613
759.056014	13340.831401
759.383099	13505.470444
759.710138	13636.605979
760.037129	13755.113424
760.364073	13814.231035
760.690970	13841.664994
761.017820	13859.346841
761.344623	14088.787397
761.671379	14462.657010
761.998088	15160.017466
762.324751	16925.553051
762.651366	20325.362657
762.977935	24798.476767
763.304456	27781.665256
763.630931	28838.593571
763.957359	27633.772925
764.283740	25365.198242
764.610074	23115.530406
764.936362	20485.620938
765.262602	18610.331872
765.588796	16681.067172
765.914943	15391.136725
766.241044	14293.707780
766.567097	13497.593641
766.893104	12787.458902
767.219064	12315.236377
767.544978	11838.796927
767.870845	11450.396188
768.196665	11225.643905
768.522438	11002.323310
768.848165	10792.301279
769.173846	10582.911913
769.499479	10462.614859
769.825066	10292.029775
770.150607	10059.451101
770.476101	9979.994954
770.801548	9857.031130
771.126949	9702.068581
771.452303	9588.380480
771.777611	9382.492195
772.102872	9380.647132
772.428087	9236.661696
772.753256	9080.181760
773.078378	8987.434612
773.403453	8809.587745
773.728482	8695.869397
774.053465	8623.002039
774.378401	8523.361112
774.703291	8397.619612
775.028135	8278.499667
775.352932	8237.908296
775.677683	8137.521279
776.002388	8028.962552
776.327046	8042.092237
776.651658	7945.768390
776.976224	7841.461876
777.300743	7842.883481
777.625216	7755.699246
777.949643	7701.983231
778.274024	7723.657672
778.598359	7637.708519
778.922647	7653.726786
779.246889	7606.418078
779.571086	7616.656661
779.895236	7624.157898
780.219339	7631.023949
780.543397	7635.238354
780.867409	7719.463432
781.191374	7727.481387
781.515294	7689.811365
781.839167	7783.077752
782.162995	7756.420131
782.486776	7703.515742
782.810511	7654.215778
783.134201	7563.439720
783.457844	7564.087509
783.781441	7506.351174
784.104993	7439.941533
784.428498	7420.822958
784.751958	7400.305461
785.075372	7371.911162
785.398739	7317.897719
785.722061	7364.508228
786.045337	7367.442179
786.368568	7523.113010
786.691752	7548.704428
787.014891	7892.866521
787.337983	8249.177796
787.661030	8837.697219
787.984031	9467.501172
788.306987	9883.136745
788.629897	10085.597045
788.952760	10028.654692
789.275579	9807.068254
789.598351	9408.625536
789.921078	9061.902537
790.243759	8642.453331
790.566395	8353.338117
790.888984	8098.031401
791.211529	7894.315853
791.534027	7664.207345
791.856480	7468.751728
792.178888	7394.087198
792.501249	7292.124820
792.823566	7141.858107
793.145836	7140.756614
793.468062	7113.879703
793.790241	7068.163999
794.112375	7131.624564
794.434464	7287.378574
794.756507	7325.648493
795.078505	7486.108420
795.400457	7802.420660
795.722364	8148.311869
796.044226	8434.992206
796.366042	8714.287252
796.687812	8662.547370
797.009538	8746.457376
797.331218	8636.774471
797.652852	8552.763642
797.974442	8397.712873
798.295986	8314.294380
798.617484	8120.305739
798.938938	7975.748132
799.260346	7877.216259
799.581709	7673.624220
799.903026	7595.224195
800.224299	7491.187383
800.545526	7320.072977
800.866708	7226.128555
801.187845	7152.663820
801.508936	7051.160187
801.829983	7009.207705
802.150984	6857.526947
802.471940	6817.694270
802.792851	6801.280273
803.113717	6769.057218
803.434538	6738.195274
803.755314	6675.513567
804.076045	6683.765936
804.396731	6625.200331
804.717372	6662.320868
805.037967	6658.615619
805.358518	6702.962650
805.679024	6785.733355
805.999485	6792.647297
806.319901	6834.503998
806.640272	6859.311516
806.960598	6938.334123
807.280879	6944.449043
807.601115	7023.995930
807.921306	6964.568287
808.241453	6981.110834
808.561554	7005.164699
808.881611	6969.647250
809.201623	6980.911708
809.521590	6917.879641
809.841513	6897.977166
810.161390	6936.731036
810.481223	6805.351005
810.801011	6792.153264
811.120755	6771.857579
811.440453	6692.209869
811.760107	6660.322050
812.079716	6630.206197
812.399281	6562.949643
812.718801	6546.724689
813.038276	6505.702300
813.357707	6447.240039
813.677093	6491.415670
813.996434	6388.424897
814.315731	6432.993738
814.634983	6425.172388
814.954191	6439.403565
815.273354	6541.817126
815.592473	6609.963444
815.911547	6735.044553
816.230577	6814.447767
816.549562	6962.138451
816.868502	7065.590490
817.187399	7162.935171
817.506250	7317.703635
817.825058	7349.891402
818.143821	7618.355530
818.462539	7886.832260
818.781213	8256.719362
819.099843	8805.978279
819.418429	9807.539602
819.736970	10770.621797
820.055466	11959.872839
820.373919	13495.541892
820.692327	15823.357694
821.010691	19966.175405
821.329011	28963.722571
821.647286	42006.914166
821.965517	55504.744742
822.283704	60912.463569
822.601847	62918.704168
822.919945	60230.760937
823.237999	56080.547855
823.556010	49930.340162
823.873976	43168.103626
824.191897	36612.269571
824.509775	31764.065889
824.827609	27206.482205
825.145398	24593.145530
825.463144	23210.997257
825.780845	23505.942565
826.098502	25277.260354
826.416116	29062.410719
826.733685	32726.722107
827.051210	33899.513781
827.368692	32140.471202
827.686129	28172.233691
828.003522	24033.930334
828.320872	20313.979732
828.638177	17462.088096
828.955439	15295.619463
829.272656	13474.333757
829.589830	11993.429280
829.906960	10717.997192
830.224046	9771.737327
830.541088	9020.179427
830.858086	8557.751864
831.175041	8175.282042
831.491952	8060.741986
831.808819	8100.678006
832.125642	8495.528902
832.442421	9385.484120
832.759157	11179.827378
833.075849	14100.500518
833.392497	17337.233838
833.709101	19544.805519
834.025662	19398.470905
834.342179	17706.848718
834.658653	15497.653786
834.975083	13562.997571
835.291469	11935.738315
835.607811	10617.070772
835.924110	9701.569507
836.240366	8831.173966
836.556578	8027.639249
836.872746	7379.813171
837.188871	6873.673763
837.504952	6458.703623
837.820990	6144.107896
838.136984	5919.053144
838.452935	5824.372713
838.768842	5858.135841
839.084706	6276.939779
839.400526	7480.863100
839.716303	9075.087674
840.032037	10180.343011
840.347727	10108.536816
840.663373	9136.930029
840.978977	8080.742763
841.294537	7272.870133
841.610054	6671.117681
841.925527	6235.730867
842.240957	5874.302822
842.556344	5543.409045
842.871687	5255.639819
843.186987	4974.550122
843.502244	4748.547633
843.817458	4584.654680
844.132629	4447.709215
844.447756	4354.687324
844.762840	4274.744706
845.077881	4202.041186
845.392879	4136.385198
845.707833	4087.727981
846.022745	4039.380795
846.337613	4013.139069
846.652438	3969.959065
846.967221	3950.538020
847.281960	3921.455604
847.596656	3903.075557
847.911309	3884.955129
848.225919	3860.503012
848.540485	3844.547761
848.855009	3834.427644
849.169490	3813.053152
849.483928	3796.344248
849.798323	3789.984832
850.112675	3770.452881
850.426984	3776.840023
850.741251	3762.855863
851.055474	3759.299328
851.369654	3762.303856
851.683792	3759.874020
851.997887	3768.728807
852.311938	3767.828961
852.625947	3771.650155
852.939914	3760.219339
853.253837	3766.150257
853.567718	3766.455246
853.881555	3756.655243
854.195350	3770.228550
854.509103	3766.576234
854.822812	3763.087756
855.136479	3754.979060
855.450103	3768.257459
855.763685	3755.306735
856.077224	3755.702465
856.390720	3775.925054
856.704173	3795.197385
857.017584	3809.627688
857.330953	3819.853668
857.644278	3837.550639
857.957561	3850.471116
858.270802	3845.989531
858.584000	3848.056404
858.897155	3838.861339
859.210268	3822.429698
859.523339	3800.152839
859.836367	3801.196358
860.149352	3792.752425
860.462295	3787.905356
860.775195	3775.914972
861.088054	3771.503962
861.400869	3769.578241
861.713642	3767.118158
862.026373	3781.918986
862.339062	3786.836631
862.651708	3806.431596
862.964312	3840.998788
863.276873	3852.056559
863.589392	3910.216351
863.901869	3956.549596
864.214303	4002.862677
864.526696	4033.979199
864.839045	4083.586673
865.151353	4106.828913
865.463619	4118.451293
865.775842	4124.263743
866.088023	4144.098163
866.400162	4130.986122
866.712258	4138.865446
867.024313	4139.649345
867.336325	4140.665138
867.648296	4148.456241
867.960224	4146.656549
868.272110	4155.536541
868.583954	4161.532994
868.895755	4173.999767
869.207515	4167.433664
869.519233	4212.355386
869.830909	4225.049012
870.142542	4249.286879
870.454134	4265.176596
870.765684	4293.064259
871.077191	4327.129857
871.388657	4354.072303
871.700081	4394.535125
872.011463	4434.367802
872.322803	4473.930777
872.634101	4504.417155
872.945357	4546.223444
873.256571	4595.165486
873.567744	4627.761587
873.878874	4643.258094
874.189963	4684.668652
874.501010	4690.922203
874.812015	4691.433880
875.122979	4735.584306
875.433900	4731.742947
875.744780	4747.536882
876.055618	4774.285244
876.366415	4772.725007
876.677169	4794.301145
876.987882	4840.485676
877.298554	4894.073142
877.609183	4975.739834
877.919771	5079.685906
878.230317	5226.239810
878.540822	5438.495072
878.851285	5766.497747
879.161707	6225.421708
879.472087	6986.383881
879.782425	8223.268786
880.092722	10412.654504
880.402977	13739.143048
880.713191	17519.030449
881.023363	21285.498298
881.333494	23545.838257
881.643583	24778.286946
881.953631	24784.878255
882.263637	23926.609210
882.573602	22443.141306
882.883526	20875.972604
883.193408	19168.006996
883.503248	17463.638251
883.813048	15910.829275
884.122806	14466.702536
884.432522	12988.580776
884.742197	11708.087369
885.051831	10609.395615
885.361424	9598.732489
885.670975	8775.207076
885.980485	8077.864265
886.289954	7494.806931
886.599382	7018.385125
886.908768	6641.997456
887.218113	6271.248317
887.527417	5982.796014
887.836680	5715.733328
888.145901	5491.165047
888.455082	5330.127908
888.764221	5178.154764
889.073319	5041.756264
889.382376	4973.131037
889.691392	4909.957817
890.000366	4880.330956
890.309300	4869.137074
890.618193	4867.274368
890.927044	4857.973439
891.235855	4877.906161
891.544625	4907.656531
891.853353	4969.138443
892.162041	5085.107667
892.470687	5276.421976
892.779293	5525.875912
893.087858	5897.963477
893.396381	6481.850080
893.704864	7285.410003
894.013306	8450.581974
894.321707	9631.890678
894.630068	10463.376073
894.938387	10668.114975
895.246665	10432.869531
895.554903	9820.505450
895.863100	9128.924677
896.171256	8558.102224
896.479371	8048.512146
896.787446	7548.076804
897.095480	7121.532174
897.403473	6796.902031
897.711425	6474.842877
898.019336	6204.821032
898.327207	5934.156441
898.635038	5699.021902
898.942827	5451.634839
899.250576	5255.065127
899.558284	5067.360284
899.865952	4938.193320
900.173579	4788.811329
900.481165	4681.613713
900.788711	4592.607100
901.096216	4515.134648
901.403681	4451.245585
901.711105	4426.848921
902.018489	4412.093463
902.325832	4480.232219
902.633135	4603.828709
902.940397	4945.359320
903.247619	5740.868521
903.554800	7188.430806
903.861941	9121.017627
904.169041	10664.553400
904.476101	11301.427571
904.783121	10954.157606
905.090100	10205.500889
905.397039	9364.893527
905.703938	8603.896066
906.010796	7904.935044
906.317614	7340.948395
906.624391	6807.574154
906.931129	6378.508947
907.237826	5975.675384
907.544483	5596.930975
907.851099	5216.890990
908.157675	4862.129870
908.464211	4535.677350
908.770707	4296.267913
909.077163	4092.660750
909.383578	3949.779327
909.689954	3832.615349
909.996289	3761.477107
910.302584	3696.564689
910.608839	3663.658558
910.915054	3630.013897
911.221229	3617.668111
911.527363	3630.795276
911.833458	3644.925630
912.139513	3669.591996
912.445527	3700.726162
912.751502	3784.580715
913.057436	3884.801374
913.363331	4022.475286
913.669186	4226.866348
913.975000	4487.032736
914.280775	4907.265841
914.586510	5496.516232
914.892205	6293.250433
915.197859	7335.413208
915.503475	8569.918689
915.809050	9636.858736
916.114585	10300.388008
916.420081	10565.827443
916.725536	10530.274705
917.030952	10084.417415
917.336328	9666.944342
917.641665	9259.661961
917.946961	8776.953836
918.252218	8350.293260
918.557435	7837.008016
918.862612	7399.289669
919.167750	7021.303953
919.472848	6595.376865
919.777906	6217.549946
920.082925	5860.777406
920.387904	5483.147092
920.692843	5218.940219
920.997743	4971.477538
921.302603	4734.692022
921.607423	4571.809820
921.912204	4402.248090
922.216946	4281.025984
922.521647	4162.604239
922.826310	4054.700862
923.130932	3959.473465
923.435516	3860.669371
923.740059	3791.207312
924.044564	3717.165365
924.349028	3658.708145
924.653454	3589.407403
924.957840	3521.399717
925.262186	3473.113025
925.566493	3415.016247
925.870761	3353.128522
926.174989	3317.875733
926.479178	3282.010444
926.783328	3238.293558
927.087438	3210.484033
927.391509	3176.514217
927.695541	3146.279897
927.999533	3117.706637
928.303486	3098.416662
928.607400	3080.334043
928.911275	3069.092270
929.215110	3048.511760
929.518906	3041.156716
929.822663	3043.029505
930.126381	3039.346942
930.430060	3046.391954
930.733699	3047.140566
931.037299	3059.730847
931.340861	3056.922925
931.644383	3065.291240
931.947866	3065.369378
932.251309	3054.881258
932.554714	3061.495251
932.858080	3051.511246
933.161407	3042.018753
933.464694	3036.002136
933.767943	3029.471322
934.071153	3024.591485
934.374323	3012.202849
934.677455	3009.105060
934.980548	3000.877897
935.283602	2996.429079
935.586617	2993.797596
935.889593	3004.862929
936.192530	3008.815194
936.495428	3021.471010
936.798287	3043.379865
937.101108	3077.793302
937.403890	3128.824902
937.706632	3188.028213
938.009336	3269.999895
938.312002	3342.831965
938.614628	3407.147006
938.917216	3457.117443
939.219765	3490.343688
939.522275	3522.874254
939.824747	3534.259700
940.127179	3528.721993
940.429573	3518.231352
940.731929	3520.847710
941.034246	3504.332890
941.336524	3490.878051
941.638763	3476.107470
941.940964	3463.076087
942.243126	3419.921290
942.545250	3395.385994
942.847335	3357.564737
943.149381	3324.683811
943.451389	3290.504788
943.753359	3254.589088
944.055290	3234.931108
944.357182	3204.840461
944.659036	3189.530477
944.960851	3181.633509
945.262628	3165.491735
945.564367	3167.256138
945.866067	3162.283040
946.167729	3158.093841
946.469352	3158.744150
946.770937	3152.213335
947.072484	3138.284627
947.373992	3141.352169
947.675462	3130.501086
947.976893	3117.394086
948.278286	3107.629371
948.579641	3103.364555
948.880958	3092.871393
949.182236	3096.596806
949.483476	3092.959613
949.784678	3093.947679
950.085841	3095.258379
950.386967	3101.267435
950.688054	3117.842748
950.989103	3141.137920
951.290114	3159.515447
951.591087	3193.457536
951.892021	3217.846638
952.192917	3248.476689
952.493776	3272.185235
952.794596	3280.044394
953.095378	3283.280815
953.396122	3279.308386
953.696828	3273.894186
953.997496	3258.934562
954.298126	3237.252560
954.598718	3217.713047
954.899272	3191.163811
955.199788	3165.960562
955.500266	3132.212557
955.800706	3098.265428
956.101108	3055.140877
956.401472	3025.612318
956.701798	2993.273316
957.002087	2954.786627
957.302337	2923.541556
957.602550	2895.195148
957.902724	2865.580889
958.202861	2843.525841
958.502960	2819.918118
958.803022	2800.083698
959.103045	2779.737601
959.403031	2762.411155
959.702979	2746.581932
960.002889	2733.142216
960.302762	2723.024620
960.602596	2706.643391
960.902393	2697.569314
961.202153	2693.097811
961.501875	2685.420133
961.801559	2675.783968
962.101205	2669.207782
962.400814	2665.752072
962.700385	2659.440547
962.999918	2652.382932
963.299414	2648.682725
963.598873	2644.296921
963.898293	2638.103863
964.197677	2641.602424
964.497022	2636.641929
964.796331	2632.856022
965.095601	2632.024232
965.394835	2631.152112
965.694030	2629.211268
965.993189	2627.295629
966.292309	2622.307408
966.591393	2621.213477
966.890439	2621.904115
967.189447	2625.541308
967.488419	2623.363529
967.787353	2626.655403
968.086249	2625.785804
968.385108	2625.904271
968.683930	2629.561628
968.982714	2634.993471
969.281462	2638.030767
969.580172	2645.085861
969.878844	2650.457211
970.177480	2659.763181
970.476078	2664.564880
970.774639	2673.598627
971.073162	2681.775379
971.371649	2688.331400
971.670098	2692.389528
971.968510	2698.499407
972.266885	2700.404963
972.565223	2704.200952
972.863524	2703.901003
973.161788	2712.304607
973.460014	2715.097406
973.758204	2717.466748
974.056356	2717.597818
974.354471	2720.748539
974.652550	2720.204095
974.950591	2721.799620
975.248595	2721.741647
975.546563	2716.171172
975.844493	2713.378372
976.142386	2708.755634
976.440243	2704.405119
976.738062	2696.331711
977.035845	2692.424817
977.333590	2684.870647
977.631299	2679.985769
977.928971	2674.022084
978.226606	2666.611588
978.524204	2664.569921
978.821765	2659.990033
979.119290	2663.332318
979.416777	2661.661175
979.714228	2665.255518
980.011642	2666.495642
980.309020	2679.040553
980.606360	2693.246525
980.903664	2712.861654
981.200931	2749.289032
981.498162	2796.547329
981.795356	2874.551623
982.092513	2962.126547
982.389633	3069.112435
982.686717	3166.721776
982.983764	3244.002665
983.280775	3295.959317
983.577749	3298.958803
983.874686	3287.543110
984.171587	3251.965167
984.468451	3214.151472
984.765279	3168.299657
985.062070	3124.754170
985.358824	3076.981676
985.655543	3020.631658
985.952224	2965.186528
986.248869	2904.014646
986.545478	2843.193125
986.842050	2788.143725
987.138586	2742.697723
987.435086	2700.341949
987.731549	2674.155675
988.027975	2648.715492
988.324366	2630.242184
988.620719	2615.033023
988.917037	2604.849892
989.213318	2592.110896
989.509563	2585.864907
989.805772	2583.848445
990.101944	2577.090778
990.398080	2575.217990
990.694180	2574.557598
990.990244	2577.844431
991.286271	2572.712536
991.582262	2574.842424
991.878217	2579.331571
992.174136	2580.538927
992.470019	2581.998342
992.765865	2587.624269
993.061676	2593.663572
993.357450	2599.871752
993.653188	2608.146807
993.948890	2624.066770
994.244556	2643.064359
994.540186	2668.776764
994.835780	2700.175591
995.131337	2737.240674
995.426859	2778.752056
995.722345	2824.513130
996.017795	2879.623023
996.313208	2916.393200
996.608586	2946.183898
996.903928	2956.989612
997.199234	2957.206381
997.494504	2954.733695
997.789738	2939.471602
998.084936	2914.384300
998.380099	2881.145452
998.675225	2854.026565
998.970316	2823.986329
999.265371	2787.712707
999.560390	2749.099989
999.855373	2717.557489
1000.150320	2690.322655
1000.445232	2665.000940
1000.740108	2643.606283
1001.034948	2626.909981
1001.329752	2611.138731
1001.624521	2597.991402
1001.919254	2584.859196
1002.213951	2577.841910
1002.508613	2570.514593
1002.803239	2561.483366
1003.097829	2558.156204
1003.392384	2552.956254
1003.686903	2546.927034
1003.981386	2545.223124
1004.275834	2539.042670
1004.570246	2538.576363
1004.864623	2537.598379
1005.158964	2534.382123
1005.453270	2531.193593
1005.747540	2527.639580
1006.041775	2525.184538
1006.335974	2525.340813
1006.630138	2524.730834
1006.924266	2526.059178
1007.218359	2523.987264
1007.512416	2520.224042
1007.806438	2518.441994
1008.100425	2519.661954
1008.394376	2518.270595
1008.688292	2518.474762
1008.982172	2519.404855
1009.276017	2521.721265
1009.569827	2516.150790
1009.863602	2519.997190
1010.157341	2515.281191
1010.451045	2514.882940
1010.744714	2514.411592
1011.038347	2512.906808
1011.331945	2516.052488
1011.625508	2509.877074
1011.919036	2511.994359
1012.212528	2509.141066
1012.505986	2510.915552
1012.799408	2511.129801
1013.092795	2508.906652
1013.386147	2507.664008
1013.679464	2507.638802
1013.972745	2507.963956
1014.265992	2505.907165
1014.559204	2508.064779
1014.852380	2508.016888
1015.145521	2507.512773
1015.438628	2508.609224
1015.731699	2506.554954
1016.024736	2508.483195
1016.317737	2509.998062
1016.610703	2512.997548
1016.903635	2513.990656
1017.196531	2514.018382
1017.489393	2515.757580
1017.782219	2517.038033
1018.075011	2517.867303
1018.367768	2519.311593
1018.660490	2520.501306
1018.953177	2520.501306
1019.245829	2520.501306
