Dividing Wavelength (nm)	Counts (n)	Blue Motor Position (mm): 29.500000	Red Motor Position (mm): 0.000000	
326.493990	2153.948927
326.888308	2153.948927
327.282561	2153.948927
327.676750	2131.266256
328.070874	2132.987810
328.464933	2137.900414
328.858929	2146.384676
329.252859	2155.972951
329.646726	2170.796463
330.040528	2186.139215
330.434265	2206.112267
330.827938	2225.109855
331.221547	2244.561147
331.615091	2263.793149
332.008571	2283.322579
332.401986	2302.874694
332.795338	2323.634166
333.188625	2343.387927
333.581847	2362.398118
333.975006	2383.790255
334.368100	2400.269787
334.761129	2420.865421
335.154095	2433.823707
335.546996	2460.488890
335.939833	2494.201606
336.332606	2503.056393
336.725315	2516.367560
337.117960	2522.472397
337.510540	2529.903058
337.903056	2541.071734
338.295508	2548.325954
338.687896	2553.500699
339.080220	2564.364385
339.472480	2569.072823
339.864676	2570.872515
340.256807	2576.382496
340.648875	2578.179667
341.040879	2577.700758
341.432818	2579.818042
341.824694	2577.516756
342.216506	2580.352405
342.608253	2580.627148
342.999937	2578.915676
343.391557	2579.467682
343.783113	2578.051118
344.174605	2577.478947
344.566033	2574.424008
344.957397	2570.481826
345.348697	2570.890159
345.739934	2569.460992
346.131106	2567.321022
346.522215	2568.374623
346.913260	2561.664848
347.304241	2561.616957
347.695159	2562.496638
348.086012	2561.039744
348.476802	2559.111503
348.867528	2556.696790
349.258191	2555.565051
349.648789	2554.869372
350.039324	2551.723692
350.429796	2553.447767
350.820203	2550.228990
351.210548	2548.451983
351.600828	2551.738816
351.991045	2548.583053
352.381198	2546.816129
352.771288	2546.937117
353.161314	2549.177909
353.551276	2549.238403
353.941175	2548.348640
354.331010	2546.622044
354.720782	2549.760163
355.110490	2549.084648
355.500135	2548.704041
355.889717	2548.865358
356.279235	2545.903680
356.668689	2553.208312
357.058080	2547.889895
357.447408	2548.078938
357.836672	2547.521890
358.225873	2544.827394
358.615010	2547.317724
359.004084	2551.529608
359.393095	2551.678322
359.782043	2556.817778
360.170927	2555.703683
360.559748	2555.731409
360.948505	2556.996739
361.337199	2556.926163
361.725830	2557.921791
362.114398	2557.697459
362.502903	2558.178890
362.891344	2557.110165
363.279722	2558.499003
363.668037	2555.633107
364.056289	2558.688046
364.444478	2560.651576
364.832603	2559.383725
365.220665	2561.206103
365.608665	2557.899106
365.996601	2560.258366
366.384474	2560.039075
366.772284	2561.448078
367.160031	2560.104610
367.547715	2563.572924
367.935336	2558.577141
368.322893	2561.125444
368.710388	2561.349775
369.097820	2565.337328
369.485189	2562.496638
369.872495	2562.536967
370.259738	2564.931515
370.646918	2563.537636
371.034035	2562.718449
371.421090	2565.856567
371.808081	2565.312122
372.195010	2566.370765
372.581875	2566.532082
372.968678	2566.254818
373.355418	2565.569221
373.742096	2566.529561
374.128710	2566.189283
374.515262	2565.995199
374.901751	2566.464026
375.288177	2567.948646
375.674540	2566.489232
376.060841	2568.906465
376.447079	2567.699109
376.833254	2568.667010
377.219367	2564.283727
377.605417	2565.977555
377.991404	2566.723645
378.377329	2564.417318
378.763191	2563.434292
379.148991	2568.097360
379.534727	2570.312947
379.920402	2569.811352
380.306013	2571.593400
380.691563	2570.471743
381.077049	2569.299675
381.462474	2571.905952
381.847835	2570.428893
382.233134	2572.649522
382.618371	2571.154820
383.003545	2572.684810
383.388657	2573.640108
383.773706	2573.665314
384.158693	2573.403174
384.543618	2574.832341
384.928480	2571.984089
385.313280	2572.652042
385.698017	2572.994841
386.082692	2574.726477
386.467305	2574.635736
386.851856	2576.168247
387.236344	2575.225551
387.620770	2579.757549
388.005133	2576.334605
388.389435	2574.759245
388.773674	2578.179668
389.157851	2577.932651
389.541965	2574.928123
389.926018	2576.775706
390.310008	2577.912486
390.693936	2577.302507
391.077802	2576.911817
391.461606	2578.058680
391.845348	2579.732343
392.229027	2579.351736
392.612645	2576.742939
392.996200	2577.146231
393.379694	2580.448187
393.763125	2580.057497
394.146494	2579.697055
394.529801	2579.891139
394.913047	2578.023392
395.296230	2580.201170
395.679351	2580.778382
396.062410	2579.165213
396.445408	2582.396593
396.828343	2579.631520
397.211217	2575.651529
397.594028	2578.605645
397.976778	2578.300655
398.359466	2578.618248
398.742092	2578.146900
399.124656	2585.728795
399.507158	2584.584453
399.889598	2584.569330
400.271977	2584.246696
400.654294	2584.362643
401.036549	2583.157807
401.418742	2582.467169
401.800874	2582.550348
402.182944	2584.707962
402.564952	2582.043712
402.946898	2584.239134
403.328783	2583.210739
403.710606	2584.604618
404.092367	2585.738878
404.474067	2582.792323
404.855705	2585.232242
405.237282	2585.469176
405.618797	2584.529001
406.000250	2586.303487
406.381642	2583.712334
406.762972	2585.287694
407.144240	2585.169227
407.525447	2589.839856
407.906593	2587.132757
408.287677	2584.453383
408.668700	2587.437747
409.049661	2589.025710
409.430560	2586.666450
409.811399	2588.768611
410.192176	2588.715679
410.572891	2590.782552
410.953545	2587.588981
411.334138	2590.341451
411.714669	2588.077973
412.095139	2588.748447
412.475547	2590.354054
412.855894	2590.916143
413.236180	2589.708786
413.616405	2591.765577
413.996568	2589.038313
414.376670	2591.639548
414.756711	2590.429671
415.136691	2592.294898
415.516609	2592.952769
415.896466	2591.810947
416.276262	2592.897316
416.655997	2589.665937
417.035670	2591.044692
417.415283	2591.206009
417.794834	2589.504620
418.174324	2591.868921
418.553753	2594.855804
418.933121	2595.334714
419.312428	2595.533840
419.691674	2593.192224
420.070859	2597.083994
420.449983	2593.865218
420.829045	2595.405290
421.208047	2593.376226
421.586988	2595.097780
421.965867	2599.163470
422.344686	2597.003336
422.723444	2597.807400
423.102141	2599.254211
423.480777	2596.658017
423.859352	2601.832761
424.237866	2599.985178
424.616319	2599.327308
424.994712	2600.564911
425.373044	2602.722525
425.751314	2601.358893
426.129524	2601.114397
426.507673	2604.015581
426.885762	2601.114397
427.263789	2604.121445
427.641756	2603.997937
428.019662	2607.945160
428.397508	2603.967690
428.775292	2606.674790
429.153016	2611.781478
429.530679	2609.540686
429.908282	2608.910541
430.285824	2612.898094
430.663305	2612.136880
431.040726	2614.889350
431.418086	2617.104937
431.795385	2618.130812
432.172624	2621.750360
432.549802	2625.997532
432.926920	2626.055506
433.303977	2634.035652
433.680974	2634.738893
434.057910	2637.667803
434.434786	2640.369862
434.811601	2646.557878
435.188355	2652.158600
435.565050	2655.858807
435.941683	2660.582368
436.318257	2665.237874
436.694770	2671.345232
437.071222	2682.191274
437.447614	2685.825946
437.823946	2692.281144
438.200218	2706.391333
438.576429	2710.404092
438.952580	2719.561348
439.328670	2732.335632
439.704700	2742.571694
440.080670	2750.433374
440.456580	2768.213523
440.832429	2781.204577
441.208218	2785.973508
441.583947	2799.675365
441.959616	2812.888229
442.335224	2830.988492
442.710773	2845.940554
443.086261	2866.543750
443.461689	2877.099926
443.837057	2891.119375
444.212365	2917.482089
444.587612	2937.603854
444.962800	2947.134156
445.337927	2973.517034
445.712995	2973.701037
446.088002	3024.173069
446.462949	3046.376831
446.837837	3071.456571
447.212664	3090.592791
447.587431	3165.010304
447.962139	3260.260386
448.336786	3370.102087
448.711374	3391.763925
449.085901	3324.885458
449.460369	3331.864935
449.834776	3344.346832
450.209124	3441.883077
450.583412	3477.687872
450.957640	3544.427707
451.331808	3527.675953
451.705917	3510.594003
452.079965	3537.831358
452.453954	3581.913727
452.827883	3601.349896
453.201752	3634.422386
453.575562	3675.472502
453.949311	3757.411416
454.323001	3797.637303
454.696632	3828.383301
455.070202	3932.284002
455.443713	3977.175477
455.817164	4057.181109
456.190556	4127.664002
456.563888	4150.823063
456.937160	4229.732244
457.310373	4186.932848
457.683526	4251.840224
458.056619	4288.675935
458.429653	4314.826921
458.802628	4377.412846
459.175542	4430.410496
459.548398	4551.423394
459.921194	4705.959965
460.293930	4777.055358
460.666607	4971.631293
461.039224	5146.191328
461.411782	5268.290594
461.784280	5259.445890
462.156719	5306.981450
462.529099	5323.072813
462.901419	5273.578765
463.273680	5224.571188
463.645882	5261.459831
464.018024	5302.431809
464.390106	5392.456734
464.762130	5618.416373
465.134094	5943.800169
465.505999	6449.561490
465.877845	7009.550503
466.249631	7329.346180
466.621358	7333.179977
466.993026	7238.323106
467.364634	7131.601879
467.736184	6953.258459
468.107674	6875.448249
468.479105	6852.011925
468.850477	6842.698393
469.221790	6739.989925
469.593043	6587.653817
469.964238	6539.052053
470.335373	6551.536471
470.706449	6722.605506
471.077467	6915.709424
471.448425	7517.708893
471.819324	8066.158705
472.190164	8130.960217
472.560945	7721.011066
472.931667	7327.864081
473.302330	7182.411669
473.672934	7103.550378
474.043479	7203.876902
474.413965	7133.782178
474.784393	7110.391224
475.154761	7271.380472
475.525070	7305.317520
475.895321	7278.796010
476.265513	7386.608646
476.635645	7551.771970
477.005719	7572.501194
477.375734	7668.842686
477.745691	7789.716952
478.115588	8006.413471
478.485427	8238.157833
478.855207	8711.088640
479.224928	9134.442220
479.594591	9516.665025
479.964194	9540.605465
480.333739	9639.417121
480.703226	9662.654320
481.072653	9776.125652
481.442022	9900.014528
481.811333	10052.126304
482.180584	9905.600127
482.549777	9864.562614
482.918912	9813.992279
483.287988	9806.851484
483.657005	9723.614473
484.025964	9651.964553
484.394864	9714.926044
484.763706	9684.694244
485.132489	9603.481256
485.501213	9596.673178
485.869879	9660.728599
486.238487	9601.094270
486.607036	9686.594759
486.975527	9637.602306
487.343959	9698.176810
487.712333	9748.502649
488.080648	9786.613772
488.448905	9892.485565
488.817104	9905.431248
489.185244	10071.280168
489.553326	10283.016192
489.921350	10753.444066
490.289315	11384.798173
490.657222	11674.044458
491.025070	11851.949297
491.392861	11763.565267
491.760593	11606.361926
492.128267	11359.635254
492.495883	11129.587239
492.863440	10888.894828
493.230939	10670.265027
493.598380	10486.837603
493.965763	10474.524585
494.333088	10341.037352
494.700354	10270.073029
495.067563	10249.474874
495.434713	10246.679555
495.801805	10295.147728
496.168839	10253.429660
496.535815	10229.138860
496.902733	10269.261403
497.269593	10232.869314
497.636395	10240.683102
498.003139	10350.401295
498.369825	10283.908476
498.736453	10370.079439
499.103023	10315.135903
499.469535	10319.463734
499.835989	10371.962310
500.202385	10348.576397
500.568723	10364.256906
500.935003	10428.902143
501.301226	10398.627493
501.667390	10561.476927
502.033497	10664.518112
502.399546	10585.203118
502.765537	10494.900929
503.131470	10601.599471
503.497345	10688.352687
503.863163	10472.901333
504.228923	10603.510068
504.594625	10716.189939
504.960269	10634.339244
505.325856	10781.598910
505.691385	10652.633592
506.056856	10724.094468
506.422270	10825.593059
506.787625	10761.446897
507.152924	10815.556122
507.518164	10873.985616
507.883347	10747.107335
508.248472	10817.310444
508.613540	10924.888667
508.978550	11003.084525
509.343503	10982.110804
509.708398	11034.763135
510.073236	11159.750983
510.438016	11185.818790
510.802738	11087.334808
511.167403	11217.978831
511.532010	11278.122317
511.896561	11373.911802
512.261053	11567.875237
512.625488	11486.465643
512.989866	11483.072947
513.354186	11453.990530
513.718449	11468.980401
514.082655	11609.694129
514.446803	11561.604042
514.810894	11680.444202
515.174927	11661.771768
515.538904	11653.279945
515.902822	11807.544294
516.266684	11685.994513
516.630488	11783.588731
516.994235	11770.471648
517.357925	11887.761654
517.721558	11951.212137
518.085133	12016.268227
518.448651	12041.592464
518.812112	12008.787155
519.175516	12009.447546
519.538863	12099.505239
519.902152	12110.472269
520.265385	12222.136348
520.628560	12243.105027
520.991678	12191.223992
521.354739	12243.157959
521.717743	12317.885503
522.080690	12290.698561
522.443580	12427.013881
522.806413	12436.135849
523.169189	12435.329264
523.531908	12500.466013
523.894569	12452.343159
524.257174	12472.293525
524.619722	12577.704052
524.982213	12553.219168
525.344647	12535.413812
525.707025	12549.740772
526.069345	12655.277327
526.431608	12628.599541
526.793815	12704.342878
527.155964	12602.516611
527.518057	12627.979479
527.880093	12605.102723
528.242072	12716.055999
528.603995	12635.195891
528.965860	12649.321204
529.327669	12688.226309
529.689421	12621.637708
530.051117	12647.304743
530.412755	12675.648630
530.774337	12672.225687
531.135862	12638.762507
531.497331	12698.800129
531.858743	12658.518789
532.220098	12751.822985
532.581396	12683.056606
532.942638	12600.739604
533.303824	12659.980724
533.664953	12642.245945
534.026025	12594.223913
534.387040	12707.690204
534.747999	12679.379084
535.108902	12725.606465
535.469748	12600.817742
535.830537	12627.440076
536.191270	12670.695696
536.551947	12595.209459
536.912567	12650.309270
537.273131	12687.820496
537.633638	12560.516238
537.994089	12621.441103
538.354483	12540.853217
538.714821	12669.745439
539.075103	12752.064961
539.435328	12687.583562
539.795497	12660.449551
540.155609	12647.319866
540.515665	12756.367585
540.875665	12609.959875
541.235609	12710.566182
541.595496	12669.112774
541.955328	12851.663037
542.315102	12693.297710
542.674821	12646.782983
543.034483	12661.714881
543.394090	12661.175477
543.753640	12624.238943
544.113134	12877.317469
544.472571	12644.506902
544.831953	12923.650714
545.191278	12727.809449
545.550548	12659.844613
545.909761	12781.313735
546.268918	12823.094818
546.628019	12893.953277
546.987064	12777.900874
547.346053	12622.512348
547.704986	12820.223881
548.063863	12696.887011
548.422684	12752.584199
548.781449	12715.461143
549.140158	12806.154021
549.498811	12762.227927
549.857408	12634.069193
550.215949	12837.900687
550.574434	12802.441211
550.932864	12749.589754
551.291237	12939.452211
551.649555	12835.226355
552.007817	12881.486503
552.366022	12810.013024
552.724173	12840.491840
553.082267	12938.033126
553.440305	13025.960931
553.798288	12855.169160
554.156215	12920.535281
554.514086	12971.496305
554.871902	12907.093044
555.229661	12932.243361
555.587365	12895.899162
555.945014	12912.141760
556.302606	12882.310732
556.660143	12946.865227
557.017625	12976.429074
557.375050	12933.629678
557.732421	13049.155280
558.089735	13037.348898
558.446994	13010.361081
558.804197	13126.995737
559.161345	13122.131023
559.518437	12931.046087
559.875474	13023.125282
560.232455	13059.025859
560.589381	13103.327519
560.946251	13040.204712
561.303065	13212.143346
561.659825	13159.571673
562.016528	13089.759254
562.373177	13017.983305
562.729770	13151.347030
563.086307	13041.245710
563.442789	13150.626145
563.799216	13186.279706
564.155587	13126.731076
564.511904	13148.191268
564.868164	13160.978155
565.224370	13221.580386
565.580520	13161.535202
565.936615	13235.930030
566.292654	13169.863188
566.648638	13232.464237
567.004567	13240.177202
567.360441	13234.740318
567.716260	13211.692163
568.072023	13297.807673
568.427732	13278.177420
568.783385	13175.726050
569.138982	13284.259572
569.494525	13286.011373
569.850013	13223.934605
570.205445	13219.321949
570.560823	13232.396181
570.916145	13185.881455
571.271412	13196.157847
571.626625	13151.233604
571.981782	13148.884427
572.336884	13095.914503
572.691931	13180.943645
573.046923	13075.633941
573.401860	13055.025704
573.756743	13057.949573
574.111570	13080.644848
574.466342	13059.129203
574.821059	13110.052419
575.175722	12970.059576
575.530330	12993.526148
575.884882	12933.468361
576.239380	12937.649998
576.593823	12911.385587
576.948211	12900.370666
577.302544	12779.894650
577.656823	12813.604846
578.011047	12868.132487
578.365216	12801.498515
578.719330	12741.186151
579.073389	12707.201212
579.427394	12721.140002
579.781344	12710.089793
580.135239	12643.934731
580.489080	12675.237776
580.842866	12553.967779
581.196597	12649.918581
581.550273	12642.442550
581.903895	12602.713216
582.257463	12710.493085
582.610975	12550.449054
582.964434	12620.611833
583.317837	12528.434335
583.671186	12484.399856
584.024481	12539.658464
584.377721	12429.771392
584.730906	12503.672187
585.084037	12520.620546
585.437113	12438.767331
585.790135	12458.884056
586.143103	12369.728729
586.496016	12382.356820
586.848874	12398.972463
587.201679	12393.926268
587.554428	12272.066456
587.907124	12310.109523
588.259765	12251.362437
588.612352	12322.856081
588.964884	12188.385823
589.317362	12241.048236
589.669786	12225.592059
590.022155	12184.413393
590.374470	12283.726645
590.726731	12174.656240
591.078937	12063.569374
591.431090	12084.507807
591.783188	12012.835202
592.135232	11933.497523
592.487222	11995.919610
592.839157	12007.678101
593.191038	11939.541866
593.542866	11884.028680
593.894639	11738.886299
594.246358	11803.423150
594.598022	11810.170735
594.949633	11712.384953
595.301190	11696.248220
595.652692	11653.920171
596.004141	11743.398132
596.355535	11519.812876
596.706876	11511.389108
597.058162	11466.306069
597.409395	11564.815257
597.760573	11593.489340
598.111698	11484.751651
598.462768	11487.438586
598.813785	11502.428457
599.164748	11370.622449
599.515657	11448.047010
599.866511	11320.304172
600.217312	11451.480036
600.568060	11219.193749
600.918753	11380.314067
601.269392	11383.613502
601.619978	11286.445262
601.970510	11327.838176
602.320988	11361.863444
602.671412	11443.636000
603.021783	11363.960564
603.372100	11287.279573
603.722363	11304.661471
604.072572	11307.333283
604.422728	11313.995168
604.772830	11262.401478
605.122878	11269.287695
605.472872	11236.288302
605.822813	11299.383383
606.172701	11263.813002
606.522534	11291.577156
606.872314	11344.710918
607.222041	11278.608788
607.571714	11360.640964
607.921333	11221.202649
608.270899	11279.833788
608.620411	11347.344921
608.969870	11293.996910
609.319276	11264.843917
609.668627	11287.110694
610.017926	11364.250430
610.367171	11394.366283
610.716362	11391.906200
611.065500	11364.010975
611.414585	11377.904395
611.763616	11440.152563
612.112594	11408.763819
612.461518	11433.770462
612.810389	11481.384160
613.159207	11422.677403
613.507971	11420.991137
613.856682	11516.737772
614.205340	11475.942235
614.553945	11611.307298
614.902496	11488.996303
615.250994	11551.017618
615.599439	11545.608460
615.947830	11582.272772
616.296169	11542.848429
616.644454	11559.421222
616.992686	11566.002448
617.340864	11663.332006
617.688990	11553.694471
618.037063	11678.609222
618.385082	11655.717343
618.733048	11694.572036
619.080961	11681.308760
619.428821	11669.623366
619.776628	11674.669561
620.124382	11621.608896
620.472083	11636.177830
620.819731	11649.884728
621.167326	11584.818555
621.514868	11555.539533
621.862357	11470.288581
622.209793	11458.782147
622.557176	11363.456448
622.904506	11316.087246
623.251783	11245.753068
623.599007	11178.738489
623.946179	11127.603545
624.293297	11104.784762
624.640363	10970.833743
624.987376	10961.353853
625.334336	10889.209900
625.681243	10815.183077
626.028097	10785.052100
626.374899	10744.788404
626.721647	10716.361338
627.068343	10673.798876
627.414987	10617.274938
627.761577	10548.067458
628.108115	10601.241549
628.454600	10475.404266
628.801032	10484.732922
629.147412	10473.390325
629.493739	10450.261512
629.840014	10370.865859
630.186236	10408.273741
630.532405	10312.257404
630.878521	10343.711684
631.224585	10299.848604
631.570597	10222.527387
631.916556	10222.040915
632.262462	10209.669924
632.608316	10183.808804
632.954117	10159.971708
633.299866	10148.876129
633.645562	10124.832346
633.991206	10022.693528
634.336797	9922.634185
634.682336	9913.842413
635.027823	9856.733702
635.373257	9825.899484
635.718639	9753.085058
636.063968	9730.241069
636.409245	9610.095250
636.754470	9601.051420
637.099642	9543.330208
637.444762	9445.350342
637.789829	9446.446793
638.134845	9377.017502
638.479808	9357.387249
638.824719	9329.431530
639.169577	9245.473633
639.514383	9241.728056
639.859137	9174.353035
640.203839	9211.637409
640.548489	9128.055078
640.893086	9133.650759
641.237632	9067.331859
641.582125	9065.040655
641.926566	9050.559940
642.270955	9035.963279
642.615292	9030.491107
642.959576	9009.978652
643.303809	9000.828958
643.647990	9016.391000
643.992118	8994.454419
644.336195	8976.744845
644.680219	8978.325247
645.024192	9002.714349
645.368112	9086.521011
645.711981	9063.999657
646.055797	9202.480153
646.399562	9160.381477
646.743274	9314.807143
647.086935	9392.360253
647.430544	9360.048978
647.774101	9387.727433
648.117606	9408.849868
648.461059	9478.271597
648.804460	9407.536647
649.147810	9288.678842
649.491108	9256.937217
649.834354	9182.791926
650.177548	9040.964104
650.520690	8956.597874
650.863781	8950.122512
651.206820	8920.830887
651.549807	8828.555087
651.892742	8735.389522
652.235626	8699.776291
652.578458	8667.691868
652.921238	8555.790855
653.263967	8592.455167
653.606644	8524.238273
653.949269	8507.398299
654.291843	8425.769415
654.634365	8494.087132
654.976836	8418.936131
655.319255	8410.570336
655.661622	8392.487717
656.003938	8355.215946
656.346203	8322.493817
656.688416	8356.947583
657.030577	8315.184144
657.372687	8280.281715
657.714746	8314.443094
658.056753	8326.940114
658.398708	8230.308757
658.740612	8228.330104
659.082465	8258.143488
659.424266	8223.523364
659.766016	8231.432934
660.107715	8207.048873
660.449362	8223.737613
660.790958	8213.723361
661.132503	8210.343267
661.473996	8210.428967
661.815438	8234.155157
662.156829	8262.733458
662.498168	8213.551962
662.839456	8207.719347
663.180693	8229.149292
663.521879	8246.183350
663.863013	8226.495124
664.204097	8220.720482
664.545129	8298.702091
664.886110	8288.334958
665.227040	8282.406561
665.567918	8300.758882
665.908746	8316.855286
666.249522	8336.293975
666.590248	8334.388419
666.930922	8342.600459
667.271545	8340.838576
667.612118	8363.927060
667.952639	8324.106986
668.293109	8326.246956
668.633528	8303.997823
668.973896	8280.866489
669.314213	8289.098693
669.654480	8244.164368
669.994695	8238.603976
670.334859	8218.567910
670.674973	8197.853808
671.015035	8223.926656
671.355047	8214.981129
671.695008	8199.371196
672.034918	8173.474788
672.374777	8182.594236
672.714585	8158.651276
673.054342	8182.947117
673.394049	8147.868247
673.733705	8192.149743
674.073310	8141.045046
674.412864	8154.570462
674.752368	8083.643947
675.091820	8136.026577
675.431223	8067.371103
675.770574	8017.418309
676.109875	7991.353023
676.449125	7950.854914
676.788324	7942.232020
677.127473	7855.710697
677.466571	7845.635951
677.805619	7782.543390
678.144616	7778.810416
678.483562	7762.315760
678.822458	7717.242804
679.161303	7703.477933
679.500098	7676.366608
679.838842	7658.205851
680.177535	7674.826535
680.516179	7708.861885
680.854771	7723.443423
681.193314	7845.416661
681.531805	7999.287800
681.870247	8121.497972
682.208638	8271.928523
682.546978	8336.987134
682.885268	8374.901652
683.223508	8299.155795
683.561697	8246.574040
683.899836	8212.619348
684.237925	8132.497769
684.575963	8105.278059
684.913951	8025.532047
685.251889	8037.242647
685.589776	8036.761217
685.927614	8013.236672
686.265401	8046.470479
686.603137	8046.687249
686.940824	8111.526569
687.278460	8161.416348
687.616046	8172.368255
687.953582	8289.799413
688.291068	8268.228316
688.628504	8329.425403
688.965889	8325.677305
689.303224	8289.023076
689.640510	8246.541272
689.977745	8143.119481
690.314930	8020.838732
690.652065	7943.895601
690.989150	7827.006367
691.326185	7681.329624
691.663170	7566.850061
692.000105	7445.746422
692.336990	7328.708474
692.673825	7259.662310
693.010610	7172.132756
693.347345	7074.679690
693.684030	6962.335056
694.020665	6917.612460
694.357251	6802.742208
694.693786	6789.710825
695.030272	6752.081132
695.366707	6655.207799
695.703093	6604.269460
696.039429	6603.846003
696.375716	6556.706174
696.711952	6544.864503
697.048139	6511.746643
697.384276	6476.176262
697.720363	6497.371793
698.056400	6474.399255
698.392388	6439.275016
698.728326	6437.248472
699.064214	6411.624287
699.400053	6405.509367
699.735842	6348.705646
700.071581	6301.734695
700.407270	6256.964207
700.742910	6228.421194
701.078501	6187.784453
701.414042	6145.506816
701.749533	6087.115131
702.084974	6028.413415
702.420366	6069.735753
702.755709	5995.887891
703.091002	5950.303257
703.426246	5950.754440
703.761440	5935.396565
704.096584	5893.859978
704.431679	5881.123503
704.766725	5861.740266
705.101721	5848.413976
705.436668	5865.591708
705.771565	5814.502134
706.106413	5871.772163
706.441212	5866.574733
706.775961	5887.185490
707.110661	5890.341253
707.445311	5952.531447
707.779913	5919.642959
708.114465	5957.749041
708.448967	6002.738819
708.783421	6116.913392
709.117825	6159.334701
709.452180	6196.631678
709.786485	6255.842551
710.120742	6390.779116
710.454949	6388.646707
710.789107	6467.245858
711.123216	6582.842036
711.457275	6619.032479
711.791286	6719.119548
712.125247	6744.186685
712.459159	6711.832560
712.793023	6845.791141
713.126837	6676.925090
713.460602	6735.231076
713.794318	6693.533172
714.127985	6634.299614
714.461602	6494.208469
714.795171	6494.624364
715.128691	6329.629919
715.462162	6236.696248
715.795584	6164.522049
716.128957	6122.375482
716.462281	6058.241923
716.795556	6017.312795
717.128782	5934.138797
717.461960	5838.830743
717.795088	5819.525644
718.128167	5753.516776
718.461198	5670.204147
718.794180	5658.095295
719.127113	5590.379996
719.459997	5557.718360
719.792833	5495.318958
720.125619	5487.837886
720.458357	5426.068628
720.791046	5399.320265
721.123686	5376.244383
721.456278	5328.608000
721.788821	5321.830169
722.121315	5276.374085
722.453761	5286.484119
722.786158	5267.567189
723.118506	5267.196664
723.450805	5245.625567
723.783056	5271.038023
724.115259	5252.607565
724.447412	5244.574486
724.779518	5286.849602
725.111574	5291.016116
725.443582	5329.313762
725.775542	5317.373789
726.107453	5401.165328
726.439315	5377.706318
726.771129	5445.945897
727.102895	5511.516185
727.434612	5559.349173
727.766281	5585.790025
728.097901	5640.748685
728.429473	5655.047917
728.760996	5662.203835
729.092471	5685.698133
729.423897	5670.294887
729.755276	5642.215660
730.086606	5658.039842
730.417887	5745.365230
730.749120	5839.365105
731.080305	5881.879676
731.411442	5958.532941
731.742530	5981.689481
732.073570	6002.459035
732.404562	6068.036885
732.735506	6061.405247
733.066401	6038.001690
733.397249	5966.921421
733.728048	5876.944386
734.058798	5731.401234
734.389501	5606.025217
734.720156	5520.466754
735.050762	5412.749899
735.381320	5336.512529
735.711831	5283.010764
736.042293	5199.531777
736.372707	5198.137898
736.703073	5151.487060
737.033391	5179.069733
737.363661	5166.222353
737.693883	5178.210216
738.024056	5207.552252
738.354182	5234.701386
738.684260	5278.448519
739.014290	5317.643491
739.344272	5355.510118
739.674207	5410.095732
740.004093	5440.408190
740.333931	5449.948573
740.663722	5466.561696
740.993464	5481.664993
741.323159	5462.128001
741.652806	5420.687196
741.982405	5388.769130
742.311956	5333.001366
742.641460	5320.743800
742.970915	5268.184730
743.300323	5206.874217
743.629683	5172.138147
743.958996	5119.619406
744.288260	5068.668464
744.617477	5010.866594
744.946647	4997.457125
745.275768	4944.545174
745.604842	4912.065020
745.933869	4878.904310
746.262847	4865.129357
746.591778	4852.949929
746.920662	4830.365560
747.249498	4830.184078
747.578286	4847.374413
747.907027	4867.833936
748.235720	4909.488990
748.564365	4919.873767
748.892963	4906.479421
749.221514	4924.483902
749.550017	4901.773504
749.878473	4896.560951
750.206881	4857.665928
750.535242	4843.921222
750.863555	4831.061239
751.191821	4807.176252
751.520039	4815.479032
751.848210	4794.601094
752.176334	4804.406138
752.504411	4779.840595
752.832440	4753.324126
753.160421	4765.947175
753.488356	4743.037652
753.816243	4725.277667
754.144082	4692.928582
754.471875	4678.563815
754.799620	4671.738092
755.127318	4664.461187
755.454969	4658.205115
755.782572	4652.422911
756.110129	4656.438190
756.437638	4636.830622
756.765100	4634.173934
757.092515	4636.099655
757.419882	4643.595851
757.747203	4634.544459
758.074477	4654.814939
758.401703	4639.436899
758.728882	4671.259183
759.056014	4684.000699
759.383099	4707.043813
759.710138	4732.748657
760.037129	4750.496039
760.364073	4770.453967
760.690970	4765.097741
761.017820	4767.633441
761.344623	4797.361126
761.671379	4861.701372
761.998088	4949.145227
762.324751	5181.050907
762.651366	5642.999560
762.977935	6331.570764
763.304456	6890.019704
763.630931	7193.459357
763.957359	7133.953577
764.283740	6840.409709
764.610074	6518.917685
764.936362	6119.539833
765.262602	5799.693745
765.588796	5454.205828
765.914943	5201.578485
766.241044	4971.633814
766.567097	4803.871776
766.893104	4651.707067
767.219064	4553.661666
767.544978	4462.361329
767.870845	4378.998288
768.196665	4326.729085
768.522438	4281.807363
768.848165	4240.658945
769.173846	4199.563458
769.499479	4170.412986
769.825066	4135.833192
770.150607	4092.544803
770.476101	4080.226744
770.801548	4057.349988
771.126949	4023.564175
771.452303	4004.712780
771.777611	3969.031493
772.102872	3964.310452
772.428087	3937.216771
772.753256	3911.280035
773.078378	3895.886871
773.403453	3862.834546
773.728482	3837.850588
774.053465	3823.238803
774.378401	3806.388747
774.703291	3779.748769
775.028135	3755.011827
775.352932	3749.474120
775.677683	3731.431830
776.002388	3708.318140
776.327046	3714.591856
776.651658	3688.718133
776.976224	3672.833458
777.300743	3669.450843
777.625216	3656.752177
777.949643	3643.803973
778.274024	3648.633399
778.598359	3625.645737
778.922647	3629.945841
779.246889	3622.053915
779.571086	3619.800519
779.895236	3616.115436
780.219339	3619.810602
780.543397	3621.620376
780.867409	3632.524392
781.191374	3635.327273
781.515294	3625.834780
781.839167	3642.533602
782.162995	3639.526554
782.486776	3633.880462
782.810511	3629.043475
783.134201	3615.422277
783.457844	3613.204169
783.781441	3604.177983
784.104993	3594.670367
784.428498	3590.372784
784.751958	3587.910180
785.075372	3581.984304
785.398739	3571.211358
785.722061	3574.372161
786.045337	3575.327460
786.368568	3601.826285
786.691752	3600.147581
787.014891	3642.886483
787.337983	3689.534800
787.661030	3775.073099
787.984031	3878.084037
788.306987	3949.008030
788.629897	3998.764218
788.952760	4007.276207
789.275579	3989.009586
789.598351	3942.157102
789.921078	3888.393196
790.243759	3824.393227
790.566395	3783.943009
790.888984	3731.414186
791.211529	3697.663661
791.534027	3649.034170
791.856480	3613.494036
792.178888	3591.486879
792.501249	3574.803180
792.823566	3543.560629
793.145836	3535.646018
793.468062	3529.952034
793.790241	3514.526103
794.112375	3517.760004
794.434464	3539.870504
794.756507	3537.808673
795.078505	3556.783576
795.400457	3595.169442
795.722364	3644.577790
796.044226	3697.572920
796.366042	3738.973396
796.687812	3735.792428
797.009538	3761.328393
797.331218	3749.401023
797.652852	3741.849374
797.974442	3721.810788
798.295986	3712.381310
798.617484	3682.262936
798.938938	3659.320645
799.260346	3643.060403
799.581709	3602.514403
799.903026	3594.703135
800.224299	3575.302254
800.545526	3545.216648
800.866708	3526.304759
801.187845	3513.412008
801.508936	3489.721106
801.829983	3484.921928
802.150984	3454.748101
802.471940	3445.721915
802.792851	3438.749999
803.113717	3431.831016
803.434538	3423.397165
803.755314	3411.837800
804.076045	3410.481729
804.396731	3399.101324
804.717372	3398.067888
805.037967	3396.295922
805.358518	3397.518402
805.679024	3411.610948
805.999485	3408.883683
806.319901	3410.945515
806.640272	3414.623037
806.960598	3427.122578
807.280879	3429.552414
807.601115	3438.318981
807.921306	3426.774738
808.241453	3431.271448
808.561554	3437.222530
808.881611	3433.545008
809.201623	3436.947787
809.521590	3424.294491
809.841513	3426.260541
810.161390	3432.708177
810.481223	3411.245464
810.801011	3410.842172
811.120755	3410.895104
811.440453	3399.071078
811.760107	3388.182185
812.079716	3381.948798
812.399281	3368.589741
812.718801	3372.237016
813.038276	3364.859287
813.357707	3363.319214
813.677093	3367.034545
813.996434	3350.194570
814.315731	3357.947865
814.634983	3358.338554
814.954191	3357.247145
815.273354	3376.146430
815.592473	3382.727657
815.911547	3405.687592
816.230577	3418.194695
816.549562	3442.465330
816.868502	3460.263123
817.187399	3483.553254
817.506250	3511.004858
817.825058	3522.549100
818.143821	3562.709452
818.462539	3605.387860
818.781213	3662.584792
819.099843	3747.029160
819.418429	3899.279568
819.736970	4052.457548
820.055466	4236.177359
820.373919	4475.196107
820.692327	4812.537519
821.010691	5319.042411
821.329011	6403.860910
821.647286	8148.329513
821.965517	10312.758999
822.283704	11924.657859
822.601847	12998.363135
822.919945	12594.647370
823.237999	11918.961355
823.556010	11021.464572
823.873976	10075.078678
824.191897	9106.667983
824.509775	8338.708688
824.827609	7535.226903
825.145398	6987.936556
825.463144	6613.275482
825.780845	6477.739019
826.098502	6546.069339
826.416116	6924.551608
826.733685	7423.330932
827.051210	7722.130202
827.368692	7623.111858
827.686129	7171.419433
828.003522	6628.734180
828.320872	6063.020937
828.638177	5598.539103
828.955439	5226.370880
829.272656	4890.072986
829.589830	4612.973362
829.906960	4344.562167
830.224046	4139.160353
830.541088	3967.856904
830.858086	3852.621168
831.175041	3756.279677
831.491952	3710.652194
831.808819	3691.473124
832.125642	3730.453846
832.442421	3832.272551
832.759157	4050.446128
833.075849	4429.591308
833.392497	4889.379827
833.709101	5274.052633
834.025662	5386.407350
834.342179	5265.341519
834.658653	4988.746011
834.975083	4722.300865
835.291469	4475.309533
835.607811	4249.990120
835.924110	4091.410544
836.240366	3934.542439
836.556578	3769.099332
836.872746	3636.824496
837.188871	3521.465252
837.504952	3425.090993
837.820990	3351.827904
838.136984	3298.941159
838.452935	3267.101232
838.768842	3251.970208
839.084706	3286.181999
839.400526	3422.608225
839.716303	3647.065600
840.032037	3857.717775
840.347727	3926.355605
840.663373	3834.757840
840.978977	3683.828214
841.294537	3553.380797
841.610054	3447.430866
841.925527	3371.206100
842.240957	3303.480718
842.556344	3240.448651
842.871687	3185.147193
843.186987	3120.451546
843.502244	3070.551684
843.817458	3031.109697
844.132629	2997.898575
844.447756	2976.226655
844.762840	2953.395269
845.077881	2935.143771
845.392879	2923.506268
845.707833	2910.794998
846.022745	2901.491549
846.337613	2895.091804
846.652438	2887.603170
846.967221	2884.044115
847.281960	2875.534648
847.596656	2869.641539
847.911309	2865.003677
848.225919	2860.113758
848.540485	2857.935980
848.855009	2854.865917
849.169490	2852.244517
849.483928	2848.370390
849.798323	2844.219000
850.112675	2842.343691
850.426984	2840.871674
850.741251	2838.577949
851.055474	2838.303206
851.369654	2837.574759
851.683792	2836.127948
851.997887	2838.817404
852.311938	2835.704491
852.625947	2835.313802
852.939914	2831.270796
853.253837	2835.636436
853.567718	2835.586024
853.881555	2832.558811
854.195350	2839.064420
854.509103	2835.971672
854.822812	2833.526713
855.136479	2833.637618
855.450103	2834.595437
855.763685	2832.820951
856.077224	2831.585868
856.390720	2831.699294
856.704173	2834.746672
857.017584	2838.598113
857.330953	2840.576766
857.644278	2841.113649
857.957561	2844.594566
858.270802	2844.899556
858.584000	2846.401820
858.897155	2844.738239
859.210268	2840.191118
859.523339	2838.187259
859.836367	2838.981241
860.149352	2837.960407
860.462295	2836.264059
860.775195	2830.963286
861.088054	2830.774243
861.400869	2831.048986
861.713642	2830.139057
862.026373	2831.422031
862.339062	2832.019408
862.651708	2837.751200
862.964312	2843.306551
863.276873	2841.085923
863.589392	2851.705113
863.901869	2855.813654
864.214303	2864.630632
864.526696	2870.165819
864.839045	2878.390461
865.151353	2882.342726
865.463619	2884.467572
865.775842	2889.702811
866.088023	2894.781773
866.400162	2891.568038
866.712258	2894.076012
867.024313	2895.928636
867.336325	2896.105076
867.648296	2899.492731
867.960224	2898.555077
868.272110	2901.383164
868.583954	2899.250756
868.895755	2903.545819
869.207515	2901.398288
869.519233	2911.624268
869.830909	2912.806419
870.142542	2915.942016
870.454134	2919.024682
870.765684	2924.045671
871.077191	2930.268976
871.388657	2933.487752
871.700081	2939.116201
872.011463	2947.973508
872.322803	2955.169755
872.634101	2957.387863
872.945357	2962.975982
873.256571	2976.743373
873.567744	2980.776296
873.878874	2985.015906
874.189963	2992.993532
874.501010	2996.797083
874.812015	2995.700632
875.122979	3004.830162
875.433900	3003.756396
875.744780	3005.833351
876.055618	3014.504136
876.366415	3014.683097
876.677169	3020.886237
876.987882	3027.928728
877.298554	3034.991385
877.609183	3051.428067
877.919771	3070.057651
878.230317	3090.746547
878.540822	3129.117289
878.851285	3179.909435
879.161707	3243.337232
879.472087	3351.941330
879.782425	3511.556864
880.092722	3789.498361
880.402977	4207.979665
880.713191	4750.818673
881.023363	5346.554508
881.333494	5789.371982
881.643583	6070.832204
881.953631	6150.101828
882.263637	6104.451659
882.573602	5952.760820
882.883526	5782.274038
883.193408	5578.936577
883.503248	5362.618145
883.813048	5148.162419
884.122806	4933.462197
884.432522	4690.982697
884.742197	4469.824757
885.051831	4263.747429
885.361424	4065.574630
885.670975	3899.367788
885.980485	3748.541506
886.289954	3625.214718
886.599382	3523.030530
886.908768	3436.284875
887.218113	3356.848893
887.527417	3293.400931
887.836680	3240.710791
888.145901	3190.044674
888.455082	3150.461534
888.764221	3121.706793
889.073319	3092.452977
889.382376	3072.842889
889.691392	3056.779252
890.000366	3047.276677
890.309300	3041.343239
890.618193	3034.966179
890.927044	3031.512989
891.235855	3031.041641
891.544625	3035.747558
891.853353	3043.029505
892.162041	3055.027451
892.470687	3081.591811
892.779293	3114.334105
893.087858	3164.881755
893.396381	3241.739187
893.704864	3349.072914
894.013306	3501.424145
894.321707	3689.499512
894.630068	3838.805886
894.938387	3917.548709
895.246665	3928.982046
895.554903	3870.413921
895.863100	3783.733801
896.171256	3709.351576
896.479371	3636.585041
896.787446	3562.036458
897.095480	3486.277998
897.403473	3429.945624
897.711425	3373.817417
898.019336	3320.504695
898.327207	3271.063578
898.635038	3224.974829
898.942827	3174.233095
899.250576	3132.487300
899.558284	3089.957606
899.865952	3063.466343
900.173579	3034.250335
900.481165	3013.064886
900.788711	2994.021928
901.096216	2977.355873
901.403681	2964.768112
901.711105	2956.760239
902.018489	2953.493571
902.325832	2960.427678
902.633135	2969.595017
902.940397	3006.350069
903.247619	3095.550766
903.554800	3273.632046
903.861941	3548.994993
904.169041	3809.052996
904.476101	3979.978359
904.783121	3998.739013
905.090100	3932.367181
905.397039	3829.973785
905.703938	3723.308011
906.010796	3624.836632
906.317614	3538.713560
906.624391	3452.582926
906.931129	3382.200856
907.237826	3312.960608
907.544483	3246.853437
907.851099	3178.361800
908.157675	3102.686519
908.464211	3030.013246
908.770707	2970.956128
909.077163	2925.008532
909.383578	2887.809857
909.689954	2859.902030
909.996289	2839.661797
910.302584	2826.685867
910.608839	2819.204795
910.915054	2809.568629
911.221229	2805.513021
911.527363	2805.646611
911.833458	2805.379430
912.139513	2808.356232
912.445527	2811.413691
912.751502	2820.555824
913.057436	2840.823783
913.363331	2857.391535
913.669186	2889.685167
913.975000	2925.043820
914.280775	2987.070177
914.586510	3065.550860
914.892205	3176.317612
915.197859	3321.016372
915.503475	3500.025224
915.809050	3679.258408
916.114585	3807.893531
916.420081	3888.592322
916.725536	3918.161210
917.030952	3881.214593
917.336328	3839.488963
917.641665	3796.031696
917.946961	3733.922160
918.252218	3671.747089
918.557435	3599.449381
918.862612	3530.899771
919.167750	3471.686378
919.472848	3402.201634
919.777906	3330.183710
920.082925	3261.019079
920.387904	3190.682380
920.692843	3136.840337
920.997743	3086.436360
921.302603	3033.544574
921.607423	2999.504183
921.912204	2965.705767
922.216946	2940.220213
922.521647	2914.659043
922.826310	2890.680794
923.130932	2874.763351
923.435516	2855.624611
923.740059	2843.178002
924.044564	2823.991370
924.349028	2816.883343
924.653454	2800.623102
924.957840	2786.086934
925.262186	2776.801129
925.566493	2763.827720
925.870761	2752.628796
926.174989	2750.617376
926.479178	2741.548340
926.783328	2732.171794
927.087438	2726.757595
927.391509	2719.505895
927.695541	2713.590101
927.999533	2705.612475
928.303486	2704.377392
928.607400	2699.658872
928.911275	2697.549149
929.215110	2694.771474
929.518906	2691.262831
929.822663	2692.538242
930.126381	2687.119002
930.430060	2692.676874
930.733699	2689.483303
931.037299	2691.582944
931.340861	2688.918694
931.644383	2693.125537
931.947866	2691.840043
932.251309	2688.381811
932.554714	2688.976667
932.858080	2690.594878
933.161407	2686.856862
933.464694	2688.805268
933.767943	2687.519774
934.071153	2683.474248
934.374323	2683.547345
934.677455	2682.299659
934.980548	2681.228414
935.283602	2680.983918
935.586617	2678.024761
935.889593	2677.767662
936.192530	2682.299659
936.495428	2679.821932
936.798287	2685.019362
937.101108	2688.802747
937.403890	2696.019159
937.706632	2704.092567
938.009336	2717.451625
938.312002	2729.333624
938.614628	2741.434914
938.917216	2750.612335
939.219765	2756.477717
939.522275	2762.643048
939.824747	2765.962648
940.127179	2765.042638
940.429573	2764.467946
940.731929	2763.742020
941.034246	2763.958790
941.336524	2765.392998
941.638763	2765.428286
941.940964	2762.912750
942.243126	2754.980495
942.545250	2753.773138
942.847335	2747.897673
943.149381	2740.656056
943.451389	2735.882083
943.753359	2728.262379
944.055290	2725.252810
944.357182	2719.997407
944.659036	2717.560010
944.960851	2714.880636
945.262628	2709.537013
945.564367	2711.858465
945.866067	2710.267981
946.167729	2708.475850
946.469352	2708.596838
946.770937	2706.287990
947.072484	2705.189018
947.373992	2705.040304
947.675462	2701.130889
947.976893	2702.650797
948.278286	2698.557380
948.579641	2697.206351
948.880958	2697.680219
949.182236	2698.333049
949.483476	2695.991433
949.784678	2696.293902
950.085841	2694.375743
950.386967	2695.076463
950.688054	2697.271886
950.989103	2699.759695
951.290114	2702.885211
951.591087	2707.495346
951.892021	2713.627910
952.192917	2715.311655
952.493776	2719.732747
952.794596	2723.344734
953.095378	2725.706514
953.396122	2724.478993
953.696828	2725.499827
953.997496	2725.668706
954.298126	2722.036554
954.598718	2719.382387
954.899272	2715.472972
955.199788	2709.728577
955.500266	2705.541899
955.800706	2697.902030
956.101108	2688.709486
956.401472	2686.249403
956.701798	2679.766479
957.002087	2671.763647
957.302337	2669.517813
957.602550	2666.417504
957.902724	2656.975423
958.202861	2652.579537
958.502960	2650.109371
958.803022	2645.315234
959.103045	2639.384316
959.403031	2637.120838
959.702979	2631.613378
960.002889	2629.221350
960.302762	2628.344189
960.602596	2627.088942
960.902393	2621.957047
961.202153	2621.029475
961.501875	2618.221552
961.801559	2620.278343
962.101205	2617.546038
962.400814	2617.142746
962.700385	2613.442539
962.999918	2613.409771
963.299414	2612.504884
963.598873	2613.114864
963.898293	2610.158227
964.197677	2614.458331
964.497022	2608.718978
964.796331	2610.112857
965.095601	2608.343412
965.394835	2608.499687
965.694030	2607.302413
965.993189	2607.892228
966.292309	2608.550099
966.591393	2604.043307
966.890439	2603.100612
967.189447	2603.496342
967.488419	2607.133535
967.787353	2607.647732
968.086249	2606.548761
968.385108	2604.774275
968.683930	2608.666045
968.982714	2608.711416
969.281462	2610.828700
969.580172	2609.379369
969.878844	2609.825511
970.177480	2610.934565
970.476078	2614.629730
970.774639	2613.618979
971.073162	2615.753908
971.371649	2613.934051
971.670098	2612.482199
971.968510	2616.966305
972.266885	2618.821450
972.565223	2619.910339
972.863524	2619.197016
973.161788	2621.468056
973.460014	2619.769187
973.758204	2621.866307
974.056356	2623.698766
974.354471	2621.929321
974.652550	2621.145422
974.950591	2622.987963
975.248595	2622.498972
975.546563	2624.429733
975.844493	2621.546193
976.142386	2621.659619
976.440243	2620.467387
976.738062	2620.709362
977.035845	2618.226594
977.333590	2617.117540
977.631299	2617.966974
977.928971	2616.777262
978.226606	2615.665687
978.524204	2617.389762
978.821765	2612.545213
979.119290	2614.077724
979.416777	2612.711571
979.714228	2615.723661
980.011642	2616.353805
980.309020	2618.851697
980.606360	2615.993363
980.903664	2620.384207
981.200931	2629.526340
981.498162	2632.273769
981.795356	2646.515028
982.092513	2660.179076
982.389633	2679.080882
982.686717	2694.957996
982.983764	2710.537682
983.280775	2727.067626
983.577749	2730.062071
983.874686	2731.158522
984.171587	2728.025445
984.468451	2722.034034
984.765279	2715.256202
985.062070	2707.258412
985.358824	2699.827751
985.655543	2690.736030
985.952224	2681.853517
986.248869	2670.437824
986.545478	2654.079280
986.842050	2640.309368
987.138586	2631.777215
987.435086	2623.242542
987.731549	2614.975049
988.027975	2614.057559
988.324366	2611.652929
988.620719	2604.207145
988.917037	2603.866867
989.213318	2603.335025
989.509563	2600.043152
989.805772	2597.298243
990.101944	2597.159612
990.398080	2597.225147
990.694180	2593.759353
990.990244	2597.073912
991.286271	2596.211875
991.582262	2596.605085
991.878217	2594.938983
992.174136	2596.022832
992.470019	2595.284302
992.765865	2596.925198
993.061676	2599.977617
993.357450	2598.780343
993.653188	2603.236723
993.948890	2604.668410
994.244556	2607.372989
994.540186	2609.724688
994.835780	2617.664505
995.131337	2625.821092
995.426859	2631.610857
995.722345	2636.730149
996.017795	2647.412354
996.313208	2654.096924
996.608586	2662.440033
996.903928	2666.049500
997.199234	2667.839109
997.494504	2670.188287
997.789738	2667.249294
998.084936	2664.942966
998.380099	2660.965496
998.675225	2654.845535
998.970316	2649.580050
999.265371	2641.912455
999.560390	2633.975158
999.855373	2628.979375
1000.150320	2622.635083
1000.445232	2617.248610
1000.740108	2612.278032
1001.034948	2610.798453
1001.329752	2607.239399
1001.624521	2598.470312
1001.919254	2594.160125
1002.213951	2592.579723
1002.508613	2593.199785
1002.803239	2592.370516
1003.097829	2587.462952
1003.392384	2591.314394
1003.686903	2589.902871
1003.981386	2590.638879
1004.275834	2589.000504
1004.570246	2588.176276
1004.864623	2586.406831
1005.158964	2587.601584
1005.453270	2586.391707
1005.747540	2585.907756
1006.041775	2585.885071
1006.335974	2585.055801
1006.630138	2584.584453
1006.924266	2584.710482
1007.218359	2582.714185
1007.512416	2584.034968
1007.806438	2586.094279
1008.100425	2581.196798
1008.394376	2583.462797
1008.688292	2584.624783
1008.982172	2580.836356
1009.276017	2583.999680
1009.569827	2582.799885
1009.863602	2584.196285
1010.157341	2584.435739
1010.451045	2585.118816
1010.744714	2582.139494
1011.038347	2582.061356
1011.331945	2581.632858
1011.625508	2583.482961
1011.919036	2584.549165
1012.212528	2582.638568
1012.505986	2579.339133
1012.799408	2582.608321
1013.092795	2580.906932
1013.386147	2581.373238
1013.679464	2581.980697
1013.972745	2581.786613
1014.265992	2581.194277
1014.559204	2581.181675
1014.852380	2577.746128
1015.145521	2578.961046
1015.438628	2581.547158
1015.731699	2581.395924
1016.024736	2580.929617
1016.317737	2579.102199
1016.610703	2581.884916
1016.903635	2581.191757
1017.196531	2578.918197
1017.489393	2578.383834
1017.782219	2578.265367
1018.075011	2581.834504
1018.367768	2582.504977
1018.660490	2583.619073
1018.953177	2583.619073
1019.245829	2583.619073
