Dividing Wavelength (nm)	Counts (n)	Blue Motor Position (mm): 1.900000	Red Motor Position (mm): 0.000000	
326.493990	2143.208749
326.888308	2143.208749
327.282561	2143.208749
327.676750	2110.466455
328.070874	2109.765734
328.464933	2113.130705
328.858929	2121.057919
329.252859	2129.670730
329.646726	2141.303193
330.040528	2153.069246
330.434265	2167.978458
330.827938	2188.594257
331.221547	2202.245702
331.615091	2222.523743
332.008571	2242.448904
332.401986	2263.606626
332.795338	2280.837290
333.188625	2303.426701
333.581847	2321.771459
333.975006	2337.507421
334.368100	2358.985257
334.761129	2375.588297
335.154095	2391.722510
335.546996	2412.277815
335.939833	2422.554207
336.332606	2439.127000
336.725315	2451.742488
337.117960	2461.113993
337.510540	2465.567852
337.903056	2479.398258
338.295508	2484.918321
338.687896	2490.410658
339.080220	2504.087309
339.472480	2511.734739
339.864676	2516.992663
340.256807	2519.422499
340.648875	2519.805627
341.040879	2527.090094
341.432818	2524.062881
341.824694	2529.469518
342.216506	2530.054292
342.608253	2530.137471
342.999937	2529.807276
343.391557	2528.418438
343.783113	2526.906092
344.174605	2525.423992
344.566033	2524.405679
344.957397	2523.851152
345.348697	2521.572551
345.739934	2519.911491
346.131106	2515.979391
346.522215	2517.607683
346.913260	2514.845131
347.304241	2510.171982
347.695159	2510.582836
348.086012	2507.674090
348.476802	2506.854902
348.867528	2505.241733
349.258191	2504.848523
349.648789	2503.578152
350.039324	2501.473471
350.429796	2501.758296
350.820203	2501.188645
351.210548	2496.419714
351.600828	2497.311998
351.991045	2497.289313
352.381198	2497.942142
352.771288	2497.702688
353.161314	2494.357882
353.551276	2493.027017
353.941175	2496.344097
354.331010	2496.069354
354.720782	2495.303098
355.110490	2495.005670
355.500135	2494.635145
355.889717	2495.739158
356.279235	2493.609271
356.668689	2492.802686
357.058080	2492.926194
357.447408	2495.882831
357.836672	2491.885196
358.225873	2493.657162
358.615010	2493.090032
359.004084	2497.770743
359.393095	2496.888541
359.782043	2498.983141
360.170927	2500.699653
360.559748	2501.377689
360.948505	2499.716628
361.337199	2499.996413
361.725830	2501.261742
362.114398	2500.427431
362.502903	2501.140754
362.891344	2501.155878
363.279722	2501.927174
363.668037	2503.681496
364.056289	2503.328615
364.444478	2503.550426
364.832603	2502.973214
365.220665	2506.701147
365.608665	2503.931033
365.996601	2504.782988
366.384474	2507.676610
366.772284	2505.675272
367.160031	2506.728873
367.547715	2507.114522
367.935336	2509.405726
368.322893	2508.276508
368.710388	2506.013030
369.097820	2510.391272
369.485189	2507.764831
369.872495	2508.823473
370.259738	2509.647702
370.646918	2511.104595
371.034035	2510.096364
371.421090	2512.269102
371.808081	2507.664008
372.195010	2510.706344
372.581875	2510.252640
372.968678	2514.159534
373.355418	2509.559481
373.742096	2510.217352
374.128710	2509.710716
374.515262	2511.820439
374.901751	2510.723988
375.288177	2512.329595
375.674540	2512.949657
376.060841	2512.256499
376.447079	2510.469410
376.833254	2513.478978
377.219367	2506.499501
377.605417	2510.819770
377.991404	2510.325737
378.377329	2510.361025
378.763191	2507.265756
379.148991	2514.151972
379.534727	2513.098371
379.920402	2517.153980
380.306013	2514.913187
380.691563	2515.485358
381.077049	2514.406551
381.462474	2516.380162
381.847835	2516.954854
382.233134	2513.126098
382.618371	2516.632220
383.003545	2517.569875
383.388657	2514.862775
383.773706	2516.642303
384.158693	2517.693383
384.543618	2516.065090
384.928480	2518.010976
385.313280	2519.251100
385.698017	2516.861593
386.082692	2519.157838
386.467305	2516.309586
386.851856	2518.363857
387.236344	2519.145235
387.620770	2521.433919
388.005133	2519.825791
388.389435	2521.522139
388.773674	2518.494927
389.157851	2518.593229
389.541965	2521.549866
389.926018	2518.137005
390.310008	2523.528519
390.693936	2521.363343
391.077802	2522.563138
391.461606	2520.657582
391.845348	2520.745802
392.229027	2520.370236
392.612645	2520.917201
392.996200	2521.693539
393.379694	2519.959382
393.763125	2521.202026
394.146494	2522.855525
394.529801	2521.209588
394.913047	2520.952489
395.296230	2523.858714
395.679351	2521.985926
396.062410	2522.444671
396.445408	2522.154804
396.828343	2523.997346
397.211217	2518.348733
397.594028	2522.994156
397.976778	2519.863600
398.359466	2521.721265
398.742092	2522.467356
399.124656	2522.280833
399.507158	2524.272089
399.889598	2525.282840
400.271977	2524.703108
400.654294	2526.515402
401.036549	2525.867614
401.418742	2528.385670
401.800874	2525.252593
402.182944	2523.079856
402.564952	2527.505989
402.946898	2528.607481
403.328783	2526.316277
403.710606	2524.604805
404.092367	2525.713859
404.474067	2528.486493
404.855705	2528.426000
405.237282	2527.200999
405.618797	2526.210413
406.000250	2526.976668
406.381642	2527.785773
406.762972	2524.055319
407.144240	2527.521113
407.525447	2529.809796
407.906593	2527.256452
408.287677	2527.652182
408.668700	2527.994981
409.049661	2528.461288
409.430560	2527.705115
409.811399	2528.231915
410.192176	2527.853829
410.572891	2529.968593
410.953545	2526.754857
411.334138	2528.045392
411.714669	2530.407173
412.095139	2531.811134
412.475547	2531.662420
412.855894	2531.004550
413.236180	2527.972296
413.616405	2532.726104
413.996568	2530.611340
414.376670	2529.461957
414.756711	2529.005732
415.136691	2530.379447
415.516609	2532.942873
415.896466	2534.649304
416.276262	2532.267359
416.655997	2527.422810
417.035670	2528.365506
417.415283	2528.073119
417.794834	2530.520599
418.174324	2528.864580
418.553753	2530.001360
418.933121	2534.480425
419.312428	2532.161495
419.691674	2531.738038
420.070859	2531.475898
420.449983	2533.406660
420.829045	2534.437576
421.208047	2532.491690
421.586988	2532.279962
421.965867	2534.384643
422.344686	2534.208203
422.723444	2533.661238
423.102141	2531.859025
423.480777	2532.428676
423.859352	2533.363810
424.237866	2533.762061
424.616319	2536.403626
424.994712	2534.908923
425.373044	2533.615867
425.751314	2532.907585
426.129524	2533.983872
426.507673	2534.813142
426.885762	2532.335414
427.263789	2536.287679
427.641756	2537.822710
428.019662	2537.185004
428.397508	2534.888759
428.775292	2534.878677
429.153016	2533.822555
429.530679	2536.640560
429.908282	2535.844057
430.285824	2535.980169
430.663305	2534.366999
431.040726	2534.419932
431.418086	2536.365817
431.795385	2535.155940
432.172624	2537.076620
432.549802	2538.253729
432.926920	2535.536547
433.303977	2536.912782
433.680974	2536.159130
434.057910	2538.067206
434.434786	2536.665766
434.811601	2538.183153
435.188355	2536.877494
435.565050	2538.614172
435.941683	2537.747093
436.318257	2535.665097
436.694770	2533.363810
437.071222	2537.051414
437.447614	2535.307175
437.823946	2536.761548
438.200218	2538.591486
438.576429	2539.168698
438.952580	2538.664583
439.328670	2538.767927
439.704700	2537.719367
440.080670	2539.574511
440.456580	2538.871270
440.832429	2539.055272
441.208218	2539.635005
441.583947	2539.645087
441.959616	2537.336239
442.335224	2540.176929
442.710773	2536.718698
443.086261	2540.300438
443.461689	2540.333205
443.837057	2540.824717
444.212365	2541.979142
444.587612	2539.438400
444.962800	2539.433359
445.337927	2540.262629
445.712995	2537.323636
446.088002	2541.255736
446.462949	2538.480581
446.837837	2541.795140
447.212664	2539.196425
447.587431	2542.178267
447.962139	2540.754141
448.336786	2541.167516
448.711374	2539.826569
449.085901	2541.412012
449.460369	2540.222300
449.834776	2539.367824
450.209124	2541.659028
450.583412	2541.560726
450.957640	2544.071221
451.331808	2541.507794
451.705917	2542.450490
452.079965	2540.567619
452.453954	2539.173740
452.827883	2544.464431
453.201752	2541.033925
453.575562	2542.679862
453.949311	2541.328833
454.323001	2542.473175
454.696632	2542.211035
455.070202	2544.471992
455.443713	2541.843031
455.817164	2539.498894
456.190556	2539.433359
456.563888	2540.449152
456.937160	2538.878832
457.310373	2541.696837
457.683526	2543.925027
458.056619	2540.786909
458.429653	2544.340922
458.802628	2542.165664
459.175542	2545.026519
459.548398	2540.983514
459.921194	2545.029040
460.293930	2542.082485
460.666607	2544.154400
461.039224	2542.896632
461.411782	2544.046015
461.784280	2544.716488
462.156719	2543.806560
462.529099	2544.076262
462.901419	2543.373021
463.273680	2543.531817
463.645882	2543.554502
464.018024	2543.418391
464.390106	2546.788403
464.762130	2544.237579
465.134094	2543.241951
465.505999	2546.674977
465.877845	2541.601055
466.249631	2545.039122
466.621358	2543.995603
466.993026	2545.147507
467.364634	2547.017775
467.736184	2545.031560
468.107674	2545.218083
468.479105	2546.327137
468.850477	2545.717157
469.221790	2545.152548
469.593043	2542.977290
469.964238	2542.674821
470.335373	2546.838814
470.706449	2545.233207
471.077467	2544.051056
471.448425	2545.099616
471.819324	2548.058773
472.190164	2547.133722
472.560945	2546.921993
472.931667	2546.788403
473.302330	2542.909235
473.672934	2545.996941
474.043479	2543.730943
474.413965	2544.812270
474.784393	2539.418236
475.154761	2542.377393
475.525070	2541.348998
475.895321	2541.822866
476.265513	2545.031560
476.635645	2545.258412
477.005719	2543.609955
477.375734	2547.945347
477.745691	2546.949719
478.115588	2545.709596
478.485427	2544.676159
478.855207	2546.445604
479.224928	2546.947199
479.594591	2543.635161
479.964194	2544.998793
480.333739	2545.215563
480.703226	2545.760007
481.072653	2545.318906
481.442022	2548.459545
481.811333	2547.237065
482.180584	2547.594987
482.549777	2545.850748
482.918912	2548.131870
483.287988	2547.736139
483.657005	2545.243289
484.025964	2548.026006
484.394864	2546.848896
484.763706	2545.966694
485.132489	2548.144473
485.501213	2547.552137
485.869879	2548.976263
486.238487	2544.429142
486.607036	2546.153217
486.975527	2548.041129
487.343959	2549.127498
487.712333	2545.205480
488.080648	2546.125491
488.448905	2549.924000
488.817104	2546.324616
489.185244	2550.130688
489.553326	2546.753114
489.921350	2546.765717
490.289315	2548.154555
490.657222	2549.097251
491.025070	2548.073897
491.392861	2550.259237
491.760593	2551.259906
492.128267	2551.156562
492.495883	2548.222611
492.863440	2548.018444
493.230939	2551.295194
493.598380	2548.532642
493.965763	2544.391334
494.333088	2545.944009
494.700354	2543.365459
495.067563	2547.247147
495.434713	2545.223124
495.801805	2549.281253
496.168839	2550.440718
496.535815	2549.543393
496.902733	2550.813764
497.269593	2547.448794
497.636395	2547.431150
498.003139	2548.799823
498.369825	2548.056253
498.736453	2549.029195
499.103023	2547.564740
499.469535	2551.748898
499.835989	2550.400389
500.202385	2547.842004
500.568723	2548.585574
500.935003	2546.801005
501.301226	2549.092210
501.667390	2548.215049
502.033497	2550.029864
502.399546	2549.813095
502.765537	2546.921993
503.131470	2547.665563
503.497345	2550.808723
503.863163	2551.522046
504.228923	2549.873589
504.594625	2548.293187
504.960269	2546.795964
505.325856	2550.760832
505.691385	2550.314690
506.056856	2551.154042
506.422270	2549.682025
506.787625	2549.765204
507.152924	2549.074566
507.518164	2550.065153
507.883347	2549.629093
508.248472	2550.057591
508.613540	2548.562889
508.978550	2547.350491
509.343503	2551.327962
509.708398	2552.757129
510.073236	2549.561037
510.438016	2551.085986
510.802738	2547.368135
511.167403	2547.617672
511.532010	2546.158258
511.896561	2550.912066
512.261053	2550.602035
512.625488	2548.252858
512.989866	2546.188505
513.354186	2549.371994
513.718449	2547.123639
514.082655	2547.090872
514.446803	2552.220246
514.810894	2548.207487
515.174927	2551.416182
515.538904	2548.625903
515.902822	2548.000800
516.266684	2550.067673
516.630488	2550.642365
516.994235	2550.087838
517.357925	2551.746377
517.721558	2550.173537
518.085133	2549.762683
518.448651	2550.188661
518.812112	2549.482899
519.175516	2551.103630
519.538863	2548.114226
519.902152	2550.012220
520.265385	2549.886192
520.628560	2551.330482
520.991678	2552.023641
521.354739	2550.017262
521.717743	2551.348126
522.080690	2551.474155
522.443580	2550.879299
522.806413	2551.413661
523.169189	2552.265616
523.531908	2551.650595
523.894569	2550.899463
524.257174	2552.681511
524.619722	2552.981460
524.982213	2552.653785
525.344647	2551.796789
525.707025	2550.803682
526.069345	2549.571119
526.431608	2552.522715
526.793815	2550.838970
527.155964	2551.191850
527.518057	2550.528939
527.880093	2554.085473
528.242072	2551.305276
528.603995	2553.344423
528.965860	2551.010369
529.327669	2550.995245
529.689421	2549.803012
530.051117	2551.791748
530.412755	2548.595656
530.774337	2550.833928
531.135862	2551.247303
531.497331	2546.811088
531.858743	2546.780841
532.220098	2547.645399
532.581396	2546.090203
532.942638	2546.720347
533.303824	2550.483568
533.664953	2552.053888
534.026025	2551.612787
534.387040	2552.593291
534.747999	2552.003476
535.108902	2551.990873
535.469748	2553.220915
535.830537	2548.494833
536.191270	2550.211346
536.551947	2551.552293
536.912567	2551.937941
537.273131	2551.774104
537.633638	2552.565565
537.994089	2553.294012
538.354483	2550.899463
538.714821	2551.017931
539.075103	2551.549772
539.435328	2550.143290
539.795497	2549.745039
540.155609	2552.263096
540.515665	2550.793599
540.875665	2550.990204
541.235609	2553.319217
541.595496	2552.618497
541.955328	2552.565565
542.315102	2550.901984
542.674821	2550.526418
543.034483	2554.942469
543.394090	2552.439536
543.753640	2555.073539
544.113134	2551.701007
544.472571	2553.460370
544.831953	2552.936090
545.191278	2552.008517
545.550548	2550.123126
545.909761	2554.781152
546.268918	2550.801161
546.628019	2549.251006
546.987064	2552.008517
547.346053	2554.629917
547.704986	2553.382232
548.063863	2550.513815
548.422684	2554.584547
548.781449	2552.346275
549.140158	2550.962478
549.498811	2554.191337
549.857408	2554.123281
550.215949	2550.801161
550.574434	2548.968702
550.932864	2549.697148
551.291237	2547.990718
551.649555	2554.014897
552.007817	2552.305945
552.366022	2553.190668
552.724173	2550.516336
553.082267	2550.531459
553.440305	2552.391645
553.798288	2552.764690
554.156215	2553.851059
554.514086	2552.336192
554.871902	2551.630431
555.229661	2555.459187
555.587365	2552.147149
555.945014	2553.301573
556.302606	2554.070349
556.660143	2551.552293
557.017625	2548.661191
557.375050	2553.399876
557.732421	2550.317210
558.089735	2554.861810
558.446994	2550.349978
558.804197	2552.754608
559.161345	2551.552293
559.518437	2550.909546
559.875474	2552.903322
560.232455	2552.893240
560.589381	2552.633620
560.946251	2554.287119
561.303065	2552.893240
561.659825	2551.529608
562.016528	2554.360216
562.373177	2550.314690
562.729770	2554.619835
563.086307	2551.085986
563.442789	2554.970195
563.799216	2553.961964
564.155587	2552.126984
564.511904	2553.964485
564.868164	2552.419371
565.224370	2551.368291
565.580520	2552.926007
565.936615	2552.759649
566.292654	2553.732592
566.648638	2551.688404
567.004567	2552.958775
567.360441	2553.132695
567.716260	2552.101779
568.072023	2555.128992
568.427732	2548.514998
568.783385	2550.428116
569.138982	2547.723537
569.494525	2549.175389
569.850013	2549.429967
570.205445	2553.951882
570.560823	2554.095555
570.916145	2554.234187
571.271412	2551.431305
571.626625	2553.321738
571.981782	2554.924825
572.336884	2553.840977
572.691931	2554.478683
573.046923	2555.554969
573.401860	2553.707386
573.756743	2554.471121
574.111570	2553.692263
574.466342	2553.629248
574.821059	2553.150339
575.175722	2551.443908
575.530330	2554.030020
575.884882	2551.537169
576.239380	2552.668908
576.593823	2553.722510
576.948211	2552.578168
577.302544	2552.608415
577.656823	2553.898950
578.011047	2555.312994
578.365216	2550.949875
578.719330	2553.626728
579.073389	2550.959957
579.427394	2551.517005
579.781344	2551.867365
580.135239	2552.709238
580.489080	2552.550441
580.842866	2551.111192
581.196597	2558.004970
581.550273	2555.060936
581.903895	2553.397355
582.257463	2550.256716
582.610975	2555.683518
582.964434	2554.171172
583.317837	2552.268137
583.671186	2553.046995
584.024481	2555.002963
584.377721	2552.300904
584.730906	2552.489947
585.084037	2554.297201
585.437113	2554.740823
585.790135	2554.072870
586.143103	2554.372818
586.496016	2555.562531
586.848874	2550.201264
587.201679	2552.469783
587.554428	2549.704710
587.907124	2550.375183
588.259765	2549.306459
588.612352	2554.619835
588.964884	2552.328631
589.317362	2553.364588
589.669786	2553.195709
590.022155	2554.277037
590.374470	2554.965154
590.726731	2552.414330
591.078937	2553.268806
591.431090	2551.680842
591.783188	2555.002963
592.135232	2554.072870
592.487222	2552.610935
592.839157	2553.656975
593.191038	2552.406768
593.542866	2553.052036
593.894639	2555.260062
594.246358	2552.507592
594.598022	2552.638662
594.949633	2555.277706
595.301190	2554.161090
595.652692	2550.402910
596.004141	2551.547252
596.355535	2554.337530
596.706876	2551.098589
597.058162	2553.399876
597.409395	2553.286450
597.760573	2552.116902
598.111698	2552.479865
598.462768	2554.196378
598.813785	2552.946172
599.164748	2555.181924
599.515657	2556.013714
599.866511	2553.785524
600.217312	2553.296532
600.568060	2553.747715
600.918753	2554.077911
601.269392	2550.952396
601.619978	2552.305945
601.970510	2555.411296
602.320988	2551.252344
602.671412	2551.940462
603.021783	2553.596481
603.372100	2552.081614
603.722363	2552.931048
604.072572	2554.498847
604.422728	2551.867365
604.772830	2550.639844
605.122878	2550.292004
605.472872	2553.178065
605.822813	2548.421736
606.172701	2552.575647
606.522534	2554.748384
606.872314	2553.687222
607.222041	2555.454146
607.571714	2555.020607
607.921333	2552.149670
608.270899	2551.663198
608.620411	2553.591440
608.969870	2555.960782
609.319276	2553.591440
609.668627	2559.875238
610.017926	2558.831719
610.367171	2559.865156
610.716362	2557.785680
611.065500	2559.305587
611.414585	2555.897768
611.763616	2555.648230
612.112594	2557.420196
612.461518	2555.408776
612.810389	2555.005483
613.159207	2552.774773
613.507971	2553.087324
613.856682	2553.132695
614.205340	2556.064126
614.553945	2554.985319
614.902496	2554.322407
615.250994	2554.171172
615.599439	2553.152859
615.947830	2553.495658
616.296169	2552.535318
616.644454	2552.885678
616.992686	2554.597150
617.340864	2554.813919
617.688990	2553.054557
618.037063	2553.856100
618.385082	2552.978939
618.733048	2552.805020
619.080961	2555.502037
619.428821	2556.117058
619.776628	2554.503888
620.124382	2553.546069
620.472083	2554.566903
620.819731	2552.187478
621.167326	2552.721841
621.514868	2553.397355
621.862357	2552.278219
622.209793	2553.009186
622.557176	2554.614794
622.904506	2551.960626
623.251783	2547.882333
623.599007	2550.339895
623.946179	2547.791592
624.293297	2549.734957
624.640363	2551.184289
624.987376	2552.043805
625.334336	2550.342416
625.681243	2552.210163
626.028097	2550.793599
626.374899	2552.605894
626.721647	2551.819474
627.068343	2556.069167
627.414987	2553.379711
627.761577	2556.681667
628.108115	2554.405586
628.454600	2553.800647
628.801032	2552.570606
629.147412	2552.205122
629.493739	2553.914073
629.840014	2551.766542
630.186236	2552.676470
630.532405	2552.013558
630.878521	2553.132695
631.224585	2553.193188
631.570597	2552.865513
631.916556	2553.220915
632.262462	2555.101265
632.608316	2549.324103
632.954117	2553.140256
633.299866	2553.936759
633.645562	2553.984650
633.991206	2553.979608
634.336797	2551.496840
634.682336	2551.854762
635.027823	2553.346944
635.373257	2553.508261
635.718639	2552.774773
636.063968	2550.624721
636.409245	2550.070194
636.754470	2553.241079
637.099642	2551.748898
637.444762	2553.503219
637.789829	2552.721841
638.134845	2552.371480
638.479808	2552.638662
638.824719	2553.538508
639.169577	2550.390307
639.514383	2553.110009
639.859137	2552.726882
640.203839	2553.064639
640.548489	2554.816440
640.893086	2551.030533
641.237632	2548.416695
641.582125	2550.912066
641.926566	2547.456355
642.270955	2551.557334
642.615292	2552.232849
642.959576	2552.558003
643.303809	2553.266285
643.647990	2553.727551
643.992118	2550.269319
644.336195	2554.002294
644.680219	2551.585060
645.024192	2551.297715
645.368112	2554.206460
645.711981	2554.284598
646.055797	2552.076573
646.399562	2552.678991
646.743274	2550.964998
647.086935	2551.053219
647.430544	2551.181768
647.774101	2552.787376
648.117606	2551.149001
648.461059	2549.767724
648.804460	2555.698642
649.147810	2555.156718
649.491108	2550.087838
649.834354	2552.507592
650.177548	2551.338044
650.520690	2552.013558
650.863781	2551.287632
651.206820	2554.798796
651.549807	2550.637323
651.892742	2552.905843
652.235626	2553.808209
652.578458	2550.632282
652.921238	2551.254865
653.263967	2552.772252
653.606644	2552.343754
653.949269	2553.198230
654.291843	2551.723692
654.634365	2552.215205
654.976836	2554.519012
655.319255	2554.834084
655.661622	2552.694114
656.003938	2551.839639
656.346203	2551.093548
656.688416	2550.813764
657.030577	2553.170503
657.372687	2551.045657
657.714746	2554.198899
658.056753	2553.500699
658.398708	2548.499874
658.740612	2548.396531
659.082465	2548.867878
659.424266	2550.672612
659.766016	2546.914431
660.107715	2551.660678
660.449362	2551.607746
660.790958	2552.600853
661.132503	2554.824002
661.473996	2547.781510
661.815438	2553.057077
662.156829	2554.269475
662.498168	2551.937941
662.839456	2552.653785
663.180693	2554.997922
663.521879	2550.589432
663.863013	2551.766542
664.204097	2553.304094
664.545129	2553.137736
664.886110	2551.325441
665.227040	2553.230997
665.567918	2553.014227
665.908746	2553.868703
666.249522	2553.294012
666.590248	2552.119423
666.930922	2550.904505
667.271545	2549.941644
667.612118	2552.643703
667.952639	2552.172355
668.293109	2551.549772
668.633528	2552.600853
668.973896	2552.300904
669.314213	2552.878116
669.654480	2552.890719
669.994695	2550.972560
670.334859	2553.636810
670.674973	2552.953734
671.015035	2552.777293
671.355047	2551.529608
671.695008	2550.707900
672.034918	2553.609084
672.374777	2552.237890
672.714585	2553.936759
673.054342	2556.008673
673.394049	2549.435008
673.733705	2552.242931
674.073310	2553.820812
674.412864	2552.316028
674.752368	2549.901315
675.091820	2551.801830
675.431223	2551.088507
675.770574	2551.917777
676.109875	2546.632127
676.449125	2549.682025
676.788324	2546.294369
677.127473	2551.612787
677.466571	2544.252702
677.805619	2551.834598
678.144616	2548.976263
678.483562	2551.917777
678.822458	2551.000287
679.161303	2551.975750
679.500098	2551.968188
679.838842	2550.261758
680.177535	2551.612787
680.516179	2549.765204
680.854771	2551.953065
681.193314	2555.285267
681.531805	2548.494833
681.870247	2554.486244
682.208638	2552.671429
682.546978	2552.888199
682.885268	2552.005997
683.223508	2551.937941
683.561697	2547.473999
683.899836	2554.110678
684.237925	2552.142108
684.575963	2550.143290
684.913951	2552.381563
685.251889	2552.205122
685.589776	2550.128167
685.927614	2552.026161
686.265401	2549.661860
686.603137	2551.953065
686.940824	2549.200595
687.278460	2554.803837
687.616046	2551.539690
687.953582	2548.756973
688.291068	2552.278219
688.628504	2551.098589
688.965889	2549.926521
689.303224	2550.286963
689.640510	2549.561037
689.977745	2548.099102
690.314930	2549.492982
690.652065	2549.601366
690.989150	2552.310987
691.326185	2552.419371
691.663170	2553.523384
692.000105	2552.747046
692.336990	2551.161603
692.673825	2553.951882
693.010610	2554.040102
693.347345	2548.230173
693.684030	2545.235727
694.020665	2549.039278
694.357251	2546.324616
694.693786	2550.657488
695.030272	2549.467776
695.366707	2552.195040
695.703093	2553.329300
696.039429	2550.448280
696.375716	2550.803682
696.711952	2550.425595
697.048139	2549.871068
697.384276	2551.663198
697.720363	2551.794268
698.056400	2550.470965
698.392388	2548.058773
698.728326	2550.997766
699.064214	2551.146480
699.400053	2555.045813
699.735842	2550.019782
700.071581	2552.724361
700.407270	2551.658157
700.742910	2550.891902
701.078501	2549.724875
701.414042	2551.796789
701.749533	2552.699155
702.084974	2552.873075
702.420366	2551.534649
702.755709	2552.177396
703.091002	2550.758311
703.426246	2552.101779
703.761440	2550.284443
704.096584	2551.176727
704.431679	2549.843342
704.766725	2552.742005
705.101721	2550.317210
705.436668	2551.605225
705.771565	2550.768393
706.106413	2554.534135
706.441212	2552.144628
706.775961	2552.361398
707.110661	2550.591953
707.445311	2550.546583
707.779913	2550.032385
708.114465	2554.024979
708.448967	2550.138249
708.783421	2550.065153
709.117825	2552.111861
709.452180	2552.999104
709.786485	2552.462221
710.120742	2552.363919
710.454949	2551.794268
710.789107	2550.624721
711.123216	2548.865358
711.457275	2550.324772
711.791286	2547.607590
712.125247	2548.966181
712.459159	2551.234700
712.793023	2551.209494
713.126837	2550.564227
713.460602	2551.285112
713.794318	2552.608415
714.127985	2551.857283
714.461602	2550.516336
714.795171	2552.134546
715.128691	2549.578681
715.462162	2551.509443
715.795584	2550.859134
716.128957	2549.429967
716.462281	2552.525236
716.795556	2552.595812
717.128782	2550.060111
717.461960	2552.643703
717.795088	2550.133208
718.128167	2549.112374
718.461198	2551.806871
718.794180	2552.762170
719.127113	2553.745195
719.459997	2551.292673
719.792833	2548.144473
720.125619	2552.182437
720.458357	2550.828887
720.791046	2551.433826
721.123686	2549.737477
721.456278	2550.780996
721.788821	2547.181612
722.121315	2551.474155
722.453761	2549.145142
722.786158	2548.298228
723.118506	2550.501212
723.450805	2546.813608
723.783056	2549.843342
724.115259	2549.223280
724.447412	2549.276212
724.779518	2550.695297
725.111574	2550.201264
725.443582	2550.017262
725.775542	2548.313352
726.107453	2551.380894
726.439315	2548.716644
726.771129	2554.367777
727.102895	2550.284443
727.434612	2552.240410
727.766281	2549.790410
728.097901	2550.423074
728.429473	2545.182795
728.760996	2549.026675
729.092471	2544.151879
729.423897	2549.253527
729.755276	2549.530790
730.086606	2552.379042
730.417887	2550.269319
730.749120	2548.971222
731.080305	2552.500030
731.411442	2548.623382
731.742530	2549.727395
732.073570	2553.273847
732.404562	2553.964485
732.735506	2550.239072
733.066401	2551.340564
733.397249	2551.711089
733.728048	2548.998948
734.058798	2551.206974
734.389501	2549.460214
734.720156	2550.939793
735.050762	2549.800492
735.381320	2550.191181
735.711831	2549.049360
736.042293	2550.765873
736.372707	2551.312838
736.703073	2553.357026
737.033391	2548.535162
737.363661	2550.193702
737.693883	2549.409802
738.024056	2552.366439
738.354182	2551.343085
738.684260	2552.404248
739.014290	2548.998948
739.344272	2549.359391
739.674207	2546.727909
740.004093	2553.069680
740.333931	2547.776469
740.663722	2547.471479
740.993464	2549.926521
741.323159	2553.790565
741.652806	2548.426778
741.982405	2549.513146
742.311956	2548.681356
742.641460	2552.694114
742.970915	2550.284443
743.300323	2549.319062
743.629683	2550.171017
743.958996	2550.967519
744.288260	2551.784186
744.617477	2549.130018
744.946647	2544.643392
745.275768	2546.266643
745.604842	2543.267157
745.933869	2549.452652
746.262847	2545.117260
746.591778	2551.269988
746.920662	2548.217570
747.249498	2550.690256
747.578286	2549.780327
747.907027	2549.213197
748.235720	2547.569781
748.564365	2551.005328
748.892963	2548.094061
749.221514	2550.284443
749.550017	2551.426264
749.878473	2550.438198
750.206881	2551.075904
750.535242	2549.999618
750.863555	2551.698486
751.191821	2547.413506
751.520039	2550.405430
751.848210	2547.766386
752.176334	2549.152704
752.504411	2549.692107
752.832440	2550.173537
753.160421	2549.003990
753.488356	2549.624052
753.816243	2550.443239
754.144082	2548.278063
754.471875	2548.104144
754.799620	2550.559186
755.127318	2551.174206
755.454969	2552.452139
755.782572	2550.430636
756.110129	2548.378887
756.437638	2550.705379
756.765100	2548.789741
757.092515	2552.593291
757.419882	2550.919628
757.747203	2548.958619
758.074477	2552.951213
758.401703	2550.281922
758.728882	2548.210008
759.056014	2550.919628
759.383099	2550.047508
759.710138	2549.838301
760.037129	2550.962478
760.364073	2547.831921
760.690970	2546.843855
761.017820	2550.730585
761.344623	2551.761501
761.671379	2548.789741
761.998088	2543.741025
762.324751	2549.263609
762.651366	2545.588608
762.977935	2551.249824
763.304456	2545.548279
763.630931	2549.334185
763.957359	2550.796120
764.283740	2552.507592
764.610074	2547.116077
764.936362	2549.233362
765.262602	2548.550286
765.588796	2550.155893
765.914943	2551.632951
766.241044	2547.960471
766.567097	2550.206305
766.893104	2549.805533
767.219064	2547.695810
767.544978	2549.687066
767.870845	2551.070863
768.196665	2549.568599
768.522438	2548.825029
768.848165	2551.459032
769.173846	2551.043136
769.499479	2548.638506
769.825066	2548.494833
770.150607	2551.466593
770.476101	2549.492982
770.801548	2551.080945
771.126949	2548.550286
771.452303	2547.549617
771.777611	2549.109854
772.102872	2546.594318
772.428087	2550.440718
772.753256	2550.380225
773.078378	2545.777651
773.403453	2548.363763
773.728482	2548.797302
774.053465	2549.077086
774.378401	2549.898794
774.703291	2549.911397
775.028135	2545.596170
775.352932	2547.826880
775.677683	2551.035575
776.002388	2547.945347
776.327046	2547.479041
776.651658	2549.583722
776.976224	2547.315203
777.300743	2551.348126
777.625216	2548.174720
777.949643	2550.879299
778.274024	2550.201264
778.598359	2546.939637
778.922647	2544.562733
779.246889	2546.553989
779.571086	2547.680687
779.895236	2546.957281
780.219339	2547.758825
780.543397	2549.477858
780.867409	2547.743701
781.191374	2549.031716
781.515294	2549.515667
781.839167	2546.458207
782.162995	2550.246634
782.486776	2549.523228
782.810511	2550.344937
783.134201	2550.904505
783.457844	2550.118085
783.781441	2550.511295
784.104993	2548.479710
784.428498	2549.213197
784.751958	2550.292004
785.075372	2553.440205
785.398739	2550.821326
785.722061	2550.652447
786.045337	2548.419216
786.368568	2548.406613
786.691752	2548.998948
787.014891	2550.042467
787.337983	2545.707075
787.661030	2547.842004
787.984031	2547.647919
788.306987	2548.981304
788.629897	2548.996428
788.952760	2549.452652
789.275579	2547.758825
789.598351	2550.856614
789.921078	2549.014072
790.243759	2550.392827
790.566395	2547.426108
790.888984	2548.041129
791.211529	2549.145142
791.534027	2548.053732
791.856480	2548.023485
792.178888	2549.392158
792.501249	2547.658002
792.823566	2547.363094
793.145836	2549.442570
793.468062	2548.242775
793.790241	2547.814277
794.112375	2546.992569
794.434464	2546.128011
794.756507	2548.976263
795.078505	2548.378887
795.400457	2545.507949
795.722364	2543.337733
796.044226	2546.674977
796.366042	2542.049718
796.687812	2545.258412
797.009538	2547.184133
797.331218	2549.273691
797.652852	2547.353012
797.974442	2547.698331
798.295986	2547.781510
798.617484	2548.507436
798.938938	2547.690769
799.260346	2550.324772
799.581709	2547.811757
799.903026	2551.640513
800.224299	2548.378887
800.545526	2547.728578
800.866708	2546.753114
801.187845	2548.711603
801.508936	2545.714637
801.829983	2546.455686
802.150984	2544.829914
802.471940	2550.133208
802.792851	2546.969884
803.113717	2551.005328
803.434538	2546.720347
803.755314	2549.140101
804.076045	2548.424257
804.396731	2547.874771
804.717372	2547.383259
805.037967	2548.010882
805.358518	2548.051212
805.679024	2547.204298
805.999485	2547.811757
806.319901	2546.566592
806.640272	2546.614483
806.960598	2547.105995
807.280879	2551.232180
807.601115	2549.435008
807.921306	2547.413506
808.241453	2548.711603
808.561554	2549.666901
808.881611	2548.958619
809.201623	2548.454504
809.521590	2549.757642
809.841513	2548.424257
810.161390	2547.385779
810.481223	2547.315203
810.801011	2548.356201
811.120755	2548.575492
811.440453	2549.467776
811.760107	2546.919473
812.079716	2546.206149
812.399281	2545.424770
812.718801	2545.301262
813.038276	2541.550644
813.357707	2549.419885
813.677093	2548.414175
813.996434	2550.556665
814.315731	2548.371325
814.634983	2548.073897
814.954191	2549.205636
815.273354	2550.491130
815.592473	2548.686397
815.911547	2548.305790
816.230577	2547.078269
816.549562	2549.649257
816.868502	2549.684545
817.187399	2548.706562
817.506250	2547.347971
817.825058	2549.500543
818.143821	2547.899977
818.462539	2547.416026
818.781213	2547.789072
819.099843	2548.893084
819.418429	2547.592467
819.736970	2549.462735
820.055466	2547.917621
820.373919	2548.946016
820.692327	2547.161448
821.010691	2546.823691
821.329011	2546.695141
821.647286	2549.303938
821.965517	2546.271684
822.283704	2546.143135
822.601847	2548.305790
822.919945	2547.781510
823.237999	2544.023330
823.556010	2547.688248
823.873976	2548.240255
824.191897	2548.963660
824.509775	2546.470810
824.827609	2548.860317
825.145398	2548.706562
825.463144	2548.361243
825.780845	2544.892929
826.098502	2548.182282
826.416116	2548.736808
826.733685	2547.894936
827.051210	2546.047353
827.368692	2549.924000
827.686129	2546.183464
828.003522	2547.118598
828.320872	2544.061138
828.638177	2546.392672
828.955439	2545.664225
829.272656	2543.990562
829.589830	2542.233720
829.906960	2548.623383
830.224046	2546.284287
830.541088	2548.320913
830.858086	2547.688248
831.175041	2547.607590
831.491952	2545.926365
831.808819	2547.451314
832.125642	2545.480223
832.442421	2547.637837
832.759157	2548.167158
833.075849	2549.003990
833.392497	2550.705379
833.709101	2546.617003
834.025662	2546.642209
834.342179	2545.891077
834.658653	2546.400234
834.975083	2547.932744
835.291469	2552.341233
835.607811	2547.105995
835.924110	2544.257743
836.240366	2546.785882
836.556578	2546.155738
836.872746	2550.844011
837.188871	2548.741850
837.504952	2545.921324
837.820990	2546.203629
838.136984	2544.701365
838.452935	2545.969215
838.768842	2547.814277
839.084706	2546.831252
839.400526	2546.496016
839.716303	2545.893598
840.032037	2547.768907
840.347727	2545.326468
840.663373	2548.633465
840.978977	2546.611962
841.294537	2545.833104
841.610054	2548.696479
841.925527	2546.715306
842.240957	2548.235214
842.556344	2549.553475
842.871687	2546.614483
843.186987	2546.513660
843.502244	2544.207332
843.817458	2546.375028
844.132629	2549.402241
844.447756	2543.541899
844.762840	2543.667928
845.077881	2544.640871
845.392879	2542.342105
845.707833	2544.645912
846.022745	2541.233051
846.337613	2547.736139
846.652438	2544.315717
846.967221	2546.397713
847.281960	2545.933927
847.596656	2548.310831
847.911309	2546.314534
848.225919	2548.159596
848.540485	2548.416695
848.855009	2548.724206
849.169490	2547.842004
849.483928	2545.691952
849.798323	2547.113557
850.112675	2545.170192
850.426984	2548.467107
850.741251	2548.073897
851.055474	2548.313352
851.369654	2547.506767
851.683792	2546.392672
851.997887	2546.622044
852.311938	2546.528783
852.625947	2545.696993
852.939914	2547.990718
853.253837	2546.891746
853.567718	2547.005172
853.881555	2548.578012
854.195350	2545.976777
854.509103	2546.122970
854.822812	2545.018957
855.136479	2549.924000
855.450103	2545.787733
855.763685	2546.866540
856.077224	2547.496685
856.390720	2546.133052
856.704173	2548.865358
857.017584	2548.797302
857.330953	2543.804039
857.644278	2547.176571
857.957561	2548.457024
858.270802	2547.721016
858.584000	2544.948381
858.897155	2547.050543
859.210268	2545.152548
859.523339	2549.215718
859.836367	2544.000644
860.149352	2548.555327
860.462295	2548.078938
860.775195	2544.177085
861.088054	2544.348484
861.400869	2544.300593
861.713642	2540.378575
862.026373	2545.570964
862.339062	2547.090872
862.651708	2548.537683
862.964312	2544.867723
863.276873	2547.625234
863.589392	2545.523073
863.901869	2549.588763
864.214303	2545.449976
864.526696	2545.092054
864.839045	2545.099616
865.151353	2548.363763
865.463619	2549.109854
865.775842	2548.842673
866.088023	2547.726057
866.400162	2545.850748
866.712258	2547.133722
867.024313	2543.579708
867.336325	2545.628937
867.648296	2548.172199
867.960224	2542.019471
868.272110	2547.922662
868.583954	2547.489123
868.895755	2550.720502
869.207515	2547.655481
869.519233	2549.006510
869.830909	2544.247661
870.142542	2547.663043
870.454134	2546.977446
870.765684	2544.232537
871.077191	2547.831921
871.388657	2546.037271
871.700081	2546.168341
872.011463	2546.624565
872.322803	2546.175902
872.634101	2543.642723
872.945357	2547.494164
873.256571	2547.589946
873.567744	2545.646581
873.878874	2547.872251
874.189963	2547.295038
874.501010	2547.673125
874.812015	2544.293031
875.122979	2544.895449
875.433900	2545.003834
875.744780	2546.639688
876.055618	2548.015923
876.366415	2548.242775
876.677169	2547.496685
876.987882	2543.521735
877.298554	2545.664225
877.609183	2543.423432
877.919771	2540.476878
878.230317	2542.558874
878.540822	2546.312013
878.851285	2549.475338
879.161707	2546.284287
879.472087	2544.643392
879.782425	2544.398896
880.092722	2544.262784
880.402977	2544.272867
880.713191	2546.639688
881.023363	2543.763710
881.333494	2545.797816
881.643583	2547.688248
881.953631	2544.073741
882.263637	2544.640871
882.573602	2546.511139
882.883526	2544.139276
883.193408	2544.847558
883.503248	2546.191026
883.813048	2548.462066
884.122806	2543.526776
884.432522	2546.236396
884.742197	2544.482075
885.051831	2543.100798
885.361424	2544.930737
885.670975	2545.868392
885.980485	2546.014585
886.289954	2547.506767
886.599382	2544.603062
886.908768	2544.008206
887.218113	2543.229348
887.527417	2542.982331
887.836680	2545.263453
888.145901	2545.250851
888.455082	2546.422919
888.764221	2546.516180
889.073319	2546.385110
889.382376	2545.336550
889.691392	2546.458207
890.000366	2546.685059
890.309300	2546.042312
890.618193	2544.025850
890.927044	2545.787733
891.235855	2544.401416
891.544625	2546.309493
891.853353	2547.141283
892.162041	2544.688762
892.470687	2547.148845
892.779293	2546.881664
893.087858	2542.843700
893.396381	2542.198432
893.704864	2541.734646
894.013306	2540.698689
894.321707	2545.966694
894.630068	2546.790923
894.938387	2545.036602
895.246665	2545.981818
895.554903	2545.679349
895.863100	2544.542568
896.171256	2544.025850
896.479371	2545.240768
896.787446	2546.233876
897.095480	2546.811088
897.403473	2545.825542
897.711425	2547.365615
898.019336	2543.133566
898.327207	2544.966025
898.635038	2546.758156
898.942827	2544.431663
899.250576	2546.808567
899.558284	2544.645912
899.865952	2545.384441
900.173579	2545.429812
900.481165	2545.273536
900.788711	2545.880995
901.096216	2545.079451
901.403681	2542.838658
901.711105	2546.203629
902.018489	2544.260264
902.325832	2546.178423
902.633135	2545.364277
902.940397	2547.194215
903.247619	2548.817467
903.554800	2546.536345
903.861941	2545.018957
904.169041	2546.997610
904.476101	2545.276056
904.783121	2544.403937
905.090100	2545.649102
905.397039	2542.886549
905.703938	2544.040974
906.010796	2546.445604
906.317614	2545.051725
906.624391	2547.950388
906.931129	2544.161961
907.237826	2544.666077
907.544483	2544.408978
907.851099	2545.810419
908.157675	2545.308824
908.464211	2543.766231
908.770707	2541.424615
909.077163	2541.994265
909.383578	2542.674821
909.689954	2543.705737
909.996289	2540.940664
910.302584	2544.948381
910.608839	2546.107847
910.915054	2544.996272
911.221229	2547.476520
911.527363	2548.731767
911.833458	2543.284801
912.139513	2546.488454
912.445527	2544.295552
912.751502	2546.483413
913.057436	2545.180274
913.363331	2546.233876
913.669186	2542.717671
913.975000	2545.588608
914.280775	2545.361756
914.586510	2544.633309
914.892205	2542.876467
915.197859	2543.073072
915.503475	2545.122301
915.809050	2544.393854
916.114585	2544.938299
916.420081	2545.810419
916.725536	2543.660367
917.030952	2545.530635
917.336328	2543.809081
917.641665	2544.333361
917.946961	2546.158258
918.252218	2543.118442
918.557435	2544.000644
918.862612	2544.719009
919.167750	2544.214893
919.472848	2542.952084
919.777906	2546.042312
920.082925	2542.503422
920.387904	2543.433515
920.692843	2545.424770
920.997743	2545.278577
921.302603	2543.070552
921.607423	2542.389996
921.912204	2543.972918
922.216946	2545.066848
922.521647	2542.863864
922.826310	2546.301931
923.130932	2548.794782
923.435516	2545.694472
923.740059	2546.420398
924.044564	2547.042981
924.349028	2545.170192
924.653454	2539.887063
924.957840	2543.801519
925.262186	2540.610468
925.566493	2540.935623
925.870761	2540.239944
926.174989	2543.972918
926.479178	2541.964018
926.783328	2544.429143
927.087438	2541.197763
927.391509	2545.785213
927.695541	2545.210521
927.999533	2545.238248
928.303486	2543.564585
928.607400	2547.582384
928.911275	2546.301931
929.215110	2544.492157
929.518906	2543.151210
929.822663	2545.865871
930.126381	2543.834286
930.430060	2546.768238
930.733699	2542.992414
931.037299	2543.604914
931.340861	2545.107178
931.644383	2544.295552
931.947866	2542.221117
932.251309	2546.816129
932.554714	2545.588608
932.858080	2546.412837
933.161407	2541.926210
933.464694	2543.105840
933.767943	2544.348484
934.071153	2545.540717
934.374323	2544.633309
934.677455	2547.015254
934.980548	2544.348484
935.283602	2546.843855
935.586617	2540.600386
935.889593	2543.993083
936.192530	2541.769934
936.495428	2545.422250
936.798287	2542.836138
937.101108	2544.242620
937.403890	2543.675490
937.706632	2545.633978
938.009336	2543.940151
938.312002	2547.161448
938.614628	2542.074924
938.917216	2543.660367
939.219765	2545.472661
939.522275	2545.134904
939.824747	2545.152548
940.127179	2543.123484
940.429573	2542.906714
940.731929	2541.744728
941.034246	2538.452855
941.336524	2544.935778
941.638763	2543.662887
941.940964	2543.935109
942.243126	2543.632640
942.545250	2543.919986
942.847335	2544.252702
943.149381	2542.120294
943.451389	2543.678011
943.753359	2544.408978
944.055290	2544.464431
944.357182	2545.328988
944.659036	2542.682383
944.960851	2546.289328
945.262628	2543.660367
945.564367	2543.511652
945.866067	2545.666746
946.167729	2546.599359
946.469352	2543.902342
946.770937	2543.514173
947.072484	2546.463248
947.373992	2543.715819
947.675462	2541.853113
947.976893	2546.521221
948.278286	2543.496529
948.579641	2545.386962
948.880958	2542.321940
949.182236	2544.189688
949.483476	2542.969728
949.784678	2543.292362
950.085841	2544.850079
950.386967	2543.599873
950.688054	2543.332692
950.989103	2544.192208
951.290114	2544.560213
951.591087	2540.277752
951.892021	2542.959646
952.192917	2544.005686
952.493776	2544.257743
952.794596	2545.182795
953.095378	2545.039122
953.396122	2545.812939
953.696828	2545.162630
953.997496	2543.670449
954.298126	2542.735315
954.598718	2542.952084
954.899272	2541.243133
955.199788	2542.677342
955.500266	2540.892773
955.800706	2540.829759
956.101108	2536.534696
956.401472	2541.046528
956.701798	2540.539892
957.002087	2537.928575
957.302337	2543.126004
957.602550	2543.199101
957.902724	2542.785726
958.202861	2543.030222
958.502960	2543.839327
958.803022	2543.504091
959.103045	2543.572146
959.403031	2544.557692
959.702979	2546.463248
960.002889	2545.240768
960.302762	2542.752959
960.602596	2543.264636
960.902393	2543.919986
961.202153	2543.229348
961.501875	2542.866385
961.801559	2543.773792
962.101205	2541.903524
962.400814	2544.487116
962.700385	2540.718853
962.999918	2543.173895
963.299414	2545.230686
963.598873	2544.358566
963.898293	2543.491488
964.197677	2545.467620
964.497022	2542.573998
964.796331	2543.862013
965.095601	2540.449152
965.394835	2543.531817
965.694030	2542.447969
965.993189	2545.502908
966.292309	2544.164482
966.591393	2547.410985
966.890439	2541.774975
967.189447	2542.226158
967.488419	2542.193391
967.787353	2544.635830
968.086249	2541.790098
968.385108	2544.668597
968.683930	2544.784544
968.982714	2544.025850
969.281462	2544.033412
969.580172	2542.122815
969.878844	2542.997455
970.177480	2542.914276
970.476078	2542.516025
970.774639	2543.564585
971.073162	2543.564585
971.371649	2540.688606
971.670098	2539.655170
971.968510	2543.463762
972.266885	2539.428318
972.565223	2542.553833
972.863524	2542.054759
973.161788	2544.852599
973.460014	2543.375541
973.758204	2541.233051
974.056356	2543.625078
974.354471	2545.543238
974.652550	2541.868236
974.950591	2543.544420
975.248595	2541.520397
975.546563	2542.952084
975.844493	2543.821683
976.142386	2543.670449
976.440243	2542.490819
976.738062	2541.427135
977.035845	2541.769934
977.333590	2543.052907
977.631299	2543.241951
977.928971	2543.511652
978.226606	2543.143648
978.524204	2544.809750
978.821765	2540.968390
979.119290	2542.163144
979.416777	2542.851261
979.714228	2542.566436
980.011642	2543.882177
980.309020	2542.763041
980.606360	2539.987886
980.903664	2543.171375
981.200931	2542.510983
981.498162	2544.250182
981.795356	2542.389996
982.092513	2543.262115
982.389633	2542.148020
982.686717	2544.419060
982.983764	2540.582742
983.280775	2543.070552
983.577749	2541.124666
983.874686	2543.123484
984.171587	2543.514173
984.468451	2541.979142
984.765279	2541.659028
985.062070	2543.186498
985.358824	2544.217414
985.655543	2542.710109
985.952224	2542.064841
986.248869	2542.939482
986.545478	2538.800694
986.842050	2543.012578
987.138586	2537.910931
987.435086	2541.875798
987.731549	2538.397402
988.027975	2546.490974
988.324366	2541.699358
988.620719	2544.305634
988.917037	2544.300593
989.213318	2544.066179
989.509563	2541.888401
989.805772	2542.712630
990.101944	2543.622558
990.398080	2542.606765
990.694180	2542.314378
990.990244	2542.135418
991.286271	2542.725233
991.582262	2545.021478
991.878217	2543.851930
992.174136	2544.529966
992.470019	2542.795809
992.765865	2545.553320
993.061676	2540.612989
993.357450	2543.186498
993.653188	2541.737166
993.948890	2543.110881
994.244556	2539.488812
994.540186	2544.139276
994.835780	2544.446787
995.131337	2543.302445
995.426859	2542.125335
995.722345	2540.653318
996.017795	2542.931920
996.313208	2541.457382
996.608586	2539.456044
996.903928	2540.431508
997.199234	2542.142979
997.494504	2543.877136
997.789738	2541.893442
998.084936	2542.490819
998.380099	2544.857641
998.675225	2541.452341
998.970316	2542.095088
999.265371	2542.609286
999.560390	2543.453679
999.855373	2544.615665
1000.150320	2540.676003
1000.445232	2542.881508
1000.740108	2541.031405
1001.034948	2546.092723
1001.329752	2541.467465
1001.624521	2543.884698
1001.919254	2536.020498
1002.213951	2541.646426
1002.508613	2535.017308
1002.803239	2537.966383
1003.097829	2540.890252
1003.392384	2541.553164
1003.686903	2542.974770
1003.981386	2543.156251
1004.275834	2541.719522
1004.570246	2544.164482
1004.864623	2540.058462
1005.158964	2543.204142
1005.453270	2544.247661
1005.747540	2540.691127
1006.041775	2540.973432
1006.335974	2544.502239
1006.630138	2543.234389
1006.924266	2543.884698
1007.218359	2541.603576
1007.512416	2544.514842
1007.806438	2541.999306
1008.100425	2540.202135
1008.394376	2541.215407
1008.688292	2546.748073
1008.982172	2540.262629
1009.276017	2540.555016
1009.569827	2539.491332
1009.863602	2544.449307
1010.157341	2541.469985
1010.451045	2542.700027
1010.744714	2540.055942
1011.038347	2543.277239
1011.331945	2542.034594
1011.625508	2541.374203
1011.919036	2542.412681
1012.212528	2543.390665
1012.505986	2540.572660
1012.799408	2541.142310
1013.092795	2540.880170
1013.386147	2542.821014
1013.679464	2540.943185
1013.972745	2541.573329
1014.265992	2541.457382
1014.559204	2544.527445
1014.852380	2542.730274
1015.145521	2541.396888
1015.438628	2540.691127
1015.731699	2543.846889
1016.024736	2543.022661
1016.317737	2542.397558
1016.610703	2541.742208
1016.903635	2539.952598
1017.196531	2536.519572
1017.489393	2537.870601
1017.782219	2536.365817
1018.075011	2541.096940
1018.367768	2542.861344
1018.660490	2542.616848
1018.953177	2542.616848
1019.245829	2542.616848
