Dividing Wavelength (nm)	Counts (n)	Blue Motor Position (mm): 48.500000	Red Motor Position (mm): 0.000000	
326.493990	2093.485328
326.888308	2093.485328
327.282561	2093.485328
327.676750	2069.587738
328.070874	2071.432801
328.464933	2078.394634
328.858929	2089.036510
329.252859	2100.031266
329.646726	2116.049533
330.040528	2131.283900
330.434265	2151.788793
330.827938	2170.483912
331.221547	2192.496110
331.615091	2212.474203
332.008571	2230.773591
332.401986	2252.984915
332.795338	2273.373862
333.188625	2292.033693
333.581847	2311.444656
333.975006	2330.117090
334.368100	2345.648885
334.761129	2362.682943
335.154095	2381.766231
335.546996	2425.236101
335.939833	2514.346057
336.332606	2525.933149
336.725315	2539.667773
337.117960	2548.230172
337.510540	2553.107489
337.903056	2565.690209
338.295508	2569.241702
338.687896	2579.878536
339.080220	2583.198136
339.472480	2587.084866
339.864676	2594.301277
340.256807	2595.554004
340.648875	2599.654983
341.040879	2600.176742
341.432818	2601.747062
341.824694	2601.941146
342.216506	2599.811259
342.608253	2600.529623
342.999937	2602.246136
343.391557	2601.376537
343.783113	2599.967534
344.174605	2595.490990
344.566033	2594.631473
344.957397	2592.917481
345.348697	2589.038313
345.739934	2590.611153
346.131106	2589.910432
346.522215	2588.682912
346.913260	2585.391038
347.304241	2582.091603
347.695159	2581.751325
348.086012	2579.722261
348.476802	2579.497929
348.867528	2580.571695
349.258191	2577.993145
349.648789	2576.390058
350.039324	2573.914851
350.429796	2575.175140
350.820203	2574.126580
351.210548	2572.236147
351.600828	2571.611044
351.991045	2571.822772
352.381198	2573.849316
352.771288	2572.037022
353.161314	2573.776220
353.551276	2570.794377
353.941175	2570.343194
354.331010	2568.929150
354.720782	2573.723287
355.110490	2575.936354
355.500135	2572.311764
355.889717	2571.936198
356.279235	2575.197825
356.668689	2576.495922
357.058080	2574.650860
357.447408	2570.786815
357.836672	2573.413257
358.225873	2575.124728
358.615010	2575.996848
359.004084	2577.667990
359.393095	2580.284349
359.782043	2580.022209
360.170927	2581.161510
360.559748	2583.450194
360.948505	2583.888774
361.337199	2585.544793
361.725830	2584.133270
362.114398	2585.839701
362.502903	2587.039495
362.891344	2587.747777
363.279722	2584.216449
363.668037	2592.577203
364.056289	2585.703590
364.444478	2590.822881
364.832603	2592.592326
365.220665	2594.031576
365.608665	2594.392018
365.996601	2592.700711
366.384474	2592.047882
366.772284	2595.039807
367.160031	2595.218767
367.547715	2595.916967
367.935336	2596.015270
368.322893	2596.751278
368.710388	2598.619026
369.097820	2603.120776
369.485189	2601.613471
369.872495	2605.139758
370.259738	2606.016919
370.646918	2606.160592
371.034035	2606.268977
371.421090	2608.166971
371.808081	2608.479523
372.195010	2608.058586
372.581875	2611.874740
372.968678	2616.431943
373.355418	2614.503702
373.742096	2618.798765
374.128710	2621.727675
374.515262	2627.330917
374.901751	2633.763430
375.288177	2639.500263
375.674540	2647.072076
376.060841	2655.354692
376.447079	2664.973213
376.833254	2678.586849
377.219367	2686.879547
377.605417	2706.945860
377.991404	2719.669732
378.377329	2742.117991
378.763191	2765.418204
379.148991	2797.986578
379.534727	2827.457163
379.920402	2858.971937
380.306013	2894.005435
380.691563	2935.796601
381.077049	2974.484936
381.462474	3018.327851
381.847835	3071.330542
382.233134	3125.699387
382.618371	3171.120183
383.003545	3239.029566
383.388657	3305.406439
383.773706	3379.375289
384.158693	3439.942232
384.543618	3516.824870
384.928480	3584.855241
385.313280	3670.360772
385.698017	3764.191768
386.082692	3862.259855
386.467305	3928.185544
386.851856	4038.077657
387.236344	4174.171167
387.620770	4236.315991
388.005133	4344.337835
388.389435	4477.215089
388.773674	4561.241041
389.157851	4685.923899
389.541965	4813.278569
389.926018	4853.378427
390.310008	5021.384961
390.693936	5141.341738
391.077802	5255.090333
391.461606	5387.390375
391.845348	5503.165514
392.229027	5629.688393
392.612645	5843.047668
392.996200	5964.690710
393.379694	6140.576568
393.763125	6356.766451
394.146494	6460.009281
394.529801	6599.692093
394.913047	6836.853175
395.296230	6861.690940
395.679351	6928.551764
396.062410	7182.867893
396.445408	7114.187213
396.828343	7275.962881
397.211217	7423.973679
397.594028	7338.526121
397.976778	7550.393214
398.359466	7726.024494
398.742092	7722.062147
399.124656	7877.463276
399.507158	8076.137669
399.889598	8110.528421
400.271977	8329.196031
400.654294	8372.988534
401.036549	8581.281449
401.418742	8626.641752
401.800874	8924.957072
402.182944	9018.649437
402.564952	9381.778872
402.946898	9225.893792
403.328783	9290.017269
403.710606	9488.174944
404.092367	9740.265404
404.474067	10100.314694
404.855705	9907.238502
405.237282	9870.745589
405.618797	10295.455239
406.000250	10541.453464
406.381642	10900.416385
406.762972	10849.712460
407.144240	10674.975985
407.525447	10915.731411
407.906593	10872.684998
408.287677	11137.703497
408.668700	11275.503437
409.049661	11272.592171
409.430560	11428.870461
409.811399	11413.013511
410.192176	11570.635269
410.572891	11641.478604
410.953545	12114.404369
411.334138	11612.222267
411.714669	12187.964886
412.095139	11539.667461
412.475547	12013.661951
412.855894	11884.094215
413.236180	12198.289169
413.616405	11900.772872
413.996568	12169.201712
414.376670	12157.052531
414.756711	12042.898123
415.136691	12315.425420
415.516609	12491.452430
415.896466	12580.098600
416.276262	12871.996531
416.655997	13339.739991
417.035670	13374.438253
417.415283	13992.294671
417.794834	14071.297113
418.174324	13813.656343
418.553753	13729.416142
418.933121	14216.958733
419.312428	14036.084654
419.691674	13950.947127
420.070859	14417.452983
420.449983	14079.378083
420.829045	14629.103307
421.208047	14379.568712
421.586988	14835.515872
421.965867	15082.666001
422.344686	15095.004225
422.723444	15661.947510
423.102141	14361.481052
423.480777	15540.057451
423.859352	15052.744232
424.237866	16153.994372
424.616319	15875.962135
424.994712	16519.364600
425.373044	16314.711398
425.751314	16996.116602
426.129524	16137.272865
426.507673	17206.826750
426.885762	16927.526663
427.263789	17121.127135
427.641756	17311.158470
428.019662	17355.813011
428.397508	17414.562618
428.775292	17705.283440
429.153016	17680.390222
429.530679	17756.723373
429.908282	17797.844065
430.285824	17531.499743
430.663305	18232.225169
431.040726	17845.074636
431.418086	17690.711984
431.795385	18317.405545
432.172624	18753.334283
432.549802	18315.928487
432.926920	18534.485192
433.303977	18413.537829
433.680974	18670.775307
434.057910	18979.062029
434.434786	19020.023924
434.811601	18941.714641
435.188355	19992.333952
435.565050	19662.962604
435.941683	19618.285378
436.318257	20514.995742
436.694770	20317.826132
437.071222	20909.387892
437.447614	19979.012703
437.823946	20007.696868
438.200218	20174.269194
438.576429	19963.982503
438.952580	20266.829820
439.328670	20232.781867
439.704700	20655.772483
440.080670	20228.038141
440.456580	20847.172492
440.832429	21006.268787
441.208218	20013.262302
441.583947	20468.614606
441.959616	20588.767987
442.335224	20836.790236
442.710773	20977.319961
443.086261	21525.537880
443.461689	20864.761078
443.837057	21015.143738
444.212365	21673.495745
444.587612	21687.008558
444.962800	21277.553440
445.337927	21710.412115
445.712995	20433.089594
446.088002	22318.889466
446.462949	22524.724819
446.837837	22719.711609
447.212664	22744.569538
447.587431	25742.828556
447.962139	28709.111534
448.336786	31003.751504
448.711374	29271.590878
449.085901	25551.531891
449.460369	25578.237403
449.834776	25593.970844
450.209124	28168.296550
450.583412	27640.918761
450.957640	28097.004552
451.331808	26751.429850
451.705917	25382.403700
452.079965	25424.953559
452.453954	25826.647821
452.827883	25728.390691
453.201752	25527.165474
453.575562	25693.546236
453.949311	26826.598495
454.323001	26905.666472
454.696632	26686.608173
455.070202	28293.284398
455.443713	28488.392175
455.817164	29076.137781
456.190556	29625.071544
456.563888	29031.558858
456.937160	29451.040831
457.310373	27740.005160
457.683526	28192.151290
458.056619	28196.038019
458.429653	28175.969186
458.802628	28795.592529
459.175542	28941.642317
459.548398	30309.826595
459.921194	31965.858236
460.293930	32728.675554
460.666607	34822.952343
461.039224	36605.388396
461.411782	36933.098684
461.784280	35633.658102
462.156719	35067.463428
462.529099	34474.230526
462.901419	33143.474295
463.273680	32104.787395
463.645882	32248.291401
464.018024	32264.783536
464.390106	33207.108780
464.762130	36163.899266
465.134094	40590.899421
465.505999	46091.791375
465.877845	50583.860223
466.249631	51518.805219
466.621358	49624.241301
466.993026	47365.290180
467.364634	45223.155197
467.736184	43252.981533
468.107674	41992.105777
468.479105	41178.839112
468.850477	40475.325928
469.221790	39002.827575
469.593043	37234.496670
469.964238	36340.511050
470.335373	36300.179298
470.706449	38196.968886
471.077467	41026.457634
471.448425	45686.641402
471.819324	48395.855781
472.190164	46351.390633
472.560945	42718.170563
472.931667	39567.313298
473.302330	38464.800348
473.672934	37648.700555
474.043479	38180.285187
474.413965	37380.942189
474.784393	37009.890581
475.154761	37944.185267
475.525070	37989.409458
475.895321	37516.445884
476.265513	38162.825151
476.635645	39145.517435
477.005719	38991.711831
477.375734	39510.537302
477.745691	40246.896124
478.115588	41636.170068
478.485427	43786.368377
478.855207	47299.639233
479.224928	49932.258321
479.594591	51444.647325
479.964194	50328.195586
480.333739	50462.814558
480.703226	50533.748634
481.072653	51207.173691
481.442022	51668.582941
481.811333	51880.596227
482.180584	50595.243149
482.549777	50063.270348
482.918912	49539.449093
483.287988	49224.923943
483.657005	48374.730826
484.025964	47702.896253
484.394864	47698.283597
484.763706	47246.419772
485.132489	46372.855866
485.501213	46208.148767
485.869879	46359.874895
486.238487	45960.199615
486.607036	46150.745148
486.975527	45587.363439
487.343959	45809.466595
487.712333	45872.372633
488.080648	45770.921933
488.448905	46242.786535
488.817104	46025.152362
489.185244	47063.186433
489.553326	48888.832737
489.921350	51650.248264
490.289315	54441.361229
490.657222	54940.992507
491.025070	55175.373393
491.392861	54227.245781
491.760593	52950.424855
492.128267	51249.579877
492.495883	49691.795283
492.863440	48284.463925
493.230939	46906.915705
493.598380	45797.556869
493.965763	45482.522562
494.333088	44656.519422
494.700354	44161.374771
495.067563	43858.618194
495.434713	43718.350609
495.801805	43783.499961
496.168839	43397.483687
496.535815	43045.422106
496.902733	43077.272116
497.269593	42637.625527
497.636395	42574.782503
498.003139	42986.150739
498.369825	42416.704521
498.736453	42728.363776
499.103023	42250.769901
499.469535	42122.165026
499.835989	42213.077194
500.202385	41865.703885
500.568723	41881.240722
500.935003	42091.658483
501.301226	41878.490772
501.667390	42501.426153
502.033497	42749.597116
502.399546	42169.619927
502.765537	41453.836575
503.131470	41826.284583
503.497345	42200.844834
503.863163	40856.737108
504.228923	41466.338637
504.594625	41888.434448
504.960269	41154.097129
505.325856	41853.902544
505.691385	41214.475029
506.056856	41350.545853
506.422270	41797.413895
506.787625	41349.835051
507.152924	41558.720301
507.518164	41642.784062
507.883347	40843.176404
508.248472	41082.744637
508.613540	41576.717221
508.978550	41878.062274
509.343503	41631.610345
509.708398	41832.918741
510.073236	42360.515821
510.438016	42364.095040
510.802738	41811.060298
511.167403	42437.960547
511.532010	42663.249712
511.896561	42959.709887
512.261053	43833.697250
512.625488	43350.137170
512.989866	43242.833690
513.354186	43075.535438
513.718449	43079.006273
514.082655	43732.090274
514.446803	43412.024896
514.810894	43937.527375
515.174927	43844.074465
515.538904	43735.288886
515.902822	44411.968008
516.266684	43848.309035
516.630488	44278.866423
516.994235	44140.350639
517.357925	44725.938631
517.721558	44869.818203
518.085133	45182.752869
518.448651	45312.280276
518.812112	45076.147589
519.175516	45167.107648
519.538863	45510.349731
519.902152	45473.987889
520.265385	45919.101609
520.628560	45942.530371
520.991678	45735.674185
521.354739	45979.630743
521.717743	46296.074052
522.080690	46165.750143
522.443580	46732.088489
522.806413	46750.997857
523.169189	46710.918164
523.531908	46887.434166
523.894569	46732.794251
524.257174	46897.365239
524.619722	47190.498253
524.982213	47171.780448
525.344647	47074.944924
525.707025	47135.310221
526.069345	47527.698513
526.431608	47442.651727
526.793815	47759.014378
527.155964	47285.234136
527.518057	47461.356928
527.880093	47240.453567
528.242072	47764.146272
528.603995	47465.561251
528.965860	47440.559648
529.327669	47549.393118
529.689421	47452.202193
530.051117	47395.113646
530.412755	47540.929021
530.774337	47619.823079
531.135862	47412.669464
531.497331	47597.689893
531.858743	47503.876540
532.220098	47844.693828
532.581396	47543.731903
532.942638	47198.032257
533.303824	47528.754635
533.664953	47475.346130
534.026025	47203.391004
534.387040	47669.327210
534.747999	47623.263666
535.108902	47783.373233
535.469748	47287.684137
535.830537	47392.005775
536.191270	47590.133203
536.551947	47247.554032
536.912567	47543.759629
537.273131	47667.759411
537.633638	47153.102973
537.994089	47495.785488
538.354483	47073.306549
538.714821	47663.265222
539.075103	47998.224689
539.435328	47766.467724
539.795497	47623.387175
540.155609	47636.385790
540.515665	48085.008153
540.875665	47522.687606
541.235609	47859.771920
541.595496	47837.517746
541.955328	48527.623981
542.315102	47859.867702
542.674821	47627.349522
543.034483	47670.816871
543.394090	47660.613575
543.753640	47595.917927
544.113134	48609.010889
544.472571	47587.360569
544.831953	48841.057722
545.191278	48025.048669
545.550548	47752.576824
545.909761	48211.939366
546.268918	48403.929189
546.628019	48735.281711
546.987064	48259.134648
547.346053	47510.402314
547.704986	48391.212879
548.063863	47963.478537
548.422684	48132.568919
548.781449	47962.492991
549.140158	48362.342191
549.498811	48207.188078
549.857408	47609.420658
550.215949	48465.663159
550.574434	48389.569463
550.932864	48143.656937
551.291237	48856.128251
551.649555	48460.112849
552.007817	48700.490188
552.366022	48334.199949
552.724173	48507.782000
553.082267	48881.150018
553.440305	49167.681641
553.798288	48451.716807
554.156215	48765.881515
554.514086	48985.010390
554.871902	48702.163851
555.229661	48713.377897
555.587365	48540.277277
555.945014	48638.552051
556.302606	48556.310667
556.660143	48773.576836
557.017625	48828.659004
557.375050	48622.654772
557.732421	48954.518971
558.089735	48934.719839
558.446994	48846.267754
558.804197	49308.327313
559.161345	49227.394108
559.518437	48455.059092
559.875474	48770.055590
560.232455	48948.451943
560.589381	49112.412951
560.946251	48784.722827
561.303065	49453.202512
561.659825	49234.708823
562.016528	48912.226211
562.373177	48617.774935
562.729770	49092.477708
563.086307	48595.190566
563.442789	49044.541376
563.799216	49093.017111
564.155587	48873.885715
564.511904	48889.825844
564.868164	48957.755392
565.224370	49197.147185
565.580520	48923.994785
565.936615	49131.276948
566.292654	48841.392958
566.648638	49084.111913
567.004567	49041.821673
567.360441	49089.863870
567.716260	48943.778793
568.072023	49207.297548
568.427732	49183.052119
568.783385	48714.522239
569.138982	49102.386096
569.494525	49050.570596
569.850013	48806.679573
570.205445	48771.784706
570.560823	48713.521570
570.916145	48585.544318
571.271412	48624.209968
571.626625	48360.071151
571.981782	48372.744612
572.336884	48049.427689
572.691931	48377.606804
573.046923	47971.743508
573.401860	47805.972726
573.756743	47763.536293
574.111570	47858.612454
574.466342	47696.982980
574.821059	47802.776634
575.175722	47332.741970
575.530330	47334.934872
575.884882	47029.277112
576.239380	46988.673138
576.593823	46949.919268
576.948211	46869.684263
577.302544	46380.828451
577.656823	46391.772796
578.011047	46614.775798
578.365216	46342.366968
578.719330	46098.100379
579.073389	45943.069775
579.427394	46018.556012
579.781344	45979.787019
580.135239	45627.770807
580.489080	45697.462239
580.842866	45171.649728
581.196597	45617.015506
581.550273	45548.934723
581.903895	45418.883036
582.257463	45815.886504
582.610975	45189.911308
582.964434	45474.703733
583.317837	45099.546104
583.671186	44920.355770
584.024481	45133.717566
584.377721	44646.734542
584.730906	44914.331592
585.084037	44973.728987
585.437113	44665.349003
585.790135	44670.483418
586.143103	44253.907670
586.496016	44366.141399
586.848874	44402.616667
587.201679	44398.286316
587.554428	43879.027306
587.907124	44068.491511
588.259765	43797.663082
588.612352	44045.236668
588.964884	43418.512861
589.317362	43709.299217
589.669786	43634.347342
590.022155	43392.697112
590.374470	43803.047035
590.726731	43314.793641
591.078937	42819.452384
591.431090	42935.512349
591.783188	42568.977614
592.135232	42230.310378
592.487222	42491.825275
592.839157	42556.989751
593.191038	42198.770399
593.542866	41970.184319
593.894639	41353.905782
594.246358	41648.475525
594.598022	41601.754111
594.949633	41201.718389
595.301190	41157.731801
595.652692	40982.949956
596.004141	41303.403503
596.355535	40311.528758
596.706876	40262.145614
597.058162	40079.484446
597.409395	40540.092152
597.760573	40627.888888
598.111698	40218.645498
598.462768	40220.457793
598.813785	40238.908416
599.164748	39680.401502
599.515657	40077.029404
599.866511	39554.186133
600.217312	40162.187095
600.568060	39130.409097
600.918753	39892.114840
601.269392	39822.123460
601.619978	39477.948763
601.970510	39681.132469
602.320988	39864.822033
602.671412	40163.306232
603.021783	39909.007746
603.372100	39572.339328
603.722363	39652.718005
604.072572	39710.318229
604.422728	39748.560422
604.772830	39550.596831
605.122878	39656.491309
605.472872	39567.469573
605.822813	39840.914361
606.172701	39675.710708
606.522534	39925.842680
606.872314	40176.493890
607.222041	39926.485427
607.571714	40306.981637
607.921333	39760.823029
608.270899	40049.333305
608.620411	40391.307538
608.969870	40171.288899
609.319276	40171.974496
609.668627	40233.317776
610.017926	40697.703827
610.367171	40861.715247
610.716362	40934.895157
611.065500	40876.831147
611.414585	41085.948291
611.763616	41377.672302
612.112594	41307.035654
612.461518	41516.777901
612.810389	41817.815444
613.159207	41674.787828
613.507971	41764.540531
613.856682	42225.392733
614.205340	42119.815848
614.553945	42805.858913
614.902496	42255.745520
615.250994	42731.625402
615.599439	42795.980772
615.947830	43003.230168
616.296169	43072.044439
616.644454	43180.018393
616.992686	43355.576575
617.340864	43866.290830
617.688990	43586.695835
618.037063	44209.311103
618.385082	44145.943799
618.733048	44440.382472
619.080961	44458.286129
619.428821	44474.160723
619.776628	44580.413122
620.124382	44397.494855
620.472083	44532.877562
620.819731	44654.732333
621.167326	44295.489628
621.514868	44287.554852
621.862357	43834.854195
622.209793	43867.291499
622.557176	43525.115620
622.904506	43247.075821
623.251783	42925.573714
623.599007	42681.198740
623.946179	42474.181237
624.293297	42418.584872
624.640363	41828.157372
624.987376	41800.478916
625.334336	41560.565364
625.681243	41205.993287
626.028097	41188.177850
626.374899	41043.005222
626.721647	41020.919927
627.068343	40922.879567
627.414987	40692.907169
627.761577	40456.146858
628.108115	40792.419546
628.454600	40253.560529
628.801032	40448.542278
629.147412	40393.061859
629.493739	40386.221013
629.840014	40045.340711
630.186236	40390.742928
630.532405	39971.384463
630.878521	40199.078259
631.224585	40082.478891
631.570597	39782.447058
631.916556	39939.121079
632.262462	39887.734077
632.608316	39897.211446
632.954117	39794.994490
633.299866	39783.172985
633.645562	39701.841529
633.991206	39200.738234
634.336797	38748.881971
634.682336	38748.609748
635.027823	38512.106536
635.373257	38313.432143
635.718639	38078.718540
636.063968	37936.391643
636.409245	37373.483802
636.754470	37410.863958
637.099642	37171.237751
637.444762	36692.975924
637.789829	36845.435540
638.134845	36509.760228
638.479808	36446.002235
638.824719	36358.492846
639.169577	35977.182489
639.514383	36035.866561
639.859137	35726.107822
640.203839	35967.374924
640.548489	35591.095640
640.893086	35669.326786
641.237632	35427.535403
641.582125	35543.572682
641.926566	35473.654399
642.270955	35445.466787
642.615292	35453.361234
642.959576	35432.853820
643.303809	35429.196463
643.647990	35585.142037
643.992118	35544.540584
644.336195	35520.395977
644.680219	35630.736753
645.024192	35939.215039
645.368112	36447.670857
645.711981	36468.117777
646.055797	37332.463933
646.399562	37269.671321
646.743274	38221.967968
647.086935	38659.930811
647.430544	38530.499186
647.774101	38637.351483
648.117606	38893.510154
648.461059	39180.273670
648.804460	38767.423334
649.147810	38133.248701
649.491108	37879.986173
649.834354	37515.157869
650.177548	36679.879006
650.520690	36232.070789
650.863781	36270.484382
651.206820	36111.035206
651.549807	35670.665212
651.892742	35192.037901
652.235626	35005.885734
652.578458	34871.251638
652.921238	34254.000158
653.263967	34604.012511
653.606644	34274.512613
653.949269	34223.798605
654.291843	33826.180116
654.634365	34213.025660
654.976836	33823.858665
655.319255	33821.194415
655.661622	33825.368491
656.003938	33601.760550
656.346203	33483.001048
656.688416	33697.184551
657.030577	33490.751822
657.372687	33330.211236
657.714746	33589.989456
658.056753	33710.621747
658.398708	33151.154493
658.740612	33223.910946
659.082465	33484.752849
659.424266	33318.293949
659.766016	33437.834830
660.107715	33318.329237
660.449362	33426.111627
660.790958	33418.340688
661.132503	33424.753036
661.473996	33458.127995
661.815438	33583.347736
662.156829	33773.673978
662.498168	33535.539953
662.839456	33567.465580
663.180693	33701.981209
663.521879	33868.462794
663.863013	33840.169318
664.204097	33824.088038
664.545129	34281.582831
664.886110	34229.830346
665.227040	34319.777133
665.567918	34434.085297
665.908746	34484.481712
666.249522	34644.316536
666.590248	34648.712422
666.930922	34775.991474
667.271545	34736.012604
667.612118	34798.374197
667.952639	34574.287347
668.293109	34629.979494
668.633528	34531.077097
668.973896	34453.902073
669.314213	34484.199407
669.654480	34216.708222
669.994695	34263.164976
670.334859	34125.876713
670.674973	34015.833365
671.015035	34186.564643
671.355047	34134.083711
671.695008	34072.453085
672.034918	33975.393229
672.374777	34081.627985
672.714585	33910.135493
673.054342	34128.639265
673.394049	33888.176226
673.733705	34168.240049
674.073310	33843.045297
674.412864	33890.069180
674.752368	33505.759337
675.091820	33803.265552
675.431223	33373.187073
675.770574	33072.724221
676.109875	32935.491411
676.449125	32652.231497
676.788324	32587.772783
677.127473	32048.860834
677.466571	31966.778247
677.805619	31623.523561
678.144616	31613.050563
678.483562	31546.169575
678.822458	31216.276468
679.161303	31146.408596
679.500098	31069.122666
679.838842	30966.479733
680.177535	31109.714037
680.516179	31410.658319
680.854771	31662.894972
681.193314	32535.977448
681.531805	33697.131619
681.870247	34446.509221
682.208638	35143.912526
682.546978	35338.780848
682.885268	35419.381337
683.223508	34896.031430
683.561697	34559.993155
683.899836	34361.265830
684.237925	33851.411091
684.575963	33700.015159
684.913951	33255.834052
685.251889	33401.694798
685.589776	33397.077101
685.927614	33405.130344
686.265401	33563.384766
686.603137	33652.230062
686.940824	34166.493289
687.278460	34555.892177
687.616046	34669.653375
687.953582	35284.621212
688.291068	35107.149912
688.628504	35388.647942
688.965889	35315.518444
689.303224	34929.666008
689.640510	34575.151905
689.977745	33808.919206
690.314930	32989.577950
690.652065	32464.650162
690.989150	31740.138052
691.326185	30831.008806
691.663170	30133.222372
692.000105	29389.601769
692.336990	28724.189626
692.673825	28258.666794
693.010610	27731.790600
693.347345	27162.788004
693.684030	26503.256367
694.020665	26233.242084
694.357251	25573.211373
694.693786	25519.056778
695.030272	25276.594922
695.366707	24729.707867
695.703093	24475.898374
696.039429	24457.611588
696.375716	24198.682803
696.711952	24161.116125
697.048139	23999.708461
697.384276	23832.256454
697.720363	23952.644249
698.056400	23745.228494
698.392388	23527.969887
698.728326	23496.669363
699.064214	23295.030771
699.400053	23226.776068
699.735842	22867.188044
700.071581	22582.103232
700.407270	22288.934930
700.742910	22105.918360
701.078501	21840.451199
701.414042	21555.610883
701.749533	21253.318093
702.084974	20896.797610
702.420366	21107.031370
702.755709	20667.780512
703.091002	20364.247597
703.426246	20390.965713
703.761440	20296.950714
704.096584	20017.910246
704.431679	19980.633434
704.766725	19890.936183
705.101721	19825.955710
705.436668	19929.881617
705.771565	19602.806515
706.106413	19956.972778
706.441212	19940.795716
706.775961	20073.284800
707.110661	20141.877260
707.445311	20507.794453
707.779913	20336.226344
708.114465	20595.074470
708.448967	20893.215871
708.783421	21563.674209
709.117825	21848.118794
709.452180	22079.185122
709.786485	22475.583651
710.120742	23281.966621
710.454949	23294.382983
710.789107	23754.148816
711.123216	24476.936852
711.457275	24576.214815
711.791286	25107.247441
712.125247	25163.998230
712.459159	24853.279151
712.793023	25486.659802
713.126837	24374.692169
713.460602	24634.891325
713.794318	24235.226128
714.127985	23862.132852
714.461602	22941.459363
714.795171	22901.649372
715.128691	21886.068600
715.462162	21351.562619
715.795584	20922.411713
716.128957	20667.266314
716.462281	20272.601941
716.795556	20035.181239
717.128782	19532.928561
717.461960	18996.532147
717.795088	18918.495086
718.128167	18515.812758
718.461198	18046.463691
718.794180	17917.422755
719.127113	17562.429743
719.459997	17355.167743
719.792833	17002.539032
720.125619	16983.077657
720.458357	16663.052608
720.791046	16492.059190
721.123686	16329.272771
721.456278	16097.135198
721.788821	16060.322172
722.121315	15805.388502
722.453761	15884.758948
722.786158	15805.224664
723.118506	15817.774617
723.450805	15684.897363
723.783056	15846.375603
724.115259	15740.592031
724.447412	15675.712381
724.779518	15907.645787
725.111574	15937.985971
725.443582	16147.539175
725.775542	16125.973119
726.107453	16588.879591
726.439315	16478.800956
726.771129	16882.988068
727.102895	17249.381650
727.434612	17457.508207
727.766281	17575.372905
728.097901	17827.085278
728.429473	17859.625926
728.760996	17846.685284
729.092471	17926.824507
729.423897	17793.964897
729.755276	17663.444383
730.086606	17780.310932
730.417887	18318.842274
730.749120	18835.172375
731.080305	19001.706892
731.411442	19324.554987
731.742530	19386.674605
732.073570	19483.121961
732.404562	19756.652448
732.735506	19567.057172
733.066401	19261.890924
733.397249	18730.054235
733.728048	18085.898117
734.058798	17261.515708
734.389501	16580.758292
734.720156	16126.764580
735.050762	15609.058244
735.381320	15264.394556
735.711831	15032.433423
736.042293	14687.429457
736.372707	14698.477146
736.703073	14492.833357
737.033391	14684.457697
737.363661	14666.836344
737.693883	14762.184727
738.024056	14939.058651
738.354182	15125.810716
738.684260	15416.092958
739.014290	15621.492250
739.344272	15812.834286
739.674207	16083.987869
740.004093	16185.688107
740.333931	16178.428845
740.663722	16210.059565
740.993464	16193.519539
741.323159	16017.197622
741.652806	15736.435599
741.982405	15514.982752
742.311956	15180.988666
742.641460	15056.275561
742.970915	14758.247586
743.300323	14423.255352
743.629683	14216.988980
743.958996	13940.625365
744.288260	13668.254343
744.617477	13383.146846
744.946647	13301.379331
745.275768	13028.602496
745.604842	12848.683715
745.933869	12681.783714
746.262847	12634.283442
746.591778	12562.968759
746.920662	12467.643061
747.249498	12464.656177
747.578286	12584.660844
747.907027	12734.592321
748.235720	12957.628091
748.564365	12978.158190
748.892963	12870.849669
749.221514	12924.472422
749.550017	12789.964355
749.878473	12747.038930
750.206881	12522.495856
750.535242	12433.096033
750.863555	12351.013446
751.191821	12242.348854
751.520039	12262.090012
751.848210	12179.649503
752.176334	12210.297198
752.504411	12119.029628
752.832440	11953.493259
753.160421	12017.064730
753.488356	11897.843962
753.816243	11817.651807
754.144082	11675.158553
754.471875	11606.981988
754.799620	11554.526262
755.127318	11527.268743
755.454969	11489.281128
755.782572	11440.218098
756.110129	11449.685385
756.437638	11372.102027
756.765100	11368.046419
757.092515	11367.484330
757.419882	11383.973945
757.747203	11390.658515
758.074477	11467.478137
758.401703	11421.454923
758.728882	11581.461147
759.056014	11632.417130
759.383099	11739.960065
759.710138	11842.953358
760.037129	11922.792632
760.364073	11937.094386
760.690970	11927.269177
761.017820	11924.478898
761.344623	12122.997016
761.671379	12452.060854
761.998088	13118.924849
762.324751	14738.456016
762.651366	17666.007810
762.977935	21259.004514
763.304456	23364.155072
763.630931	23704.269119
763.957359	22460.828194
764.283740	20564.499872
764.610074	18682.183438
764.936362	16576.445585
765.262602	15084.692545
765.588796	13645.057473
765.914943	12630.000982
766.241044	11808.527319
766.567097	11188.851044
766.893104	10642.493311
767.219064	10301.078646
767.544978	9929.883365
767.870845	9614.702864
768.196665	9433.624618
768.522438	9244.387265
768.848165	9079.256709
769.173846	8907.164319
769.499479	8791.018655
769.825066	8641.341756
770.150607	8457.092624
770.476101	8399.573059
770.801548	8284.302035
771.126949	8138.330384
771.452303	8058.198723
771.777611	7893.441213
772.102872	7877.705251
772.428087	7760.566480
772.753256	7633.753734
773.078378	7554.010242
773.403453	7408.318375
773.728482	7303.104453
774.053465	7241.443580
774.378401	7149.553428
774.703291	7057.786784
775.028135	6960.689120
775.352932	6922.726711
775.677683	6841.854000
776.002388	6761.472802
776.327046	6759.307626
776.651658	6672.947620
776.976224	6597.428615
777.300743	6583.799855
777.625216	6519.845257
777.949643	6477.635676
778.274024	6479.662220
778.598359	6413.338279
778.922647	6417.494710
779.246889	6380.394339
779.571086	6385.425410
779.895236	6395.311113
780.219339	6391.777264
780.543397	6391.394136
780.867409	6447.595440
781.191374	6441.248627
781.515294	6407.177989
781.839167	6455.832685
782.162995	6424.055772
782.486776	6375.043154
782.810511	6335.500343
783.134201	6253.269042
783.457844	6249.382312
783.781441	6200.621751
784.104993	6154.825389
784.428498	6128.525690
784.751958	6106.145487
785.075372	6084.894503
785.398739	6050.435696
785.722061	6068.840949
786.045337	6078.371250
786.368568	6184.318660
786.691752	6213.635490
787.014891	6472.309697
787.337983	6755.181442
787.661030	7191.992382
787.984031	7609.407482
788.306987	7859.403342
788.629897	7933.591483
788.952760	7835.959456
789.275579	7649.686301
789.598351	7356.427258
789.921078	7090.236691
790.243759	6816.479352
790.566395	6614.538291
790.888984	6428.935609
791.211529	6286.943949
791.534027	6128.878570
791.856480	5993.004351
792.178888	5939.290857
792.501249	5876.092431
792.823566	5768.970433
793.145836	5767.442963
793.468062	5748.049644
793.790241	5707.375094
794.112375	5751.505355
794.434464	5851.441189
794.756507	5887.341766
795.078505	6008.339541
795.400457	6229.124435
795.722364	6464.543799
796.044226	6653.347614
796.366042	6801.696168
796.687812	6741.915646
797.009538	6769.009327
797.331218	6676.186561
797.652852	6607.311797
797.974442	6486.838302
798.295986	6414.714514
798.617484	6286.666686
798.938938	6182.211457
799.260346	6113.361899
799.581709	5977.454912
799.903026	5925.009268
800.224299	5853.480336
800.545526	5739.577985
800.866708	5678.907699
801.187845	5632.004803
801.508936	5553.287186
801.829983	5526.417836
802.150984	5418.728707
802.471940	5392.371035
802.792851	5380.040372
803.113717	5354.222103
803.434538	5331.733516
803.755314	5296.460562
804.076045	5289.962515
804.396731	5254.384572
804.717372	5278.113283
805.037967	5277.505824
805.358518	5302.182272
805.679024	5356.415005
805.999485	5369.368250
806.319901	5387.478595
806.640272	5400.459566
806.960598	5451.390343
807.280879	5441.154280
807.601115	5477.102748
807.921306	5438.379125
808.241453	5427.717085
808.561554	5444.189055
808.881611	5410.877110
809.201623	5409.440382
809.521590	5353.798646
809.841513	5341.926729
810.161390	5351.008367
810.481223	5269.530718
810.801011	5258.253657
811.120755	5231.316252
811.440453	5177.806924
811.760107	5148.618643
812.079716	5124.171568
812.399281	5073.127364
812.718801	5065.434564
813.038276	5030.085993
813.357707	4998.369573
813.677093	5019.759189
813.996434	4959.479592
814.315731	4984.902131
814.634983	4979.109845
814.954191	4983.533458
815.273354	5045.290113
815.592473	5090.713430
815.911547	5159.472247
816.230577	5215.731524
816.549562	5300.301921
816.868502	5349.851423
817.187399	5403.769083
817.506250	5481.372606
817.825058	5512.683212
818.143821	5672.482748
818.462539	5837.399055
818.781213	6070.144087
819.099843	6440.028668
819.418429	7070.939154
819.736970	7691.424534
820.055466	8397.133141
820.373919	9320.879212
820.692327	10800.069697
821.010691	13616.892547
821.329011	20030.613954
821.647286	29586.519320
821.965517	39634.123709
822.283704	44606.407832
822.601847	45701.096911
822.919945	41015.283917
823.237999	35956.599458
823.556010	30884.051826
823.873976	26303.142723
824.191897	22226.797668
824.509775	19245.398789
824.827609	16577.085812
825.145398	15088.370067
825.463144	14407.274894
825.780845	14765.993319
826.098502	16086.221100
826.416116	18541.988949
826.733685	20722.948379
827.051210	21093.909246
827.368692	19577.847762
827.686129	17042.565793
828.003522	14622.040651
828.320872	12460.154427
828.638177	10863.066477
828.955439	9655.894133
829.272656	8622.190413
829.589830	7798.170967
829.906960	7082.800989
830.224046	6566.808646
830.541088	6168.431463
830.858086	5921.150264
831.175041	5726.980142
831.491952	5671.227501
831.808819	5720.582917
832.125642	5978.780735
832.442421	6549.061264
832.759157	7696.130451
833.075849	9476.023243
833.392497	11273.507140
833.709101	12293.942543
834.025662	11963.295783
834.342179	10887.745445
834.658653	9603.723231
834.975083	8530.217082
835.291469	7654.419944
835.607811	6943.506347
835.924110	6428.237409
836.240366	5948.362413
836.556578	5509.179610
836.872746	5161.503833
837.188871	4891.182040
837.504952	4679.148588
837.820990	4513.922251
838.136984	4409.565325
838.452935	4367.015466
838.768842	4406.245725
839.084706	4711.689237
839.400526	5472.245597
839.716303	6355.307037
840.032037	6872.108485
840.347727	6681.139495
840.663373	6081.418628
840.978977	5513.169684
841.294537	5091.487247
841.610054	4768.283750
841.925527	4535.614336
842.240957	4332.145805
842.556344	4155.473527
842.871687	3996.339423
843.186987	3851.315510
843.502244	3734.857294
843.817458	3652.131959
844.132629	3583.680652
844.447756	3536.031666
844.762840	3490.620952
845.077881	3449.525466
845.392879	3418.033378
845.707833	3395.441447
846.022745	3368.667879
846.337613	3354.315714
846.652438	3331.310408
846.967221	3321.538131
847.281960	3303.039617
847.596656	3296.448309
847.911309	3284.720064
848.225919	3269.591562
848.540485	3260.376332
848.855009	3256.751743
849.169490	3239.296747
849.483928	3234.724421
849.798323	3227.162690
850.112675	3219.245558
850.426984	3220.735219
850.741251	3215.900752
851.055474	3209.163250
851.369654	3213.400340
851.683792	3208.903631
851.997887	3211.971173
852.311938	3210.242057
852.625947	3213.798591
852.939914	3204.936243
853.253837	3214.337995
853.567718	3209.569063
853.881555	3200.618495
854.195350	3210.355483
854.509103	3206.887169
854.822812	3203.575131
855.136479	3200.497507
855.450103	3199.703525
855.763685	3196.489790
856.077224	3197.722352
856.390720	3204.548074
856.704173	3215.578119
857.017584	3220.362174
857.330953	3226.595560
857.644278	3236.254411
857.957561	3240.786408
858.270802	3237.071078
858.584000	3237.348342
858.897155	3228.687639
859.210268	3221.062894
859.523339	3205.926830
859.836367	3202.950028
860.149352	3198.165973
860.462295	3195.289995
860.775195	3185.679035
861.088054	3180.695855
861.400869	3180.862213
861.713642	3179.916996
862.026373	3186.687266
862.339062	3195.894933
862.651708	3200.762167
862.964312	3219.928634
863.276873	3229.665623
863.589392	3259.330293
863.901869	3281.690331
864.214303	3304.574649
864.526696	3322.813543
864.839045	3340.870956
865.151353	3354.419057
865.463619	3353.783872
865.775842	3355.326465
866.088023	3360.697814
866.400162	3348.873788
866.712258	3351.769931
867.024313	3350.426463
867.336325	3346.706092
867.648296	3350.305476
867.960224	3347.565609
868.272110	3351.979139
868.583954	3353.481403
868.895755	3358.439378
869.207515	3358.179758
869.519233	3378.692213
869.830909	3381.162378
870.142542	3392.625962
870.454134	3399.607960
870.765684	3412.904004
871.077191	3430.855553
871.388657	3440.673200
871.700081	3463.386118
872.011463	3483.560816
872.322803	3501.245184
872.634101	3518.385107
872.945357	3539.179866
873.256571	3566.490317
873.567744	3582.609407
873.878874	3584.010847
874.189963	3600.508023
874.501010	3602.688322
874.812015	3600.651696
875.122979	3615.535703
875.433900	3612.193418
875.744780	3616.886732
876.055618	3626.384266
876.366415	3622.305973
876.677169	3628.105820
876.987882	3645.908655
877.298554	3667.620905
877.609183	3707.907286
877.919771	3750.994028
878.230317	3822.016323
878.540822	3929.367695
878.851285	4081.877722
879.161707	4307.360972
879.472087	4694.750960
879.782425	5337.523281
880.092722	6559.380506
880.402977	8509.583639
880.713191	10867.784997
881.023363	13166.692303
881.333494	14391.652358
881.643583	14772.990441
881.953631	14319.452953
882.263637	13490.583917
882.573602	12479.141933
882.883526	11545.507637
883.193408	10609.652714
883.503248	9721.918124
883.813048	8910.471316
884.122806	8153.335379
884.432522	7404.996255
884.742197	6754.841164
885.051831	6205.393203
885.361424	5724.252878
885.670975	5343.076112
885.980485	5026.153893
886.289954	4762.015075
886.599382	4552.076223
886.908768	4376.029049
887.218113	4215.009554
887.527417	4083.818566
887.836680	3962.556131
888.145901	3866.136502
888.455082	3789.183288
888.764221	3721.697362
889.073319	3664.356757
889.382376	3630.545739
889.691392	3609.652677
890.000366	3602.889969
890.309300	3599.409052
890.618193	3602.257304
890.927044	3596.470059
891.235855	3606.202007
891.544625	3619.621558
891.853353	3648.404026
892.162041	3712.091443
892.470687	3805.002429
892.779293	3924.928959
893.087858	4104.837657
893.396381	4385.700503
893.704864	4808.754133
894.013306	5383.422987
894.321707	5939.457215
894.630068	6270.966012
894.938387	6285.945801
895.246665	6097.406647
895.554903	5783.869563
895.863100	5449.772133
896.171256	5185.540054
896.479371	4947.907623
896.787446	4731.107761
897.095480	4540.000139
897.403473	4391.757449
897.711425	4250.879884
898.019336	4130.250114
898.327207	4005.254704
898.635038	3906.516144
898.942827	3798.322900
899.250576	3714.586814
899.558284	3629.855101
899.865952	3575.660176
900.173579	3513.480064
900.481165	3469.800987
900.788711	3430.830347
901.096216	3399.549987
901.403681	3370.394474
901.711105	3362.555480
902.018489	3358.013400
902.325832	3392.046230
902.633135	3457.800520
902.940397	3635.375164
903.247619	4069.131164
903.554800	4831.600642
903.861941	5782.637001
904.169041	6442.710562
904.476101	6610.346571
904.783121	6318.647766
905.090100	5919.617754
905.397039	5512.146329
905.703938	5165.808978
906.010796	4851.087223
906.317614	4599.813430
906.624391	4370.408162
906.931129	4178.829193
907.237826	4003.036596
907.544483	3832.751461
907.851099	3660.916170
908.157675	3502.644104
908.464211	3363.470449
908.770707	3263.237187
909.077163	3188.403779
909.383578	3127.287350
909.689954	3088.122626
909.996289	3057.961403
910.302584	3037.128834
910.608839	3023.358923
910.915054	3014.400792
911.221229	3008.651356
911.527363	3013.032119
911.833458	3021.896988
912.139513	3035.445089
912.445527	3046.931358
912.751502	3083.792275
913.057436	3127.788945
913.363331	3185.986546
913.669186	3273.659773
913.975000	3393.437588
914.280775	3584.651074
914.586510	3861.372612
914.892205	4239.270107
915.197859	4740.045727
915.503475	5320.577442
915.809050	5794.392972
916.114585	6065.576802
916.420081	6116.305933
916.725536	6038.266351
917.030952	5804.699611
917.336328	5602.466162
917.641665	5394.876488
917.946961	5167.797713
918.252218	4974.335873
918.557435	4748.479577
918.862612	4555.322727
919.167750	4384.974576
919.472848	4195.782593
919.777906	4030.946945
920.082925	3872.690002
920.387904	3721.911611
920.692843	3611.054117
920.997743	3514.521062
921.302603	3417.509098
921.607423	3354.789582
921.912204	3290.167031
922.216946	3241.257756
922.521647	3197.440047
922.826310	3152.782986
923.130932	3117.124384
923.435516	3077.420256
923.740059	3052.814384
924.044564	3019.494878
924.349028	2992.854901
924.653454	2966.030921
924.957840	2940.421859
925.262186	2921.000814
925.566493	2897.992988
925.870761	2875.519524
926.174989	2863.264479
926.479178	2851.402644
926.783328	2832.929336
927.087438	2821.450629
927.391509	2806.974955
927.695541	2795.914664
927.999533	2786.414609
928.303486	2776.468413
928.607400	2770.877773
928.911275	2766.028183
929.215110	2760.324118
929.518906	2758.093407
929.822663	2759.734303
930.126381	2757.208685
930.430060	2761.798655
930.733699	2764.868718
931.037299	2766.670930
931.340861	2763.061464
931.644383	2769.259563
931.947866	2766.189500
932.251309	2768.503390
932.554714	2764.823347
932.858080	2761.176073
933.161407	2756.397059
933.464694	2756.132398
933.767943	2748.298445
934.071153	2746.778537
934.374323	2743.151427
934.677455	2742.664956
934.980548	2738.332084
935.283602	2736.194635
935.586617	2737.442320
935.889593	2741.472723
936.192530	2738.677403
936.495428	2744.981366
936.798287	2756.578540
937.101108	2769.821652
937.403890	2789.615742
937.706632	2818.927531
938.009336	2850.099506
938.312002	2878.423229
938.614628	2901.640263
938.917216	2919.707758
939.219765	2929.122113
939.522275	2944.222889
939.824747	2938.259204
940.127179	2931.269645
940.429573	2926.835950
940.731929	2924.877462
941.034246	2914.628796
941.336524	2913.739032
941.638763	2908.123187
941.940964	2901.370561
942.243126	2887.441853
942.545250	2875.186808
942.847335	2859.652492
943.149381	2846.484999
943.451389	2833.665344
943.753359	2821.574137
944.055290	2812.646253
944.357182	2802.967238
944.659036	2799.445992
944.960851	2796.174283
945.262628	2791.193623
945.564367	2793.187400
945.866067	2788.791513
946.167729	2790.344189
946.469352	2790.228242
946.770937	2787.314455
947.072484	2777.469082
947.373992	2780.471089
947.675462	2773.673093
947.976893	2769.302413
948.278286	2766.330652
948.579641	2764.982144
948.880958	2763.537853
949.182236	2760.452667
949.483476	2758.421082
949.784678	2757.110382
950.085841	2758.587440
950.386967	2762.721186
950.688054	2769.204110
950.989103	2773.741149
951.290114	2784.998045
951.591087	2796.532205
951.892021	2811.373362
952.192917	2819.897953
952.493776	2829.118224
952.794596	2829.077894
953.095378	2835.402022
953.396122	2832.750375
953.696828	2830.900272
953.997496	2824.445074
954.298126	2813.548620
954.598718	2808.517548
954.899272	2796.539767
955.199788	2782.802623
955.500266	2772.455654
955.800706	2758.216915
956.101108	2741.820562
956.401472	2731.705487
956.701798	2716.808878
957.002087	2703.621219
957.302337	2697.833975
957.602550	2686.032633
957.902724	2672.794563
958.202861	2666.311640
958.502960	2657.575320
958.803022	2650.608445
959.103045	2644.599390
959.403031	2636.558750
959.702979	2631.439458
960.002889	2628.485342
960.302762	2621.669702
960.602596	2622.002418
960.902393	2619.630555
961.202153	2617.200719
961.501875	2609.535644
961.801559	2605.071703
962.101205	2607.584718
962.400814	2603.957608
962.700385	2602.251177
962.999918	2600.456526
963.299414	2598.034252
963.598873	2599.186156
963.898293	2596.143819
964.197677	2593.159456
964.497022	2591.304312
964.796331	2591.909250
965.095601	2587.770463
965.394835	2589.877665
965.694030	2588.960175
965.993189	2588.435895
966.292309	2589.779362
966.591393	2587.838518
966.890439	2587.989753
967.189447	2586.545462
967.488419	2588.927408
967.787353	2588.090576
968.086249	2589.141657
968.385108	2589.731472
968.683930	2591.306832
968.982714	2590.969075
969.281462	2593.106524
969.580172	2594.868407
969.878844	2595.448140
970.177480	2601.033738
970.476078	2605.931219
970.774639	2606.160592
971.073162	2606.052207
971.371649	2609.724688
971.670098	2606.926847
971.968510	2612.633433
972.266885	2611.075717
972.565223	2614.191150
972.863524	2615.731222
973.161788	2617.465379
973.460014	2616.961264
973.758204	2622.138529
974.056356	2618.627365
974.354471	2618.677777
974.652550	2621.248765
974.950591	2621.558796
975.248595	2619.771707
975.546563	2617.314145
975.844493	2616.603342
976.142386	2614.425564
976.440243	2614.486057
976.738062	2610.690069
977.035845	2611.214349
977.333590	2606.231168
977.631299	2603.652618
977.928971	2603.103132
978.226606	2600.307812
978.524204	2597.487287
978.821765	2599.980137
979.119290	2597.696495
979.416777	2596.277410
979.714228	2597.734303
980.011642	2595.990064
980.309020	2601.931064
980.606360	2607.620006
980.903664	2617.596449
981.200931	2629.453243
981.498162	2646.537714
981.795356	2678.803619
982.092513	2714.633620
982.389633	2758.005187
982.686717	2797.409366
982.983764	2830.340703
983.280775	2847.848631
983.577749	2844.314782
983.874686	2836.382526
984.171587	2820.328972
984.468451	2802.861374
984.765279	2784.708179
985.062070	2764.699839
985.358824	2744.704102
985.655543	2728.751371
985.952224	2705.239430
986.248869	2680.716737
986.545478	2656.125988
986.842050	2635.396764
987.138586	2613.475306
987.435086	2603.725715
987.731549	2592.804055
988.027975	2585.995977
988.324366	2582.293249
988.620719	2578.701427
988.917037	2578.759400
989.213318	2571.328739
989.509563	2566.433779
989.805772	2566.799263
990.101944	2568.001578
990.398080	2565.985116
990.694180	2565.307081
990.990244	2567.363872
991.286271	2564.306412
991.582262	2565.302040
991.878217	2567.452092
992.174136	2564.792883
992.470019	2566.738769
992.765865	2569.995354
993.061676	2572.407546
993.357450	2576.284194
993.653188	2575.593556
993.948890	2582.671336
994.244556	2590.548138
994.540186	2602.566249
994.835780	2610.301900
995.131337	2626.448716
995.426859	2641.410860
995.722345	2660.574807
996.017795	2676.709019
996.313208	2692.215609
996.608586	2701.166177
996.903928	2705.254553
997.199234	2701.962680
997.494504	2698.547298
997.789738	2693.125537
998.084936	2682.367715
998.380099	2672.005623
998.675225	2658.233191
998.970316	2646.923362
999.265371	2635.079171
999.560390	2620.651389
999.855373	2612.827518
1000.150320	2599.090374
1000.445232	2592.478900
1000.740108	2583.608990
1001.034948	2579.389544
1001.329752	2571.482495
1001.624521	2569.776064
1001.919254	2563.852708
1002.213951	2561.437996
1002.508613	2555.118909
1002.803239	2557.175700
1003.097829	2551.201933
1003.392384	2554.471121
1003.686903	2553.578837
1003.981386	2552.066491
1004.275834	2551.635472
1004.570246	2549.104813
1004.864623	2548.983825
1005.158964	2545.235727
1005.453270	2547.330327
1005.747540	2547.834442
1006.041775	2546.866540
1006.335974	2548.900646
1006.630138	2546.463248
1006.924266	2546.743032
1007.218359	2545.313865
1007.512416	2547.325285
1007.806438	2545.949050
1008.100425	2544.562733
1008.394376	2545.011396
1008.688292	2544.892929
1008.982172	2543.930068
1009.276017	2542.750438
1009.569827	2543.385624
1009.863602	2543.516694
1010.157341	2542.826056
1010.451045	2544.736653
1010.744714	2540.799512
1011.038347	2542.442928
1011.331945	2540.875129
1011.625508	2540.123997
1011.919036	2537.812628
1012.212528	2541.447300
1012.505986	2540.088709
1012.799408	2541.323792
1013.092795	2539.067875
1013.386147	2541.827907
1013.679464	2539.887063
1013.972745	2540.428987
1014.265992	2538.682227
1014.559204	2539.627443
1014.852380	2538.810777
1015.145521	2537.588297
1015.438628	2537.023687
1015.731699	2540.920499
1016.024736	2538.513348
1016.317737	2539.234233
1016.610703	2541.825387
1016.903635	2539.582073
1017.196531	2538.145344
1017.489393	2537.857998
1017.782219	2536.421270
1018.075011	2540.877650
1018.367768	2539.997968
1018.660490	2543.017619
1018.953177	2543.017619
1019.245829	2543.017619
