Dividing Wavelength (nm)	Counts (n)	Blue Motor Position (mm): 12.500000	Red Motor Position (mm): 0.000000	
326.493990	2138.444859
326.888308	2138.444859
327.282561	2138.444859
327.676750	2106.945209
328.070874	2104.036463
328.464933	2108.142483
328.858929	2114.320417
329.252859	2123.770060
329.646726	2134.369086
330.040528	2146.992135
330.434265	2165.737666
330.827938	2183.905984
331.221547	2201.948274
331.615091	2218.712631
332.008571	2239.822463
332.401986	2258.517582
332.795338	2278.294028
333.188625	2297.639456
333.581847	2316.768114
333.975006	2332.834272
334.368100	2352.429237
334.761129	2369.007071
335.154095	2386.283105
335.546996	2404.761455
335.939833	2422.791141
336.332606	2440.878801
336.725315	2451.603856
337.117960	2459.934363
337.510540	2468.274952
337.903056	2480.698876
338.295508	2485.684577
338.687896	2494.438540
339.080220	2504.198214
339.472480	2509.584687
339.864676	2514.071314
340.256807	2518.472241
340.648875	2523.405010
341.040879	2526.235618
341.432818	2525.078673
341.824694	2527.689991
342.216506	2529.414066
342.608253	2527.246370
342.999937	2528.368026
343.391557	2526.679240
343.783113	2525.867614
344.174605	2528.849457
344.566033	2521.837212
344.957397	2520.718075
345.348697	2520.072808
345.739934	2517.164062
346.131106	2519.364526
346.522215	2513.703310
346.913260	2515.152642
347.304241	2512.571571
347.695159	2509.907321
348.086012	2509.637619
348.476802	2507.069151
348.867528	2506.751559
349.258191	2504.004130
349.648789	2502.776609
350.039324	2499.996413
350.429796	2501.662514
350.820203	2498.408449
351.210548	2499.832575
351.600828	2496.215547
351.991045	2498.352996
352.381198	2494.859477
352.771288	2495.464415
353.161314	2495.177069
353.551276	2495.686226
353.941175	2494.458705
354.331010	2494.604898
354.720782	2495.040958
355.110490	2496.190341
355.500135	2494.277223
355.889717	2494.219250
356.279235	2494.035248
356.668689	2495.119096
357.058080	2494.935094
357.447408	2492.971565
357.836672	2494.083139
358.225873	2494.410814
358.615010	2491.701194
359.004084	2501.327277
359.393095	2498.262256
359.782043	2497.067502
360.170927	2499.053717
360.559748	2499.086484
360.948505	2500.863491
361.337199	2502.711074
361.725830	2499.993892
362.114398	2501.859119
362.502903	2501.992709
362.891344	2501.498676
363.279722	2501.954901
363.668037	2503.903307
364.056289	2503.643687
364.444478	2502.958090
364.832603	2503.605879
365.220665	2505.932371
365.608665	2507.298524
365.996601	2507.001096
366.384474	2503.469768
366.772284	2505.796260
367.160031	2504.046980
367.547715	2505.014881
367.935336	2506.733915
368.322893	2505.829027
368.710388	2508.931858
369.097820	2509.609893
369.485189	2506.118894
369.872495	2506.393637
370.259738	2509.057887
370.646918	2506.832217
371.034035	2508.899090
371.421090	2509.337671
371.808081	2510.827332
372.195010	2513.237003
372.581875	2510.285408
372.968678	2510.212311
373.355418	2507.530417
373.742096	2514.184740
374.128710	2510.555109
374.515262	2514.741788
374.901751	2508.465551
375.288177	2512.884122
375.674540	2512.566530
376.060841	2512.296828
376.447079	2513.040398
376.833254	2513.804133
377.219367	2508.573936
377.605417	2512.377486
377.991404	2509.055366
378.377329	2511.923783
378.763191	2509.191477
379.148991	2516.198681
379.534727	2513.816736
379.920402	2516.042405
380.306013	2514.998886
380.691563	2518.557941
381.077049	2517.128774
381.462474	2514.739267
381.847835	2515.334123
382.233134	2513.955368
382.618371	2514.714061
383.003545	2519.919053
383.388657	2515.003928
383.773706	2518.177334
384.158693	2513.627692
384.543618	2517.592560
384.928480	2517.350585
385.313280	2518.023579
385.698017	2516.496109
386.082692	2518.018537
386.467305	2519.508198
386.851856	2517.600122
387.236344	2519.125071
387.620770	2519.029289
388.005133	2517.060718
388.389435	2518.131963
388.773674	2520.617252
389.157851	2518.487365
389.541965	2517.821933
389.926018	2519.581295
390.310008	2519.717406
390.693936	2519.253620
391.077802	2517.794206
391.461606	2520.196316
391.845348	2520.405524
392.229027	2520.365195
392.612645	2520.768487
392.996200	2522.253107
393.379694	2521.519619
393.763125	2522.558097
394.146494	2524.309898
394.529801	2522.883251
394.913047	2523.402490
395.296230	2523.899043
395.679351	2520.745802
396.062410	2523.949455
396.445408	2525.855011
396.828343	2523.289064
397.211217	2520.380318
397.594028	2521.534742
397.976778	2519.525843
398.359466	2524.158663
398.742092	2521.514578
399.124656	2523.339475
399.507158	2526.013808
399.889598	2524.458612
400.271977	2523.210926
400.654294	2526.419620
401.036549	2524.914836
401.418742	2525.403828
401.800874	2525.794517
402.182944	2526.177645
402.564952	2524.761081
402.946898	2528.756195
403.328783	2526.401976
403.710606	2529.285516
404.092367	2526.142357
404.474067	2528.564631
404.855705	2527.357275
405.237282	2526.190248
405.618797	2527.790814
406.000250	2528.985568
406.381642	2528.549508
406.762972	2528.650331
407.144240	2527.775691
407.525447	2528.378109
407.906593	2527.352234
408.287677	2528.899868
408.668700	2529.225023
409.049661	2530.177801
409.430560	2525.938190
409.811399	2532.877338
410.192176	2529.298119
410.572891	2528.463808
410.953545	2528.922553
411.334138	2528.529343
411.714669	2528.957841
412.095139	2530.248377
412.475547	2530.626463
412.855894	2530.941535
413.236180	2528.710825
413.616405	2528.640249
413.996568	2530.465146
414.376670	2533.154602
414.756711	2529.802235
415.136691	2529.789632
415.516609	2530.921371
415.896466	2531.329704
416.276262	2531.433048
416.655997	2530.886083
417.035670	2528.496576
417.415283	2529.209899
417.794834	2526.674199
418.174324	2532.753830
418.553753	2531.125537
418.933121	2532.428676
419.312428	2531.790970
419.691674	2532.905065
420.070859	2535.337422
420.449983	2530.054292
420.829045	2533.769623
421.208047	2534.064530
421.586988	2533.915816
421.965867	2535.876825
422.344686	2533.177287
422.723444	2531.801052
423.102141	2531.458254
423.480777	2533.416742
423.859352	2529.071267
424.237866	2532.509334
424.616319	2535.478574
424.994712	2533.860363
425.373044	2534.782895
425.751314	2536.199459
426.129524	2531.826258
426.507673	2535.445806
426.885762	2533.653676
427.263789	2536.403626
427.641756	2535.382792
428.019662	2532.907585
428.397508	2536.093595
428.775292	2532.703419
429.153016	2533.409180
429.530679	2535.874304
429.908282	2535.589479
430.285824	2537.686599
430.663305	2538.810777
431.040726	2534.750127
431.418086	2537.058976
431.795385	2536.055786
432.172624	2536.000333
432.549802	2539.120807
432.926920	2537.585776
433.303977	2538.357073
433.680974	2537.011085
434.057910	2537.106867
434.434786	2536.080992
434.811601	2539.645088
435.188355	2535.100487
435.565050	2539.163657
435.941683	2538.435211
436.318257	2537.545447
436.694770	2533.434386
437.071222	2533.535209
437.447614	2535.702905
437.823946	2533.973789
438.200218	2537.260622
438.576429	2538.445293
438.952580	2536.015457
439.328670	2539.140972
439.704700	2538.072248
440.080670	2538.838503
440.456580	2539.687937
440.832429	2539.592155
441.208218	2540.880170
441.583947	2538.959491
441.959616	2542.417722
442.335224	2537.303472
442.710773	2539.619882
443.086261	2537.195087
443.461689	2540.257588
443.837057	2540.607948
444.212365	2543.282280
444.587612	2538.009233
444.962800	2538.510828
445.337927	2540.302958
445.712995	2540.986034
446.088002	2540.383617
446.462949	2541.084337
446.837837	2542.238761
447.212664	2539.244316
447.587431	2540.247505
447.962139	2539.425797
448.336786	2543.912424
448.711374	2541.565767
449.085901	2544.172044
449.460369	2540.030736
449.834776	2541.253216
450.209124	2538.677186
450.583412	2540.834800
450.957640	2540.912938
451.331808	2540.323123
451.705917	2544.053577
452.079965	2542.263967
452.453954	2542.125335
452.827883	2542.173226
453.201752	2543.524255
453.575562	2541.875798
453.949311	2541.943854
454.323001	2541.046528
454.696632	2542.818494
455.070202	2542.442928
455.443713	2540.413863
455.817164	2539.566950
456.190556	2537.429500
456.563888	2539.637526
456.937160	2536.993441
457.310373	2542.831097
457.683526	2545.404606
458.056619	2542.546272
458.429653	2541.522917
458.802628	2544.887887
459.175542	2544.923176
459.548398	2544.666077
459.921194	2545.603731
460.293930	2542.359749
460.666607	2542.911755
461.039224	2541.240613
461.411782	2543.665408
461.784280	2543.047866
462.156719	2541.817825
462.529099	2543.481406
462.901419	2547.491643
463.273680	2542.359749
463.645882	2545.689431
464.018024	2544.028371
464.390106	2544.923176
464.762130	2544.532486
465.134094	2545.150027
465.505999	2545.059287
465.877845	2547.481561
466.249631	2544.010727
466.621358	2545.265974
466.993026	2545.674308
467.364634	2547.867209
467.736184	2546.072559
468.107674	2544.875285
468.479105	2547.010213
468.850477	2542.818494
469.221790	2545.875954
469.593043	2544.971067
469.964238	2546.553989
470.335373	2545.810419
470.706449	2545.684390
471.077467	2545.023999
471.448425	2543.768751
471.819324	2547.078269
472.190164	2544.658515
472.560945	2546.506098
472.931667	2549.011551
473.302330	2546.672456
473.672934	2547.476520
474.043479	2547.239586
474.413965	2544.875285
474.784393	2541.109543
475.154761	2542.523586
475.525070	2540.867567
475.895321	2546.004503
476.265513	2540.774306
476.635645	2545.853268
477.005719	2548.295708
477.375734	2546.455686
477.745691	2546.622044
478.115588	2547.295038
478.485427	2547.219421
478.855207	2549.127498
479.224928	2547.252189
479.594591	2544.890408
479.964194	2547.499205
480.333739	2547.000131
480.703226	2548.409133
481.072653	2549.475338
481.442022	2547.600028
481.811333	2547.342929
482.180584	2549.056922
482.549777	2548.492312
482.918912	2548.197405
483.287988	2550.574309
483.657005	2544.734132
484.025964	2548.822508
484.394864	2547.673125
484.763706	2550.491130
485.132489	2549.974412
485.501213	2550.808723
485.869879	2548.920811
486.238487	2549.349309
486.607036	2547.479041
486.975527	2550.208825
487.343959	2548.729247
487.712333	2550.586912
488.080648	2551.327962
488.448905	2550.178578
488.817104	2549.513146
489.185244	2550.536500
489.553326	2549.548434
489.921350	2548.356201
490.289315	2552.189999
490.657222	2550.879299
491.025070	2549.339226
491.392861	2551.610266
491.760593	2549.021634
492.128267	2549.074566
492.495883	2551.511964
492.863440	2553.662016
493.230939	2550.634803
493.598380	2552.769732
493.965763	2543.546941
494.333088	2546.891746
494.700354	2544.000644
495.067563	2548.643547
495.434713	2546.160779
495.801805	2548.699000
496.168839	2548.348640
496.535815	2550.836449
496.902733	2553.364588
497.269593	2552.129505
497.636395	2551.695966
498.003139	2549.540873
498.369825	2549.871068
498.736453	2550.581871
499.103023	2546.745553
499.469535	2549.422405
499.835989	2553.498178
500.202385	2549.631613
500.568723	2549.792930
500.935003	2552.742005
501.301226	2552.162272
501.667390	2549.873589
502.033497	2552.444577
502.399546	2554.234187
502.765537	2551.002807
503.131470	2550.576830
503.497345	2551.680842
503.863163	2553.228477
504.228923	2551.345606
504.594625	2552.444577
504.960269	2552.711758
505.325856	2552.900802
505.691385	2551.592622
506.056856	2549.777807
506.422270	2549.684545
506.787625	2551.448949
507.152924	2551.275029
507.518164	2550.657488
507.883347	2552.631100
508.248472	2555.474311
508.613540	2552.232849
508.978550	2550.949875
509.343503	2554.972716
509.708398	2554.448436
510.073236	2552.905843
510.438016	2554.266954
510.802738	2555.300391
511.167403	2556.195196
511.532010	2554.269475
511.896561	2556.613611
512.261053	2556.890875
512.625488	2552.641182
512.989866	2552.434495
513.354186	2552.520194
513.718449	2551.872406
514.082655	2554.236707
514.446803	2554.740823
514.810894	2552.212684
515.174927	2555.018086
515.538904	2555.854918
515.902822	2555.146636
516.266684	2554.922304
516.630488	2556.951369
516.994235	2554.335010
517.357925	2555.398693
517.721558	2556.497665
518.085133	2554.070349
518.448651	2556.787531
518.812112	2556.328786
519.175516	2557.631924
519.538863	2557.883982
519.902152	2558.756102
520.265385	2557.049671
520.628560	2559.353478
520.991678	2560.865825
521.354739	2560.144940
521.717743	2561.644683
522.080690	2559.098900
522.443580	2560.066802
522.806413	2562.718449
523.169189	2561.359858
523.531908	2561.138047
523.894569	2560.679302
524.257174	2559.771894
524.619722	2558.166287
524.982213	2562.640311
525.344647	2562.904971
525.707025	2561.107800
526.069345	2563.328428
526.431608	2561.069991
526.793815	2560.520506
527.155964	2562.279868
527.518057	2564.654252
527.880093	2562.506720
528.242072	2565.566701
528.603995	2565.249108
528.965860	2566.579972
529.327669	2563.220043
529.689421	2565.082750
530.051117	2566.564849
530.412755	2567.315981
530.774337	2563.744323
531.135862	2565.854046
531.497331	2564.291289
531.858743	2560.873386
532.220098	2565.876732
532.581396	2561.977399
532.942638	2564.671896
533.303824	2565.123079
533.664953	2568.626681
534.026025	2566.217009
534.387040	2570.191959
534.747999	2568.414953
535.108902	2568.235992
535.469748	2568.094839
535.830537	2567.439489
536.191270	2570.897721
536.551947	2571.568194
536.912567	2568.750189
537.273131	2570.703636
537.633638	2569.581980
537.994089	2569.208934
538.354483	2571.147258
538.714821	2570.577607
539.075103	2575.117167
539.435328	2574.567681
539.795497	2572.392423
540.155609	2570.799418
540.515665	2572.954512
540.875665	2571.323698
541.235609	2568.455282
541.595496	2573.463668
541.955328	2571.076682
542.315102	2575.225551
542.674821	2570.292782
543.034483	2574.161868
543.394090	2573.004923
543.753640	2571.888307
544.113134	2570.474264
544.472571	2573.589697
544.831953	2573.226734
545.191278	2574.534913
545.550548	2575.989286
545.909761	2574.572722
546.268918	2576.059862
546.628019	2573.249419
546.987064	2574.028277
547.346053	2574.786971
547.704986	2575.974163
548.063863	2574.746642
548.422684	2575.696899
548.781449	2575.026426
549.140158	2574.184553
549.498811	2575.459965
549.857408	2571.053997
550.215949	2574.320664
550.574434	2569.087947
550.932864	2571.290931
551.291237	2573.884604
551.649555	2575.336457
552.007817	2577.060531
552.366022	2576.841241
552.724173	2578.093968
553.082267	2576.309399
553.440305	2578.908114
553.798288	2576.901735
554.156215	2575.906107
554.514086	2577.388206
554.871902	2575.868298
555.229661	2576.011971
555.587365	2576.556416
555.945014	2576.193453
556.302606	2576.647157
556.660143	2574.436611
557.017625	2577.221848
557.375050	2577.209245
557.732421	2577.310068
558.089735	2577.889801
558.446994	2580.052456
558.804197	2583.112437
559.161345	2581.335430
559.518437	2578.719071
559.875474	2576.712692
560.232455	2581.345512
560.589381	2578.575398
560.946251	2584.594536
561.303065	2578.585480
561.659825	2578.235120
562.016528	2581.700913
562.373177	2577.433577
562.729770	2576.563978
563.086307	2582.174782
563.442789	2580.778382
563.799216	2580.554051
564.155587	2581.756366
564.511904	2579.550861
564.868164	2580.067580
565.224370	2580.307034
565.580520	2581.025399
565.936615	2580.120512
566.292654	2582.341140
566.648638	2581.317786
567.004567	2584.032447
567.360441	2582.862899
567.716260	2580.765779
568.072023	2585.315421
568.427732	2579.939030
568.783385	2583.004052
569.138982	2582.439442
569.494525	2584.415575
569.850013	2578.590522
570.205445	2587.132757
570.560823	2586.416913
570.916145	2583.858527
571.271412	2588.912284
571.626625	2587.868765
571.981782	2586.646285
572.336884	2591.926894
572.691931	2589.527305
573.046923	2592.622573
573.401860	2592.330186
573.756743	2592.733479
574.111570	2594.094590
574.466342	2593.330855
574.821059	2594.817996
575.175722	2596.635332
575.530330	2593.131730
575.884882	2598.530806
576.239380	2593.678695
576.593823	2600.166660
576.948211	2601.197576
577.302544	2600.025508
577.656823	2600.663214
578.011047	2603.009871
578.365216	2605.999275
578.719330	2605.706888
579.073389	2602.525920
579.427394	2606.014398
579.781344	2608.610593
580.135239	2607.148658
580.489080	2609.966663
580.842866	2611.506736
581.196597	2612.961108
581.550273	2616.605863
581.903895	2616.994032
582.257463	2618.458487
582.610975	2622.294805
582.964434	2620.225411
583.317837	2625.556431
583.671186	2626.045423
584.024481	2627.487193
584.377721	2625.974847
584.730906	2627.807307
585.084037	2632.641773
585.437113	2631.232771
585.790135	2636.415077
586.143103	2637.108235
586.496016	2640.498411
586.848874	2637.924902
587.201679	2642.703916
587.554428	2642.356077
587.907124	2646.777168
588.259765	2645.431180
588.612352	2655.576502
588.964884	2658.588592
589.317362	2662.127482
589.669786	2664.867349
590.022155	2668.411280
590.374470	2671.209121
590.726731	2671.130983
591.078937	2671.942608
591.431090	2681.742612
591.783188	2678.705316
592.135232	2683.300328
592.487222	2684.240503
592.839157	2690.345341
593.191038	2694.935311
593.542866	2695.472194
593.894639	2696.765250
594.246358	2702.733976
594.598022	2706.497197
594.949633	2705.531817
595.301190	2712.123125
595.652692	2715.125132
596.004141	2724.269785
596.355535	2721.045967
596.706876	2728.171638
597.058162	2729.850343
597.409395	2734.094994
597.760573	2744.663773
598.111698	2744.683938
598.462768	2748.091758
598.813785	2750.516553
599.164748	2757.433016
599.515657	2760.296391
599.866511	2766.161774
600.217312	2772.964811
600.568060	2774.484719
600.918753	2784.325051
601.269392	2786.860752
601.619978	2794.883748
601.970510	2800.668472
602.320988	2806.314564
602.671412	2816.830411
603.021783	2819.963488
603.372100	2828.634273
603.722363	2836.218689
604.072572	2841.148937
604.422728	2848.398117
604.772830	2847.818384
605.122878	2855.765763
605.472872	2864.512165
605.822813	2874.392826
606.172701	2877.488095
606.522534	2893.254303
606.872314	2902.746796
607.222041	2907.913979
607.571714	2918.679363
607.921333	2927.398038
608.270899	2936.867846
608.620411	2953.198664
608.969870	2956.271247
609.319276	2967.381950
609.668627	2979.992397
610.017926	2993.452277
610.367171	3013.972294
610.716362	3019.880526
611.065500	3029.988040
611.414585	3041.403733
611.763616	3050.581153
612.112594	3058.641958
612.461518	3072.608475
612.810389	3088.460383
613.159207	3094.333328
613.507971	3101.169132
613.856682	3128.620735
614.205340	3136.719349
614.553945	3152.155362
614.902496	3157.362874
615.250994	3174.825431
615.599439	3187.698017
615.947830	3200.343752
616.296169	3217.130794
616.644454	3228.422979
616.992686	3243.412850
617.340864	3267.328083
617.688990	3269.160543
618.037063	3295.704738
618.385082	3306.646563
618.733048	3332.300995
619.080961	3337.211079
619.428821	3357.342927
619.776628	3375.486039
620.124382	3382.110115
620.472083	3394.294584
620.819731	3408.873601
621.167326	3408.114908
621.514868	3421.514294
621.862357	3413.773603
622.209793	3430.086777
622.557176	3435.614402
622.904506	3443.355093
623.251783	3437.726645
623.599007	3447.609827
623.946179	3458.523925
624.293297	3470.211841
624.640363	3469.793425
624.987376	3477.496308
625.334336	3478.875063
625.681243	3492.440808
626.028097	3500.988085
626.374899	3511.506452
626.721647	3526.506406
627.068343	3525.684697
627.414987	3538.196841
627.761577	3545.924930
628.108115	3559.094945
628.454600	3555.772824
628.801032	3587.252309
629.147412	3584.983790
629.493739	3603.315946
629.840014	3598.287395
630.186236	3630.618835
630.532405	3620.506281
630.878521	3645.679282
631.224585	3652.782268
631.570597	3645.737256
631.916556	3675.903520
632.262462	3687.304090
632.608316	3694.059236
632.954117	3704.121379
633.299866	3712.020867
633.645562	3726.839339
633.991206	3720.109398
634.336797	3713.991958
634.682336	3716.550344
635.027823	3725.148032
635.373257	3730.776480
635.718639	3724.553176
636.063968	3745.111001
636.409245	3726.234400
636.754470	3742.045979
637.099642	3741.241915
637.444762	3742.315681
637.789829	3755.142897
638.134845	3751.863627
638.479808	3762.061881
638.824719	3775.872122
639.169577	3763.115482
639.514383	3782.521404
639.859137	3772.108900
640.203839	3786.302269
640.548489	3798.380874
640.893086	3798.786687
641.237632	3805.589724
641.582125	3821.575223
641.926566	3825.595543
642.270955	3841.021473
642.615292	3855.850027
642.959576	3872.939539
643.303809	3880.793657
643.647990	3900.754105
643.992118	3901.051533
644.336195	3895.541552
644.680219	3925.765790
645.024192	3927.396603
645.368112	3978.816373
645.711981	3999.984178
646.055797	4042.415570
646.399562	4043.025549
646.743274	4110.017443
647.086935	4137.418634
647.430544	4153.308351
647.774101	4179.774409
648.117606	4187.701623
648.461059	4196.024568
648.804460	4202.220147
649.147810	4167.002646
649.491108	4173.556146
649.834354	4174.178728
650.177548	4156.809433
650.520690	4130.562665
650.863781	4130.401348
651.206820	4154.069566
651.549807	4131.707007
651.892742	4122.214514
652.235626	4136.939725
652.578458	4136.594406
652.921238	4115.703864
653.263967	4141.612874
653.606644	4127.253148
653.949269	4142.074140
654.291843	4117.503556
654.634365	4158.591481
654.976836	4154.240965
655.319255	4158.823374
655.661622	4163.274713
656.003938	4175.958256
656.346203	4161.293539
656.688416	4191.679094
657.030577	4179.666024
657.372687	4170.554139
657.714746	4178.753575
658.056753	4210.545612
658.398708	4192.641954
658.740612	4194.862583
659.082465	4236.827668
659.424266	4240.815220
659.766016	4248.069441
660.107715	4251.636057
660.449362	4267.001494
660.790958	4273.129017
661.132503	4281.139410
661.473996	4312.691992
661.815438	4310.733504
662.156829	4319.273218
662.498168	4330.514991
662.839456	4317.786078
663.180693	4352.673383
663.521879	4360.310731
663.863013	4365.256103
664.204097	4391.291142
664.545129	4420.091254
664.886110	4431.935445
665.227040	4463.336792
665.567918	4444.682002
665.908746	4478.240964
666.249522	4485.202797
666.590248	4486.115246
666.930922	4508.661807
667.271545	4530.679046
667.612118	4539.793452
667.952639	4530.971433
668.293109	4559.668201
668.633528	4540.857136
668.973896	4550.263929
669.314213	4553.414650
669.654480	4560.426895
669.994695	4565.528543
670.334859	4567.043409
670.674973	4578.610337
671.015035	4576.422476
671.355047	4597.665898
671.695008	4598.361577
672.034918	4584.584104
672.374777	4603.753092
672.714585	4599.117751
673.054342	4612.186942
673.394049	4616.282879
673.733705	4648.974762
674.073310	4653.020288
674.412864	4630.055312
674.752368	4638.748782
675.091820	4649.204135
675.431223	4617.739773
675.770574	4625.286380
676.109875	4602.316363
676.449125	4619.773878
676.788324	4603.095221
677.127473	4574.282506
677.466571	4579.600923
677.805619	4587.089558
678.144616	4583.235595
678.483562	4581.622426
678.822458	4567.217329
679.161303	4569.498451
679.500098	4576.031787
679.838842	4569.258996
680.177535	4577.639915
680.516179	4593.774127
680.854771	4615.284731
681.193314	4675.599616
681.531805	4750.203652
681.870247	4860.846897
682.208638	4940.313125
682.546978	4951.648160
682.885268	4947.151450
683.223508	4898.884923
683.561697	4871.221591
683.899836	4856.019992
684.237925	4831.724151
684.575963	4808.363444
684.913951	4785.274959
685.251889	4845.299978
685.589776	4814.962314
685.927614	4802.808092
686.265401	4860.332699
686.603137	4848.339794
686.940824	4914.197428
687.278460	4930.117392
687.616046	4939.347744
687.953582	4992.231969
688.291068	4983.311647
688.628504	5038.068660
688.965889	5014.327346
689.303224	4983.097398
689.640510	4952.588335
689.977745	4909.221809
690.314930	4845.632694
690.652065	4810.959638
690.989150	4747.163836
691.326185	4703.031055
691.663170	4674.558618
692.000105	4626.221514
692.336990	4575.348710
692.673825	4562.667688
693.010610	4516.606665
693.347345	4467.263851
693.684030	4466.895847
694.020665	4436.709418
694.357251	4371.612998
694.693786	4382.890059
695.030272	4362.130588
695.366707	4340.930015
695.703093	4321.594670
696.039429	4339.959593
696.375716	4333.038089
696.711952	4314.494204
697.048139	4303.580106
697.384276	4292.262716
697.720363	4306.085560
698.056400	4321.143486
698.392388	4281.880460
698.728326	4265.549642
699.064214	4257.786265
699.400053	4253.060183
699.735842	4230.042275
700.071581	4215.581725
700.407270	4201.680743
700.742910	4190.254968
701.078501	4148.385665
701.414042	4156.103671
701.749533	4135.999550
702.084974	4078.888318
702.420366	4138.696567
702.755709	4089.331068
703.091002	4048.182650
703.426246	4093.185030
703.761440	4055.504926
704.096584	4029.679094
704.431679	4051.335891
704.766725	4039.882390
705.101721	4035.352913
705.436668	4063.779980
705.771565	4020.468906
706.106413	4042.213923
706.441212	4076.892021
706.775961	4088.320317
707.110661	4070.058737
707.445311	4097.384311
707.779913	4121.097899
708.114465	4132.377481
708.448967	4151.080161
708.783421	4208.788770
709.117825	4243.832351
709.452180	4249.828803
709.786485	4279.551447
710.120742	4359.743601
710.454949	4343.730376
710.789107	4399.546032
711.123216	4464.042554
711.457275	4454.355977
711.791286	4517.294783
712.125247	4534.079304
712.459159	4446.416159
712.793023	4518.257643
713.126837	4493.871061
713.460602	4488.517356
713.794318	4419.982869
714.127985	4434.266979
714.461602	4372.038976
714.795171	4343.811035
715.128691	4292.053508
715.462162	4247.550202
715.795584	4211.538719
716.128957	4200.475907
716.462281	4160.439063
716.795556	4136.642297
717.128782	4104.462091
717.461960	4047.169378
717.795088	4061.002304
718.128167	4022.185419
718.461198	3973.087101
718.794180	3972.461998
719.127113	3959.869196
719.459997	3943.225827
719.792833	3905.618819
720.125619	3896.277561
720.458357	3865.602140
720.791046	3869.985423
721.123686	3846.418029
721.456278	3813.453924
721.788821	3828.773990
722.121315	3807.643994
722.453761	3781.079634
722.786158	3798.305256
723.118506	3818.812670
723.450805	3773.414559
723.783056	3792.132363
724.115259	3813.597597
724.447412	3815.281342
724.779518	3812.821259
725.111574	3817.754028
725.443582	3845.845858
725.775542	3831.440761
726.107453	3876.881721
726.439315	3883.662073
726.771129	3890.079462
727.102895	3925.433074
727.434612	3969.654076
727.766281	3977.631702
728.097901	3978.617247
728.429473	3986.889781
728.760996	3991.643589
729.092471	3988.838187
729.423897	3976.222699
729.755276	3985.773165
730.086606	3986.458762
730.417887	4024.562323
730.749120	4085.061211
731.080305	4149.477074
731.411442	4168.431813
731.742530	4143.258811
732.073570	4151.395233
732.404562	4199.253428
732.735506	4189.032488
733.066401	4157.951254
733.397249	4102.753140
733.728048	4033.515412
734.058798	3959.574288
734.389501	3893.762025
734.720156	3837.376719
735.050762	3798.622849
735.381320	3791.018268
735.711831	3744.453130
736.042293	3720.641240
736.372707	3742.207296
736.703073	3711.776371
737.033391	3705.774877
737.363661	3724.515367
737.693883	3746.580497
738.024056	3757.522322
738.354182	3752.239192
738.684260	3811.636588
739.014290	3828.688291
739.344272	3821.887774
739.674207	3864.921584
740.004093	3869.105742
740.333931	3862.630379
740.663722	3865.700442
740.993464	3863.119371
741.323159	3840.615661
741.652806	3813.431238
741.982405	3791.560193
742.311956	3762.371912
742.641460	3754.923607
742.970915	3732.944176
743.300323	3696.259700
743.629683	3665.344824
743.958996	3656.298473
744.288260	3633.860297
744.617477	3601.967437
744.946647	3590.818926
745.275768	3567.780853
745.604842	3562.853125
745.933869	3521.165303
746.262847	3512.202132
746.591778	3550.136814
746.920662	3520.131867
747.249498	3492.029954
747.578286	3540.629198
747.907027	3554.943554
748.235720	3548.354766
748.564365	3575.287131
748.892963	3579.977924
749.221514	3562.316242
749.550017	3542.812018
749.878473	3537.226419
750.206881	3510.853623
750.535242	3506.946729
750.863555	3508.655680
751.191821	3503.612005
751.520039	3484.621979
751.848210	3462.803865
752.176334	3496.156139
752.504411	3506.147706
752.832440	3463.096252
753.160421	3449.379272
753.488356	3461.730099
753.816243	3472.253508
754.144082	3428.145932
754.471875	3417.919952
754.799620	3433.504679
755.127318	3426.096703
755.454969	3426.038730
755.782572	3430.197682
756.110129	3406.463930
756.437638	3401.299268
756.765100	3412.735125
757.092515	3422.109151
757.419882	3429.449071
757.747203	3401.314391
758.074477	3407.615833
758.401703	3420.571599
758.728882	3439.133127
759.056014	3448.061011
759.383099	3449.318778
759.710138	3449.066721
760.037129	3464.699339
760.364073	3495.188237
760.690970	3479.626195
761.017820	3458.254224
761.344623	3478.345742
761.671379	3519.232021
761.998088	3565.514854
762.324751	3693.610573
762.651366	3932.067232
762.977935	4386.040780
763.304456	4808.910409
763.630931	4892.815374
763.957359	4544.968197
764.283740	4223.506419
764.610074	4042.395405
764.936362	3850.541692
765.262602	3696.678115
765.588796	3592.064091
765.914943	3508.285155
766.241044	3424.067639
766.567097	3394.675191
766.893104	3349.929910
767.219064	3321.628872
767.544978	3294.111734
767.870845	3242.676841
768.196665	3224.929459
768.522438	3233.678382
768.848165	3228.614542
769.173846	3193.263451
769.499479	3177.154444
769.825066	3162.577948
770.150607	3145.450628
770.476101	3160.238852
770.801548	3156.523522
771.126949	3111.319495
771.452303	3096.553956
771.777611	3104.113166
772.102872	3107.173146
772.428087	3084.664394
772.753256	3077.574012
773.078378	3064.842578
773.403453	3033.484080
773.728482	3023.928573
774.053465	3045.746687
774.378401	3033.733617
774.703291	3001.944101
775.028135	3003.305213
775.352932	2998.558966
775.677683	2984.433653
776.002388	2983.352326
776.327046	2985.222594
776.651658	2975.316726
776.976224	2964.563945
777.300743	2963.974130
777.625216	2951.406534
777.949643	2949.130453
778.274024	2952.818057
778.598359	2940.933537
778.922647	2944.933692
779.246889	2945.271449
779.571086	2931.100766
779.895236	2927.516506
780.219339	2934.959769
780.543397	2946.264557
780.867409	2949.284208
781.191374	2945.490740
781.515294	2940.683999
781.839167	2938.735593
782.162995	2934.042279
782.486776	2943.673404
782.810511	2937.029163
783.134201	2923.365115
783.457844	2933.288627
783.781441	2919.944693
784.104993	2904.536406
784.428498	2903.245870
784.751958	2919.649785
785.075372	2915.110226
785.398739	2893.551732
785.722061	2915.503436
786.045337	2923.211360
786.368568	2913.560071
786.691752	2900.011970
787.014891	2952.684466
787.337983	2974.187508
787.661030	3006.075327
787.984031	3072.099318
788.306987	3114.303858
788.629897	3106.727004
788.952760	3089.377873
789.275579	3073.989751
789.598351	3019.217615
789.921078	2974.691623
790.243759	2968.901858
790.566395	2947.834876
790.888984	2929.525405
791.211529	2910.817683
791.534027	2900.001888
791.856480	2891.724313
792.178888	2879.479351
792.501249	2870.584235
792.823566	2867.350334
793.145836	2864.050899
793.468062	2859.155939
793.790241	2858.324148
794.112375	2862.954448
794.434464	2878.829042
794.756507	2882.004969
795.078505	2885.869013
795.400457	2897.501476
795.722364	2937.056889
796.044226	2958.897688
796.366042	2961.118317
796.687812	2951.015844
797.009538	2971.866057
797.331218	2957.171093
797.652852	2943.000410
797.974442	2928.439037
798.295986	2923.859148
798.617484	2917.479568
798.938938	2902.346024
799.260346	2887.746843
799.581709	2882.478837
799.903026	2874.032384
800.224299	2871.952908
800.545526	2859.811289
800.866708	2848.380472
801.187845	2836.261539
801.508936	2838.298165
801.829983	2845.880060
802.150984	2830.650734
802.471940	2817.783189
802.792851	2819.686225
803.113717	2819.101451
803.434538	2828.054540
803.755314	2819.255206
804.076045	2812.578198
804.396731	2811.572488
804.717372	2813.452838
805.037967	2806.180974
805.358518	2815.161789
805.679024	2823.492296
805.999485	2822.426092
806.319901	2825.735609
806.640272	2818.257058
806.960598	2824.112358
807.280879	2830.557473
807.601115	2840.148268
807.921306	2826.088490
808.241453	2819.638334
808.561554	2829.138388
808.881611	2827.648727
809.201623	2826.020435
809.521590	2823.971206
809.841513	2817.389979
810.161390	2825.082780
810.481223	2817.614311
810.801011	2808.020995
811.120755	2801.661579
811.440453	2804.890438
811.760107	2805.502938
812.079716	2804.711477
812.399281	2795.914664
812.718801	2787.881585
813.038276	2784.443518
813.357707	2791.334776
813.677093	2797.928605
813.996434	2793.573048
814.315731	2787.790844
814.634983	2782.800102
814.954191	2784.733385
815.273354	2799.282155
815.592473	2807.957980
815.911547	2806.891776
816.230577	2815.716316
816.549562	2822.199240
816.868502	2823.167142
817.187399	2831.510251
817.506250	2850.656553
817.825058	2842.991479
818.143821	2852.476410
818.462539	2871.768906
818.781213	2894.965775
819.099843	2931.062957
819.418429	2986.664364
819.736970	3045.797098
820.055466	3115.173458
820.373919	3219.147256
820.692327	3358.099100
821.010691	3516.209849
821.329011	3946.900828
821.647286	4819.791740
821.965517	6148.183669
822.283704	6843.762077
822.601847	6813.943652
822.919945	6203.792637
823.237999	5733.258899
823.556010	5166.018186
823.873976	4634.047906
824.191897	4246.728494
824.509775	3962.704845
824.827609	3695.778269
825.145398	3583.811722
825.463144	3573.038776
825.780845	3665.533867
826.098502	3763.080194
826.416116	4042.478584
826.733685	4340.730890
827.051210	4401.060898
827.368692	4286.246099
827.686129	4028.786810
828.003522	3715.035477
828.320872	3471.583034
828.638177	3280.374590
828.955439	3148.248468
829.272656	3070.276941
829.589830	3006.622292
829.906960	2956.898871
830.224046	2912.710637
830.541088	2877.830893
830.858086	2865.840509
831.175041	2849.527335
831.491952	2852.310052
831.808819	2861.399252
832.125642	2885.102758
832.442421	2929.646393
832.759157	3004.913341
833.075849	3181.431863
833.392497	3453.959161
833.709101	3651.821928
834.025662	3598.766305
834.342179	3442.666976
834.658653	3270.133486
834.975083	3132.043679
835.291469	3034.746889
835.607811	2953.367543
835.924110	2898.728997
836.240366	2847.299145
836.556578	2807.945377
836.872746	2785.436626
837.188871	2764.412493
837.504952	2748.079155
837.820990	2740.104050
838.136984	2730.956876
838.452935	2719.513457
838.768842	2717.292828
839.084706	2736.716394
839.400526	2812.978970
839.716303	2940.840275
840.032037	3015.487161
840.347727	3002.281858
840.663373	2942.569391
840.978977	2871.186653
841.294537	2798.636887
841.610054	2754.423447
841.925527	2735.579614
842.240957	2712.508773
842.556344	2691.668643
842.871687	2677.024092
843.186987	2669.096877
843.502244	2663.780980
843.817458	2659.064981
844.132629	2647.336737
844.447756	2638.124028
844.762840	2633.718059
845.077881	2636.183184
845.392879	2635.658904
845.707833	2630.630353
846.022745	2621.246245
846.337613	2628.404683
846.652438	2625.042234
846.967221	2621.747840
847.281960	2623.207254
847.596656	2624.631380
847.911309	2622.546863
848.225919	2618.256841
848.540485	2613.172837
848.855009	2617.548558
849.169490	2615.164093
849.483928	2614.193671
849.798323	2613.306427
850.112675	2613.462703
850.426984	2611.993207
850.741251	2610.357352
851.055474	2613.220728
851.369654	2616.099227
851.683792	2613.268619
851.997887	2612.903135
852.311938	2611.937754
852.625947	2614.284411
852.939914	2615.335492
853.253837	2616.913373
853.567718	2609.742332
853.881555	2611.693258
854.195350	2613.908845
854.509103	2614.365070
854.822812	2612.020933
855.136479	2611.040429
855.450103	2613.485388
855.763685	2612.585543
856.077224	2612.661160
856.390720	2609.737291
856.704173	2612.610748
857.017584	2617.273816
857.330953	2617.727519
857.644278	2619.025617
857.957561	2619.796913
858.270802	2614.264247
858.584000	2615.378342
858.897155	2621.178189
859.210268	2618.609721
859.523339	2610.246447
859.836367	2610.080089
860.149352	2609.588577
860.462295	2614.518825
860.775195	2607.554471
861.088054	2609.407095
861.400869	2608.192177
861.713642	2604.693616
862.026373	2607.849378
862.339062	2610.579163
862.651708	2615.148969
862.964312	2614.733074
863.276873	2612.212497
863.589392	2614.947323
863.901869	2619.590226
864.214303	2626.063067
864.526696	2627.335959
864.839045	2628.051802
865.151353	2630.670682
865.463619	2632.916516
865.775842	2632.999695
866.088023	2632.369551
866.400162	2631.890641
866.712258	2632.417442
867.024313	2629.503655
867.336325	2624.442336
867.648296	2631.552884
867.960224	2632.803090
868.272110	2630.196813
868.583954	2624.462501
868.895755	2627.590537
869.207515	2631.888121
869.519233	2637.077988
869.830909	2636.445324
870.142542	2631.200003
870.454134	2632.898872
870.765684	2635.749644
871.077191	2638.164357
871.388657	2643.664256
871.700081	2638.476909
872.011463	2637.934985
872.322803	2640.495891
872.634101	2644.924544
872.945357	2650.714310
873.256571	2657.315701
873.567744	2655.430309
873.878874	2654.361584
874.189963	2653.862510
874.501010	2658.071874
874.812015	2663.576814
875.122979	2663.198727
875.433900	2653.610452
875.744780	2653.376039
876.055618	2658.399549
876.366415	2663.990188
876.677169	2661.419200
876.987882	2657.708911
877.298554	2654.792603
877.609183	2667.294665
877.919771	2673.744821
878.230317	2678.770851
878.540822	2687.207222
878.851285	2702.418904
879.161707	2724.852039
879.472087	2760.611463
879.782425	2805.699543
880.092722	2916.945206
880.402977	3098.096549
880.713191	3343.391533
881.023363	3618.570478
881.333494	3797.087818
881.643583	3963.294660
881.953631	3962.483034
882.263637	3788.013741
882.573602	3577.603541
882.883526	3455.811785
883.193408	3346.932944
883.503248	3253.548089
883.813048	3145.095226
884.122806	3035.523227
884.432522	2955.847790
884.742197	2894.887637
885.051831	2855.765763
885.361424	2824.966833
885.670975	2792.385856
885.980485	2761.695312
886.289954	2745.976994
886.599382	2733.109449
886.908768	2722.908674
887.218113	2705.738504
887.527417	2690.703263
887.836680	2685.430216
888.145901	2678.405368
888.455082	2670.417659
888.764221	2658.099600
889.073319	2652.261944
889.382376	2649.224649
889.691392	2652.917294
890.000366	2654.298570
890.309300	2651.127684
890.618193	2653.643220
890.927044	2655.884013
891.235855	2656.037768
891.544625	2653.416368
891.853353	2657.071205
892.162041	2662.205620
892.470687	2684.933662
892.779293	2694.922708
893.087858	2701.261959
893.396381	2721.781976
893.704864	2762.098604
894.013306	2833.304902
894.321707	2916.418405
894.630068	2964.921867
894.938387	2983.697645
895.246665	2975.581387
895.554903	2933.344079
895.863100	2893.284550
896.171256	2839.525686
896.479371	2777.060748
896.787446	2742.488515
897.095480	2726.238356
897.403473	2721.391287
897.711425	2707.273535
898.019336	2689.490865
898.327207	2676.267918
898.635038	2676.406550
898.942827	2672.787002
899.250576	2666.518327
899.558284	2654.548107
899.865952	2647.344298
900.173579	2647.399751
900.481165	2643.709626
900.788711	2636.457927
901.096216	2630.547174
901.403681	2628.450054
901.711105	2629.949797
902.018489	2627.797224
902.325832	2631.200003
902.633135	2632.798049
902.940397	2644.861530
903.247619	2681.114988
903.554800	2744.197467
903.861941	2866.367309
904.169041	2987.110506
904.476101	3039.117569
904.783121	3032.180942
905.090100	2977.229844
905.397039	2911.180647
905.703938	2840.637260
906.010796	2782.464865
906.317614	2734.825962
906.624391	2699.885724
906.931129	2675.237002
907.237826	2653.365957
907.544483	2636.435241
907.851099	2622.700618
908.157675	2611.887343
908.464211	2607.592280
908.770707	2595.254056
909.077163	2592.173911
909.383578	2589.595360
909.689954	2591.541246
909.996289	2586.734506
910.302584	2588.309866
910.608839	2586.658888
910.915054	2587.031934
911.221229	2586.084197
911.527363	2590.911102
911.833458	2585.728795
912.139513	2588.932449
912.445527	2589.625607
912.751502	2595.332193
913.057436	2600.469129
913.363331	2604.660849
913.669186	2616.643671
913.975000	2627.948459
914.280775	2644.067548
914.586510	2659.811072
914.892205	2695.857842
915.197859	2759.515012
915.503475	2839.008967
915.809050	2899.512896
916.114585	2909.869947
916.420081	2920.504261
916.725536	2930.503389
917.030952	2908.518917
917.336328	2866.962166
917.641665	2819.088848
917.946961	2770.373658
918.252218	2739.083216
918.557435	2714.678990
918.862612	2695.908254
919.167750	2679.912673
919.472848	2663.896927
919.777906	2649.784217
920.082925	2639.787609
920.387904	2627.456946
920.692843	2623.361009
920.997743	2620.028806
921.302603	2614.347426
921.607423	2604.421394
921.912204	2600.877463
922.216946	2599.723038
922.521647	2597.436875
922.826310	2594.739858
923.130932	2588.158632
923.435516	2585.464135
923.740059	2582.265523
924.044564	2583.077148
924.349028	2580.667477
924.653454	2573.667835
924.957840	2566.058213
925.262186	2568.051989
925.566493	2568.702298
925.870761	2564.901268
926.174989	2565.440672
926.479178	2564.442523
926.783328	2561.614436
927.087438	2562.814231
927.391509	2562.915054
927.695541	2560.228119
927.999533	2559.809703
928.303486	2558.118396
928.607400	2557.014383
928.911275	2556.298539
929.215110	2555.171841
929.518906	2555.807027
929.822663	2556.132181
930.126381	2558.506565
930.430060	2555.852397
930.733699	2559.746688
931.037299	2558.146122
931.340861	2557.596636
931.644383	2559.187120
931.947866	2559.930691
932.251309	2560.281051
932.554714	2558.993036
932.858080	2558.183931
933.161407	2558.446071
933.464694	2557.029507
933.767943	2556.112017
934.071153	2553.672098
934.374323	2553.223435
934.677455	2555.945658
934.980548	2554.183775
935.283602	2555.948179
935.586617	2555.202088
935.889593	2553.074721
936.192530	2554.087993
936.495428	2555.280226
936.798287	2554.234187
937.101108	2557.639486
937.403890	2556.384239
937.706632	2561.044786
938.009336	2564.833213
938.312002	2570.746486
938.614628	2570.983420
938.917216	2574.444173
939.219765	2572.100036
939.522275	2575.447362
939.824747	2574.794533
940.127179	2565.813717
940.429573	2568.724983
940.731929	2566.572411
941.034246	2563.220043
941.336524	2567.918399
941.638763	2565.107956
941.940964	2566.453944
942.243126	2562.315156
942.545250	2559.988664
942.847335	2561.879097
943.149381	2558.332645
943.451389	2560.523026
943.753359	2560.782646
944.055290	2558.224260
944.357182	2560.119734
944.659036	2557.699980
944.960851	2558.057902
945.262628	2555.701162
945.564367	2555.121430
945.866067	2557.823488
946.167729	2558.534291
946.469352	2558.292316
946.770937	2558.803993
947.072484	2557.042109
947.373992	2556.333827
947.675462	2557.153015
947.976893	2557.669733
948.278286	2557.203426
948.579641	2555.439022
948.880958	2555.706204
949.182236	2557.309291
949.483476	2552.575647
949.784678	2554.554300
950.085841	2554.181255
950.386967	2555.413817
950.688054	2555.106306
950.989103	2555.900288
951.290114	2558.922460
951.591087	2559.817265
951.892021	2557.626883
952.192917	2561.311967
952.493776	2563.454457
952.794596	2562.690722
953.095378	2562.569735
953.396122	2562.294992
953.696828	2562.978068
953.997496	2557.228632
954.298126	2558.020093
954.598718	2557.848694
954.899272	2556.976574
955.199788	2553.682180
955.500266	2555.993549
955.800706	2550.289484
956.101108	2547.637837
956.401472	2547.978115
956.701798	2547.025337
957.002087	2547.899977
957.302337	2549.132539
957.602550	2548.540203
957.902724	2544.406457
958.202861	2547.146324
958.502960	2546.022147
958.803022	2545.208001
959.103045	2544.575336
959.403031	2544.126673
959.702979	2543.546941
960.002889	2543.115922
960.302762	2542.616848
960.602596	2544.630789
960.902393	2544.633309
961.202153	2544.978628
961.501875	2545.429812
961.801559	2540.088709
962.101205	2542.939482
962.400814	2544.156920
962.700385	2540.676003
962.999918	2543.685572
963.299414	2540.986034
963.598873	2543.287321
963.898293	2539.420756
964.197677	2541.797660
964.497022	2541.432177
964.796331	2541.114584
965.095601	2543.970398
965.394835	2540.902855
965.694030	2542.092568
965.993189	2541.890922
966.292309	2541.031405
966.591393	2543.582229
966.890439	2541.666590
967.189447	2539.521579
967.488419	2542.889070
967.787353	2539.816487
968.086249	2540.214738
968.385108	2540.023174
968.683930	2540.723894
968.982714	2543.607434
969.281462	2541.343956
969.580172	2541.583411
969.878844	2539.471168
970.177480	2538.568801
970.476078	2541.149872
970.774639	2544.764379
971.073162	2543.917465
971.371649	2541.013761
971.670098	2540.993596
971.968510	2542.148020
972.266885	2536.330529
972.565223	2543.395706
972.863524	2541.293545
973.161788	2540.093750
973.460014	2544.040974
973.758204	2544.499719
974.056356	2542.321940
974.354471	2542.228679
974.652550	2544.842517
974.950591	2541.490150
975.248595	2544.567774
975.546563	2543.539379
975.844493	2543.786395
976.142386	2542.931920
976.440243	2543.642722
976.738062	2543.733463
977.035845	2542.228679
977.333590	2542.848741
977.631299	2541.008720
977.928971	2542.369831
978.226606	2541.754810
978.524204	2541.991745
978.821765	2544.769420
979.119290	2543.899821
979.416777	2542.826056
979.714228	2539.806404
980.011642	2541.749769
980.309020	2544.280428
980.606360	2541.190201
980.903664	2540.804553
981.200931	2540.786909
981.498162	2541.185160
981.795356	2544.587939
982.092513	2548.875440
982.389633	2546.717826
982.686717	2549.137580
982.983764	2554.995401
983.280775	2558.413303
983.577749	2554.400545
983.874686	2552.111861
984.171587	2549.147662
984.468451	2546.780841
984.765279	2548.666232
985.062070	2547.340409
985.358824	2545.540717
985.655543	2546.667415
985.952224	2541.036446
986.248869	2542.987372
986.545478	2537.109387
986.842050	2537.537885
987.138586	2539.161137
987.435086	2536.822041
987.731549	2537.888245
988.027975	2542.450490
988.324366	2539.342618
988.620719	2542.568957
988.917037	2539.892104
989.213318	2542.216076
989.509563	2540.050900
989.805772	2539.526620
990.101944	2539.118287
990.398080	2538.997299
990.694180	2538.699871
990.990244	2538.042001
991.286271	2540.582742
991.582262	2540.093750
991.878217	2539.314892
992.174136	2538.778009
992.470019	2538.954449
992.765865	2541.273380
993.061676	2540.489481
993.357450	2539.108205
993.653188	2539.345139
993.948890	2538.341949
994.244556	2543.204142
994.540186	2543.178936
994.835780	2539.571991
995.131337	2541.192722
995.426859	2539.992927
995.722345	2541.558205
996.017795	2545.386962
996.313208	2544.711447
996.608586	2541.288504
996.903928	2542.379913
997.199234	2542.818494
997.494504	2542.745397
997.789738	2540.486960
998.084936	2541.943854
998.380099	2540.219779
998.675225	2539.859337
998.970316	2538.462937
999.265371	2539.826569
999.560390	2538.203318
999.855373	2541.958977
1000.150320	2538.173071
1000.445232	2539.133410
1000.740108	2539.246836
1001.034948	2542.694986
1001.329752	2537.772299
1001.624521	2540.287835
1001.919254	2537.318595
1002.213951	2536.073430
1002.508613	2534.293903
1002.803239	2537.444624
1003.097829	2533.757020
1003.392384	2540.522248
1003.686903	2536.383461
1003.981386	2538.372196
1004.275834	2536.514531
1004.570246	2538.606610
1004.864623	2538.291538
1005.158964	2538.021836
1005.453270	2539.514017
1005.747540	2538.916641
1006.041775	2539.922351
1006.335974	2536.116280
1006.630138	2540.181970
1006.924266	2539.524100
1007.218359	2538.594007
1007.512416	2540.000489
1007.806438	2538.236085
1008.100425	2539.060314
1008.394376	2535.420601
1008.688292	2539.203987
1008.982172	2538.160468
1009.276017	2537.696682
1009.569827	2539.261960
1009.863602	2539.065355
1010.157341	2539.156096
1010.451045	2537.668955
1010.744714	2536.007895
1011.038347	2540.665921
1011.331945	2538.220962
1011.625508	2538.775488
1011.919036	2538.881353
1012.212528	2538.972093
1012.505986	2537.177443
1012.799408	2534.424973
1013.092795	2538.271373
1013.386147	2540.827238
1013.679464	2537.794984
1013.972745	2537.273225
1014.265992	2536.630477
1014.559204	2537.447144
1014.852380	2537.084181
1015.145521	2539.612320
1015.438628	2538.102494
1015.731699	2540.013092
1016.024736	2537.583256
1016.317737	2536.333049
1016.610703	2538.586445
1016.903635	2535.770961
1017.196531	2532.103521
1017.489393	2535.748276
1017.782219	2531.821217
1018.075011	2537.772299
1018.367768	2536.779192
1018.660490	2539.445962
1018.953177	2539.445962
1019.245829	2539.445962
