Dividing Wavelength (nm)	Counts (n)	Blue Motor Position (mm): 32.000000	Red Motor Position (mm): 0.000000	
326.493990	2132.277007
326.888308	2132.277007
327.282561	2132.277007
327.676750	2097.177973
328.070874	2098.408015
328.464933	2102.100660
328.858929	2109.309510
329.252859	2115.394183
329.646726	2128.647376
330.040528	2143.319654
330.434265	2156.708959
330.827938	2173.979952
331.221547	2194.109279
331.615091	2210.127546
332.008571	2229.442727
332.401986	2252.201016
332.795338	2270.180291
333.188625	2288.073867
333.581847	2309.352577
333.975006	2324.627273
334.368100	2346.367249
334.761129	2364.175125
335.154095	2379.565768
335.546996	2395.778118
335.939833	2424.021183
336.332606	2438.206990
336.725315	2451.631582
337.117960	2461.061061
337.510540	2467.899386
337.903056	2482.054946
338.295508	2488.721872
338.687896	2498.327791
339.080220	2507.457320
339.472480	2508.944461
339.864676	2517.864782
340.256807	2520.034999
340.648875	2521.479290
341.040879	2525.423993
341.432818	2530.535722
341.824694	2530.288706
342.216506	2532.685775
342.608253	2528.499096
342.999937	2528.494055
343.391557	2529.298119
343.783113	2528.279806
344.174605	2525.676050
344.566033	2526.971627
344.957397	2524.017511
345.348697	2523.392408
345.739934	2519.460307
346.131106	2519.271264
346.522215	2517.264885
346.913260	2515.319000
347.304241	2512.425377
347.695159	2512.294307
348.086012	2510.320696
348.476802	2507.916065
348.867528	2508.261384
349.258191	2506.015550
349.648789	2504.835920
350.039324	2501.808707
350.429796	2503.696619
350.820203	2498.554643
351.210548	2498.829385
351.600828	2494.720845
351.991045	2497.311998
352.381198	2498.831906
352.771288	2496.575990
353.161314	2497.652276
353.551276	2493.992398
353.941175	2495.991216
354.331010	2494.796462
354.720782	2496.099601
355.110490	2495.600526
355.500135	2494.804024
355.889717	2495.875269
356.279235	2496.434837
356.668689	2498.045486
357.058080	2497.460712
357.447408	2496.308808
357.836672	2492.553149
358.225873	2495.643376
358.615010	2494.599857
359.004084	2500.029180
359.393095	2497.851402
359.782043	2500.024139
360.170927	2500.072030
360.559748	2501.705364
360.948505	2503.031187
361.337199	2501.440703
361.725830	2503.177381
362.114398	2505.120745
362.502903	2502.821979
362.891344	2505.289624
363.279722	2503.991527
363.668037	2505.360200
364.056289	2506.312978
364.444478	2506.907834
364.832603	2505.123266
365.220665	2509.597290
365.608665	2507.260715
365.996601	2507.369100
366.384474	2505.985303
366.772284	2507.290962
367.160031	2510.061076
367.547715	2508.856240
367.935336	2507.464882
368.322893	2510.081241
368.710388	2511.792712
369.097820	2510.729029
369.485189	2508.354646
369.872495	2510.295490
370.259738	2510.166940
370.646918	2512.412774
371.034035	2511.094513
371.421090	2510.534945
371.808081	2510.973525
372.195010	2512.932013
372.581875	2514.421674
372.968678	2512.881602
373.355418	2512.798423
373.742096	2514.353619
374.128710	2514.441839
374.515262	2515.558454
374.901751	2513.476458
375.288177	2512.848834
375.674540	2513.741118
376.060841	2515.603825
376.447079	2514.983763
376.833254	2515.732374
377.219367	2508.415139
377.605417	2515.225738
377.991404	2513.128618
378.377329	2513.952847
378.763191	2511.646519
379.148991	2515.051818
379.534727	2517.262364
379.920402	2517.032992
380.306013	2517.378311
380.691563	2518.457118
381.077049	2515.994514
381.462474	2517.776562
381.847835	2516.380163
382.233134	2519.465349
382.618371	2517.524504
383.003545	2519.067098
383.388657	2516.296983
383.773706	2520.460977
384.158693	2519.162879
384.543618	2521.927952
384.928480	2517.549710
385.313280	2522.089269
385.698017	2519.704803
386.082692	2522.043899
386.467305	2521.249917
386.851856	2522.343847
387.236344	2521.035668
387.620770	2520.493744
388.005133	2523.644465
388.389435	2525.852491
388.773674	2522.061543
389.157851	2524.544311
389.541965	2521.373425
389.926018	2523.510875
390.310008	2523.793179
390.693936	2526.104548
391.077802	2521.741430
391.461606	2524.992974
391.845348	2526.462470
392.229027	2526.795186
392.612645	2524.549352
392.996200	2525.058509
393.379694	2525.146729
393.763125	2526.941380
394.146494	2527.080012
394.529801	2529.441792
394.913047	2527.460619
395.296230	2531.226361
395.679351	2531.128058
396.062410	2529.580424
396.445408	2526.913653
396.828343	2527.924405
397.211217	2525.320649
397.594028	2525.897861
397.976778	2524.642614
398.359466	2527.062367
398.742092	2529.509848
399.124656	2530.979344
399.507158	2530.946577
399.889598	2530.790301
400.271977	2529.076308
400.654294	2533.872966
401.036549	2531.445651
401.418742	2532.925229
401.800874	2531.657379
402.182944	2530.913809
402.564952	2532.257277
402.946898	2533.840199
403.328783	2534.394726
403.710606	2531.317101
404.092367	2534.271218
404.474067	2532.965559
404.855705	2536.146527
405.237282	2535.818852
405.618797	2535.045035
406.000250	2535.158461
406.381642	2534.848430
406.762972	2538.304141
407.144240	2539.065355
407.525447	2539.451003
407.906593	2538.641898
408.287677	2536.683410
408.668700	2537.769778
409.049661	2539.211548
409.430560	2540.267670
409.811399	2540.648277
410.192176	2541.228010
410.572891	2539.478729
410.953545	2538.364634
411.334138	2539.768596
411.714669	2540.234902
412.095139	2544.903011
412.475547	2543.244471
412.855894	2543.819163
413.236180	2542.309337
413.616405	2547.224462
413.996568	2551.264947
414.376670	2553.006666
414.756711	2550.786038
415.136691	2559.376164
415.516609	2558.360371
415.896466	2563.068809
416.276262	2570.156671
416.655997	2570.582649
417.035670	2575.109605
417.415283	2586.641244
417.794834	2590.613673
418.174324	2601.104315
418.553753	2610.218721
418.933121	2626.418469
419.312428	2634.754017
419.691674	2643.255922
420.070859	2659.395177
420.449983	2670.515962
420.829045	2686.589681
421.208047	2698.050744
421.586988	2715.253682
421.965867	2731.798749
422.344686	2760.097266
422.723444	2768.833585
423.102141	2770.751744
423.480777	2814.410657
423.859352	2814.279587
424.237866	2866.074922
424.616319	2885.932028
424.994712	2924.290167
425.373044	2935.305088
425.751314	2979.669763
426.129524	2980.554485
426.507673	3036.536499
426.885762	3076.298600
427.263789	3105.696088
427.641756	3109.943260
428.019662	3169.204544
428.397508	3203.529761
428.775292	3238.674165
429.153016	3290.179634
429.530679	3313.530258
429.908282	3372.927654
430.285824	3375.838920
430.663305	3501.262828
431.040726	3466.279741
431.418086	3506.344311
431.795385	3586.029830
432.172624	3630.896099
432.549802	3674.270187
432.926920	3728.167683
433.303977	3774.934467
433.680974	3836.943180
434.057910	3896.234711
434.434786	3945.575004
434.811601	3979.738904
435.188355	4134.053664
435.565050	4126.260040
435.941683	4166.904343
436.318257	4326.890402
436.694770	4374.652814
437.071222	4446.302733
437.447614	4460.642296
437.823946	4461.978201
438.200218	4600.665385
438.576429	4573.884255
438.952580	4682.299310
439.328670	4761.984828
439.704700	4750.768261
440.080670	4787.578767
440.456580	5020.205331
440.832429	4990.555785
441.208218	4932.080921
441.583947	5085.881484
441.959616	5131.677846
442.335224	5124.847082
442.710773	5270.543990
443.086261	5334.443136
443.461689	5213.810845
443.837057	5373.174321
444.212365	5533.364546
444.587612	5485.256815
444.962800	5649.348893
445.337927	5672.097100
445.712995	5383.312081
446.088002	5902.150156
446.462949	5790.171005
446.837837	5765.403816
447.212664	5942.071053
447.587431	6108.424089
447.962139	6614.462673
448.336786	7458.498021
448.711374	7260.045438
449.085901	6466.580425
449.460369	6429.848058
449.834776	6388.624022
450.209124	6777.599453
450.583412	6939.347395
450.957640	7094.173832
451.331808	6899.746611
451.705917	6499.022771
452.079965	6437.737464
452.453954	6662.512431
452.827883	6555.153498
453.201752	6660.921947
453.575562	6477.428988
453.949311	6691.050403
454.323001	6589.692964
454.696632	6671.100037
455.070202	6817.926163
455.443713	6973.463403
455.817164	7080.466935
456.190556	7171.835328
456.563888	7250.457163
456.937160	7299.636140
457.310373	6969.480892
457.683526	6997.018195
458.056619	6894.733183
458.429653	6888.701443
458.802628	6829.014181
459.175542	6939.143228
459.548398	7290.587268
459.921194	7455.921991
460.293930	7459.483566
460.666607	7982.447825
461.039224	8301.986403
461.411782	8419.838498
461.784280	8445.089637
462.156719	8342.557609
462.529099	8219.034216
462.901419	7808.943913
463.273680	7708.100671
463.645882	7711.768111
464.018024	7585.192299
464.390106	7752.598936
464.762130	8141.899521
465.134094	8608.475954
465.505999	9620.444739
465.877845	10838.022024
466.249631	11483.110756
466.621358	11105.112437
466.993026	10472.964348
467.364634	10233.312935
467.736184	9867.604950
468.107674	9532.837047
468.479105	9567.689064
468.850477	9328.461108
469.221790	9104.205379
469.593043	8782.098333
469.964238	8637.754975
470.335373	8656.361874
470.706449	8713.427736
471.077467	8695.640024
471.448425	10005.523358
471.819324	11073.806872
472.190164	11083.763151
472.560945	9841.375827
472.931667	9061.554697
473.302330	8923.477493
473.672934	8574.536386
474.043479	8936.949977
474.413965	8874.041418
474.784393	8753.341071
475.154761	8911.845031
475.525070	9003.838527
475.895321	8826.813368
476.265513	9000.685285
476.635645	9168.598558
477.005719	9170.819186
477.375734	9286.523749
477.745691	9523.417651
478.115588	9654.769955
478.485427	9900.450588
478.855207	10432.037740
479.224928	11244.901113
479.594591	11870.210877
479.964194	11676.552432
480.333739	11618.238884
480.703226	11533.789475
481.072653	11627.249947
481.442022	11862.510515
481.811333	12050.371633
482.180584	11851.654390
482.549777	11561.984649
482.918912	11388.823535
483.287988	11414.170456
483.657005	11418.568863
484.025964	11109.410021
484.394864	11243.734086
484.763706	11208.592202
485.132489	10964.769235
485.501213	10931.298494
485.869879	11002.764411
486.238487	10845.992088
486.607036	10961.036260
486.975527	10740.417724
487.343959	10924.755076
487.712333	10981.488222
488.080648	10905.144988
488.448905	10951.921854
488.817104	10886.391895
489.185244	11156.018009
489.553326	11317.397946
489.921350	11848.163391
490.289315	12898.812949
490.657222	13249.823450
491.025070	13155.906754
491.392861	13034.394782
491.760593	12657.445023
492.128267	12296.077472
492.495883	11974.247690
492.863440	11638.842080
493.230939	11304.106944
493.598380	11235.022972
493.965763	11107.907757
494.333088	11009.126347
494.700354	10933.940058
495.067563	10996.853658
495.434713	10825.877885
495.801805	10950.041504
496.168839	10866.925480
496.535815	10810.230143
496.902733	10808.314505
497.269593	10743.041645
497.636395	10847.123828
498.003139	10827.601959
498.369825	10701.555469
498.736453	10855.358552
499.103023	10786.856833
499.469535	10807.487755
499.835989	10795.991404
500.202385	10765.399162
500.568723	10608.364699
500.935003	10843.146357
501.301226	10650.624692
501.667390	10910.297047
502.033497	10999.076807
502.399546	10862.902639
502.765537	10768.262537
503.131470	10843.957983
503.497345	11014.217913
503.863163	10634.021652
504.228923	10935.253279
504.594625	11001.718372
504.960269	10749.852243
505.325856	10968.469442
505.691385	10766.606518
506.056856	10919.033367
506.422270	10932.243710
506.787625	10827.987608
507.152924	10947.049579
507.518164	10933.110789
507.883347	10851.998623
508.248472	10769.948803
508.613540	10997.214101
508.978550	10887.717719
509.343503	10857.357370
509.708398	10981.853705
510.073236	11098.102713
510.438016	11098.231262
510.802738	11049.432893
511.167403	11098.561458
511.532010	10997.267033
511.896561	11226.170706
512.261053	11298.128136
512.625488	11162.715182
512.989866	11148.501648
513.354186	11136.750719
513.718449	11042.246728
514.082655	11236.469783
514.446803	11133.231993
514.810894	11251.053841
515.174927	11112.686771
515.538904	11140.072839
515.902822	11295.965481
516.266684	11177.649600
516.630488	11120.422422
516.994235	11174.481235
517.357925	11236.212684
517.721558	11321.226703
518.085133	11339.568941
518.448651	11348.108656
518.812112	11232.293187
519.175516	11249.349931
519.538863	11371.597912
519.902152	11288.192022
520.265385	11442.111051
520.628560	11359.693227
520.991678	11343.468273
521.354739	11399.122612
521.717743	11331.550986
522.080690	11309.697584
522.443580	11446.060795
522.806413	11405.930690
523.169189	11430.138311
523.531908	11492.565440
523.894569	11312.747482
524.257174	11315.467184
524.619722	11438.398242
524.982213	11382.151568
525.344647	11435.746595
525.707025	11382.194417
526.069345	11474.593726
526.431608	11396.387786
526.793815	11505.377532
527.155964	11295.100923
527.518057	11342.608757
527.880093	11295.327775
528.242072	11358.478309
528.603995	11268.952458
528.965860	11187.822648
529.327669	11238.569424
529.689421	11187.895745
530.051117	11162.208546
530.412755	11262.603125
530.774337	11155.012299
531.135862	11136.319700
531.497331	11156.748976
531.858743	11011.047027
532.220098	11173.732623
532.581396	11047.411390
532.942638	11028.731395
533.303824	10996.377269
533.664953	11014.371668
534.026025	10916.974055
534.387040	11021.623368
534.747999	11028.207115
535.108902	11085.212482
535.469748	10842.357417
535.830537	10945.726276
536.191270	10922.703327
536.551947	10940.377612
536.912567	10943.419948
537.273131	10871.530574
537.633638	10852.031391
537.994089	10838.783238
538.354483	10791.489654
538.714821	10937.766294
539.075103	10938.933321
539.435328	10904.439226
539.795497	10735.737013
540.155609	10886.404498
540.515665	10972.081428
540.875665	10717.059538
541.235609	10785.566298
541.595496	10777.936512
541.955328	10935.129771
542.315102	10816.647532
542.674821	10766.641806
543.034483	10761.860272
543.394090	10768.239852
543.753640	10699.523884
544.113134	10920.356669
544.472571	10772.552559
544.831953	10919.650908
545.191278	10724.696886
545.550548	10751.929199
545.909761	10888.410877
546.268918	10860.407268
546.628019	10946.074116
546.987064	10810.313322
547.346053	10733.239121
547.704986	10832.577578
548.063863	10818.663993
548.422684	10814.273148
548.781449	10732.984543
549.140158	10830.581281
549.498811	10704.784328
549.857408	10561.156814
550.215949	10789.392534
550.574434	10645.356686
550.932864	10741.090718
551.291237	10801.708073
551.649555	10753.103788
552.007817	10761.056208
552.366022	10729.619573
552.724173	10715.869825
553.082267	10707.690553
553.440305	10841.061840
553.798288	10640.721345
554.156215	10796.409820
554.514086	10772.471901
554.871902	10618.585638
555.229661	10655.663325
555.587365	10634.571137
555.945014	10523.759014
556.302606	10649.046811
556.660143	10550.151975
557.017625	10698.538338
557.375050	10599.585530
557.732421	10735.419420
558.089735	10647.736111
558.446994	10643.667899
558.804197	10683.596358
559.161345	10685.506956
559.518437	10528.724551
559.875474	10620.307192
560.232455	10653.253653
560.589381	10600.412279
560.946251	10597.770714
561.303065	10706.964627
561.659825	10637.409307
562.016528	10576.663403
562.373177	10445.795049
562.729770	10567.443133
563.086307	10485.259722
563.442789	10570.956817
563.799216	10453.233272
564.155587	10502.802937
564.511904	10453.543303
564.868164	10438.881107
565.224370	10462.675353
565.580520	10387.877233
565.936615	10391.832018
566.292654	10263.403583
566.648638	10389.026616
567.004567	10352.576553
567.360441	10325.371966
567.716260	10246.102343
568.072023	10337.425365
568.427732	10289.950299
568.783385	10199.254900
569.138982	10266.287123
569.494525	10280.288927
569.850013	10159.865844
570.205445	10239.453061
570.560823	10139.882710
570.916145	10056.660822
571.271412	10127.360484
571.626625	10072.167411
571.981782	10041.292865
572.336884	10021.617241
572.691931	10032.425475
573.046923	9975.868770
573.401860	9928.920504
573.756743	9870.982523
574.111570	9903.830682
574.466342	9891.106809
574.821059	9923.546634
575.175722	9813.036980
575.530330	9822.423609
575.884882	9819.928238
576.239380	9741.109797
576.593823	9718.301097
576.948211	9736.451771
577.302544	9617.828380
577.656823	9638.280341
578.011047	9633.468560
578.365216	9603.312377
578.719330	9533.741934
579.073389	9542.765599
579.427394	9488.623607
579.781344	9471.271955
580.135239	9418.538965
580.489080	9423.007948
580.842866	9322.857865
581.196597	9334.543260
581.550273	9371.918375
581.903895	9343.652625
582.257463	9406.515813
582.610975	9284.408985
582.964434	9307.963776
583.317837	9232.880831
583.671186	9216.108912
584.024481	9211.372748
584.377721	9126.038616
584.730906	9108.276111
585.084037	9134.903485
585.437113	9076.902490
585.790135	9094.299512
586.143103	8994.358637
586.496016	8967.345614
586.848874	9023.824181
587.201679	9016.025516
587.554428	8900.610819
587.907124	8941.068599
588.259765	8913.642202
588.612352	8919.477337
588.964884	8797.247001
589.317362	8809.156727
589.669786	8806.739493
590.022155	8858.486938
590.374470	8874.159885
590.726731	8812.468765
591.078937	8662.529726
591.431090	8779.222355
591.783188	8651.262747
592.135232	8644.898290
592.487222	8644.437025
592.839157	8698.677320
593.191038	8623.685115
593.542866	8576.240296
593.894639	8475.497877
594.246358	8528.001494
594.598022	8540.632105
594.949633	8438.195859
595.301190	8413.458917
595.652692	8436.880118
596.004141	8554.951503
596.355535	8329.259045
596.706876	8304.214593
597.058162	8246.518587
597.409395	8323.774270
597.760573	8384.603353
598.111698	8296.345352
598.462768	8283.434957
598.813785	8247.889781
599.164748	8210.968370
599.515657	8204.210703
599.866511	8118.357333
600.217312	8240.002896
600.568060	8097.633149
600.918753	8203.383954
601.269392	8167.072523
601.619978	8082.781910
601.970510	8146.875140
602.320988	8144.233576
602.671412	8205.135755
603.021783	8138.164026
603.372100	8110.162937
603.722363	8112.817105
604.072572	8088.745595
604.422728	8101.146834
604.772830	8027.609002
605.122878	8035.931947
605.472872	8035.591669
605.822813	8063.209630
606.172701	8009.460848
606.522534	8078.355777
606.872314	8077.869306
607.222041	8050.382414
607.571714	8101.834951
607.921333	8059.834578
608.270899	8068.369251
608.620411	8157.295205
608.969870	8066.592245
609.319276	8055.244607
609.668627	8070.365548
610.017926	8112.297866
610.367171	8152.407807
610.716362	8131.557594
611.065500	8125.309084
611.414585	8152.876634
611.763616	8135.630847
612.112594	8122.617108
612.461518	8135.391392
612.810389	8194.851801
613.159207	8133.105228
613.507971	8089.463960
613.856682	8206.736322
614.205340	8158.275710
614.553945	8241.651353
614.902496	8135.169581
615.250994	8188.711676
615.599439	8166.389447
615.947830	8181.157507
616.296169	8153.413517
616.644454	8165.683685
616.992686	8164.675454
617.340864	8224.768529
617.688990	8123.196841
618.037063	8214.701345
618.385082	8170.497987
618.733048	8250.271726
619.080961	8190.428189
619.428821	8211.500212
619.776628	8213.380562
620.124382	8157.975761
620.472083	8146.854976
620.819731	8175.690376
621.167326	8069.231289
621.514868	8075.321002
621.862357	7967.301678
622.209793	7984.063515
622.557176	7915.637413
622.904506	7889.085656
623.251783	7817.743247
623.599007	7778.770086
623.946179	7778.702031
624.293297	7732.560350
624.640363	7656.506982
624.987376	7642.795044
625.334336	7584.526867
625.681243	7535.428549
626.028097	7518.611260
626.374899	7504.168354
626.721647	7496.780543
627.068343	7421.402690
627.414987	7394.354379
627.761577	7351.733944
628.108115	7389.482104
628.454600	7287.686084
628.801032	7334.591500
629.147412	7293.445603
629.493739	7284.560569
629.840014	7222.408183
630.186236	7273.371728
630.532405	7164.409708
630.878521	7207.224228
631.224585	7170.759042
631.570597	7089.089829
631.916556	7127.558874
632.262462	7120.448326
632.608316	7083.146308
632.954117	7060.695530
633.299866	7049.473921
633.645562	7040.762807
633.991206	6960.686599
634.336797	6905.284318
634.682336	6861.832093
635.027823	6830.332443
635.373257	6823.229457
635.718639	6746.682057
636.063968	6765.785509
636.409245	6659.936402
636.754470	6655.187635
637.099642	6619.493745
637.444762	6557.177522
637.789829	6570.660088
638.134845	6513.422827
638.479808	6493.984138
638.824719	6501.061918
639.169577	6425.928561
639.514383	6449.269103
639.859137	6381.606736
640.203839	6386.829372
640.548489	6371.037957
640.893086	6348.970306
641.237632	6322.481563
641.582125	6341.365726
641.926566	6317.132899
642.270955	6329.007337
642.615292	6320.512993
642.959576	6329.748387
643.303809	6321.722870
643.647990	6332.324416
643.992118	6323.527603
644.336195	6273.693276
644.680219	6292.874867
645.024192	6286.550739
645.368112	6381.528598
645.711981	6400.475775
646.055797	6478.243135
646.399562	6433.565909
646.743274	6561.097019
647.086935	6620.446523
647.430544	6606.931190
647.774101	6630.836341
648.117606	6638.002341
648.461059	6628.199818
648.804460	6592.813438
649.147810	6500.845148
649.491108	6468.639737
649.834354	6445.077384
650.177548	6357.502459
650.520690	6271.167658
650.863781	6254.095791
651.206820	6274.179748
651.549807	6193.712850
651.892742	6133.710516
652.235626	6143.041692
652.578458	6130.547192
652.921238	6037.840373
653.263967	6076.211116
653.606644	6015.576117
653.949269	6017.849678
654.291843	5963.150638
654.634365	6008.866341
654.976836	5961.184588
655.319255	5965.162058
655.661622	5937.987718
656.003938	5932.944044
656.346203	5898.399537
656.688416	5930.456234
657.030577	5880.064861
657.372687	5851.322722
657.714746	5835.077604
658.056753	5881.171394
658.398708	5823.049411
658.740612	5810.164221
659.082465	5859.275142
659.424266	5850.090160
659.766016	5850.443041
660.107715	5824.206355
660.449362	5843.183779
660.790958	5838.830743
661.132503	5823.266180
661.473996	5860.358990
661.815438	5843.103121
662.156829	5844.638152
662.498168	5839.418037
662.839456	5809.627338
663.180693	5848.746692
663.521879	5849.437330
663.863013	5835.526266
664.204097	5854.039904
664.545129	5897.532459
664.886110	5891.609103
665.227040	5931.769455
665.567918	5893.691099
665.908746	5923.852323
666.249522	5924.732004
666.590248	5911.970323
666.930922	5936.341782
667.271545	5953.925326
667.612118	5956.730728
667.952639	5929.742911
668.293109	5947.117248
668.633528	5905.210136
668.973896	5912.260190
669.314213	5902.865999
669.654480	5883.472681
669.994695	5873.962544
670.334859	5866.589856
670.674973	5856.787333
671.015035	5861.836048
671.355047	5863.444176
671.695008	5846.881465
672.034918	5816.445499
672.374777	5830.840514
672.714585	5814.507175
673.054342	5817.204193
673.394049	5814.734027
673.733705	5842.954407
674.073310	5828.743394
674.412864	5792.691582
674.752368	5783.362927
675.091820	5788.666221
675.431223	5723.816818
675.770574	5726.032405
676.109875	5675.754457
676.449125	5681.587072
676.788324	5647.629860
677.127473	5589.903607
677.466571	5581.147123
677.805619	5571.221091
678.144616	5556.861364
678.483562	5538.400659
678.822458	5507.611812
679.161303	5500.402962
679.500098	5494.726622
679.838842	5473.465556
680.177535	5478.055527
680.516179	5496.191077
680.854771	5510.434858
681.193314	5585.139717
681.531805	5697.169278
681.870247	5846.883986
682.208638	5945.269665
682.546978	5954.767199
682.885268	5937.589467
683.223508	5852.303226
683.561697	5797.770545
683.899836	5768.965392
684.237925	5725.765224
684.575963	5692.254153
684.913951	5648.441485
685.251889	5707.110434
685.589776	5677.612122
685.927614	5645.404190
686.265401	5721.563422
686.603137	5702.475093
686.940824	5777.321104
687.278460	5803.862779
687.616046	5813.020035
687.953582	5877.882041
688.291068	5864.477613
688.628504	5923.401140
688.965889	5886.028546
689.303224	5833.837480
689.640510	5784.981137
689.977745	5707.881730
690.314930	5614.015446
690.652065	5559.084513
690.989150	5461.989369
691.326185	5386.344335
691.663170	5334.347354
692.000105	5256.355663
692.336990	5178.253066
692.673825	5156.901259
693.010610	5086.748562
693.347345	5020.956463
693.684030	5004.232435
694.020665	4961.307010
694.357251	4871.932394
694.693786	4881.780288
695.030272	4851.835834
695.366707	4815.249660
695.703093	4783.278662
696.039429	4804.133916
696.375716	4782.935864
696.711952	4758.632461
697.048139	4748.247684
697.384276	4726.548037
697.720363	4736.065736
698.056400	4746.470677
698.392388	4699.676167
698.728326	4680.658414
699.064214	4656.728057
699.400053	4652.128004
699.735842	4617.023929
700.071581	4594.863017
700.407270	4567.106424
700.742910	4548.433990
701.078501	4497.104961
701.414042	4494.322244
701.749533	4465.648161
702.084974	4398.434457
702.420366	4455.001244
702.755709	4393.718458
703.091002	4343.158205
703.426246	4389.002458
703.761440	4344.108463
704.096584	4304.852998
704.431679	4327.674301
704.766725	4313.657373
705.101721	4306.146054
705.436668	4331.624045
705.771565	4280.511786
706.106413	4303.512051
706.441212	4338.976568
706.775961	4348.085933
707.110661	4327.023992
707.445311	4352.290255
707.779913	4379.691447
708.114465	4392.352305
708.448967	4412.824431
708.783421	4471.926918
709.117825	4516.536089
709.452180	4519.994320
709.786485	4565.818409
710.120742	4654.414167
710.454949	4633.274088
710.789107	4702.796641
711.123216	4773.287095
711.457275	4768.455149
711.791286	4840.851160
712.125247	4858.747256
712.459159	4758.468624
712.793023	4831.232638
713.126837	4796.632679
713.460602	4787.888797
713.794318	4710.179411
714.127985	4716.707705
714.461602	4632.245693
714.795171	4601.408955
715.128691	4534.283471
715.462162	4482.210872
715.795584	4434.203964
716.128957	4411.561622
716.462281	4361.676884
716.795556	4334.540353
717.128782	4295.602480
717.461960	4227.357860
717.795088	4238.415631
718.128167	4201.267368
718.461198	4136.289416
718.794180	4133.844456
719.127113	4114.052886
719.459997	4094.946913
719.792833	4052.129873
720.125619	4039.784087
720.458357	4006.051206
720.791046	4010.671424
721.123686	3985.274091
721.456278	3942.356227
721.788821	3958.412302
722.121315	3932.359619
722.453761	3908.900610
722.786158	3918.519132
723.118506	3945.151547
723.450805	3894.951737
723.783056	3916.114501
724.115259	3932.215947
724.447412	3936.957152
724.779518	3932.652006
725.111574	3931.525308
725.443582	3963.849187
725.775542	3948.871919
726.107453	4001.907378
726.439315	4000.959641
726.771129	4014.860623
727.102895	4051.734142
727.434612	4098.919342
727.766281	4108.414356
728.097901	4110.410653
728.429473	4116.520531
728.760996	4123.003455
729.092471	4120.293835
729.423897	4103.325311
729.755276	4109.329325
730.086606	4106.123151
730.417887	4143.730159
730.749120	4213.784553
731.080305	4271.450312
731.411442	4302.771001
731.742530	4267.082153
732.073570	4273.363430
732.404562	4324.135411
732.735506	4321.980318
733.066401	4282.966828
733.397249	4222.785534
733.728048	4141.794356
734.058798	4057.423085
734.389501	3989.997652
734.720156	3925.475924
735.050762	3884.037639
735.381320	3874.099004
735.711831	3825.245183
736.042293	3797.410452
736.372707	3817.557423
736.703073	3788.086838
737.033391	3779.199283
737.363661	3799.326090
737.693883	3823.402641
738.024056	3830.220801
738.354182	3827.458249
738.684260	3888.930079
739.014290	3908.504879
739.344272	3904.613109
739.674207	3950.117084
740.004093	3953.035912
740.333931	3949.335705
740.663722	3952.277218
740.993464	3948.937454
741.323159	3921.747991
741.652806	3888.869585
741.982405	3864.556100
742.311956	3831.826409
742.641460	3823.944565
742.970915	3803.779949
743.300323	3760.736057
743.629683	3728.850759
743.958996	3717.367011
744.288260	3688.145963
744.617477	3660.747291
744.946647	3642.967142
745.275768	3619.251033
745.604842	3617.131228
745.933869	3568.252201
746.262847	3563.294226
746.591778	3597.563990
746.920662	3570.419897
747.249498	3540.813200
747.578286	3585.538317
747.907027	3599.784618
748.235720	3600.528188
748.564365	3625.464256
748.892963	3624.700521
749.221514	3605.581945
749.550017	3586.370108
749.878473	3581.417174
750.206881	3551.381979
750.535242	3545.418294
750.863555	3549.317627
751.191821	3545.405691
751.520039	3527.136550
751.848210	3503.775843
752.176334	3541.614744
752.504411	3545.098181
752.832440	3503.889269
753.160421	3485.967967
753.488356	3497.023217
753.816243	3507.985206
754.144082	3467.895430
754.471875	3449.976649
754.799620	3472.132520
755.127318	3462.380408
755.454969	3460.593319
755.782572	3466.307467
756.110129	3446.377265
756.437638	3433.608023
756.765100	3447.761062
757.092515	3457.006538
757.419882	3463.305460
757.747203	3438.079526
758.074477	3438.387036
758.401703	3455.043009
758.728882	3475.590752
759.056014	3483.855723
759.383099	3482.983604
759.710138	3483.104592
760.037129	3499.884072
760.364073	3531.114020
760.690970	3518.012061
761.017820	3493.002897
761.344623	3508.078468
761.671379	3557.191909
761.998088	3606.612861
762.324751	3733.796131
762.651366	3976.699088
762.977935	4451.154844
763.304456	4890.829159
763.630931	4990.777596
763.957359	4630.067915
764.283740	4286.641829
764.610074	4100.222481
764.936362	3900.035741
765.262602	3743.200404
765.588796	3633.940956
765.914943	3540.961914
766.241044	3454.654840
766.567097	3423.797937
766.893104	3375.181049
767.219064	3345.614682
767.544978	3319.073007
767.870845	3263.544697
768.196665	3244.642891
768.522438	3253.452307
768.848165	3247.571802
769.173846	3212.447562
769.499479	3196.958617
769.825066	3179.790967
770.150607	3163.089625
770.476101	3182.069569
770.801548	3173.915503
771.126949	3128.935807
771.452303	3111.601800
771.777611	3118.709827
772.102872	3123.062863
772.428087	3099.129985
772.753256	3087.021134
773.078378	3082.471493
773.403453	3047.014537
773.728482	3035.578679
774.053465	3056.988460
774.378401	3045.285421
774.703291	3013.198477
775.028135	3016.329033
775.352932	3009.399968
775.677683	2998.271620
776.002388	2994.901609
776.327046	2996.343379
776.651658	2983.538848
776.976224	2971.470326
777.300743	2974.679020
777.625216	2965.042855
777.949643	2957.007256
778.274024	2963.432206
778.598359	2950.393262
778.922647	2955.930969
779.246889	2952.714713
779.571086	2943.050821
779.895236	2934.324584
780.219339	2943.852365
780.543397	2961.198975
780.867409	2961.614870
781.191374	2951.409054
781.515294	2948.717078
781.839167	2950.161369
782.162995	2941.964453
782.486776	2949.465689
782.810511	2947.250102
783.134201	2933.253339
783.457844	2943.161727
783.781441	2933.747372
784.104993	2913.015627
784.428498	2913.587798
784.751958	2928.416352
785.075372	2918.691966
785.398739	2903.281158
785.722061	2924.136412
786.045337	2933.500355
786.368568	2918.404620
786.691752	2908.813825
787.014891	2959.535394
787.337983	2985.915752
787.661030	3016.843231
787.984031	3082.410999
788.306987	3129.255921
788.629897	3117.061370
788.952760	3102.638628
789.275579	3088.919128
789.598351	3030.078781
789.921078	2984.032881
790.243759	2977.129021
790.566395	2960.934314
790.888984	2936.121755
791.211529	2917.701379
791.534027	2907.850964
791.856480	2896.866290
792.178888	2887.240207
792.501249	2877.815770
792.823566	2876.053887
793.145836	2871.746221
793.468062	2866.198431
793.790241	2867.743544
794.112375	2871.368134
794.434464	2885.198540
794.756507	2890.302708
795.078505	2893.382853
795.400457	2907.445152
795.722364	2945.042077
796.044226	2968.032259
796.366042	2971.077116
796.687812	2959.366516
797.009538	2976.783702
797.331218	2967.392033
797.652852	2952.644137
797.974442	2933.523040
798.295986	2930.662186
798.617484	2926.737647
798.938938	2907.556057
799.260346	2894.774211
799.581709	2888.455125
799.903026	2885.175854
800.224299	2876.474823
800.545526	2868.373689
800.866708	2853.335927
801.187845	2842.666325
801.508936	2842.625995
801.829983	2850.843076
802.150984	2837.761282
802.471940	2825.279385
802.792851	2824.132522
803.113717	2825.037410
803.434538	2830.101249
803.755314	2821.717810
804.076045	2817.808395
804.396731	2817.364773
804.717372	2819.000628
805.037967	2811.045687
805.358518	2819.734116
805.679024	2829.418172
805.999485	2827.719303
806.319901	2830.996053
806.640272	2821.362408
806.960598	2828.634273
807.280879	2837.756241
807.601115	2842.794874
807.921306	2830.920436
808.241453	2824.520691
808.561554	2832.309274
808.881611	2837.042917
809.201623	2830.315498
809.521590	2827.986485
809.841513	2824.455156
810.161390	2827.447081
810.481223	2821.198571
810.801011	2806.672486
811.120755	2808.517548
811.440453	2811.443938
811.760107	2811.143990
812.079716	2810.229020
812.399281	2799.771147
812.718801	2794.248562
813.038276	2789.519960
813.357707	2794.412400
813.677093	2801.868267
813.996434	2795.589509
814.315731	2792.416103
814.634983	2785.466872
814.954191	2787.755556
815.273354	2801.316260
815.592473	2813.478044
815.911547	2808.958649
816.230577	2820.195381
816.549562	2832.147957
816.868502	2828.475477
817.187399	2838.824965
817.506250	2854.656709
817.825058	2846.893332
818.143821	2859.559231
818.462539	2876.568084
818.781213	2902.716549
819.099843	2938.430604
819.418429	2995.582165
819.736970	3059.630024
820.055466	3130.934625
820.373919	3233.738875
820.692327	3373.930843
821.010691	3541.264383
821.329011	3982.415757
821.647286	4875.035224
821.965517	6249.367188
822.283704	6992.319839
822.601847	6973.173537
822.919945	6341.509398
823.237999	5843.594633
823.556010	5258.309110
823.873976	4708.183114
824.191897	4300.585661
824.509775	4004.052389
824.827609	3735.154722
825.145398	3612.203500
825.463144	3602.375771
825.780845	3695.092673
826.098502	3799.424392
826.416116	4078.054007
826.733685	4392.506060
827.051210	4457.859579
827.368692	4342.603678
827.686129	4077.945622
828.003522	3754.273298
828.320872	3499.412724
828.638177	3302.777477
828.955439	3166.434430
829.272656	3086.247317
829.589830	3017.332223
829.906960	2965.645273
830.224046	2921.159611
830.541088	2887.451935
830.858086	2874.836448
831.175041	2857.857842
831.491952	2855.690146
831.808819	2869.717156
832.125642	2892.142729
832.442421	2936.888011
832.759157	3017.866585
833.075849	3194.949717
833.392497	3475.436997
833.709101	3678.585414
834.025662	3632.383239
834.342179	3472.084629
834.658653	3292.929583
834.975083	3143.096409
835.291469	3049.971174
835.607811	2965.463791
835.924110	2907.127559
836.240366	2856.290043
836.556578	2813.195739
836.872746	2789.759415
837.188871	2768.788215
837.504952	2750.019999
837.820990	2743.322826
838.136984	2729.830178
838.452935	2723.138046
838.768842	2722.553272
839.084706	2741.026581
839.400526	2820.218067
839.716303	2950.688169
840.032037	3029.471322
840.347727	3011.713857
840.663373	2953.894343
840.978977	2879.928013
841.294537	2807.605100
841.610054	2758.617687
841.925527	2736.547516
842.240957	2714.966336
842.556344	2692.482790
842.871687	2679.814370
843.186987	2670.339522
843.502244	2665.474808
843.817458	2659.380053
844.132629	2646.870430
844.447756	2640.914307
844.762840	2632.089767
845.077881	2636.483132
845.392879	2634.963224
845.707833	2631.235291
846.022745	2621.193313
846.337613	2627.608181
846.652438	2625.868983
846.967221	2626.249590
847.281960	2624.386884
847.596656	2620.825308
847.911309	2620.676594
848.225919	2617.767849
848.540485	2614.954885
848.855009	2613.999586
849.169490	2615.968157
849.483928	2613.762652
849.798323	2615.345574
850.112675	2615.166613
850.426984	2613.165275
850.741251	2613.407251
851.055474	2610.347270
851.369654	2614.735595
851.683792	2616.063939
851.997887	2614.284411
852.311938	2611.017744
852.625947	2612.535131
852.939914	2616.016048
853.253837	2616.061418
853.567718	2613.069493
853.881555	2609.800305
854.195350	2615.229628
854.509103	2615.827004
854.822812	2607.614965
855.136479	2609.815428
855.450103	2613.835749
855.763685	2612.686366
856.077224	2613.661829
856.390720	2608.915582
856.704173	2610.768207
857.017584	2616.706686
857.330953	2616.371449
857.644278	2617.183075
857.957561	2619.433950
858.270802	2615.413630
858.584000	2617.936727
858.897155	2617.125102
859.210268	2618.735750
859.523339	2613.606376
859.836367	2610.044801
860.149352	2612.293156
860.462295	2614.100409
860.775195	2607.370469
861.088054	2609.603700
861.400869	2606.760489
861.713642	2605.684203
862.026373	2607.047835
862.339062	2607.834255
862.651708	2615.597632
862.964312	2615.264916
863.276873	2613.515635
863.589392	2618.282046
863.901869	2620.553086
864.214303	2625.952162
864.526696	2629.705301
864.839045	2629.647328
865.151353	2632.369551
865.463619	2632.568676
865.775842	2632.490538
866.088023	2629.859056
866.400162	2633.957514
866.712258	2634.141516
867.024313	2631.351238
867.336325	2625.987450
867.648296	2632.009108
867.960224	2633.642442
868.272110	2633.221506
868.583954	2626.640279
868.895755	2630.005250
869.207515	2635.207720
869.519233	2640.417753
869.830909	2637.778709
870.142542	2631.593213
870.454134	2633.440796
870.765684	2637.506487
871.077191	2639.921199
871.388657	2643.944040
871.700081	2641.413381
872.011463	2641.695685
872.322803	2642.013278
872.634101	2647.069555
872.945357	2654.182623
873.256571	2659.846360
873.567744	2656.337717
873.878874	2654.908550
874.189963	2654.913591
874.501010	2661.159580
874.812015	2664.302740
875.122979	2664.799293
875.433900	2659.077584
875.744780	2656.428457
876.055618	2660.957934
876.366415	2666.422545
876.677169	2667.098060
876.987882	2660.605053
877.298554	2659.647234
877.609183	2669.835406
877.919771	2675.915038
878.230317	2685.042047
878.540822	2693.619570
878.851285	2707.271015
879.161707	2730.142730
879.472087	2768.551281
879.782425	2819.547593
880.092722	2929.845519
880.402977	3117.447018
880.713191	3376.630381
881.023363	3666.166532
881.333494	3855.063607
881.643583	4030.616749
881.953631	4029.515257
882.263637	3848.951208
882.573602	3628.083135
882.883526	3498.399452
883.193408	3389.369377
883.503248	3287.923717
883.813048	3173.008095
884.122806	3058.770508
884.432522	2974.739514
884.742197	2910.343815
885.051831	2872.880480
885.361424	2838.406550
885.670975	2803.763740
885.980485	2771.568411
886.289954	2755.424116
886.599382	2741.157651
886.908768	2726.591237
887.218113	2706.603062
887.527417	2697.465970
887.836680	2689.112778
888.145901	2686.466173
888.455082	2674.667352
888.764221	2662.382060
889.073319	2658.903664
889.382376	2657.043478
889.691392	2656.809065
890.000366	2658.487769
890.309300	2655.107675
890.618193	2658.412152
890.927044	2660.852070
891.235855	2662.250990
891.544625	2659.022131
891.853353	2658.863335
892.162041	2671.347752
892.470687	2686.924918
892.779293	2698.040662
893.087858	2710.875440
893.396381	2731.639952
893.704864	2769.599841
894.013306	2841.625326
894.321707	2934.606888
894.630068	2983.780824
894.938387	3004.444513
895.246665	2997.770026
895.554903	2953.468366
895.863100	2909.055800
896.171256	2854.190402
896.479371	2794.893830
896.787446	2753.732809
897.095480	2735.385530
897.403473	2726.402193
897.711425	2713.350646
898.019336	2693.060002
898.327207	2681.838393
898.635038	2680.187416
898.942827	2676.401509
899.250576	2666.951866
899.558284	2657.724034
899.865952	2651.752787
900.173579	2651.253713
900.481165	2645.058135
900.788711	2639.631333
901.096216	2634.708646
901.403681	2629.654889
901.711105	2631.764612
902.018489	2631.983902
902.325832	2631.552884
902.633135	2633.191259
902.940397	2648.039977
903.247619	2685.251255
903.554800	2756.139960
903.861941	2880.727036
904.169041	3007.252436
904.476101	3068.547826
904.783121	3061.528019
905.090100	3005.334277
905.397039	2929.452309
905.703938	2854.213088
906.010796	2796.131433
906.317614	2744.247878
906.624391	2708.130531
906.931129	2679.690862
907.237826	2655.596667
907.544483	2641.552012
907.851099	2625.886627
908.157675	2619.481841
908.464211	2611.637806
908.770707	2598.162801
909.077163	2594.306319
909.383578	2590.417068
909.689954	2591.606781
909.996289	2589.590319
910.302584	2589.791965
910.608839	2585.585122
910.915054	2588.564444
911.221229	2587.581419
911.527363	2591.571493
911.833458	2589.320617
912.139513	2588.854311
912.445527	2593.469487
912.751502	2594.969230
913.057436	2599.438213
913.363331	2608.560181
913.669186	2619.892695
913.975000	2632.084726
914.280775	2653.633138
914.586510	2666.704850
914.892205	2704.780685
915.197859	2769.746034
915.503475	2853.129239
915.809050	2920.269847
916.114585	2934.831220
916.420081	2948.901080
916.725536	2959.079170
917.030952	2930.387443
917.336328	2882.519166
917.641665	2836.695078
917.946961	2786.419651
918.252218	2753.677356
918.557435	2726.417317
918.862612	2706.497197
919.167750	2688.621266
919.472848	2671.264573
919.777906	2654.573313
920.082925	2641.894811
920.387904	2632.697226
920.692843	2627.509878
920.997743	2624.278499
921.302603	2616.469752
921.607423	2608.603031
921.912204	2603.498863
922.216946	2602.472988
922.521647	2599.511310
922.826310	2593.590475
923.130932	2591.142995
923.435516	2586.311049
923.740059	2586.865576
924.044564	2582.930955
924.349028	2581.101016
924.653454	2572.639439
924.957840	2567.888152
925.262186	2568.213306
925.566493	2568.039387
925.870761	2564.520661
926.174989	2568.450241
926.479178	2564.581155
926.783328	2563.411607
927.087438	2558.902295
927.391509	2559.945814
927.695541	2560.540670
927.999533	2555.769218
928.303486	2556.180072
928.607400	2557.936914
928.911275	2555.983467
929.215110	2553.765359
929.518906	2553.377191
929.822663	2556.386759
930.126381	2554.576985
930.430060	2557.644527
930.733699	2556.994218
931.037299	2557.717624
931.340861	2557.417675
931.644383	2557.710062
931.947866	2557.989846
932.251309	2555.756615
932.554714	2558.461194
932.858080	2555.350802
933.161407	2557.488252
933.464694	2553.566234
933.767943	2553.026830
934.071153	2555.408776
934.374323	2552.328631
934.677455	2553.014227
934.980548	2552.699155
935.283602	2553.089845
935.586617	2552.545400
935.889593	2552.920966
936.192530	2552.167314
936.495428	2554.897098
936.798287	2551.317879
937.101108	2557.258879
937.403890	2560.913716
937.706632	2561.052347
938.009336	2565.574262
938.312002	2569.299675
938.614628	2570.640622
938.917216	2574.630695
939.219765	2577.244533
939.522275	2578.981211
939.824747	2573.768658
940.127179	2571.381672
940.429573	2567.026115
940.731929	2567.431927
941.034246	2563.005794
941.336524	2568.162895
941.638763	2567.013512
941.940964	2565.347410
942.243126	2562.897410
942.545250	2563.593089
942.847335	2561.168294
943.149381	2561.574107
943.451389	2559.424055
943.753359	2557.100083
944.055290	2556.749723
944.357182	2557.337017
944.659036	2554.587068
944.960851	2558.650238
945.262628	2555.653272
945.564367	2556.381718
945.866067	2557.372305
946.167729	2558.146122
946.469352	2554.342572
946.770937	2557.432799
947.072484	2557.279044
947.373992	2558.693087
947.675462	2555.242418
947.976893	2554.400545
948.278286	2553.606563
948.579641	2552.162272
948.880958	2551.406099
949.182236	2553.997252
949.483476	2548.772097
949.784678	2552.540359
950.085841	2549.180430
950.386967	2553.167983
950.688054	2552.492468
950.989103	2553.752757
951.290114	2555.686039
951.591087	2558.128478
951.892021	2558.617470
952.192917	2559.247614
952.493776	2558.665361
952.794596	2559.164435
953.095378	2563.020918
953.396122	2562.831875
953.696828	2561.107800
953.997496	2552.976419
954.298126	2555.292829
954.598718	2554.186296
954.899272	2556.278375
955.199788	2551.085986
955.500266	2551.620348
955.800706	2546.410316
956.101108	2543.526776
956.401472	2547.955430
956.701798	2544.328319
957.002087	2542.299255
957.302337	2545.654143
957.602550	2547.446273
957.902724	2544.338402
958.202861	2542.430325
958.502960	2543.781354
958.803022	2541.535520
959.103045	2543.854451
959.403031	2542.402599
959.702979	2541.661549
960.002889	2541.348997
960.302762	2539.352701
960.602596	2541.596014
960.902393	2540.194573
961.202153	2539.511497
961.501875	2541.860675
961.801559	2540.270191
962.101205	2540.630633
962.400814	2539.458565
962.700385	2539.025026
962.999918	2538.261291
963.299414	2537.857998
963.598873	2535.889428
963.898293	2539.781199
964.197677	2537.794984
964.497022	2537.154757
964.796331	2536.469161
965.095601	2535.992772
965.394835	2540.867567
965.694030	2536.731301
965.993189	2538.858668
966.292309	2536.648122
966.591393	2539.123328
966.890439	2537.560570
967.189447	2536.254912
967.488419	2536.380940
967.787353	2536.267514
968.086249	2537.870601
968.385108	2535.851619
968.683930	2536.658204
968.982714	2538.546116
969.281462	2537.590817
969.580172	2537.595858
969.878844	2537.447144
970.177480	2540.741538
970.476078	2539.055272
970.774639	2536.983358
971.073162	2538.548637
971.371649	2537.666435
971.670098	2533.091588
971.968510	2537.099305
972.266885	2529.882893
972.565223	2542.261446
972.863524	2540.146682
973.161788	2537.699202
973.460014	2540.900335
973.758204	2537.711805
974.056356	2534.919006
974.354471	2539.196425
974.652550	2537.699202
974.950591	2538.921682
975.248595	2538.692309
975.546563	2538.266332
975.844493	2539.934954
976.142386	2539.203987
976.440243	2538.856147
976.738062	2538.629295
977.035845	2536.398584
977.333590	2534.924047
977.631299	2537.394212
977.928971	2537.779861
978.226606	2538.830941
978.524204	2537.426980
978.821765	2537.535365
979.119290	2537.056455
979.416777	2534.573687
979.714228	2535.435724
980.011642	2536.123842
980.309020	2542.011909
980.606360	2536.292720
980.903664	2536.708615
981.200931	2540.527289
981.498162	2541.185160
981.795356	2541.008720
982.092513	2545.770089
982.389633	2547.516849
982.686717	2549.838301
982.983764	2549.619010
983.280775	2552.956254
983.577749	2551.799309
983.874686	2551.811912
984.171587	2549.629093
984.468451	2547.894936
984.765279	2544.436704
985.062070	2543.521735
985.358824	2542.155582
985.655543	2541.840510
985.952224	2540.176929
986.248869	2539.534182
986.545478	2534.228368
986.842050	2536.312885
987.138586	2534.772812
987.435086	2532.731145
987.731549	2532.572349
988.027975	2532.753830
988.324366	2532.196783
988.620719	2534.087215
988.917037	2532.942873
989.213318	2533.822555
989.509563	2532.809283
989.805772	2534.581248
990.101944	2532.423635
990.398080	2533.285672
990.694180	2534.621578
990.990244	2535.833975
991.286271	2534.808100
991.582262	2536.575025
991.878217	2536.000333
992.174136	2532.146371
992.470019	2533.268028
992.765865	2533.492359
993.061676	2532.897503
993.357450	2536.000333
993.653188	2534.850950
993.948890	2532.040507
994.244556	2533.149561
994.540186	2534.760209
994.835780	2537.026208
995.131337	2534.861033
995.426859	2538.026877
995.722345	2535.738193
996.017795	2537.739531
996.313208	2540.081147
996.608586	2539.549306
996.903928	2539.564429
997.199234	2536.824562
997.494504	2539.922351
997.789738	2539.118287
998.084936	2537.547968
998.380099	2537.031249
998.675225	2534.414890
998.970316	2536.970755
999.265371	2533.378933
999.560390	2536.063348
999.855373	2534.596372
1000.150320	2533.147040
1000.445232	2534.349355
1000.740108	2534.235929
1001.034948	2536.391023
1001.329752	2531.823737
1001.624521	2533.262987
1001.919254	2529.963552
1002.213951	2531.402801
1002.508613	2530.160157
1002.803239	2531.458254
1003.097829	2528.360465
1003.392384	2533.300795
1003.686903	2533.300795
1003.981386	2532.141330
1004.275834	2532.315250
1004.570246	2535.350024
1004.864623	2532.945394
1005.158964	2534.036804
1005.453270	2532.249715
1005.747540	2531.927081
1006.041775	2531.652338
1006.335974	2529.368695
1006.630138	2529.010773
1006.924266	2533.502442
1007.218359	2534.704757
1007.512416	2534.745086
1007.806438	2529.726617
1008.100425	2531.576721
1008.394376	2531.425486
1008.688292	2531.680064
1008.982172	2533.091587
1009.276017	2532.925229
1009.569827	2532.360620
1009.863602	2533.598223
1010.157341	2532.214427
1010.451045	2528.466329
1010.744714	2531.438089
1011.038347	2531.543953
1011.331945	2530.444982
1011.625508	2531.659900
1011.919036	2531.612009
1012.212528	2533.804911
1012.505986	2531.188552
1012.799408	2535.163502
1013.092795	2532.975641
1013.386147	2531.864067
1013.679464	2530.152595
1013.972745	2532.048069
1014.265992	2532.932791
1014.559204	2534.760209
1014.852380	2529.910619
1015.145521	2534.281300
1015.438628	2534.190559
1015.731699	2533.383974
1016.024736	2531.057482
1016.317737	2530.979344
1016.610703	2531.380116
1016.903635	2527.692512
1017.196531	2525.953314
1017.489393	2528.839374
1017.782219	2528.090763
1018.075011	2528.552028
1018.367768	2532.834489
1018.660490	2531.755682
1018.953177	2531.755682
1019.245829	2531.755682
