Dividing Wavelength (nm)	Counts (n)	Blue Motor Position (mm): 29.000000	Red Motor Position (mm): 0.000000	
326.493990	2055.384287
326.888308	2055.384287
327.282561	2055.384287
327.676750	2028.648528
328.070874	2032.187418
328.464933	2040.084385
328.858929	2046.234593
329.252859	2055.835471
329.646726	2071.470609
330.040528	2089.911150
330.434265	2104.041504
330.827938	2125.602519
331.221547	2146.246044
331.615091	2166.962666
332.008571	2184.841118
332.401986	2207.322144
332.795338	2224.885524
333.188625	2246.832187
333.581847	2267.442944
333.975006	2282.284101
334.368100	2300.921247
334.761129	2318.696356
335.154095	2330.497697
335.546996	2385.695811
335.939833	2488.978971
336.332606	2497.702687
336.725315	2509.400685
337.117960	2523.142870
337.510540	2530.455064
337.903056	2540.590304
338.295508	2545.898639
338.687896	2551.272509
339.080220	2554.491286
339.472480	2563.361196
339.864676	2565.927143
340.256807	2569.750858
340.648875	2570.756568
341.040879	2570.749007
341.432818	2575.389389
341.824694	2574.103895
342.216506	2575.827969
342.608253	2573.534244
342.999937	2573.642629
343.391557	2575.792681
343.783113	2571.946281
344.174605	2566.766495
344.566033	2568.394788
344.957397	2564.213151
345.348697	2565.362534
345.739934	2562.660475
346.131106	2563.215002
346.522215	2559.802141
346.913260	2559.731565
347.304241	2555.862479
347.695159	2557.883982
348.086012	2550.002138
348.476802	2552.850390
348.867528	2547.990718
349.258191	2544.421581
349.648789	2546.743032
350.039324	2540.108874
350.429796	2547.355532
350.820203	2544.610624
351.210548	2545.213042
351.600828	2543.269677
351.991045	2543.655325
352.381198	2540.010571
352.771288	2542.531148
353.161314	2540.199614
353.551276	2542.107691
353.941175	2539.564429
354.331010	2539.932433
354.720782	2543.599873
355.110490	2546.745553
355.500135	2542.218597
355.889717	2543.914945
356.279235	2541.621220
356.668689	2541.860675
357.058080	2542.906714
357.447408	2545.548279
357.836672	2545.938968
358.225873	2545.780172
358.615010	2543.138607
359.004084	2546.932075
359.393095	2545.228165
359.782043	2548.134391
360.170927	2543.365459
360.559748	2545.618855
360.948505	2545.157589
361.337199	2552.132026
361.725830	2547.867209
362.114398	2552.487427
362.502903	2548.845193
362.891344	2551.852242
363.279722	2549.175389
363.668037	2552.978939
364.056289	2554.864331
364.444478	2547.635316
364.832603	2554.466080
365.220665	2551.837118
365.608665	2553.425082
365.996601	2554.559341
366.384474	2555.093703
366.772284	2553.682180
367.160031	2555.718807
367.547715	2556.651420
367.935336	2553.412479
368.322893	2551.378373
368.710388	2551.900132
369.097820	2554.894578
369.485189	2550.312169
369.872495	2557.271482
370.259738	2558.032696
370.646918	2558.360371
371.034035	2557.750392
371.421090	2557.778118
371.808081	2558.526729
372.195010	2560.512944
372.581875	2558.262069
372.968678	2559.280382
373.355418	2558.345248
373.742096	2559.567727
374.128710	2559.693756
374.515262	2561.458160
374.901751	2562.771381
375.288177	2565.387740
375.674540	2561.138047
376.060841	2561.495969
376.447079	2561.422872
376.833254	2564.666855
377.219367	2567.321022
377.605417	2566.431258
377.991404	2566.897565
378.377329	2564.815569
378.763191	2564.266083
379.148991	2566.847154
379.534727	2566.723645
379.920402	2569.619788
380.306013	2565.327246
380.691563	2568.533420
381.077049	2565.518810
381.462474	2564.800445
381.847835	2567.484860
382.233134	2568.508214
382.618371	2567.399160
383.003545	2568.394788
383.388657	2569.433266
383.773706	2567.956207
384.158693	2566.761454
384.543618	2569.652556
384.928480	2569.241702
385.313280	2567.948646
385.698017	2569.322360
386.082692	2570.814542
386.467305	2571.288410
386.851856	2571.754717
387.236344	2570.305385
387.620770	2569.334963
388.005133	2570.123904
388.389435	2569.622309
388.773674	2568.102401
389.157851	2570.696075
389.541965	2573.057855
389.926018	2573.753534
390.310008	2570.509552
390.693936	2574.003072
391.077802	2573.405695
391.461606	2577.897363
391.845348	2573.425859
392.229027	2574.781930
392.612645	2574.920562
392.996200	2576.742939
393.379694	2571.805128
393.763125	2576.223700
394.146494	2575.346539
394.529801	2576.528690
394.913047	2577.478947
395.296230	2578.724112
395.679351	2577.511715
396.062410	2576.475757
396.445408	2578.703948
396.828343	2581.133784
397.211217	2579.878536
397.594028	2580.327199
397.976778	2581.521953
398.359466	2579.618917
398.742092	2581.131263
399.124656	2580.191088
399.507158	2580.309555
399.889598	2584.516398
400.271977	2582.550348
400.654294	2582.562951
401.036549	2579.107240
401.418742	2584.685277
401.800874	2583.709813
402.182944	2582.136973
402.564952	2584.135791
402.946898	2584.569330
403.328783	2586.353898
403.710606	2587.528487
404.092367	2587.377253
404.474067	2584.962540
404.855705	2587.846080
405.237282	2587.551173
405.618797	2587.125195
406.000250	2587.720051
406.381642	2587.382294
406.762972	2585.479258
407.144240	2584.833991
407.525447	2587.503282
407.906593	2583.636717
408.287677	2587.510843
408.668700	2589.620566
409.049661	2591.168200
409.430560	2591.112748
409.811399	2589.915474
410.192176	2592.168869
410.572891	2592.791452
410.953545	2592.776328
411.334138	2592.708273
411.714669	2591.992429
412.095139	2595.312029
412.475547	2592.383118
412.855894	2593.895465
413.236180	2592.403283
413.616405	2593.812286
413.996568	2593.466967
414.376670	2591.848756
414.756711	2595.773294
415.136691	2593.555187
415.516609	2595.158274
415.896466	2596.990733
416.276262	2594.452512
416.655997	2596.975610
417.035670	2598.699684
417.415283	2598.573655
417.794834	2598.435024
418.174324	2597.527616
418.553753	2600.658172
418.933121	2599.017277
419.312428	2599.654983
419.691674	2600.645570
420.070859	2602.951897
420.449983	2603.065323
420.829045	2602.382247
421.208047	2603.924840
421.586988	2605.616147
421.965867	2605.210334
422.344686	2605.580859
422.723444	2606.896600
423.102141	2608.540017
423.480777	2606.687392
423.859352	2607.952722
424.237866	2608.043463
424.616319	2609.694441
424.994712	2609.883484
425.373044	2613.959257
425.751314	2608.703854
426.129524	2607.322578
426.507673	2610.347270
426.885762	2608.739142
427.263789	2615.796757
427.641756	2614.780965
428.019662	2619.502006
428.397508	2616.835235
428.775292	2618.448404
429.153016	2620.253137
429.530679	2622.977881
429.908282	2623.330762
430.285824	2627.530043
430.663305	2626.282357
431.040726	2627.459467
431.418086	2629.685136
431.795385	2633.430714
432.172624	2636.450365
432.549802	2639.737197
432.926920	2641.415901
433.303977	2645.557209
433.680974	2648.584422
434.057910	2651.825884
434.434786	2660.131185
434.811601	2662.674447
435.188355	2673.147444
435.565050	2676.046108
435.941683	2679.274967
436.318257	2691.905578
436.694770	2698.141485
437.071222	2710.162116
437.447614	2716.329968
437.823946	2723.848849
438.200218	2735.327556
438.576429	2743.685789
438.952580	2759.852770
439.328670	2771.359203
439.704700	2787.669857
440.080670	2799.362813
440.456580	2822.166472
440.832429	2840.367558
441.208218	2849.955833
441.583947	2869.079450
441.959616	2895.285888
442.335224	2920.758839
442.710773	2943.015533
443.086261	2979.936944
443.461689	2993.404386
443.837057	3024.591485
444.212365	3068.041190
444.587612	3096.211157
444.962800	3117.867954
445.337927	3160.138029
445.712995	3154.310455
446.088002	3252.509612
446.462949	3294.575520
446.837837	3334.135975
447.212664	3389.303842
447.587431	3541.201369
447.962139	3712.668655
448.336786	3857.599308
448.711374	3860.790358
449.085901	3762.931480
449.460369	3817.449038
449.834776	3877.831979
450.209124	4093.704269
450.583412	4118.940285
450.957640	4226.551276
451.331808	4220.822004
451.705917	4203.472873
452.079965	4264.160804
452.453954	4377.536354
452.827883	4444.525727
453.201752	4511.873022
453.575562	4596.826546
453.949311	4767.116723
454.323001	4875.312487
454.696632	4942.594247
455.070202	5196.071024
455.443713	5309.930525
455.817164	5452.872442
456.190556	5655.970449
456.563888	5704.340320
456.937160	5874.633017
457.310373	5813.985416
457.683526	5925.818373
458.056619	6055.401233
458.429653	6195.081523
458.802628	6370.743050
459.175542	6509.795717
459.548398	6852.637028
459.921194	7215.073304
460.293930	7477.999724
460.666607	7994.352510
461.039224	8460.734858
461.411782	8721.801092
461.784280	8673.416098
462.156719	8769.402187
462.529099	8869.837096
462.901419	8715.217345
463.273680	8668.906786
463.645882	8919.565558
464.018024	9041.357314
464.390106	9402.170339
464.762130	10221.136028
465.134094	11336.110709
465.505999	12831.274090
465.877845	14203.995406
466.249631	14955.366784
466.621358	14754.287760
466.993026	14431.842957
467.364634	14168.561136
467.736184	13891.527047
468.107674	13696.590669
468.479105	13749.061518
468.850477	13725.428589
469.221790	13591.280965
469.593043	13296.282724
469.964238	13176.235207
470.335373	13395.396850
470.706449	14147.980625
471.077467	15132.202899
471.448425	17040.526647
471.819324	18336.529162
472.190164	18067.976815
472.560945	16878.118314
472.931667	15906.887093
473.302330	15819.987683
473.672934	15592.606439
474.043479	16041.445572
474.413965	15985.801315
474.784393	15976.868391
475.154761	16585.499497
475.525070	16803.781459
475.895321	16770.973630
476.265513	17309.361299
476.635645	17918.277231
477.005719	18067.497905
477.375734	18496.341301
477.745691	19111.077245
478.115588	19780.297980
478.485427	20991.813278
478.855207	22756.317947
479.224928	24387.443768
479.594591	25513.554358
479.964194	25141.363449
480.333739	25577.088020
480.703226	25927.065085
481.072653	26481.612172
481.442022	27019.639399
481.811333	27377.435293
482.180584	26987.086148
482.549777	26885.229635
482.918912	26793.652034
483.287988	26809.302296
483.657005	26719.877268
484.025964	26463.826982
484.394864	26712.567595
484.763706	26711.761010
485.132489	26327.168863
485.501213	26441.945853
485.869879	26680.959560
486.238487	26701.214916
486.607036	27002.330597
486.975527	26784.827494
487.343959	27162.251121
487.712333	27497.974323
488.080648	27514.481581
488.448905	27966.347927
488.817104	27951.700854
489.185244	28853.475057
489.553326	30020.101401
489.921350	31957.658799
490.289315	34297.996828
490.657222	34985.222044
491.025070	35400.592956
491.392861	35034.968150
491.760593	34275.835916
492.128267	33301.048161
492.495883	32402.822931
492.863440	31615.939145
493.230939	30789.293257
493.598380	30316.498562
493.965763	30215.879652
494.333088	29800.894387
494.700354	29658.832152
495.067563	29641.661982
495.434713	29581.427755
495.801805	29880.716018
496.168839	29766.271743
496.535815	29660.553706
496.902733	29810.044082
497.269593	29653.591872
497.636395	29811.228753
498.003139	30119.079415
498.369825	29905.470603
498.736453	30310.943210
499.103023	30177.337510
499.469535	30291.133996
499.835989	30432.266139
500.202385	30302.098506
500.568723	30385.915250
500.935003	30721.696426
501.301226	30636.584105
501.667390	31328.021204
502.033497	31516.769566
502.399546	31336.240806
502.765537	30955.716869
503.131470	31420.564186
503.497345	31856.694570
503.863163	30862.218589
504.228923	31634.331794
504.594625	32031.526827
504.960269	31538.769162
505.325856	32202.598382
505.691385	31905.901273
506.056856	32224.071177
506.422270	32716.954871
506.787625	32266.484925
507.152924	32729.714031
507.518164	32932.295319
507.883347	32517.930117
508.248472	32684.817515
508.613540	33359.757439
508.978550	33619.286121
509.343503	33477.244050
509.708398	33837.681509
510.073236	34440.530412
510.438016	34548.232143
510.802738	34248.152420
511.167403	34807.871731
511.532010	35076.459367
511.896561	35554.658180
512.261053	36301.326161
512.625488	36097.172033
512.989866	36044.489455
513.354186	36091.951918
513.718449	36060.149799
514.082655	36966.708057
514.446803	36684.095931
514.810894	37296.986813
515.174927	37306.917886
515.538904	37303.447052
515.902822	37945.417829
516.266684	37660.751433
516.630488	38036.526603
516.994235	38051.899602
517.357925	38648.260540
517.721558	38913.652084
518.085133	39276.869739
518.448651	39463.962082
518.812112	39366.264520
519.175516	39541.704236
519.538863	39976.178601
519.902152	40050.132328
520.265385	40587.869688
520.628560	40615.946394
520.991678	40578.997257
521.354739	40810.671044
521.717743	41176.532784
522.080690	41083.699936
522.443580	41766.231838
522.806413	41788.735548
523.169189	41943.415792
523.531908	42156.608709
523.894569	42034.756459
524.257174	42236.601738
524.619722	42572.927358
524.982213	42716.053278
525.344647	42754.708846
525.707025	42886.729103
526.069345	43333.445910
526.431608	43230.583686
526.793815	43614.492758
527.155964	43196.092112
527.518057	43456.142553
527.880093	43311.229545
528.242072	43930.384060
528.603995	43668.556612
528.965860	43613.459321
529.327669	43838.279659
529.689421	43893.306374
530.051117	43842.529352
530.412755	44127.004184
530.774337	44190.638669
531.135862	44131.523578
531.497331	44288.805058
531.858743	44285.631651
532.220098	44701.930136
532.581396	44429.649855
532.942638	44189.186817
533.303824	44452.231704
533.664953	44505.373027
534.026025	44202.044279
534.387040	44752.813022
534.747999	44832.526267
535.108902	45148.707437
535.469748	44487.812168
535.830537	44747.361014
536.191270	44983.518908
536.551947	44719.581736
536.912567	45001.404921
537.273131	45161.688408
537.633638	44783.180933
537.994089	44985.013610
538.354483	44745.289100
538.714821	45381.293672
539.075103	45667.374112
539.435328	45528.712134
539.795497	45289.083407
540.155609	45410.456747
540.515665	45983.736763
540.875665	45304.589996
541.235609	45585.520897
541.595496	45691.007041
541.955328	46272.476411
542.315102	45711.955556
542.674821	45597.299553
543.034483	45499.463360
543.394090	45513.026584
543.753640	45477.539382
544.113134	46563.968529
544.472571	45647.151523
544.831953	46772.274047
545.191278	46054.378452
545.550548	45723.461990
545.909761	46373.123047
546.268918	46521.975718
546.628019	46940.124306
546.987064	46367.277830
547.346053	45655.086299
547.704986	46565.397696
548.063863	46212.287555
548.422684	46423.572395
548.781449	46008.307347
549.140158	46536.852163
549.498811	46307.308263
549.857408	45702.803341
550.215949	46535.206226
550.574434	46371.560290
550.932864	46301.458004
551.291237	47032.095117
551.649555	46772.972247
552.007817	46964.583984
552.366022	46612.968545
552.724173	46679.335335
553.082267	47090.567460
553.440305	47426.154551
553.798288	46689.757921
554.156215	47083.323322
554.514086	47279.454453
554.871902	46900.488234
555.229661	47065.414623
555.587365	46737.069149
555.945014	46872.335910
556.302606	46896.828356
556.660143	46998.301742
557.017625	47211.489617
557.375050	46910.396622
557.732421	47322.274014
558.089735	47378.273672
558.446994	47243.085049
558.804197	47716.998881
559.161345	47576.315401
559.518437	46927.188705
559.875474	47185.807459
560.232455	47409.344823
560.589381	47466.110736
560.946251	47243.213598
561.303065	47915.171680
561.659825	47600.487733
562.016528	47417.435875
562.373177	46990.049373
562.729770	47618.789642
563.086307	47141.188206
563.442789	47665.690017
563.799216	47520.635856
564.155587	47422.053572
564.511904	47388.424035
564.868164	47441.532591
565.224370	47736.956809
565.580520	47476.999629
565.936615	47669.793516
566.292654	47344.644134
566.648638	47703.811223
567.004567	47636.292528
567.360441	47724.106908
567.716260	47464.505129
568.072023	47810.920618
568.427732	47756.677803
568.783385	47289.383006
569.138982	47688.894448
569.494525	47822.149788
569.850013	47434.127136
570.205445	47543.056388
570.560823	47319.226637
570.916145	47193.742235
571.271412	47426.782175
571.626625	47103.218236
571.981782	47161.786361
572.336884	46748.497445
572.691931	47060.635609
573.046923	46744.832526
573.401860	46578.771877
573.756743	46593.587829
574.111570	46744.381343
574.466342	46635.068963
574.821059	46794.744991
575.175722	46296.671429
575.530330	46418.155675
575.884882	46038.516461
576.239380	45943.851153
576.593823	46030.445574
576.948211	45955.193750
577.302544	45507.400656
577.656823	45506.629360
578.011047	45778.740762
578.365216	45578.193580
578.719330	45309.459751
579.073389	45286.242717
579.427394	45343.832858
579.781344	45273.523885
580.135239	45042.011416
580.489080	45096.246669
580.842866	44578.101753
581.196597	45070.158698
581.550273	45075.220017
581.903895	45024.367377
582.257463	45453.203211
582.610975	44885.309669
582.964434	45214.088682
583.317837	44726.379732
583.671186	44674.443245
584.024481	44958.315659
584.377721	44493.738044
584.730906	44720.113578
585.084037	44830.494682
585.437113	44529.615936
585.790135	44651.856355
586.143103	44219.090941
586.496016	44370.955701
586.848874	44482.760931
587.201679	44508.128017
587.554428	44025.135067
587.907124	44299.489783
588.259765	44058.273092
588.612352	44225.226025
588.964884	43674.845451
589.317362	43985.246938
589.669786	43989.347916
590.022155	43832.341180
590.374470	44280.139314
590.726731	43870.870719
591.078937	43211.586098
591.431090	43542.679000
591.783188	43076.049636
592.135232	42857.936553
592.487222	43139.691682
592.839157	43306.916838
593.191038	42908.779110
593.542866	42732.656318
593.894639	42139.178920
594.246358	42437.753859
594.598022	42407.895105
594.949633	42001.378979
595.301190	41977.307470
595.652692	41930.039091
596.004141	42388.665624
596.355535	41311.794504
596.706876	41332.894253
597.058162	41057.561553
597.409395	41550.452809
597.760573	41763.565067
598.111698	41368.822557
598.462768	41277.073557
598.813785	41294.150465
599.164748	40901.144632
599.515657	41169.739829
599.866511	40681.151199
600.217312	41379.502241
600.568060	40306.079270
600.918753	41142.119348
601.269392	41068.946999
601.619978	40786.796139
601.970510	40971.483852
602.320988	41117.072375
602.671412	41383.366285
603.021783	41252.944074
603.372100	40823.828455
603.722363	40930.166555
604.072572	40948.576848
604.422728	40954.908538
604.772830	40747.447413
605.122878	40899.113047
605.472872	40746.527402
605.822813	41010.255366
606.172701	40759.147931
606.522534	41092.186719
606.872314	41310.239308
607.222041	41131.326237
607.571714	41460.717750
607.921333	40964.479168
608.270899	41169.006342
608.620411	41573.029617
608.969870	41293.185084
609.319276	41309.636890
609.668627	41340.055212
610.017926	41750.022007
610.367171	41874.924156
610.716362	41917.378233
611.065500	41809.127016
611.414585	42027.908052
611.763616	42213.051988
612.112594	42109.801596
612.461518	42228.523289
612.810389	42636.208963
613.159207	42408.247986
613.507971	42391.256777
613.856682	42897.554981
614.205340	42723.882190
614.553945	43403.790171
614.902496	42741.952206
615.250994	43156.947552
615.599439	43218.273189
615.947830	43336.205942
616.296169	43324.321422
616.644454	43381.445256
616.992686	43534.000654
617.340864	44002.021377
617.688990	43528.858677
618.037063	44194.089339
618.385082	44010.543448
618.733048	44354.130850
619.080961	44223.587650
619.428821	44229.828599
619.776628	44267.909475
620.124382	44080.678501
620.472083	44174.227192
620.819731	44266.351758
621.167326	43823.854397
621.514868	43822.112679
621.862357	43273.095737
622.209793	43381.535997
622.557176	42935.908079
622.904506	42681.629759
623.251783	42311.470435
623.599007	42006.203364
623.946179	41927.657146
624.293297	41675.067612
624.640363	41119.713939
624.987376	40963.717954
625.334336	40762.185226
625.681243	40365.073373
626.028097	40277.667327
626.374899	40102.812385
626.721647	40066.846273
627.068343	39854.021361
627.414987	39571.658772
627.761577	39328.292029
628.108115	39636.190582
628.454600	38898.863859
628.801032	39121.206470
629.147412	39026.647027
629.493739	38936.029766
629.840014	38495.140533
630.186236	38927.805123
630.532405	38368.042962
630.878521	38616.372721
631.224585	38392.817713
631.570597	38044.108498
631.916556	38223.810509
632.262462	38105.812221
632.608316	38040.410812
632.954117	37892.014366
633.299866	37858.576393
633.645562	37764.397557
633.991206	37229.682368
634.336797	36820.827147
634.682336	36722.368371
635.027823	36491.533937
635.373257	36346.310897
635.718639	36029.895314
636.063968	35918.253921
636.409245	35270.034633
636.754470	35226.315227
637.099642	35000.295094
637.444762	34434.851552
637.789829	34585.602217
638.134845	34210.167325
638.479808	34115.280207
638.824719	34076.667489
639.169577	33565.116403
639.514383	33650.077489
639.859137	33279.063689
640.203839	33436.675364
640.548489	33156.709844
640.893086	33154.779082
641.237632	32871.125958
641.582125	32976.072699
641.926566	32781.007772
642.270955	32805.427121
642.615292	32752.414347
642.959576	32632.908754
643.303809	32621.805613
643.647990	32722.532908
643.992118	32677.323840
644.336195	32534.074412
644.680219	32617.651702
645.024192	32827.862776
645.368112	33345.294369
645.711981	33377.653535
646.055797	34095.009728
646.399562	33914.266718
646.743274	34804.751257
647.086935	35185.575142
647.430544	35132.156555
647.774101	35186.197724
648.117606	35456.789219
648.461059	35574.545532
648.804460	35172.445457
649.147810	34672.317625
649.491108	34303.368178
649.834354	34149.761699
650.177548	33318.253619
650.520690	32831.810000
650.863781	32829.982581
651.206820	32649.932731
651.549807	32240.989289
651.892742	31674.174554
652.235626	31569.489953
652.578458	31446.682404
652.921238	30772.047470
653.263967	31083.414337
653.606644	30782.654058
653.949269	30698.618023
654.291843	30307.001028
654.634365	30661.913382
654.976836	30210.291533
655.319255	30275.352664
655.661622	30162.982824
656.003938	30033.750325
656.346203	29829.697020
656.688416	30091.209396
657.030577	29857.403202
657.372687	29683.185966
657.714746	29836.462248
658.056753	30028.867967
658.398708	29399.621062
658.740612	29486.575925
659.082465	29692.055876
659.424266	29585.299361
659.766016	29606.134450
660.107715	29460.006523
660.449362	29555.339784
660.790958	29535.034016
661.132503	29464.997266
661.473996	29547.987261
661.815438	29624.098602
662.156829	29735.220756
662.498168	29540.864110
662.839456	29510.193730
663.180693	29649.705142
663.521879	29741.688556
663.863013	29701.598780
664.204097	29675.697332
664.545129	30091.406001
664.886110	30025.318995
665.227040	30133.282866
665.567918	30123.742483
665.908746	30211.488807
666.249522	30301.387703
666.590248	30313.907409
666.930922	30402.919062
667.271545	30402.172971
667.612118	30454.795056
667.952639	30263.296745
668.293109	30305.894495
668.633528	30175.671408
668.973896	30132.118360
669.314213	30112.967016
669.654480	29911.199875
669.994695	29902.274512
670.334859	29819.831482
670.674973	29663.185188
671.015035	29850.244763
671.355047	29793.050352
671.695008	29717.919516
672.034918	29622.316554
672.374777	29735.762680
672.714585	29594.012995
673.054342	29725.675331
673.394049	29586.542005
673.733705	29805.607866
674.073310	29520.747386
674.412864	29582.073023
674.752368	29266.683314
675.091820	29503.864562
675.431223	29086.809904
675.770574	28889.458813
676.109875	28736.507685
676.449125	28533.331541
676.788324	28424.397247
677.127473	27933.988760
677.466571	27851.470113
677.805619	27576.525582
678.144616	27516.150203
678.483562	27457.728271
678.822458	27147.513308
679.161303	27080.102998
679.500098	27012.349891
679.838842	26951.435108
680.177535	27025.187189
680.516179	27283.505994
680.854771	27408.846723
681.193314	28200.570017
681.531805	29224.284690
681.870247	29980.868621
682.208638	30694.164164
682.546978	30953.027414
682.885268	31089.677971
683.223508	30638.030916
683.561697	30366.945388
683.899836	30202.218125
684.237925	29786.292685
684.575963	29656.314095
684.913951	29285.771643
685.251889	29453.687437
685.589776	29496.232255
685.927614	29496.262502
686.265401	29692.441524
686.603137	29812.806634
686.940824	30326.132207
687.278460	30667.272129
687.616046	30849.126712
687.953582	31505.701713
688.291068	31414.996232
688.628504	31757.285537
688.965889	31728.845867
689.303224	31467.900621
689.640510	31146.484213
689.977745	30512.939724
690.314930	29775.103844
690.652065	29322.929988
690.989150	28649.575508
691.326185	27804.307598
691.663170	27162.513261
692.000105	26434.530316
692.336990	25815.648023
692.673825	25408.317751
693.010610	24916.744757
693.347345	24427.765437
693.684030	23795.612307
694.020665	23603.710703
694.357251	22942.628911
694.693786	22944.163943
695.030272	22723.651270
695.366707	22239.327456
695.703093	21958.756997
696.039429	22026.621010
696.375716	21796.111730
696.711952	21800.013583
697.048139	21667.983243
697.384276	21499.906133
697.720363	21631.235753
698.056400	21521.051253
698.392388	21362.179289
698.728326	21356.150069
699.064214	21193.061181
699.400053	21198.820699
699.735842	20802.301182
700.071581	20605.902869
700.407270	20356.143943
700.742910	20193.150836
701.078501	19942.255130
701.414042	19746.607949
701.749533	19440.834242
702.084974	19122.641652
702.420366	19360.465647
702.755709	18943.950392
703.091002	18649.423499
703.426246	18714.003201
703.761440	18650.446854
704.096584	18411.460873
704.431679	18348.751440
704.766725	18291.909910
705.101721	18230.390189
705.436668	18358.553964
705.771565	18085.373837
706.106413	18396.823883
706.441212	18480.570051
706.775961	18583.422193
707.110661	18668.322785
707.445311	19035.371717
707.779913	18911.014014
708.114465	19210.544252
708.448967	19531.562408
708.783421	20160.169087
709.117825	20528.858915
709.452180	20766.299781
709.786485	21220.071683
710.120742	21989.666832
710.454949	22097.363522
710.789107	22618.407102
711.123216	23329.998734
711.457275	23553.606675
711.791286	24095.283697
712.125247	24247.476132
712.459159	23963.192863
712.793023	24700.552354
713.126837	23667.849303
713.460602	23905.433843
713.794318	23566.138983
714.127985	23285.203041
714.461602	22385.039487
714.795171	22352.241740
715.128691	21370.411494
715.462162	20853.393276
715.795584	20429.442320
716.128957	20164.748975
716.462281	19778.354615
716.795556	19506.036526
717.128782	19034.938178
717.461960	18441.092776
717.795088	18398.636178
718.128167	18048.097025
718.461198	17607.701825
718.794180	17475.290878
719.127113	17157.012588
719.459997	16965.315152
719.792833	16599.130777
720.125619	16641.244577
720.458357	16313.758620
720.791046	16180.659556
721.123686	16029.460228
721.456278	15811.929399
721.788821	15806.616022
722.121315	15545.993410
722.453761	15652.182795
722.786158	15525.848959
723.118506	15610.797443
723.450805	15490.996942
723.783056	15684.337795
724.115259	15574.354941
724.447412	15577.682103
724.779518	15788.858558
725.111574	15847.441807
725.443582	16113.024915
725.775542	16075.506127
726.107453	16587.551247
726.439315	16511.901172
726.771129	16931.418433
727.102895	17359.215790
727.434612	17628.862068
727.766281	17792.019012
728.097901	18113.758053
728.429473	18189.173715
728.760996	18193.607410
729.092471	18311.714083
729.423897	18208.642651
729.755276	18072.513853
730.086606	18199.296352
730.417887	18792.816600
730.749120	19335.869857
731.080305	19560.574248
731.411442	19939.432083
731.742530	20057.730320
732.073570	20219.032120
732.404562	20540.501459
732.735506	20371.280007
733.066401	20143.147631
733.397249	19650.989863
733.728048	19015.388583
734.058798	18161.548192
734.389501	17408.152791
734.720156	16890.670787
735.050762	16322.535269
735.381320	15937.353306
735.711831	15676.962587
736.042293	15310.785774
736.372707	15352.592063
736.703073	15148.062369
737.033391	15348.659963
737.363661	15354.936200
737.693883	15489.187168
738.024056	15687.034812
738.354182	15913.410346
738.684260	16277.845440
739.014290	16556.134776
739.344272	16783.702543
739.674207	17134.098024
740.004093	17304.420968
740.333931	17352.120366
740.663722	17429.144155
740.993464	17469.052450
741.323159	17303.042212
741.652806	16991.125859
741.982405	16824.334243
742.311956	16461.771938
742.641460	16351.892428
742.970915	16010.850809
743.300323	15667.558314
743.629683	15451.300376
743.958996	15143.961391
744.288260	14824.092617
744.617477	14523.992729
744.946647	14486.839425
745.275768	14182.457076
745.604842	13974.678359
745.933869	13804.282318
746.262847	13775.623358
746.591778	13692.819886
746.920662	13581.077669
747.249498	13591.371706
747.578286	13749.432043
747.907027	13930.782512
748.235720	14189.741544
748.564365	14268.232309
748.892963	14187.387325
749.221514	14290.400783
749.550017	14157.901616
749.878473	14130.394560
750.206881	13899.466864
750.535242	13831.776771
750.863555	13750.583947
751.191821	13654.764215
751.520039	13674.341536
751.848210	13596.881687
752.176334	13647.116785
752.504411	13575.885281
752.832440	13395.626222
753.160421	13513.553934
753.488356	13397.594793
753.816243	13300.713898
754.144082	13147.609015
754.471875	13096.854678
754.799620	13066.206983
755.127318	13043.612532
755.454969	13023.049665
755.782572	12986.748316
756.110129	13011.046678
756.437638	12909.666553
756.765100	12926.627515
757.092515	12948.377574
757.419882	12982.823778
757.747203	13000.099812
758.074477	13091.881580
758.401703	13074.998755
758.728882	13271.165175
759.056014	13324.019152
759.383099	13492.497035
759.710138	13618.150315
760.037129	13737.408891
760.364073	13797.670844
760.690970	13835.441690
761.017820	13839.910673
761.344623	14065.280496
761.671379	14445.915338
761.998088	15154.285674
762.324751	16944.389322
762.651366	20387.320959
762.977935	24858.700912
763.304456	27815.211614
763.630931	28818.539861
763.957359	27578.695799
764.283740	25291.975482
764.610074	23019.672865
764.936362	20390.824561
765.262602	18517.194034
765.588796	16592.990652
765.914943	15315.058152
766.241044	14217.104927
766.567097	13444.918625
766.893104	12726.304664
767.219064	12262.213521
767.544978	11790.449741
767.870845	11405.789538
768.196665	11191.653925
768.522438	10959.720519
768.848165	10760.322720
769.173846	10558.726978
769.499479	10422.973746
769.825066	10254.163147
770.150607	10023.268219
770.476101	9947.277866
770.801548	9823.636006
771.126949	9663.019803
771.452303	9552.963853
771.777611	9355.375828
772.102872	9346.563891
772.428087	9209.971307
772.753256	9047.532727
773.078378	8962.117937
773.403453	8781.034650
773.728482	8671.008947
774.053465	8589.954755
774.378401	8501.802618
774.703291	8371.680355
775.028135	8249.535718
775.352932	8210.678504
775.677683	8109.459696
776.002388	8007.799788
776.327046	8017.561982
776.651658	7918.715038
776.976224	7815.590674
777.300743	7813.528842
777.625216	7728.534988
777.949643	7681.677463
778.274024	7701.090947
778.598359	7616.200437
778.922647	7639.987121
779.246889	7586.742454
779.571086	7593.835358
779.895236	7600.053621
780.219339	7614.559541
780.543397	7618.685725
780.867409	7695.583486
781.191374	7707.520938
781.515294	7672.931061
781.839167	7769.401102
782.162995	7727.493990
782.486776	7681.163266
782.810511	7633.627705
783.134201	7536.557768
783.457844	7542.155969
783.781441	7486.630180
784.104993	7418.042761
784.428498	7396.191880
784.751958	7382.676546
785.075372	7357.251487
785.398739	7297.014740
785.722061	7341.444949
786.045337	7347.970723
786.368568	7505.506780
786.691752	7534.485853
787.014891	7875.222483
787.337983	8239.473575
787.661030	8840.240481
787.984031	9461.857600
788.306987	9869.588644
788.629897	10072.333769
788.952760	10011.575263
789.275579	9787.077558
789.598351	9384.914469
789.921078	9033.193165
790.243759	8612.239175
790.566395	8319.988363
790.888984	8070.315137
791.211529	7865.609002
791.534027	7641.973336
791.856480	7447.573840
792.178888	7371.719598
792.501249	7272.678569
792.823566	7119.944211
793.145836	7122.353882
793.468062	7098.549554
793.790241	7049.862090
794.112375	7121.075950
794.434464	7273.023888
794.756507	7313.090979
795.078505	7478.035013
795.400457	7788.000439
795.722364	8149.287332
796.044226	8435.589583
796.366042	8708.000934
796.687812	8656.621494
797.009538	8728.460457
797.331218	8619.972305
797.652852	8539.913741
797.974442	8375.844348
798.295986	8289.759084
798.617484	8095.735155
798.938938	7951.933721
799.260346	7850.788010
799.581709	7654.306518
799.903026	7570.537665
800.224299	7466.417673
800.545526	7293.589276
800.866708	7200.416150
801.187845	7134.016592
801.508936	7023.532143
801.829983	6987.467729
802.150984	6837.609348
802.471940	6797.499408
802.792851	6785.493900
803.113717	6747.758343
803.434538	6718.522171
803.755314	6662.925806
804.076045	6662.116701
804.396731	6612.758763
804.717372	6645.460728
805.037967	6653.871894
805.358518	6691.302461
805.679024	6776.412261
805.999485	6791.114787
806.319901	6830.771023
806.640272	6848.689805
806.960598	6932.899759
807.280879	6933.499656
807.601115	7016.809765
807.921306	6961.939326
808.241453	6970.501726
808.561554	6991.321691
808.881611	6953.268541
809.201623	6958.786084
809.521590	6901.942033
809.841513	6879.995370
810.161390	6919.202944
810.481223	6792.019674
810.801011	6777.007118
811.120755	6749.154743
811.440453	6668.897053
811.760107	6637.674666
812.079716	6610.391942
812.399281	6541.353340
812.718801	6531.230703
813.038276	6488.224619
813.357707	6428.166833
813.677093	6469.164017
813.996434	6374.879316
814.315731	6410.396766
814.634983	6402.605662
814.954191	6418.636532
815.273354	6524.548653
815.592473	6590.335711
815.911547	6712.422375
816.230577	6790.086391
816.549562	6941.154648
816.868502	7040.016717
817.187399	7136.438866
817.506250	7287.497041
817.825058	7324.249573
818.143821	7587.420489
818.462539	7863.078343
818.781213	8234.074499
819.099843	8781.125391
819.418429	9788.547055
819.736970	10765.918401
820.055466	11946.390273
820.373919	13470.404178
820.692327	15805.675847
821.010691	19956.365319
821.329011	28964.251892
821.647286	41956.858029
821.965517	55378.930145
822.283704	60750.118251
822.601847	62718.323344
822.919945	59956.597786
823.237999	55690.085283
823.556010	49445.557603
823.873976	42723.894793
824.191897	36224.330098
824.509775	31407.406775
824.827609	26918.528976
825.145398	24338.897457
825.463144	23010.545856
825.780845	23336.012831
826.098502	25130.807273
826.416116	28930.526573
826.733685	32624.275778
827.051210	33805.947445
827.368692	31989.105517
827.686129	28012.547581
828.003522	23874.324883
828.320872	20172.386323
828.638177	17322.821180
828.955439	15172.033056
829.272656	13365.984238
829.589830	11895.411605
829.906960	10629.224994
830.224046	9698.443992
830.541088	8953.807595
830.858086	8494.084611
831.175041	8121.646686
831.491952	8007.807350
831.808819	8051.546921
832.125642	8460.805434
832.442421	9348.691258
832.759157	11161.482620
833.075849	14095.529940
833.392497	17322.833782
833.709101	19505.779427
834.025662	19335.849692
834.342179	17615.354296
834.658653	15405.650207
834.975083	13470.865443
835.291469	11861.439269
835.607811	10545.196521
835.924110	9637.118355
836.240366	8776.106922
836.556578	7970.858212
836.872746	7332.209555
837.188871	6830.395457
837.504952	6414.475059
837.820990	6104.464262
838.136984	5885.577362
838.452935	5796.613600
838.768842	5830.008723
839.084706	6254.065544
839.400526	7473.064435
839.716303	9064.849091
840.032037	10154.713785
840.347727	10068.847812
840.663373	9083.103109
840.978977	8040.227010
841.294537	7228.044193
841.610054	6630.062524
841.925527	6199.621082
842.240957	5845.069171
842.556344	5512.416031
842.871687	5228.266353
843.186987	4948.068940
843.502244	4724.975197
843.817458	4563.436464
844.132629	4430.203809
844.447756	4340.985468
844.762840	4261.284826
845.077881	4184.545861
845.392879	4124.236017
845.707833	4078.207762
846.022745	4033.689332
846.337613	4001.708252
846.652438	3958.795430
846.967221	3946.699182
847.281960	3912.376486
847.596656	3894.805544
847.911309	3875.528172
848.225919	3848.686548
848.540485	3835.067871
848.855009	3822.026406
849.169490	3801.539157
849.483928	3793.632107
849.798323	3781.858492
850.112675	3762.371912
850.426984	3766.586316
850.741251	3754.805140
851.055474	3749.375817
851.369654	3753.859923
851.683792	3753.990993
851.997887	3759.024586
852.311938	3758.548197
852.625947	3764.665637
852.939914	3752.554265
853.253837	3763.904423
853.567718	3759.190944
853.881555	3751.712392
854.195350	3766.787963
854.509103	3762.003907
854.822812	3759.495933
855.136479	3748.213831
855.450103	3762.752519
855.763685	3748.571753
856.077224	3753.645674
856.390720	3767.105555
856.704173	3787.822177
857.017584	3801.067809
857.330953	3815.619099
857.644278	3835.856811
857.957561	3840.456864
858.270802	3836.754137
858.584000	3841.785208
858.897155	3833.958817
859.210268	3820.473730
859.523339	3798.658137
859.836367	3796.797951
860.149352	3784.038791
860.462295	3777.714663
860.775195	3768.751492
861.088054	3763.387704
861.400869	3764.582458
861.713642	3761.956017
862.026373	3774.178294
862.339062	3777.591155
862.651708	3796.145122
862.964312	3834.399918
863.276873	3846.634798
863.589392	3902.861308
863.901869	3950.086837
864.214303	3997.582068
864.526696	4028.514588
864.839045	4075.538471
865.151353	4100.749281
865.463619	4108.878142
865.775842	4116.021457
866.088023	4134.701453
866.400162	4121.314668
866.712258	4131.107110
867.024313	4133.300012
867.336325	4128.188282
867.648296	4135.467708
867.960224	4135.024086
868.272110	4146.525479
868.583954	4147.463133
868.895755	4163.229342
869.207515	4156.191891
869.519233	4201.958007
869.830909	4214.928895
870.142542	4240.709356
870.454134	4255.903394
870.765684	4285.815080
871.077191	4320.510822
871.388657	4342.664172
871.700081	4382.474164
872.011463	4424.091410
872.322803	4458.731698
872.634101	4492.396524
872.945357	4530.358933
873.256571	4585.957818
873.567744	4616.131645
873.878874	4631.912977
874.189963	4666.381866
874.501010	4677.152292
874.812015	4676.123896
875.122979	4717.342891
875.433900	4718.285586
875.744780	4729.882761
876.055618	4756.658849
876.366415	4756.273201
876.677169	4777.821613
876.987882	4820.994055
877.298554	4874.422724
877.609183	4953.939364
877.919771	5060.723605
878.230317	5203.859607
878.540822	5416.981948
878.851285	5740.860959
879.161707	6199.777358
879.472087	6954.049920
879.782425	8191.799383
880.092722	10361.887564
880.402977	13666.457172
880.713191	17412.594047
881.023363	21119.987135
881.333494	23311.674140
881.643583	24522.733214
881.953631	24501.026005
882.263637	23648.584534
882.573602	22167.748112
882.883526	20612.456369
883.193408	18930.513197
883.503248	17238.626349
883.813048	15703.501741
884.122806	14281.528352
884.432522	12814.905464
884.742197	11563.169320
885.051831	10480.097581
885.361424	9490.312393
885.670975	8677.413733
885.980485	7991.521902
886.289954	7427.983917
886.599382	6960.311033
886.908768	6585.468477
887.218113	6220.592282
887.527417	5936.861020
887.836680	5674.025341
888.145901	5457.822856
888.455082	5290.484274
888.764221	5140.895596
889.073319	5015.524620
889.382376	4943.592396
889.691392	4882.191142
890.000366	4861.260271
890.309300	4843.996840
890.618193	4845.249567
890.927044	4833.067618
891.235855	4857.365980
891.544625	4884.230289
891.853353	4947.441317
892.162041	5065.101848
892.470687	5252.849540
892.779293	5504.345144
893.087858	5872.397266
893.396381	6444.409431
893.704864	7244.067501
894.013306	8404.767968
894.321707	9587.649512
894.630068	10406.753833
894.938387	10613.476429
895.246665	10363.291525
895.554903	9754.489019
895.863100	9056.314417
896.171256	8494.858428
896.479371	7986.833629
896.787446	7493.135789
897.095480	7066.087044
897.403473	6748.577530
897.711425	6427.942502
898.019336	6163.208828
898.327207	5893.539865
898.635038	5667.396224
898.942827	5415.066309
899.250576	5225.695365
899.558284	5032.031878
899.865952	4911.273558
900.173579	4762.183954
900.481165	4656.322244
900.788711	4560.820105
901.096216	4491.416019
901.403681	4427.269857
901.711105	4402.769849
902.018489	4388.193353
902.325832	4464.486175
902.633135	4581.546809
902.940397	4929.830046
903.247619	5722.375048
903.554800	7160.200345
903.861941	9073.383764
904.169041	10582.352345
904.476101	11202.313445
904.783121	10843.620226
905.090100	10093.632644
905.397039	9256.876723
905.703938	8507.647836
906.010796	7820.525964
906.317614	7267.602127
906.624391	6740.783907
906.931129	6314.803886
907.237826	5919.476601
907.544483	5544.611360
907.851099	5175.659392
908.157675	4823.353315
908.464211	4499.663347
908.770707	4270.956279
909.077163	4073.401022
909.383578	3929.854166
909.689954	3813.153975
909.996289	3746.615785
910.302584	3683.492977
910.608839	3649.969304
910.915054	3617.191722
911.221229	3605.604630
911.527363	3619.971918
911.833458	3632.932725
912.139513	3657.135305
912.445527	3688.488761
912.751502	3769.961369
913.057436	3869.705639
913.363331	4005.423583
913.669186	4203.762740
913.975000	4464.032472
914.280775	4881.543354
914.586510	5466.970029
914.892205	6256.923878
915.197859	7288.366640
915.503475	8516.527828
915.809050	9565.105472
916.114585	10212.916427
916.420081	10476.374688
916.725536	10436.945304
917.030952	9991.929886
917.336328	9580.947298
917.641665	9164.865583
917.946961	8689.363788
918.252218	8260.230526
918.557435	7758.217302
918.862612	7328.012795
919.167750	6954.178469
919.472848	6533.315220
919.777906	6164.050701
920.082925	5809.594571
920.387904	5443.952121
920.692843	5175.233415
920.997743	4933.739461
921.302603	4697.821022
921.607423	4538.369326
921.912204	4380.697157
922.216946	4258.880195
922.521647	4138.333604
922.826310	4033.306205
923.130932	3938.459416
923.435516	3845.127493
923.740059	3774.132924
924.044564	3697.638455
924.349028	3636.648055
924.653454	3579.267122
924.957840	3506.661903
925.262186	3460.399235
925.566493	3401.223650
925.870761	3342.985720
926.174989	3307.296872
926.479178	3270.564504
926.783328	3231.399780
927.087438	3203.300388
927.391509	3170.427024
927.695541	3138.415697
927.999533	3112.927623
928.303486	3091.895930
928.607400	3074.335070
928.911275	3064.832495
929.215110	3049.131822
929.518906	3039.533465
929.822663	3040.113197
930.126381	3033.899975
930.430060	3042.974052
930.733699	3046.238199
931.037299	3055.087945
931.340861	3053.870506
931.644383	3063.783935
931.947866	3059.652710
932.251309	3053.497461
932.554714	3055.776062
932.858080	3048.922614
933.161407	3039.984648
933.464694	3036.649925
933.767943	3027.432175
934.071153	3020.276257
934.374323	3010.198990
934.677455	3005.460306
934.980548	2997.636435
935.283602	2992.370950
935.586617	2989.593274
935.889593	3001.316477
936.192530	3004.752024
936.495428	3017.904394
936.798287	3040.468599
937.101108	3072.903382
937.403890	3126.437916
937.706632	3187.955116
938.009336	3267.431427
938.312002	3343.018488
938.614628	3409.324784
938.917216	3457.989563
939.219765	3489.907629
939.522275	3521.349305
939.824747	3524.147146
940.127179	3520.872916
940.429573	3513.472502
940.731929	3512.784385
941.034246	3496.433402
941.336524	3484.100219
941.638763	3468.339052
941.940964	3456.046198
942.243126	3412.283942
942.545250	3385.275960
942.847335	3349.821525
943.149381	3313.505053
943.451389	3282.075979
943.753359	3245.782192
944.055290	3223.175137
944.357182	3197.505582
944.659036	3186.029395
944.960851	3173.413908
945.262628	3161.516785
945.564367	3162.766991
945.866067	3159.603667
946.167729	3153.690393
946.469352	3153.844149
946.770937	3148.051863
947.072484	3133.034266
947.373992	3136.076602
947.675462	3129.003863
947.976893	3111.795884
948.278286	3101.229626
948.579641	3098.320880
948.880958	3091.532967
949.182236	3094.411465
949.483476	3084.437542
949.784678	3088.283943
950.085841	3090.295363
950.386967	3096.740478
950.688054	3116.141359
950.989103	3135.617857
951.290114	3159.679284
951.591087	3185.590815
951.892021	3210.710885
952.192917	3241.111563
952.493776	3268.424534
952.794596	3274.085750
953.095378	3279.099178
953.396122	3274.720936
953.696828	3267.265069
953.997496	3255.947679
954.298126	3228.211250
954.598718	3209.899259
954.899272	3186.611649
955.199788	3155.613594
955.500266	3126.611836
955.800706	3092.397524
956.101108	3052.786658
956.401472	3021.962523
956.701798	2990.374653
957.002087	2947.262705
957.302337	2920.436205
957.602550	2890.988305
957.902724	2865.366640
958.202861	2835.908658
958.502960	2817.510967
958.803022	2797.424489
959.103045	2777.572426
959.403031	2760.024169
959.702979	2745.656881
960.002889	2734.831003
960.302762	2723.967316
960.602596	2709.718495
960.902393	2702.618030
961.202153	2694.000177
961.501875	2686.415761
961.801559	2677.382013
962.101205	2673.149965
962.400814	2669.764830
962.700385	2663.244097
962.999918	2655.221101
963.299414	2650.598363
963.598873	2647.193064
963.898293	2638.860036
964.197677	2641.463792
964.497022	2640.019502
964.796331	2634.786784
965.095601	2635.512710
965.394835	2631.247894
965.694030	2630.267390
965.993189	2628.248407
966.292309	2626.637759
966.591393	2625.838736
966.890439	2625.067439
967.189447	2627.429220
967.488419	2626.743623
967.787353	2627.547687
968.086249	2629.226391
968.385108	2632.072123
968.683930	2634.058337
968.982714	2636.130252
969.281462	2640.453041
969.580172	2648.503764
969.878844	2653.229845
970.177480	2660.942811
970.476078	2667.145951
970.774639	2674.891683
971.073162	2684.863086
971.371649	2689.969775
971.670098	2694.156453
971.968510	2699.094263
972.266885	2702.988554
972.565223	2710.451983
972.863524	2711.311499
973.161788	2712.138249
973.460014	2717.706203
973.758204	2718.134701
974.056356	2721.333313
974.354471	2724.466390
974.652550	2723.133005
974.950591	2720.010010
975.248595	2722.034034
975.546563	2719.836091
975.844493	2715.319217
976.142386	2705.816642
976.440243	2704.271528
976.738062	2698.401104
977.035845	2691.356092
977.333590	2689.158149
977.631299	2682.302180
977.928971	2675.171467
978.226606	2668.209634
978.524204	2664.143943
978.821765	2660.834426
979.119290	2663.879283
979.416777	2661.822492
979.714228	2664.501865
980.011642	2670.873884
980.309020	2677.782785
980.606360	2692.984385
980.903664	2713.552292
981.200931	2750.284660
981.498162	2798.684778
981.795356	2873.505583
982.092513	2963.901033
982.389633	3064.933318
982.686717	3161.519305
982.983764	3235.228536
983.280775	3282.219652
983.577749	3290.141825
983.874686	3273.538785
984.171587	3241.802201
984.468451	3202.425748
984.765279	3162.323369
985.062070	3109.913013
985.358824	3066.130592
985.655543	3012.296110
985.952224	2959.114458
986.248869	2895.308574
986.545478	2839.019050
986.842050	2786.220525
987.138586	2742.856520
987.435086	2703.132227
987.731549	2671.665345
988.027975	2646.416726
988.324366	2629.821247
988.620719	2617.304062
988.917037	2604.431476
989.213318	2592.582244
989.509563	2589.033272
989.805772	2586.986563
990.101944	2583.069587
990.398080	2579.157651
990.694180	2578.532548
990.990244	2578.318299
991.286271	2577.584811
991.582262	2579.868454
991.878217	2578.971129
992.174136	2586.114444
992.470019	2586.734506
992.765865	2589.310535
993.061676	2591.553849
993.357450	2603.849223
993.653188	2610.049842
993.948890	2626.398304
994.244556	2646.121818
994.540186	2669.727021
994.835780	2700.009232
995.131337	2738.659759
995.426859	2777.174174
995.722345	2823.958603
996.017795	2876.890718
996.313208	2914.822880
996.608586	2941.457817
996.903928	2956.556072
997.199234	2955.441977
997.494504	2949.863941
997.789738	2934.717794
998.084936	2911.760379
998.380099	2880.422046
998.675225	2852.118488
998.970316	2820.228149
999.265371	2784.546862
999.560390	2752.192737
999.855373	2719.057232
1000.150320	2690.801565
1000.445232	2664.587565
1000.740108	2645.957981
1001.034948	2624.449898
1001.329752	2613.520677
1001.624521	2598.530806
1001.919254	2588.456060
1002.213951	2578.850141
1002.508613	2570.305385
1002.803239	2565.720456
1003.097829	2563.562842
1003.392384	2557.266441
1003.686903	2550.775955
1003.981386	2547.176571
1004.275834	2544.250182
1004.570246	2543.141128
1004.864623	2539.566950
1005.158964	2537.535365
1005.453270	2537.283307
1005.747540	2534.417411
1006.041775	2532.983203
1006.335974	2531.097811
1006.630138	2529.968593
1006.924266	2530.220650
1007.218359	2529.134282
1007.512416	2526.439785
1007.806438	2523.299146
1008.100425	2525.804600
1008.394376	2523.515916
1008.688292	2526.749816
1008.982172	2524.503982
1009.276017	2524.201513
1009.569827	2524.017511
1009.863602	2524.511544
1010.157341	2522.701769
1010.451045	2522.656399
1010.744714	2519.649351
1011.038347	2522.898374
1011.331945	2522.343848
1011.625508	2515.848321
1011.919036	2516.952333
1012.212528	2519.525843
1012.505986	2514.925790
1012.799408	2515.717251
1013.092795	2516.032323
1013.386147	2514.164575
1013.679464	2513.693227
1013.972745	2513.610048
1014.265992	2514.083917
1014.559204	2512.337157
1014.852380	2513.373114
1015.145521	2512.720285
1015.438628	2513.509225
1015.731699	2513.015192
1016.024736	2515.364370
1016.317737	2515.941582
1016.610703	2515.694566
1016.903635	2517.703465
1017.196531	2519.868641
1017.489393	2519.901408
1017.782219	2521.711183
1018.075011	2522.875689
1018.367768	2522.616070
1018.660490	2523.934332
1018.953177	2523.934332
1019.245829	2523.934332
