Dividing Wavelength (nm)	Counts (n)	Blue Motor Position (mm): 25.500000	Red Motor Position (mm): 0.000000	
326.493990	2099.078488
326.888308	2099.078488
327.282561	2099.078488
327.676750	2077.787175
328.070874	2076.741136
328.464933	2083.524008
328.858929	2096.121852
329.252859	2109.664911
329.646726	2123.344082
330.040528	2137.618109
330.434265	2159.713487
330.827938	2176.248471
331.221547	2196.667665
331.615091	2214.662064
332.008571	2238.864643
332.401986	2261.491862
332.795338	2279.269491
333.188625	2298.193983
333.581847	2319.215594
333.975006	2336.272338
334.368100	2353.349247
334.761129	2368.918851
335.154095	2386.635986
335.546996	2428.495207
335.939833	2506.126456
336.332606	2516.702796
336.725315	2529.630835
337.117960	2536.751465
337.510540	2542.863864
337.903056	2555.204609
338.295508	2560.276010
338.687896	2566.433779
339.080220	2572.208421
339.472480	2578.003227
339.864676	2582.948599
340.256807	2584.584453
340.648875	2589.176945
341.040879	2590.245669
341.432818	2591.168200
341.824694	2587.099989
342.216506	2590.041503
342.608253	2588.251893
342.999937	2587.654516
343.391557	2587.435226
343.783113	2587.001687
344.174605	2587.057139
344.566033	2581.411047
344.957397	2581.232086
345.348697	2578.156982
345.739934	2577.804102
346.131106	2576.203535
346.522215	2574.633216
346.913260	2574.761765
347.304241	2570.754048
347.695159	2572.178174
348.086012	2572.377299
348.476802	2567.741958
348.867528	2567.378995
349.258191	2563.983778
349.648789	2563.882955
350.039324	2561.879097
350.429796	2562.579817
350.820203	2561.685012
351.210548	2559.229970
351.600828	2559.267779
351.991045	2559.419013
352.381198	2557.679815
352.771288	2558.675443
353.161314	2554.529094
353.551276	2561.090156
353.941175	2553.770401
354.331010	2556.880793
354.720782	2559.739127
355.110490	2561.722821
355.500135	2558.746019
355.889717	2559.096380
356.279235	2559.081256
356.668689	2559.232491
357.058080	2560.636452
357.447408	2556.974054
357.836672	2556.777449
358.225873	2560.737275
358.615010	2557.478169
359.004084	2563.000753
359.393095	2564.450085
359.782043	2562.990671
360.170927	2563.088973
360.559748	2565.939746
360.948505	2569.251784
361.337199	2569.150961
361.725830	2568.024263
362.114398	2567.618450
362.502903	2567.933522
362.891344	2567.820096
363.279722	2565.629715
363.668037	2570.139027
364.056289	2570.312947
364.444478	2572.936867
364.832603	2571.366548
365.220665	2573.138514
365.608665	2569.599624
365.996601	2572.450396
366.384474	2572.843606
366.772284	2571.245560
367.160031	2572.042063
367.547715	2573.415777
367.935336	2571.767320
368.322893	2571.797567
368.710388	2573.703123
369.097820	2577.489029
369.485189	2573.423339
369.872495	2577.796540
370.259738	2576.879050
370.646918	2574.592887
371.034035	2573.682958
371.421090	2576.168247
371.808081	2574.615572
372.195010	2579.172775
372.581875	2577.796540
372.968678	2576.329564
373.355418	2578.915676
373.742096	2577.357959
374.128710	2582.567992
374.515262	2579.442477
374.901751	2581.995821
375.288177	2579.273598
375.674540	2580.859041
376.060841	2581.350553
376.447079	2583.074628
376.833254	2585.040678
377.219367	2579.800398
377.605417	2580.178485
377.991404	2578.346026
378.377329	2581.579926
378.763191	2578.585480
379.148991	2585.224680
379.534727	2585.138980
379.920402	2585.164186
380.306013	2583.548496
380.691563	2587.215936
381.077049	2584.070256
381.462474	2588.204002
381.847835	2587.689804
382.233134	2587.120154
382.618371	2586.210226
383.003545	2587.561255
383.388657	2587.155442
383.773706	2590.812799
384.158693	2589.892788
384.543618	2589.091245
384.928480	2592.549477
385.313280	2591.765577
385.698017	2591.286667
386.082692	2588.846749
386.467305	2590.840525
386.851856	2592.584765
387.236344	2590.951431
387.620770	2591.790783
388.005133	2592.443612
388.389435	2593.673654
388.773674	2591.417737
389.157851	2591.954620
389.541965	2593.351020
389.926018	2595.717842
390.310008	2593.552666
390.693936	2594.455033
391.077802	2596.887389
391.461606	2596.776484
391.845348	2596.652976
392.229027	2598.936618
392.612645	2596.721031
392.996200	2598.301433
393.379694	2597.603233
393.763125	2598.863522
394.146494	2600.910230
394.529801	2599.085332
394.913047	2596.595002
395.296230	2600.199427
395.679351	2598.949221
396.062410	2600.758996
396.445408	2601.653800
396.828343	2601.865529
397.211217	2598.523244
397.594028	2600.635487
397.976778	2598.815631
398.359466	2598.669437
398.742092	2598.896289
399.124656	2601.986517
399.507158	2601.537854
399.889598	2603.697988
400.271977	2603.095570
400.654294	2604.882659
401.036549	2603.695468
401.418742	2607.037753
401.800874	2607.620006
402.182944	2606.543720
402.564952	2605.018771
402.946898	2606.800818
403.328783	2607.173864
403.710606	2608.797115
404.092367	2607.889708
404.474067	2607.073041
404.855705	2607.609924
405.237282	2606.823504
405.618797	2610.942126
406.000250	2611.272322
406.381642	2610.536313
406.762972	2611.030347
407.144240	2613.440018
407.525447	2615.234669
407.906593	2612.028495
408.287677	2615.600152
408.668700	2613.364401
409.049661	2614.153341
409.430560	2614.027312
409.811399	2614.170985
410.192176	2618.027468
410.572891	2617.674587
410.953545	2617.092334
411.334138	2615.489247
411.714669	2616.656274
412.095139	2617.117540
412.475547	2616.414299
412.855894	2619.000411
413.236180	2620.127109
413.616405	2618.337499
413.996568	2619.774228
414.376670	2620.495113
414.756711	2616.200050
415.136691	2620.842952
415.516609	2620.674074
415.896466	2619.509567
416.276262	2621.238683
416.655997	2618.947479
417.035670	2618.521501
417.415283	2625.591719
417.794834	2621.470576
418.174324	2621.662140
418.553753	2621.901595
418.933121	2626.357975
419.312428	2627.638428
419.691674	2626.312604
420.070859	2626.375619
420.449983	2623.870165
420.829045	2625.894189
421.208047	2624.792697
421.586988	2628.104735
421.965867	2628.772687
422.344686	2628.278654
422.723444	2629.904427
423.102141	2628.331587
423.480777	2633.206382
423.859352	2631.227729
424.237866	2631.681433
424.616319	2633.466002
424.994712	2634.035652
425.373044	2634.703605
425.751314	2633.753348
426.129524	2633.667648
426.507673	2638.534882
426.885762	2633.740745
427.263789	2636.067237
427.641756	2636.344501
428.019662	2637.153606
428.397508	2637.398102
428.775292	2638.169398
429.153016	2638.373565
429.530679	2639.280973
429.908282	2637.934985
430.285824	2638.998668
430.663305	2639.752321
431.040726	2640.173257
431.418086	2640.805922
431.795385	2646.053763
432.172624	2643.699544
432.549802	2642.731642
432.926920	2642.887918
433.303977	2645.083341
433.680974	2648.604587
434.057910	2646.661222
434.434786	2649.454021
434.811601	2652.503919
435.188355	2652.929897
435.565050	2652.992911
435.941683	2654.845535
436.318257	2656.259579
436.694770	2652.514002
437.071222	2657.590443
437.447614	2658.190341
437.823946	2658.364261
438.200218	2660.214364
438.576429	2661.966165
438.952580	2661.731751
439.328670	2665.036228
439.704700	2666.535971
440.080670	2668.736435
440.456580	2669.772392
440.832429	2674.069975
441.208218	2672.078720
441.583947	2675.297496
441.959616	2675.461334
442.335224	2678.160872
442.710773	2682.660102
443.086261	2685.571368
443.461689	2684.981553
443.837057	2686.264527
444.212365	2692.613860
444.587612	2697.534026
444.962800	2694.542101
445.337927	2700.856146
445.712995	2700.253728
446.088002	2710.146993
446.462949	2712.803681
446.837837	2721.431616
447.212664	2723.700135
447.587431	2740.676221
447.962139	2759.565424
448.336786	2778.091664
448.711374	2775.888680
449.085901	2767.051537
449.460369	2770.915582
449.834776	2784.466203
450.209124	2810.715492
450.583412	2816.711944
450.957640	2831.729541
451.331808	2835.893534
451.705917	2837.675582
452.079965	2853.338447
452.453954	2868.194728
452.827883	2887.668705
453.201752	2906.245357
453.575562	2924.519540
453.949311	2961.529171
454.323001	2987.183603
454.696632	3012.371728
455.070202	3063.292423
455.443713	3096.546394
455.817164	3139.504587
456.190556	3186.097451
456.563888	3213.586863
456.937160	3261.681991
457.310373	3268.215327
457.683526	3321.699448
458.056619	3366.974051
458.429653	3416.523552
458.802628	3488.944768
459.175542	3553.698389
459.548398	3665.606964
459.921194	3799.353816
460.293930	3918.531734
460.666607	4094.563786
461.039224	4265.945372
461.411782	4374.234398
461.784280	4397.680805
462.156719	4456.886636
462.529099	4522.371224
462.901419	4547.151016
463.273680	4582.406326
463.645882	4691.358263
464.018024	4806.241118
464.390106	4991.586701
464.762130	5356.972052
465.134094	5888.758330
465.505999	6552.096039
465.877845	7164.986920
466.249631	7437.186543
466.621358	7419.865138
466.993026	7359.439348
467.364634	7319.034500
467.736184	7292.921323
468.107674	7333.805080
468.479105	7420.739778
468.850477	7519.848863
469.221790	7518.076898
469.593043	7459.680171
469.964238	7511.019282
470.335373	7686.159049
470.706449	8166.550764
471.077467	8836.401643
471.448425	9817.626951
471.819324	10503.543987
472.190164	10375.773422
472.560945	9959.762283
472.931667	9608.293037
473.302330	9621.682342
473.672934	9679.595117
474.043479	9999.889868
474.413965	10063.637779
474.784393	10188.797026
475.154761	10615.515576
475.525070	10847.506955
475.895321	10961.900818
476.265513	11340.579692
476.635645	11826.516676
477.005719	12037.766228
477.375734	12414.489134
477.745691	12888.917164
478.115588	13534.436914
478.485427	14432.717597
478.855207	15774.284582
479.224928	16943.184486
479.594591	17827.584352
479.964194	17789.662273
480.333739	18198.938430
480.703226	18605.361294
481.072653	19221.987671
481.442022	19771.758265
481.811333	20223.430527
482.180584	20058.846936
482.549777	20209.907631
482.918912	20370.133145
483.287988	20603.347004
483.657005	20611.034763
484.025964	20675.831234
484.394864	21046.706402
484.763706	21212.925847
485.132489	21172.042090
485.501213	21451.387548
485.869879	21870.020087
486.238487	22026.341226
486.607036	22447.433848
486.975527	22530.330582
487.343959	22982.806907
487.712333	23377.395663
488.080648	23669.457432
488.448905	24263.131435
488.817104	24509.366594
489.185244	25426.791059
489.553326	26771.415504
489.921350	28745.929602
490.289315	30911.783214
490.657222	31672.311848
491.025070	32245.387696
491.392861	32015.954702
491.760593	31558.467470
492.128267	30851.344820
492.495883	30232.475130
492.863440	29713.773167
493.230939	29215.397136
493.598380	28861.954278
493.965763	28958.318454
494.333088	28754.953267
494.700354	28765.091027
495.067563	28881.123265
495.434713	29089.673279
495.801805	29463.971391
496.168839	29490.127417
496.535815	29560.648119
496.902733	29874.830470
497.269593	29872.035151
497.636395	30093.367010
498.003139	30686.035303
498.369825	30566.532231
498.736453	31070.705589
499.103023	30996.940905
499.469535	31188.774453
499.835989	31526.796421
500.202385	31530.100898
500.568723	31808.576757
500.935003	32221.144787
501.301226	32320.226146
501.667390	33056.834504
502.033497	33522.248951
502.399546	33307.210972
502.765537	33002.637059
503.131470	33554.489650
503.497345	34095.357567
503.863163	33231.704570
504.228923	33984.880681
504.594625	34562.302004
504.960269	34158.399717
505.325856	34986.172302
505.691385	34651.626209
506.056856	34983.981920
506.422270	35580.234474
506.787625	35406.226446
507.152924	35803.350902
507.518164	36068.596253
507.883347	35567.616466
508.248472	35986.954766
508.613540	36625.472353
508.978550	37076.012875
509.343503	37045.367701
509.708398	37399.062617
510.073236	38050.853562
510.438016	38236.489011
510.802738	37896.259018
511.167403	38637.951380
511.532010	39010.764872
511.896561	39459.362029
512.261053	40415.406774
512.625488	40132.966047
512.989866	40160.957054
513.354186	40171.732520
513.718449	40292.445470
514.082655	41067.575806
514.446803	40887.798177
514.810894	41523.389375
515.174927	41564.878071
515.538904	41586.302975
515.902822	42351.507279
516.266684	41921.852257
516.630488	42444.609828
516.994235	42392.275090
517.357925	43073.632402
517.721558	43345.297663
518.085133	43744.120987
518.448651	43962.271879
518.812112	43826.831199
519.175516	43999.987272
519.538863	44411.582360
519.902152	44457.610615
520.265385	45001.714952
520.628560	45109.091529
520.991678	44956.669722
521.354739	45256.499909
521.717743	45641.933929
522.080690	45595.726713
522.443580	46191.951540
522.806413	46299.333158
523.169189	46316.919223
523.531908	46536.012811
523.894569	46429.770493
524.257174	46652.440779
524.619722	46994.382245
524.982213	47017.717746
525.344647	46968.397617
525.707025	47062.004282
526.069345	47495.740118
526.431608	47439.919422
526.793815	47798.811767
527.155964	47364.602062
527.518057	47575.281964
527.880093	47366.797485
528.242072	47921.460519
528.603995	47649.525557
528.965860	47687.853450
529.327669	47789.629305
529.689421	47724.459789
530.051117	47692.662711
530.412755	47869.098054
530.774337	47955.566446
531.135862	47788.651321
531.497331	47994.363166
531.858743	47886.366527
532.220098	48253.569214
532.581396	47977.561000
532.942638	47639.818816
533.303824	47991.887959
533.664953	47952.861867
534.026025	47673.637396
534.387040	48176.121968
534.747999	48148.577103
535.108902	48304.963777
535.469748	47825.136672
535.830537	47941.647820
536.191270	48159.627312
536.551947	47811.621339
536.912567	48125.486098
537.273131	48263.129762
537.633638	47743.293539
537.994089	48092.900079
538.354483	47677.871965
538.714821	48273.580074
539.075103	48628.230288
539.435328	48399.243437
539.795497	48274.230383
540.155609	48266.449362
540.515665	48769.110374
540.875665	48199.475113
541.235609	48534.449703
541.595496	48513.239049
541.955328	49202.248833
542.315102	48544.597546
542.674821	48323.893310
543.034483	48365.850834
543.394090	48352.116210
543.753640	48306.690373
544.113134	49325.557977
544.472571	48319.883072
544.831953	49579.639692
545.191278	48770.458883
545.550548	48490.692488
545.909761	48950.511254
546.268918	49152.338889
546.628019	49467.070727
546.987064	49026.088232
547.346053	48276.113254
547.704986	49180.171100
548.063863	48726.726873
548.422684	48903.671373
548.781449	48729.466740
549.140158	49142.400254
549.498811	48979.530656
549.857408	48409.527391
550.215949	49255.107852
550.574434	49188.297440
550.932864	48945.051684
551.291237	49658.722793
551.649555	49262.384757
552.007817	49509.602942
552.366022	49149.621707
552.724173	49291.794849
553.082267	49692.017094
553.440305	49990.773515
553.798288	49274.039905
554.156215	49601.649370
554.514086	49787.068049
554.871902	49532.109173
555.229661	49545.879085
555.587365	49376.723168
555.945014	49479.235031
556.302606	49399.995654
556.660143	49619.064036
557.017625	49672.767448
557.375050	49482.927676
557.732421	49811.936061
558.089735	49787.859511
558.446994	49704.584690
558.804197	50163.793476
559.161345	50093.633218
559.518437	49313.123971
559.875474	49635.097426
560.232455	49814.368418
560.589381	49987.032978
560.946251	49682.940496
561.303065	50332.992243
561.659825	50117.699686
562.016528	49789.550818
562.373177	49505.610348
562.729770	49985.860910
563.086307	49489.808851
563.442789	49947.737184
563.799216	49969.497325
564.155587	49769.872674
564.511904	49774.823087
564.868164	49869.995030
565.224370	50106.256267
565.580520	49829.811993
565.936615	50038.152799
566.292654	49745.866699
566.648638	49991.312918
567.004567	49945.204004
567.360441	50000.780205
567.716260	49847.967708
568.072023	50130.514299
568.427732	50078.744170
568.783385	49617.917173
569.138982	50024.876920
569.494525	49960.309822
569.850013	49704.551923
570.205445	49687.716989
570.560823	49628.856477
570.916145	49513.643427
571.271412	49541.185771
571.626625	49273.069483
571.981782	49301.529317
572.336884	48994.886011
572.691931	49299.636363
573.046923	48903.767155
573.401860	48744.247403
573.756743	48707.104182
574.111570	48801.683789
574.466342	48649.486314
574.821059	48760.681565
575.175722	48261.362838
575.530330	48280.204150
575.884882	47964.474164
576.239380	47926.302547
576.593823	47889.124038
576.948211	47813.957913
577.302544	47328.356166
577.656823	47336.079214
578.011047	47549.052841
578.365216	47270.750901
578.719330	47035.704583
579.073389	46877.684574
579.427394	46949.604196
579.781344	46913.020542
580.135239	46544.615540
580.489080	46609.984182
580.842866	46078.061792
581.196597	46520.652415
581.550273	46465.035885
581.903895	46327.054463
582.257463	46735.541680
582.610975	46096.139370
582.964434	46369.929477
583.317837	45986.249778
583.671186	45826.742629
584.024481	46052.745118
584.377721	45537.607250
584.730906	45825.658781
585.084037	45868.662344
585.437113	45583.978304
585.790135	45586.506442
586.143103	45173.809862
586.496016	45296.771166
586.848874	45308.622919
587.201679	45316.897973
587.554428	44770.837668
587.907124	44964.980064
588.259765	44712.012444
588.612352	44948.371983
588.964884	44319.649357
589.317362	44601.427172
589.669786	44537.616247
590.022155	44294.602385
590.374470	44705.980703
590.726731	44216.081372
591.078937	43722.643152
591.431090	43839.716388
591.783188	43465.332577
592.135232	43121.409938
592.487222	43397.604675
592.839157	43459.595744
593.191038	43103.874284
593.542866	42864.164898
593.894639	42249.416352
594.246358	42530.851368
594.598022	42516.027855
594.949633	42096.906324
595.301190	42054.122052
595.652692	41885.245918
596.004141	42204.361039
596.355535	41206.366333
596.706876	41135.540642
597.058162	40973.512916
597.409395	41429.586104
597.760573	41520.730166
598.111698	41091.790988
598.462768	41098.848603
598.813785	41135.306228
599.164748	40564.060318
599.515657	40948.526437
599.866511	40430.431933
600.217312	41056.233209
600.568060	40014.909786
600.918753	40763.226224
601.269392	40710.034490
601.619978	40355.555675
601.970510	40575.128172
602.320988	40748.196024
602.671412	41040.406507
603.021783	40799.991359
603.372100	40436.055340
603.722363	40536.056709
604.072572	40611.041352
604.422728	40633.645885
604.772830	40433.542325
605.122878	40540.951669
605.472872	40470.332665
605.822813	40724.011089
606.172701	40560.229041
606.522534	40812.407721
606.872314	41070.419016
607.222041	40812.687505
607.571714	41203.376928
607.921333	40642.135188
608.270899	40927.398961
608.620411	41278.301077
608.969870	41047.028063
609.319276	41059.784702
609.668627	41116.963990
610.017926	41580.414907
610.367171	41744.857345
610.716362	41819.594972
611.065500	41754.775816
611.414585	41947.156329
611.763616	42241.625248
612.112594	42179.351875
612.461518	42391.382806
612.810389	42700.687841
613.159207	42564.427973
613.507971	42633.721153
613.856682	43107.869399
614.205340	42985.986902
614.553945	43708.124628
614.902496	43131.071309
615.250994	43618.490392
615.599439	43680.854507
615.947830	43867.692271
616.296169	43959.574862
616.644454	44059.893823
616.992686	44216.499788
617.340864	44739.544705
617.688990	44432.167911
618.037063	45052.282767
618.385082	45008.636457
618.733048	45290.268078
619.080961	45329.190827
619.428821	45344.246233
619.776628	45448.109125
620.124382	45281.282221
620.472083	45414.918168
620.819731	45541.514144
621.167326	45212.944340
621.514868	45201.725252
621.862357	44750.799081
622.209793	44801.755064
622.557176	44461.361233
622.904506	44198.296182
623.251783	43842.408364
623.599007	43639.627951
623.946179	43407.898711
624.293297	43362.956825
624.640363	42764.576904
624.987376	42748.367074
625.334336	42494.219823
625.681243	42126.563432
626.028097	42098.741304
626.374899	41954.755868
626.721647	41929.713936
627.068343	41819.496669
627.414987	41569.301683
627.761577	41348.438651
628.108115	41675.712879
628.454600	41109.795469
628.801032	41313.143012
629.147412	41257.345001
629.493739	41248.399473
629.840014	40885.302806
630.186236	41228.315517
630.532405	40814.691364
630.878521	41041.707125
631.224585	40899.481051
631.570597	40606.186720
631.916556	40766.427357
632.262462	40718.274256
632.608316	40734.295042
632.954117	40634.462552
633.299866	40629.945678
633.645562	40565.698693
633.991206	40060.955685
634.336797	39608.681006
634.682336	39610.316860
635.027823	39382.837314
635.373257	39192.989980
635.718639	38941.562432
636.063968	38804.831217
636.409245	38233.852488
636.754470	38264.099411
637.099642	38032.856643
637.444762	37540.421612
637.789829	37686.327728
638.134845	37341.109512
638.479808	37267.705271
638.824719	37181.337703
639.169577	36799.533313
639.514383	36849.173555
639.859137	36538.598149
640.203839	36783.341127
640.548489	36419.158091
640.893086	36480.317369
641.237632	36222.883287
641.582125	36334.983425
641.926566	36268.598990
642.270955	36229.681283
642.615292	36246.488489
642.959576	36226.459985
643.303809	36220.423203
643.647990	36363.201283
643.992118	36331.689031
644.336195	36313.424930
644.680219	36407.432367
645.024192	36703.678293
645.368112	37224.152222
645.711981	37202.399643
646.055797	38081.133253
646.399562	38010.080710
646.743274	38976.603493
647.086935	39396.748378
647.430544	39276.927713
647.774101	39394.787369
648.117606	39659.720168
648.461059	39968.198454
648.804460	39574.512065
649.147810	38956.935431
649.491108	38716.177485
649.834354	38356.700366
650.177548	37494.421083
650.520690	37049.204019
650.863781	37084.565193
651.206820	36916.974554
651.549807	36472.319579
651.892742	35987.952914
652.235626	35789.399508
652.578458	35660.308161
652.921238	35032.694590
653.263967	35367.432246
653.606644	35037.718100
653.949269	34972.896423
654.291843	34558.425357
654.634365	34967.535156
654.976836	34562.181016
655.319255	34571.345834
655.661622	34565.921552
656.003938	34341.703632
656.346203	34214.011205
656.688416	34428.300573
657.030577	34235.342848
657.372687	34051.885177
657.714746	34323.830221
658.056753	34444.797749
658.398708	33894.671753
658.740612	33946.835092
659.082465	34227.710541
659.424266	34050.065320
659.766016	34179.955690
660.107715	34044.946029
660.449362	34173.457643
660.790958	34144.811286
661.132503	34141.000174
661.473996	34179.809497
661.815438	34308.966379
662.156829	34508.089435
662.498168	34271.641676
662.839456	34291.839059
663.180693	34433.883651
663.521879	34592.329637
663.863013	34555.715736
664.204097	34543.163263
664.545129	35011.088204
664.886110	34952.726766
665.227040	35032.160227
665.567918	35152.399308
665.908746	35208.482145
666.249522	35363.646340
666.590248	35368.110282
666.930922	35472.497454
667.271545	35444.829081
667.612118	35517.220051
667.952639	35297.382893
668.293109	35365.037698
668.633528	35258.898725
668.973896	35183.578845
669.314213	35241.390797
669.654480	34972.931711
669.994695	34970.995908
670.334859	34863.271491
670.674973	34764.719454
671.015035	34915.228143
671.355047	34866.976739
671.695008	34805.141946
672.034918	34710.280034
672.374777	34799.614321
672.714585	34619.292248
673.054342	34839.946073
673.394049	34590.293011
673.733705	34881.144902
674.073310	34540.443561
674.412864	34606.891010
674.752368	34219.301896
675.091820	34521.521590
675.431223	34106.874083
675.770574	33807.369051
676.109875	33673.055068
676.449125	33392.300608
676.788324	33321.353929
677.127473	32769.070319
677.466571	32688.910932
677.805619	32338.263394
678.144616	32338.454958
678.483562	32244.240834
678.822458	31924.114962
679.161303	31853.269106
679.500098	31755.175814
679.838842	31638.591569
680.177535	31789.226287
680.516179	32078.417119
680.854771	32313.052584
681.193314	33166.421627
681.531805	34293.424502
681.870247	35036.707348
682.208638	35743.882930
682.546978	35961.507021
682.885268	36082.477070
683.223508	35554.653138
683.561697	35230.159107
683.899836	35035.605856
684.237925	34533.000297
684.575963	34352.665621
684.913951	33889.290321
685.251889	34047.716143
685.589776	34027.319634
685.927614	34010.653580
686.265401	34153.240096
686.603137	34230.316817
686.940824	34732.327520
687.278460	35089.649546
687.616046	35207.937700
687.953582	35809.269216
688.291068	35678.902457
688.628504	35967.294266
688.965889	35895.072175
689.303224	35521.941091
689.640510	35205.321342
689.977745	34479.652287
690.314930	33676.341901
690.652065	33174.114428
690.989150	32444.626699
691.326185	31530.844468
691.663170	30817.937094
692.000105	30065.819625
692.336990	29378.037362
692.673825	28912.169211
693.010610	28397.434636
693.347345	27811.206417
693.684030	27131.522768
694.020665	26845.374272
694.357251	26163.802711
694.693786	26102.973628
695.030272	25864.451433
695.366707	25306.844365
695.703093	25015.947103
696.039429	25017.151939
696.375716	24733.818928
696.711952	24699.486150
697.048139	24526.521641
697.384276	24330.272042
697.720363	24465.538803
698.056400	24260.205045
698.392388	24038.517784
698.728326	23997.961701
699.064214	23800.323265
699.400053	23739.557196
699.735842	23374.996074
700.071581	23094.730605
700.407270	22802.520122
700.742910	22602.356068
701.078501	22336.868742
701.414042	22053.540772
701.749533	21749.453331
702.084974	21395.415617
702.420366	21592.199578
702.755709	21155.028196
703.091002	20860.599605
703.426246	20859.616580
703.761440	20757.301322
704.096584	20483.420474
704.431679	20427.647669
704.766725	20329.967751
705.101721	20271.283679
705.436668	20358.036896
705.771565	20016.226501
706.106413	20378.556913
706.441212	20361.696774
706.775961	20495.471353
707.110661	20558.112730
707.445311	20915.835528
707.779913	20730.815099
708.114465	20981.123511
708.448967	21257.134246
708.783421	21948.684772
709.117825	22213.002550
709.452180	22429.043719
709.786485	22827.998114
710.120742	23624.669300
710.454949	23629.370176
710.789107	24088.803294
711.123216	24795.938547
711.457275	24904.479630
711.791286	25461.106194
712.125247	25531.745362
712.459159	25235.663273
712.793023	25909.375676
713.126837	24799.099350
713.460602	25095.173877
713.794318	24718.582041
714.127985	24354.406566
714.461602	23443.361682
714.795171	23416.678854
715.128691	22384.676524
715.462162	21847.178619
715.795584	21419.754308
716.128957	21158.073053
716.462281	20769.541243
716.795556	20515.704024
717.128782	20005.022536
717.461960	19449.696590
717.795088	19367.520741
718.128167	18954.650241
718.461198	18495.678389
718.794180	18348.524588
719.127113	17978.125809
719.459997	17773.802803
719.792833	17405.017193
720.125619	17381.898462
720.458357	17032.939710
720.791046	16866.931993
721.123686	16694.585026
721.456278	16457.625589
721.788821	16421.631751
722.121315	16147.214020
722.453761	16228.190075
722.786158	16143.370141
723.118506	16144.469112
723.450805	16010.376940
723.783056	16169.576579
724.115259	16062.441977
724.447412	15986.988507
724.779518	16228.623614
725.111574	16254.676297
725.443582	16453.280114
725.775542	16425.556289
726.107453	16890.897639
726.439315	16781.741534
726.771129	17174.744847
727.102895	17543.462401
727.434612	17750.426972
727.766281	17872.211167
728.097901	18134.439387
728.429473	18181.574176
728.760996	18168.416764
729.092471	18265.401002
729.423897	18135.119943
729.755276	18011.783073
730.086606	18131.155075
730.417887	18662.575870
730.749120	19163.114556
731.080305	19338.372790
731.411442	19667.504683
731.742530	19732.354086
732.073570	19842.152938
732.404562	20150.469907
732.735506	19951.707293
733.066401	19655.105965
733.397249	19131.413260
733.728048	18512.437705
734.058798	17669.433274
734.389501	16978.588510
734.720156	16511.636511
735.050762	15968.578213
735.381320	15610.510097
735.711831	15358.936355
736.042293	15007.915772
736.372707	15018.744170
736.703073	14797.752588
737.033391	14981.487523
737.363661	14938.456233
737.693883	15030.850501
738.024056	15201.420462
738.354182	15366.629156
738.684260	15633.283509
739.014290	15855.192581
739.344272	16025.175247
739.674207	16317.249619
740.004093	16436.926611
740.333931	16420.505053
740.663722	16487.035681
740.993464	16470.341900
741.323159	16311.467416
741.652806	16037.977258
741.982405	15825.429609
742.311956	15489.963505
742.641460	15380.409150
742.970915	15071.295678
743.300323	14740.843003
743.629683	14528.197051
743.958996	14247.331685
744.288260	13971.363800
744.617477	13675.609386
744.946647	13606.885857
745.275768	13327.739524
745.604842	13147.104899
745.933869	12965.761993
746.262847	12919.317842
746.591778	12842.430164
746.920662	12732.540572
747.249498	12736.419740
747.578286	12838.041839
747.907027	12988.885765
748.235720	13206.000700
748.564365	13232.164288
748.892963	13116.868059
749.221514	13186.965303
749.550017	13037.913507
749.878473	12992.863236
750.206881	12770.087086
750.535242	12670.683093
750.863555	12581.394177
751.191821	12487.641318
751.520039	12495.747493
751.848210	12407.880182
752.176334	12439.689863
752.504411	12337.755211
752.832440	12172.959892
753.160421	12232.989952
753.488356	12114.525357
753.816243	12025.085206
754.144082	11884.457178
754.471875	11809.961527
754.799620	11767.225145
755.127318	11731.407747
755.454969	11694.577077
755.782572	11640.125054
756.110129	11658.946202
756.437638	11571.121740
756.765100	11566.700648
757.092515	11564.933724
757.419882	11577.256824
757.747203	11576.326731
758.074477	11640.140177
758.401703	11597.517222
758.728882	11752.530182
759.056014	11799.675053
759.383099	11906.444170
759.710138	12011.242197
760.037129	12091.361255
760.364073	12112.841612
760.690970	12091.714136
761.017820	12100.435332
761.344623	12294.257615
761.671379	12646.251141
761.998088	13304.678766
762.324751	14914.167954
762.651366	17834.077359
762.977935	21422.229514
763.304456	23559.010792
763.630931	23975.715089
763.957359	22800.816212
764.283740	20919.412227
764.610074	19049.597853
764.936362	16933.364319
765.262602	15408.238840
765.588796	13947.340182
765.914943	12938.307869
766.241044	12060.887480
766.567097	11423.194122
766.893104	10866.635613
767.219064	10516.063693
767.544978	10125.170103
767.870845	9807.191762
768.196665	9625.639648
768.522438	9423.524667
768.848165	9250.789530
769.173846	9081.686545
769.499479	8965.538360
769.825066	8804.864184
770.150607	8615.601625
770.476101	8554.071822
770.801548	8438.674769
771.126949	8300.882390
771.452303	8212.105150
771.777611	8050.720172
772.102872	8028.599589
772.428087	7906.709530
772.753256	7786.873741
773.078378	7695.651542
773.403453	7550.473873
773.728482	7440.758200
774.053465	7372.092644
774.378401	7290.226826
774.703291	7192.141096
775.028135	7091.249963
775.352932	7046.781945
775.677683	6966.312527
776.002388	6877.651233
776.327046	6880.517129
776.651658	6792.317102
776.976224	6712.694597
777.300743	6696.114242
777.625216	6629.276104
777.949643	6590.824703
778.274024	6590.557522
778.598359	6520.586307
778.922647	6525.665269
779.246889	6482.102138
779.571086	6485.315874
779.895236	6492.035732
780.219339	6487.551625
780.543397	6484.816799
780.867409	6537.605242
781.191374	6533.025354
781.515294	6495.282235
781.839167	6548.289967
782.162995	6526.267687
782.486776	6475.102496
782.810511	6433.192863
783.134201	6357.424321
783.457844	6349.320666
783.781441	6298.231093
784.104993	6256.475215
784.428498	6229.850361
784.751958	6214.280758
785.075372	6187.592889
785.398739	6147.808103
785.722061	6170.803326
786.045337	6173.001269
786.368568	6285.471932
786.691752	6307.353061
787.014891	6560.129117
787.337983	6839.419123
787.661030	7273.638909
787.984031	7691.699277
788.306987	7940.303779
788.629897	8023.903754
788.952760	7935.141638
789.275579	7769.816997
789.598351	7470.309444
789.921078	7207.672891
790.243759	6924.997750
790.566395	6725.363017
790.888984	6535.477875
791.211529	6397.889663
791.534027	6231.919755
791.856480	6093.383806
792.178888	6036.645620
792.501249	5965.945958
792.823566	5860.192632
793.145836	5854.042424
793.468062	5832.519218
793.790241	5790.178567
794.112375	5837.572975
794.434464	5935.802378
794.756507	5962.003775
795.078505	6078.172124
795.400457	6299.861906
795.722364	6528.006885
796.044226	6716.934208
796.366042	6869.827363
796.687812	6822.647204
797.009538	6848.699887
797.331218	6763.935406
797.652852	6693.165167
797.974442	6577.140491
798.295986	6506.380335
798.617484	6373.772783
798.938938	6270.534993
799.260346	6206.008224
799.581709	6061.148148
799.903026	6014.280541
800.224299	5942.418893
800.545526	5823.629143
800.866708	5763.946923
801.187845	5708.814344
801.508936	5627.571108
801.829983	5600.069094
802.150984	5491.253267
802.471940	5467.012879
802.792851	5447.276762
803.113717	5424.541158
803.434538	5395.312548
803.755314	5368.481007
804.076045	5356.185632
804.396731	5316.539478
804.717372	5334.518753
805.037967	5329.999359
805.358518	5355.159757
805.679024	5411.850053
805.999485	5416.767699
806.319901	5435.538435
806.640272	5451.087874
806.960598	5496.685111
807.280879	5488.125231
807.601115	5523.849368
807.921306	5487.638760
808.241453	5483.734386
808.561554	5499.246017
808.881611	5465.719823
809.201623	5461.681859
809.521590	5419.444551
809.841513	5401.682046
810.161390	5418.769037
810.481223	5333.374411
810.801011	5319.937216
811.120755	5298.275377
811.440453	5241.544753
811.760107	5212.593406
812.079716	5191.312175
812.399281	5141.271162
812.718801	5131.173730
813.038276	5098.693576
813.357707	5064.859872
813.677093	5088.407102
813.996434	5029.619686
814.315731	5046.812541
814.634983	5049.625505
814.954191	5055.241351
815.273354	5113.202017
815.592473	5156.835724
815.911547	5229.723247
816.230577	5283.595538
816.549562	5374.737078
816.868502	5422.870015
817.187399	5479.938397
817.506250	5565.219597
817.825058	5592.502322
818.143821	5753.116004
818.462539	5925.977169
818.781213	6160.428632
819.099843	6522.133941
819.418429	7158.105745
819.736970	7781.696476
820.055466	8488.922470
820.373919	9431.688815
820.692327	10956.814294
821.010691	13797.789312
821.329011	20197.614778
821.647286	29670.250365
821.965517	39652.851596
822.283704	44622.542045
822.601847	45844.389188
822.919945	41332.105313
823.237999	36404.508498
823.556010	31380.257641
823.873976	26805.987737
824.191897	22706.314742
824.509775	19676.644295
824.827609	16956.140252
825.145398	15432.643066
825.463144	14720.872472
825.780845	15065.296705
826.098502	16362.113368
826.416116	18755.522144
826.733685	20866.028928
827.051210	21204.108869
827.368692	19712.295335
827.686129	17209.730455
828.003522	14808.200380
828.320872	12660.522648
828.638177	11049.279138
828.955439	9824.762704
829.272656	8779.580277
829.589830	7948.493133
829.906960	7221.271403
830.224046	6689.812800
830.541088	6286.270955
830.858086	6033.073962
831.175041	5832.355381
831.491952	5773.976298
831.808819	5815.759902
832.125642	6078.202371
832.442421	6650.214537
832.759157	7792.018239
833.075849	9549.994614
833.392497	11333.262457
833.709101	12357.987882
834.025662	12034.723892
834.342179	10992.278811
834.658653	9722.087003
834.975083	8644.585739
835.291469	7768.226513
835.607811	7037.672580
835.924110	6527.694333
836.240366	6038.798192
836.556578	5585.666517
836.872746	5239.959310
837.188871	4969.385459
837.504952	4749.092077
837.820990	4582.557560
838.136984	4462.951144
838.452935	4423.302469
838.768842	4461.259837
839.084706	4768.145118
839.400526	5520.406260
839.716303	6403.455097
840.032037	6924.856598
840.347727	6743.448156
840.663373	6151.462940
840.978977	5586.319347
841.294537	5162.297814
841.610054	4832.094676
841.925527	4592.962502
842.240957	4387.127149
842.556344	4202.356258
842.871687	4041.644273
843.186987	3892.663053
843.502244	3777.540744
843.817458	3689.381045
844.132629	3617.968060
844.447756	3571.844023
844.762840	3522.012217
845.077881	3483.114674
845.392879	3448.008078
845.707833	3421.897422
846.022745	3394.876838
846.337613	3382.541134
846.652438	3357.882330
846.967221	3345.365145
847.281960	3329.669513
847.596656	3319.816577
847.911309	3309.013385
848.225919	3294.699028
848.540485	3282.580094
848.855009	3275.940895
849.169490	3264.386570
849.483928	3255.231835
849.798323	3254.087493
850.112675	3242.775144
850.426984	3239.957139
850.741251	3233.312898
851.055474	3229.088411
851.369654	3230.792321
851.683792	3230.817527
851.997887	3232.239132
852.311938	3233.053278
852.625947	3233.690984
852.939914	3223.684294
853.253837	3232.032445
853.567718	3226.608163
853.881555	3222.993656
854.195350	3227.099676
854.509103	3225.214284
854.822812	3223.323852
855.136479	3217.284549
855.450103	3221.778738
855.763685	3215.265567
856.077224	3217.828994
856.390720	3224.044737
856.704173	3236.375399
857.017584	3241.421594
857.330953	3246.528283
857.644278	3254.800816
857.957561	3254.422730
858.270802	3252.426433
858.584000	3251.292173
858.897155	3247.349991
859.210268	3240.194073
859.523339	3226.832495
859.836367	3223.379304
860.149352	3219.011144
860.462295	3213.856565
860.775195	3207.519834
861.088054	3201.412476
861.400869	3200.999102
861.713642	3198.412990
862.026373	3206.803990
862.339062	3210.360524
862.651708	3222.000549
862.964312	3235.311715
863.276873	3244.957963
863.589392	3275.971142
863.901869	3301.391160
864.214303	3318.662153
864.526696	3337.979855
864.839045	3351.928727
865.151353	3369.078733
865.463619	3366.180069
865.775842	3369.683671
866.088023	3375.513766
866.400162	3368.715770
866.712258	3373.328425
867.024313	3369.920605
867.336325	3369.839947
867.648296	3369.068650
867.960224	3365.872559
868.272110	3370.064278
868.583954	3371.455637
868.895755	3380.796895
869.207515	3379.186246
869.519233	3398.619894
869.830909	3401.836150
870.142542	3412.185639
870.454134	3419.318872
870.765684	3430.994184
871.077191	3450.758028
871.388657	3461.767908
871.700081	3483.770024
872.011463	3499.377436
872.322803	3515.478882
872.634101	3536.480328
872.945357	3557.242321
873.256571	3585.066969
873.567744	3597.644648
873.878874	3604.457767
874.189963	3620.783544
874.501010	3623.707413
874.812015	3618.998976
875.122979	3634.618991
875.433900	3635.632263
875.744780	3635.571769
876.055618	3647.383192
876.366415	3645.694406
876.677169	3650.806136
876.987882	3670.625432
877.298554	3692.055377
877.609183	3733.896954
877.919771	3780.414201
878.230317	3849.820807
878.540822	3956.610090
878.851285	4113.689923
879.161707	4341.923123
879.472087	4733.381322
879.782425	5380.274786
880.092722	6601.592608
880.402977	8529.339921
880.713191	10842.135606
881.023363	13103.319958
881.333494	14304.334532
881.643583	14708.894690
881.953631	14289.384991
882.263637	13503.453982
882.573602	12514.919001
882.883526	11605.663726
883.193408	10688.400578
883.503248	9802.478283
883.813048	8986.862441
884.122806	8235.896876
884.432522	7480.974005
884.742197	6830.811352
885.051831	6276.259224
885.361424	5787.421056
885.670975	5400.492333
885.980485	5073.412190
886.289954	4806.780522
886.599382	4590.928396
886.908768	4415.130759
887.218113	4251.845265
887.527417	4118.584884
887.836680	3996.919156
888.145901	3895.743198
888.455082	3819.977177
888.764221	3747.651743
889.073319	3689.623021
889.382376	3654.312258
889.691392	3632.985657
890.000366	3627.011890
890.309300	3616.501084
890.618193	3623.714975
890.927044	3614.252729
891.235855	3624.203967
891.544625	3640.801966
891.853353	3671.074095
892.162041	3731.147005
892.470687	3823.934482
892.779293	3947.674645
893.087858	4127.167448
893.396381	4413.575563
893.704864	4831.479655
894.013306	5389.351383
894.321707	5936.989570
894.630068	6259.073930
894.938387	6276.599502
895.246665	6090.989258
895.554903	5783.501559
895.863100	5461.633968
896.171256	5201.732240
896.479371	4967.608453
896.787446	4748.267849
897.095480	4560.084096
897.403473	4413.837703
897.711425	4271.571300
898.019336	4151.012106
898.327207	4027.652551
898.635038	3927.268054
898.942827	3821.366015
899.250576	3736.299064
899.558284	3652.131959
899.865952	3600.797890
900.173579	3536.684495
900.481165	3489.673215
900.788711	3449.535548
901.096216	3418.666043
901.403681	3392.726785
901.711105	3382.115157
902.018489	3376.451420
902.325832	3412.488108
902.633135	3475.989003
902.940397	3654.148421
903.247619	4076.213986
903.554800	4837.176159
903.861941	5773.139467
904.169041	6431.196567
904.476101	6598.068841
904.783121	6320.278579
905.090100	5937.241628
905.397039	5540.084404
905.703938	5194.556158
906.010796	4879.448754
906.317614	4629.478100
906.624391	4395.959251
906.931129	4201.705949
907.237826	4024.249772
907.544483	3856.601159
907.851099	3685.597659
908.157675	3524.457177
908.464211	3383.788820
908.770707	3284.220990
909.077163	3206.224258
909.383578	3146.695792
909.689954	3102.532764
909.996289	3072.016139
910.302584	3049.953530
910.608839	3038.457178
910.915054	3027.916126
911.221229	3021.488654
911.527363	3026.338244
911.833458	3034.545243
912.139513	3049.184754
912.445527	3059.751012
912.751502	3093.476331
913.057436	3141.458034
913.363331	3201.503217
913.669186	3290.517391
913.975000	3411.936102
914.280775	3607.328705
914.586510	3879.475395
914.892205	4257.332561
915.197859	4746.294237
915.503475	5311.379857
915.809050	5777.913440
916.114585	6038.220980
916.420081	6086.658907
916.725536	6019.810686
917.030952	5790.695285
917.336328	5588.907979
917.641665	5392.986055
917.946961	5171.450029
918.252218	4973.678002
918.557435	4757.503243
918.862612	4564.023758
919.167750	4393.844487
919.472848	4205.194427
919.777906	4042.082853
920.082925	3887.994945
920.387904	3738.008015
920.692843	3626.772435
920.997743	3529.999925
921.302603	3435.793363
921.607423	3372.204248
921.912204	3306.873415
922.216946	3255.728388
922.521647	3209.745504
922.826310	3168.007270
923.130932	3132.820017
923.435516	3092.906681
923.740059	3065.444995
924.044564	3033.461395
924.349028	3006.637415
924.653454	2977.078610
924.957840	2954.184209
925.262186	2933.376847
925.566493	2911.450348
925.870761	2884.129815
926.174989	2874.909545
926.479178	2859.745754
926.783328	2842.671366
927.087438	2828.997236
927.391509	2818.186482
927.695541	2804.330870
927.999533	2797.802576
928.303486	2786.260854
928.607400	2781.154165
928.911275	2774.716612
929.215110	2770.071189
929.518906	2765.740837
929.822663	2765.450971
930.126381	2766.549943
930.430060	2771.702002
930.733699	2771.341559
931.037299	2774.585542
931.340861	2774.373813
931.644383	2775.281221
931.947866	2773.347939
932.251309	2770.817279
932.554714	2771.276024
932.858080	2769.645211
933.161407	2765.423245
933.464694	2762.839653
933.767943	2758.940321
934.071153	2754.471338
934.374323	2750.365318
934.677455	2749.379773
934.980548	2745.634195
935.283602	2743.988259
935.586617	2743.075810
935.889593	2747.441449
936.192530	2745.041860
936.495428	2752.197778
936.798287	2757.165835
937.101108	2774.991355
937.403890	2794.551032
937.706632	2821.755618
938.009336	2847.652026
938.312002	2880.195194
938.614628	2899.391908
938.917216	2921.285639
939.219765	2929.043975
939.522275	2940.835234
939.824747	2939.854730
940.127179	2933.490273
940.429573	2927.002308
940.731929	2927.813934
941.034246	2917.877819
941.336524	2915.967222
941.638763	2909.980852
941.940964	2904.828793
942.243126	2889.017214
942.545250	2881.999927
942.847335	2864.383615
943.149381	2851.364836
943.451389	2839.666838
943.753359	2829.009839
944.055290	2821.264106
944.357182	2812.285811
944.659036	2806.649801
944.960851	2803.007567
945.262628	2795.902061
945.564367	2797.343831
945.866067	2797.124541
946.167729	2796.489355
946.469352	2792.312759
946.770937	2790.308901
947.072484	2784.874537
947.373992	2783.813374
947.675462	2780.892025
947.976893	2774.918258
948.278286	2771.432300
948.579641	2768.402567
948.880958	2765.592123
949.182236	2765.317381
949.483476	2763.913419
949.784678	2762.854777
950.085841	2765.766043
950.386967	2768.722680
950.688054	2772.775768
950.989103	2780.173661
951.290114	2788.037861
951.591087	2796.491876
951.892021	2809.782878
952.192917	2823.232677
952.493776	2832.316836
952.794596	2834.209789
953.095378	2835.654080
953.396122	2836.959738
953.696828	2831.595951
953.997496	2827.663851
954.298126	2818.015082
954.598718	2813.125163
954.899272	2797.916002
955.199788	2789.136832
955.500266	2780.468568
955.800706	2764.926691
956.101108	2745.792992
956.401472	2737.911148
956.701798	2722.233159
957.002087	2710.078937
957.302337	2703.107022
957.602550	2690.105886
957.902724	2679.516942
958.202861	2671.728359
958.502960	2665.411794
958.803022	2656.287305
959.103045	2651.815802
959.403031	2644.420429
959.702979	2639.880870
960.002889	2635.429531
960.302762	2631.746968
960.602596	2628.059364
960.902393	2620.361522
961.202153	2620.729527
961.501875	2616.328599
961.801559	2615.756428
962.101205	2612.088989
962.400814	2610.349791
962.700385	2610.516149
962.999918	2605.918617
963.299414	2603.115735
963.598873	2603.945005
963.898293	2601.053903
964.197677	2599.682709
964.497022	2602.498194
964.796331	2598.692122
965.095601	2598.273707
965.394835	2598.346803
965.694030	2596.814293
965.993189	2595.256576
966.292309	2595.853953
966.591393	2592.582244
966.890439	2593.421596
967.189447	2594.747420
967.488419	2592.821699
967.787353	2593.706421
968.086249	2597.469643
968.385108	2593.908067
968.683930	2595.301947
968.982714	2597.197420
969.281462	2599.362596
969.580172	2599.087853
969.878844	2604.078595
970.177480	2607.146137
970.476078	2608.565222
970.774639	2612.068824
971.073162	2611.463886
971.371649	2613.508074
971.670098	2614.904473
971.968510	2615.564864
972.266885	2615.433794
972.565223	2619.441512
972.863524	2621.694907
973.161788	2622.491410
973.460014	2623.537449
973.758204	2624.185237
974.056356	2624.890999
974.354471	2628.213119
974.652550	2624.293622
974.950591	2623.802110
975.248595	2621.594084
975.546563	2622.751029
975.844493	2622.509054
976.142386	2622.564507
976.440243	2618.405555
976.738062	2618.279526
977.035845	2612.532610
977.333590	2613.414812
977.631299	2607.917434
977.928971	2607.982969
978.226606	2606.329471
978.524204	2605.134717
978.821765	2603.075406
979.119290	2604.285283
979.416777	2601.734459
979.714228	2605.147320
980.011642	2604.302927
980.309020	2610.848865
980.606360	2614.937241
980.903664	2619.078549
981.200931	2634.257463
981.498162	2651.586429
981.795356	2679.433763
982.092513	2719.490772
982.389633	2759.026021
982.686717	2799.355251
982.983764	2829.453460
983.280775	2840.836386
983.577749	2845.983404
983.874686	2837.352948
984.171587	2818.965340
984.468451	2806.654842
984.765279	2784.322531
985.062070	2771.041611
985.358824	2753.712644
985.655543	2731.597102
985.952224	2710.101622
986.248869	2687.933148
986.545478	2660.315187
986.842050	2642.310706
987.138586	2621.556276
987.435086	2611.887343
987.731549	2598.349324
988.027975	2596.042996
988.324366	2592.617532
988.620719	2583.583784
988.917037	2580.221335
989.213318	2577.574729
989.509563	2575.530541
989.805772	2574.086251
990.101944	2573.819069
990.398080	2572.314285
990.694180	2575.175140
990.990244	2573.400654
991.286271	2571.787484
991.582262	2573.859399
991.878217	2572.657083
992.174136	2572.077351
992.470019	2574.514749
992.765865	2576.344687
993.061676	2577.904925
993.357450	2582.903229
993.653188	2582.285687
993.948890	2586.981522
994.244556	2595.128027
994.540186	2606.084975
994.835780	2617.132663
995.131337	2632.495580
995.426859	2644.238947
995.722345	2660.715959
996.017795	2682.657581
996.313208	2692.414734
996.608586	2704.538709
996.903928	2705.476364
997.199234	2704.281610
997.494504	2700.354552
997.789738	2693.934642
998.084936	2686.148580
998.380099	2673.659121
998.675225	2663.632266
998.970316	2651.833446
999.265371	2640.936992
999.560390	2625.286730
999.855373	2615.653085
1000.150320	2602.578852
1000.445232	2596.635332
1000.740108	2590.018817
1001.034948	2585.648137
1001.329752	2581.186716
1001.624521	2576.253947
1001.919254	2567.673903
1002.213951	2565.551577
1002.508613	2562.950342
1002.803239	2562.960424
1003.097829	2559.514795
1003.392384	2562.017728
1003.686903	2559.958417
1003.981386	2561.284240
1004.275834	2557.818447
1004.570246	2559.580330
1004.864623	2553.659495
1005.158964	2554.261913
1005.453270	2552.547921
1005.747540	2556.409445
1006.041775	2548.210008
1006.335974	2552.310987
1006.630138	2551.711089
1006.924266	2553.931717
1007.218359	2551.983312
1007.512416	2550.967519
1007.806438	2552.358877
1008.100425	2552.046326
1008.394376	2548.875440
1008.688292	2550.352498
1008.982172	2549.175389
1009.276017	2549.598846
1009.569827	2551.012889
1009.863602	2551.963147
1010.157341	2547.690769
1010.451045	2549.311500
1010.744714	2548.908208
1011.038347	2549.276212
1011.331945	2547.494164
1011.625508	2547.746222
1011.919036	2546.886705
1012.212528	2546.939637
1012.505986	2545.704554
1012.799408	2545.192877
1013.092795	2542.485778
1013.386147	2546.140614
1013.679464	2546.448125
1013.972745	2546.052394
1014.265992	2546.579195
1014.559204	2547.373176
1014.852380	2542.778165
1015.145521	2544.693803
1015.438628	2544.867723
1015.731699	2546.138094
1016.024736	2543.957795
1016.317737	2548.560368
1016.610703	2546.117929
1016.903635	2547.040460
1017.196531	2545.520552
1017.489393	2545.245809
1017.782219	2541.696837
1018.075011	2546.233876
1018.367768	2547.390820
1018.660490	2547.975594
1018.953177	2547.975594
1019.245829	2547.975594
