Dividing Wavelength (nm)	Counts (n)	Blue Motor Position (mm): 0.000000	Red Motor Position (mm): 0.000000	
326.493990	2248.354615
326.888308	2248.354615
327.282561	2248.354615
327.676750	2122.325769
328.070874	2109.722885
328.464933	2097.120000
328.858929	2132.408077
329.252859	2225.669423
329.646726	2210.545962
330.040528	2243.313462
330.434265	2248.354615
330.827938	2180.299038
331.221547	2155.093269
331.615091	2197.943077
332.008571	2235.751731
332.401986	2339.095385
332.795338	2339.095385
333.188625	2376.904038
333.581847	2439.918462
333.975006	2402.109808
334.368100	2424.795000
334.761129	2439.918462
335.154095	2392.027500
335.546996	2455.041923
335.939833	2495.371154
336.332606	2492.850577
336.725315	2525.618077
337.117960	2439.918462
337.510540	2548.303269
337.903056	2472.685962
338.295508	2656.688077
338.687896	2558.385577
339.080220	2611.317692
339.472480	2548.303269
339.864676	2475.206538
340.256807	2497.891731
340.648875	2593.673654
341.040879	2621.400000
341.432818	2578.550192
341.824694	2507.974038
342.216506	2568.467885
342.608253	2495.371154
342.999937	2525.618077
343.391557	2618.879423
343.783113	2518.056346
344.174605	2618.879423
344.566033	2563.426731
344.957397	2568.467885
345.348697	2578.550192
345.739934	2644.085192
346.131106	2573.509038
346.522215	2581.070769
346.913260	2613.838269
347.304241	2538.220962
347.695159	2525.618077
348.086012	2515.535769
348.476802	2606.276538
348.867528	2480.247692
349.258191	2573.509038
349.648789	2492.850577
350.039324	2598.714808
350.429796	2533.179808
350.820203	2480.247692
351.210548	2525.618077
351.600828	2535.700385
351.991045	2578.550192
352.381198	2475.206538
352.771288	2545.782692
353.161314	2523.097500
353.551276	2507.974038
353.941175	2578.550192
354.331010	2528.138654
354.720782	2543.262115
355.110490	2490.330000
355.500135	2628.961731
355.889717	2603.755962
356.279235	2492.850577
356.668689	2530.659231
357.058080	2545.782692
357.447408	2543.262115
357.836672	2530.659231
358.225873	2470.165385
358.615010	2520.576923
359.004084	2548.303269
359.393095	2515.535769
359.782043	2565.947308
360.170927	2520.576923
360.559748	2520.576923
360.948505	2447.480192
361.337199	2558.385577
361.725830	2573.509038
362.114398	2535.700385
362.502903	2606.276538
362.891344	2462.603654
363.279722	2543.262115
363.668037	2591.153077
364.056289	2558.385577
364.444478	2528.138654
364.832603	2576.029615
365.220665	2611.317692
365.608665	2500.412308
365.996601	2608.797115
366.384474	2518.056346
366.772284	2664.249808
367.160031	2495.371154
367.547715	2530.659231
367.935336	2623.920577
368.322893	2533.179808
368.710388	2530.659231
369.097820	2513.015192
369.485189	2485.288846
369.872495	2631.482308
370.259738	2565.947308
370.646918	2535.700385
371.034035	2646.605769
371.421090	2558.385577
371.808081	2581.070769
372.195010	2482.768269
372.581875	2573.509038
372.968678	2593.673654
373.355418	2513.015192
373.742096	2520.576923
374.128710	2601.235385
374.515262	2576.029615
374.901751	2540.741538
375.288177	2636.523462
375.674540	2596.194231
376.060841	2611.317692
376.447079	2568.467885
376.833254	2611.317692
377.219367	2578.550192
377.605417	2568.467885
377.991404	2631.482308
378.377329	2497.891731
378.763191	2520.576923
379.148991	2568.467885
379.534727	2623.920577
379.920402	2475.206538
380.306013	2523.097500
380.691563	2550.823846
381.077049	2553.344423
381.462474	2626.441154
381.847835	2568.467885
382.233134	2565.947308
382.618371	2545.782692
383.003545	2560.906154
383.388657	2538.220962
383.773706	2533.179808
384.158693	2608.797115
384.543618	2639.044038
384.928480	2596.194231
385.313280	2513.015192
385.698017	2621.400000
386.082692	2528.138654
386.467305	2548.303269
386.851856	2598.714808
387.236344	2611.317692
387.620770	2581.070769
388.005133	2492.850577
388.389435	2634.002885
388.773674	2573.509038
389.157851	2596.194231
389.541965	2510.494615
389.926018	2621.400000
390.310008	2540.741538
390.693936	2560.906154
391.077802	2608.797115
391.461606	2581.070769
391.845348	2596.194231
392.229027	2631.482308
392.612645	2671.811538
392.996200	2598.714808
393.379694	2520.576923
393.763125	2613.838269
394.146494	2581.070769
394.529801	2606.276538
394.913047	2583.591346
395.296230	2591.153077
395.679351	2520.576923
396.062410	2540.741538
396.445408	2623.920577
396.828343	2555.865000
397.211217	2515.535769
397.594028	2480.247692
397.976778	2586.111923
398.359466	2555.865000
398.742092	2523.097500
399.124656	2538.220962
399.507158	2601.235385
399.889598	2618.879423
400.271977	2543.262115
400.654294	2621.400000
401.036549	2618.879423
401.418742	2485.288846
401.800874	2518.056346
402.182944	2596.194231
402.564952	2550.823846
402.946898	2613.838269
403.328783	2538.220962
403.710606	2588.632500
404.092367	2533.179808
404.474067	2646.605769
404.855705	2616.358846
405.237282	2634.002885
405.618797	2674.332115
406.000250	2636.523462
406.381642	2649.126346
406.762972	2628.961731
407.144240	2565.947308
407.525447	2596.194231
407.906593	2573.509038
408.287677	2613.838269
408.668700	2603.755962
409.049661	2628.961731
409.430560	2618.879423
409.811399	2570.988462
410.192176	2470.165385
410.572891	2626.441154
410.953545	2553.344423
411.334138	2543.262115
411.714669	2576.029615
412.095139	2560.906154
412.475547	2568.467885
412.855894	2535.700385
413.236180	2626.441154
413.616405	2628.961731
413.996568	2560.906154
414.376670	2578.550192
414.756711	2573.509038
415.136691	2523.097500
415.516609	2528.138654
415.896466	2495.371154
416.276262	2613.838269
416.655997	2540.741538
417.035670	2530.659231
417.415283	2593.673654
417.794834	2533.179808
418.174324	2565.947308
418.553753	2560.906154
418.933121	2586.111923
419.312428	2606.276538
419.691674	2586.111923
420.070859	2608.797115
420.449983	2555.865000
420.829045	2583.591346
421.208047	2548.303269
421.586988	2644.085192
421.965867	2568.467885
422.344686	2613.838269
422.723444	2686.935000
423.102141	2543.262115
423.480777	2616.358846
423.859352	2538.220962
424.237866	2611.317692
424.616319	2618.879423
424.994712	2570.988462
425.373044	2583.591346
425.751314	2679.373269
426.129524	2636.523462
426.507673	2613.838269
426.885762	2576.029615
427.263789	2611.317692
427.641756	2588.632500
428.019662	2664.249808
428.397508	2485.288846
428.775292	2467.644808
429.153016	2591.153077
429.530679	2588.632500
429.908282	2651.646923
430.285824	2623.920577
430.663305	2593.673654
431.040726	2611.317692
431.418086	2563.426731
431.795385	2611.317692
432.172624	2666.770385
432.549802	2656.688077
432.926920	2646.605769
433.303977	2661.729231
433.680974	2616.358846
434.057910	2679.373269
434.434786	2603.755962
434.811601	2598.714808
435.188355	2646.605769
435.565050	2573.509038
435.941683	2603.755962
436.318257	2631.482308
436.694770	2634.002885
437.071222	2628.961731
437.447614	2626.441154
437.823946	2616.358846
438.200218	2581.070769
438.576429	2646.605769
438.952580	2603.755962
439.328670	2639.044038
439.704700	2628.961731
440.080670	2666.770385
440.456580	2674.332115
440.832429	2671.811538
441.208218	2644.085192
441.583947	2674.332115
441.959616	2760.031731
442.335224	2767.593462
442.710773	2787.758077
443.086261	2767.593462
443.461689	2838.169615
443.837057	2800.360962
444.212365	2865.895962
444.587612	2825.566731
444.962800	2931.430962
445.337927	2835.649038
445.712995	2926.389808
446.088002	2913.786923
446.462949	3014.610000
446.837837	3062.500962
447.212664	3065.021538
447.587431	3135.597692
447.962139	3402.778846
448.336786	3538.890000
448.711374	3601.904423
449.085901	3458.231538
449.460369	3438.066923
449.834776	3536.369423
450.209124	3871.606154
450.583412	3811.112308
450.957640	3932.100000
451.331808	3846.400385
451.705917	3919.497115
452.079965	3896.811923
452.453954	4123.663846
452.827883	4143.828462
453.201752	4171.554808
453.575562	4322.789423
453.949311	4453.859423
454.323001	4547.120769
454.696632	4582.408846
455.070202	4902.522115
455.443713	5078.962500
455.817164	5199.950192
456.190556	5459.569615
456.563888	5593.160192
456.937160	5630.968846
457.310373	5547.789808
457.683526	5724.230192
458.056619	5789.765192
458.429653	6006.534808
458.802628	5935.958654
459.175542	6281.277692
459.548398	6586.267500
459.921194	6956.792308
460.293930	7251.699808
460.666607	7745.732885
461.039224	8448.973846
461.411782	8927.883462
461.784280	8943.006923
462.156719	9003.500769
462.529099	9094.241538
462.901419	8867.389615
463.273680	8794.292885
463.645882	9063.994615
464.018024	8897.636538
464.390106	9326.134615
464.762130	9918.470192
465.134094	10783.028077
465.505999	12350.826923
465.877845	14475.673269
466.249631	16454.326154
466.621358	15902.319808
466.993026	15393.163269
467.364634	14957.103462
467.736184	14389.973654
468.107674	14256.383077
468.479105	14604.222692
468.850477	14102.627885
469.221790	14415.179423
469.593043	14115.230769
469.964238	13767.391154
470.335373	13840.487885
470.706449	14642.031346
471.077467	14863.842115
471.448425	16721.507308
471.819324	20202.424038
472.190164	20696.457115
472.560945	17538.174231
472.931667	16313.173846
473.302330	16552.628654
473.672934	16552.628654
474.043479	16814.768654
474.413965	16769.398269
474.784393	16378.708846
475.154761	17601.188654
475.525070	17142.443654
475.895321	17379.377885
476.265513	18097.742308
476.635645	18377.526346
477.005719	18553.966731
477.375734	18692.598462
477.745691	19179.069808
478.115588	19847.022692
478.485427	20696.457115
478.855207	22246.611923
479.224928	23935.398462
479.594591	25745.172692
479.964194	24794.915192
480.333739	25702.322885
480.703226	25687.199423
481.072653	25518.320769
481.442022	26029.997885
481.811333	26854.226538
482.180584	26728.197692
482.549777	25893.886731
482.918912	25634.267308
483.287988	25848.516346
483.657005	25253.660192
484.025964	25251.139615
484.394864	24862.970769
484.763706	24875.573654
485.132489	24452.116731
485.501213	24033.700962
485.869879	24351.293654
486.238487	24026.139231
486.607036	24258.032308
486.975527	24036.221538
487.343959	24280.717500
487.712333	23970.686538
488.080648	23169.143077
488.448905	23879.945769
488.817104	23607.723462
489.185244	24414.308077
489.553326	24452.116731
489.921350	25321.715769
490.289315	27088.640192
490.657222	28313.640577
491.025070	28479.998654
491.392861	28169.967692
491.760593	27002.940577
492.128267	25566.211731
492.495883	24620.995385
492.863440	23806.849038
493.230939	23330.460000
493.598380	22362.558462
493.965763	21855.922500
494.333088	21379.533462
494.700354	21273.669231
495.067563	20885.500385
495.434713	20391.467308
495.801805	20368.782115
496.168839	19950.366346
496.535815	19600.006154
496.902733	19829.378654
497.269593	19219.399038
497.636395	19095.890769
498.003139	18952.217885
498.369825	18445.581923
498.736453	18478.349423
499.103023	18042.289615
499.469535	17674.285385
499.835989	17570.941731
500.202385	17339.048654
500.568723	17238.225577
500.935003	16945.838654
501.301226	16464.408462
501.667390	16955.920962
502.033497	16517.340577
502.399546	16396.352885
502.765537	15463.739423
503.131470	15662.865000
503.497345	15302.422500
503.863163	14916.774231
504.228923	14936.938846
504.594625	14752.936731
504.960269	14258.903654
505.325856	14329.479808
505.691385	13810.240962
506.056856	13638.841731
506.422270	13439.716154
506.787625	12935.600769
507.152924	12980.971154
507.518164	12867.545192
507.883347	12600.364038
508.248472	12305.456538
508.613540	12239.921538
508.978550	11934.931731
509.343503	11866.876154
509.708398	11602.215577
510.073236	11536.680577
510.438016	11176.238077
510.802738	11108.182500
511.167403	10848.563077
511.532010	10417.544423
511.896561	10440.229615
512.261053	10422.585577
512.625488	10014.252115
512.989866	9900.826154
513.354186	9547.945385
513.718449	9419.395962
514.082655	9328.655192
514.446803	9179.941154
514.810894	8922.842308
515.174927	8806.895769
515.538904	8585.085000
515.902822	8388.480000
516.266684	8073.407885
516.630488	8020.475769
516.994235	7690.280192
517.357925	7634.827500
517.721558	7541.566154
518.085133	7463.428269
518.448651	7211.370577
518.812112	7135.753269
519.175516	6981.998077
519.538863	6855.969231
519.902152	6780.351923
520.265385	6553.500000
520.628560	6329.168654
520.991678	6293.880577
521.354739	6230.866154
521.717743	6198.098654
522.080690	5963.685000
522.443580	5910.752885
522.806413	5721.709615
523.169189	5494.857692
523.531908	5542.748654
523.894569	5240.279423
524.257174	5237.758846
524.619722	5220.114808
524.982213	5101.647692
525.344647	4993.262885
525.707025	5033.592115
526.069345	4912.604423
526.431608	4766.410962
526.793815	4647.943846
527.155964	4547.120769
527.518057	4400.927308
527.880093	4431.174231
528.242072	4418.571346
528.603995	4355.556923
528.965860	4163.993077
529.327669	4080.814038
529.689421	3990.073269
530.051117	4012.758462
530.412755	3916.976538
530.774337	3886.729615
531.135862	3813.632885
531.497331	3823.715192
531.858743	3765.741923
532.220098	3652.315962
532.581396	3647.274808
532.942638	3498.560769
533.303824	3559.054615
533.664953	3490.999038
534.026025	3402.778846
534.387040	3400.258269
534.747999	3433.025769
535.108902	3291.873462
535.469748	3332.202692
535.830537	3309.517500
536.191270	3251.544231
536.551947	3228.859038
536.912567	3238.941346
537.273131	3269.188269
537.633638	3186.009231
537.994089	3133.077115
538.354483	3110.391923
538.714821	3100.309615
539.075103	3059.980385
539.435328	3085.186154
539.795497	2931.430962
540.155609	3002.007115
540.515665	2996.965962
540.875665	2946.554423
541.235609	2898.663462
541.595496	2886.060577
541.955328	2966.719038
542.315102	2949.075000
542.674821	2913.786923
543.034483	2820.525577
543.394090	2873.457692
543.753640	2873.457692
544.113134	2800.360962
544.472571	2833.128462
544.831953	2830.607885
545.191278	2802.881538
545.550548	2797.840385
545.909761	2734.825962
546.268918	2823.046154
546.628019	2916.307500
546.987064	2807.922692
547.346053	2785.237500
547.704986	2777.675769
548.063863	2767.593462
548.422684	2646.605769
548.781449	2765.072885
549.140158	2767.593462
549.498811	2780.196346
549.857408	2739.867115
550.215949	2800.360962
550.574434	2646.605769
550.932864	2734.825962
551.291237	2744.908269
551.649555	2699.537885
552.007817	2679.373269
552.366022	2669.290962
552.724173	2661.729231
553.082267	2732.305385
553.440305	2825.566731
553.798288	2694.496731
554.156215	2639.044038
554.514086	2772.634615
554.871902	2661.729231
555.229661	2596.194231
555.587365	2762.552308
555.945014	2639.044038
556.302606	2722.223077
556.660143	2722.223077
557.017625	2689.455577
557.375050	2707.099615
557.732421	2734.825962
558.089735	2616.358846
558.446994	2666.770385
558.804197	2694.496731
559.161345	2613.838269
559.518437	2666.770385
559.875474	2634.002885
560.232455	2674.332115
560.589381	2702.058462
560.946251	2752.470000
561.303065	2664.249808
561.659825	2686.935000
562.016528	2641.564615
562.373177	2666.770385
562.729770	2697.017308
563.086307	2727.264231
563.442789	2618.879423
563.799216	2661.729231
564.155587	2714.661346
564.511904	2679.373269
564.868164	2578.550192
565.224370	2593.673654
565.580520	2757.511154
565.936615	2666.770385
566.292654	2639.044038
566.648638	2628.961731
567.004567	2671.811538
567.360441	2649.126346
567.716260	2628.961731
568.072023	2639.044038
568.427732	2654.167500
568.783385	2646.605769
569.138982	2659.208654
569.494525	2674.332115
569.850013	2598.714808
570.205445	2661.729231
570.560823	2639.044038
570.916145	2644.085192
571.271412	2727.264231
571.626625	2603.755962
571.981782	2661.729231
572.336884	2649.126346
572.691931	2631.482308
573.046923	2548.303269
573.401860	2535.700385
573.756743	2596.194231
574.111570	2674.332115
574.466342	2686.935000
574.821059	2623.920577
575.175722	2649.126346
575.530330	2639.044038
575.884882	2651.646923
576.239380	2674.332115
576.593823	2636.523462
576.948211	2628.961731
577.302544	2659.208654
577.656823	2646.605769
578.011047	2671.811538
578.365216	2704.579038
578.719330	2654.167500
579.073389	2603.755962
579.427394	2654.167500
579.781344	2606.276538
580.135239	2576.029615
580.489080	2606.276538
580.842866	2591.153077
581.196597	2596.194231
581.550273	2684.414423
581.903895	2623.920577
582.257463	2628.961731
582.610975	2560.906154
582.964434	2634.002885
583.317837	2636.523462
583.671186	2636.523462
584.024481	2654.167500
584.377721	2646.605769
584.730906	2681.893846
585.084037	2634.002885
585.437113	2639.044038
585.790135	2591.153077
586.143103	2664.249808
586.496016	2601.235385
586.848874	2626.441154
587.201679	2598.714808
587.554428	2631.482308
587.907124	2681.893846
588.259765	2581.070769
588.612352	2583.591346
588.964884	2588.632500
589.317362	2651.646923
589.669786	2606.276538
590.022155	2707.099615
590.374470	2666.770385
590.726731	2649.126346
591.078937	2676.852692
591.431090	2684.414423
591.783188	2669.290962
592.135232	2639.044038
592.487222	2664.249808
592.839157	2669.290962
593.191038	2676.852692
593.542866	2639.044038
593.894639	2649.126346
594.246358	2530.659231
594.598022	2502.932885
594.949633	2634.002885
595.301190	2628.961731
595.652692	2664.249808
596.004141	2530.659231
596.355535	2626.441154
596.706876	2601.235385
597.058162	2588.632500
597.409395	2651.646923
597.760573	2717.181923
598.111698	2603.755962
598.462768	2707.099615
598.813785	2739.867115
599.164748	2631.482308
599.515657	2659.208654
599.866511	2596.194231
600.217312	2618.879423
600.568060	2618.879423
600.918753	2686.935000
601.269392	2533.179808
601.619978	2628.961731
601.970510	2654.167500
602.320988	2603.755962
602.671412	2664.249808
603.021783	2611.317692
603.372100	2628.961731
603.722363	2606.276538
604.072572	2656.688077
604.422728	2626.441154
604.772830	2591.153077
605.122878	2634.002885
605.472872	2623.920577
605.822813	2644.085192
606.172701	2563.426731
606.522534	2596.194231
606.872314	2596.194231
607.222041	2565.947308
607.571714	2626.441154
607.921333	2661.729231
608.270899	2639.044038
608.620411	2618.879423
608.969870	2573.509038
609.319276	2618.879423
609.668627	2712.140769
610.017926	2760.031731
610.367171	2634.002885
610.716362	2636.523462
611.065500	2664.249808
611.414585	2611.317692
611.763616	2704.579038
612.112594	2606.276538
612.461518	2634.002885
612.810389	2530.659231
613.159207	2611.317692
613.507971	2636.523462
613.856682	2699.537885
614.205340	2550.823846
614.553945	2702.058462
614.902496	2631.482308
615.250994	2588.632500
615.599439	2603.755962
615.947830	2686.935000
616.296169	2626.441154
616.644454	2656.688077
616.992686	2669.290962
617.340864	2681.893846
617.688990	2623.920577
618.037063	2684.414423
618.385082	2603.755962
618.733048	2603.755962
619.080961	2626.441154
619.428821	2601.235385
619.776628	2671.811538
620.124382	2616.358846
620.472083	2636.523462
620.819731	2664.249808
621.167326	2651.646923
621.514868	2601.235385
621.862357	2598.714808
622.209793	2603.755962
622.557176	2651.646923
622.904506	2661.729231
623.251783	2596.194231
623.599007	2563.426731
623.946179	2626.441154
624.293297	2641.564615
624.640363	2606.276538
624.987376	2593.673654
625.334336	2560.906154
625.681243	2603.755962
626.028097	2535.700385
626.374899	2558.385577
626.721647	2611.317692
627.068343	2666.770385
627.414987	2606.276538
627.761577	2628.961731
628.108115	2674.332115
628.454600	2586.111923
628.801032	2654.167500
629.147412	2593.673654
629.493739	2623.920577
629.840014	2626.441154
630.186236	2608.797115
630.532405	2661.729231
630.878521	2661.729231
631.224585	2646.605769
631.570597	2644.085192
631.916556	2634.002885
632.262462	2641.564615
632.608316	2550.823846
632.954117	2669.290962
633.299866	2570.988462
633.645562	2702.058462
633.991206	2651.646923
634.336797	2535.700385
634.682336	2608.797115
635.027823	2666.770385
635.373257	2631.482308
635.718639	2651.646923
636.063968	2608.797115
636.409245	2492.850577
636.754470	2588.632500
637.099642	2631.482308
637.444762	2641.564615
637.789829	2664.249808
638.134845	2606.276538
638.479808	2674.332115
638.824719	2626.441154
639.169577	2545.782692
639.514383	2656.688077
639.859137	2613.838269
640.203839	2626.441154
640.548489	2623.920577
640.893086	2608.797115
641.237632	2669.290962
641.582125	2570.988462
641.926566	2583.591346
642.270955	2641.564615
642.615292	2623.920577
642.959576	2603.755962
643.303809	2611.317692
643.647990	2636.523462
643.992118	2676.852692
644.336195	2601.235385
644.680219	2611.317692
645.024192	2596.194231
645.368112	2634.002885
645.711981	2704.579038
646.055797	2535.700385
646.399562	2520.576923
646.743274	2679.373269
647.086935	2641.564615
647.430544	2702.058462
647.774101	2639.044038
648.117606	2631.482308
648.461059	2654.167500
648.804460	2646.605769
649.147810	2626.441154
649.491108	2563.426731
649.834354	2651.646923
650.177548	2616.358846
650.520690	2568.467885
650.863781	2618.879423
651.206820	2611.317692
651.549807	2570.988462
651.892742	2507.974038
652.235626	2674.332115
652.578458	2628.961731
652.921238	2636.523462
653.263967	2606.276538
653.606644	2649.126346
653.949269	2646.605769
654.291843	2623.920577
654.634365	2664.249808
654.976836	2578.550192
655.319255	2649.126346
655.661622	2639.044038
656.003938	2656.688077
656.346203	2525.618077
656.688416	2664.249808
657.030577	2679.373269
657.372687	2744.908269
657.714746	2598.714808
658.056753	2674.332115
658.398708	2570.988462
658.740612	2603.755962
659.082465	2631.482308
659.424266	2618.879423
659.766016	2626.441154
660.107715	2722.223077
660.449362	2697.017308
660.790958	2631.482308
661.132503	2558.385577
661.473996	2497.891731
661.815438	2691.976154
662.156829	2553.344423
662.498168	2676.852692
662.839456	2613.838269
663.180693	2623.920577
663.521879	2656.688077
663.863013	2646.605769
664.204097	2593.673654
664.545129	2636.523462
664.886110	2631.482308
665.227040	2603.755962
665.567918	2664.249808
665.908746	2666.770385
666.249522	2583.591346
666.590248	2656.688077
666.930922	2621.400000
667.271545	2661.729231
667.612118	2679.373269
667.952639	2737.346538
668.293109	2543.262115
668.633528	2530.659231
668.973896	2686.935000
669.314213	2588.632500
669.654480	2593.673654
669.994695	2565.947308
670.334859	2656.688077
670.674973	2608.797115
671.015035	2568.467885
671.355047	2611.317692
671.695008	2608.797115
672.034918	2659.208654
672.374777	2644.085192
672.714585	2608.797115
673.054342	2712.140769
673.394049	2654.167500
673.733705	2608.797115
674.073310	2661.729231
674.412864	2634.002885
674.752368	2626.441154
675.091820	2596.194231
675.431223	2523.097500
675.770574	2666.770385
676.109875	2601.235385
676.449125	2568.467885
676.788324	2553.344423
677.127473	2646.605769
677.466571	2558.385577
677.805619	2616.358846
678.144616	2684.414423
678.483562	2767.593462
678.822458	2613.838269
679.161303	2578.550192
679.500098	2618.879423
679.838842	2697.017308
680.177535	2568.467885
680.516179	2550.823846
680.854771	2699.537885
681.193314	2578.550192
681.531805	2659.208654
681.870247	2719.702500
682.208638	2616.358846
682.546978	2654.167500
682.885268	2618.879423
683.223508	2649.126346
683.561697	2583.591346
683.899836	2664.249808
684.237925	2651.646923
684.575963	2593.673654
684.913951	2578.550192
685.251889	2691.976154
685.589776	2601.235385
685.927614	2616.358846
686.265401	2601.235385
686.603137	2573.509038
686.940824	2676.852692
687.278460	2641.564615
687.616046	2628.961731
687.953582	2631.482308
688.291068	2646.605769
688.628504	2497.891731
688.965889	2661.729231
689.303224	2679.373269
689.640510	2586.111923
689.977745	2644.085192
690.314930	2679.373269
690.652065	2565.947308
690.989150	2639.044038
691.326185	2593.673654
691.663170	2681.893846
692.000105	2649.126346
692.336990	2583.591346
692.673825	2588.632500
693.010610	2596.194231
693.347345	2636.523462
693.684030	2618.879423
694.020665	2606.276538
694.357251	2689.455577
694.693786	2628.961731
695.030272	2654.167500
695.366707	2613.838269
695.703093	2654.167500
696.039429	2608.797115
696.375716	2608.797115
696.711952	2656.688077
697.048139	2626.441154
697.384276	2616.358846
697.720363	2628.961731
698.056400	2618.879423
698.392388	2634.002885
698.728326	2573.509038
699.064214	2623.920577
699.400053	2639.044038
699.735842	2558.385577
700.071581	2581.070769
700.407270	2646.605769
700.742910	2621.400000
701.078501	2628.961731
701.414042	2639.044038
701.749533	2606.276538
702.084974	2608.797115
702.420366	2601.235385
702.755709	2613.838269
703.091002	2613.838269
703.426246	2664.249808
703.761440	2593.673654
704.096584	2611.317692
704.431679	2656.688077
704.766725	2656.688077
705.101721	2606.276538
705.436668	2697.017308
705.771565	2631.482308
706.106413	2634.002885
706.441212	2563.426731
706.775961	2664.249808
707.110661	2563.426731
707.445311	2717.181923
707.779913	2596.194231
708.114465	2661.729231
708.448967	2661.729231
708.783421	2656.688077
709.117825	2634.002885
709.452180	2538.220962
709.786485	2611.317692
710.120742	2631.482308
710.454949	2613.838269
710.789107	2545.782692
711.123216	2608.797115
711.457275	2606.276538
711.791286	2641.564615
712.125247	2641.564615
712.459159	2553.344423
712.793023	2649.126346
713.126837	2644.085192
713.460602	2752.470000
713.794318	2641.564615
714.127985	2535.700385
714.461602	2628.961731
714.795171	2651.646923
715.128691	2621.400000
715.462162	2636.523462
715.795584	2704.579038
716.128957	2608.797115
716.462281	2586.111923
716.795556	2641.564615
717.128782	2664.249808
717.461960	2626.441154
717.795088	2613.838269
718.128167	2623.920577
718.461198	2621.400000
718.794180	2641.564615
719.127113	2583.591346
719.459997	2560.906154
719.792833	2621.400000
720.125619	2651.646923
720.458357	2586.111923
720.791046	2646.605769
721.123686	2601.235385
721.456278	2641.564615
721.788821	2540.741538
722.121315	2669.290962
722.453761	2573.509038
722.786158	2646.605769
723.118506	2555.865000
723.450805	2671.811538
723.783056	2608.797115
724.115259	2636.523462
724.447412	2523.097500
724.779518	2649.126346
725.111574	2656.688077
725.443582	2578.550192
725.775542	2603.755962
726.107453	2545.782692
726.439315	2659.208654
726.771129	2578.550192
727.102895	2729.784808
727.434612	2636.523462
727.766281	2573.509038
728.097901	2593.673654
728.429473	2628.961731
728.760996	2664.249808
729.092471	2563.426731
729.423897	2621.400000
729.755276	2636.523462
730.086606	2543.262115
730.417887	2596.194231
730.749120	2666.770385
731.080305	2626.441154
731.411442	2608.797115
731.742530	2576.029615
732.073570	2568.467885
732.404562	2588.632500
732.735506	2573.509038
733.066401	2603.755962
733.397249	2659.208654
733.728048	2669.290962
734.058798	2644.085192
734.389501	2606.276538
734.720156	2616.358846
735.050762	2613.838269
735.381320	2603.755962
735.711831	2565.947308
736.042293	2628.961731
736.372707	2669.290962
736.703073	2661.729231
737.033391	2651.646923
737.363661	2628.961731
737.693883	2694.496731
738.024056	2558.385577
738.354182	2611.317692
738.684260	2606.276538
739.014290	2628.961731
739.344272	2646.605769
739.674207	2659.208654
740.004093	2581.070769
740.333931	2603.755962
740.663722	2679.373269
740.993464	2674.332115
741.323159	2628.961731
741.652806	2586.111923
741.982405	2666.770385
742.311956	2608.797115
742.641460	2631.482308
742.970915	2628.961731
743.300323	2603.755962
743.629683	2533.179808
743.958996	2634.002885
744.288260	2661.729231
744.617477	2669.290962
744.946647	2656.688077
745.275768	2671.811538
745.604842	2540.741538
745.933869	2550.823846
746.262847	2649.126346
746.591778	2573.509038
746.920662	2626.441154
747.249498	2550.823846
747.578286	2530.659231
747.907027	2649.126346
748.235720	2505.453462
748.564365	2603.755962
748.892963	2626.441154
749.221514	2621.400000
749.550017	2628.961731
749.878473	2654.167500
750.206881	2646.605769
750.535242	2563.426731
750.863555	2697.017308
751.191821	2623.920577
751.520039	2545.782692
751.848210	2563.426731
752.176334	2601.235385
752.504411	2608.797115
752.832440	2651.646923
753.160421	2644.085192
753.488356	2681.893846
753.816243	2576.029615
754.144082	2654.167500
754.471875	2570.988462
754.799620	2606.276538
755.127318	2727.264231
755.454969	2593.673654
755.782572	2636.523462
756.110129	2636.523462
756.437638	2523.097500
756.765100	2573.509038
757.092515	2530.659231
757.419882	2623.920577
757.747203	2563.426731
758.074477	2661.729231
758.401703	2661.729231
758.728882	2611.317692
759.056014	2601.235385
759.383099	2565.947308
759.710138	2656.688077
760.037129	2666.770385
760.364073	2646.605769
760.690970	2601.235385
761.017820	2623.920577
761.344623	2568.467885
761.671379	2618.879423
761.998088	2548.303269
762.324751	2681.893846
762.651366	2666.770385
762.977935	2618.879423
763.304456	2598.714808
763.630931	2689.455577
763.957359	2641.564615
764.283740	2634.002885
764.610074	2578.550192
764.936362	2528.138654
765.262602	2659.208654
765.588796	2596.194231
765.914943	2596.194231
766.241044	2679.373269
766.567097	2553.344423
766.893104	2634.002885
767.219064	2664.249808
767.544978	2608.797115
767.870845	2593.673654
768.196665	2611.317692
768.522438	2495.371154
768.848165	2601.235385
769.173846	2513.015192
769.499479	2581.070769
769.825066	2606.276538
770.150607	2618.879423
770.476101	2500.412308
770.801548	2576.029615
771.126949	2510.494615
771.452303	2623.920577
771.777611	2649.126346
772.102872	2661.729231
772.428087	2613.838269
772.753256	2586.111923
773.078378	2636.523462
773.403453	2618.879423
773.728482	2621.400000
774.053465	2530.659231
774.378401	2634.002885
774.703291	2694.496731
775.028135	2588.632500
775.352932	2626.441154
775.677683	2515.535769
776.002388	2646.605769
776.327046	2596.194231
776.651658	2563.426731
776.976224	2573.509038
777.300743	2573.509038
777.625216	2679.373269
777.949643	2558.385577
778.274024	2570.988462
778.598359	2565.947308
778.922647	2565.947308
779.246889	2628.961731
779.571086	2598.714808
779.895236	2646.605769
780.219339	2644.085192
780.543397	2654.167500
780.867409	2684.414423
781.191374	2603.755962
781.515294	2674.332115
781.839167	2626.441154
782.162995	2570.988462
782.486776	2621.400000
782.810511	2591.153077
783.134201	2576.029615
783.457844	2568.467885
783.781441	2611.317692
784.104993	2581.070769
784.428498	2530.659231
784.751958	2563.426731
785.075372	2603.755962
785.398739	2606.276538
785.722061	2565.947308
786.045337	2676.852692
786.368568	2631.482308
786.691752	2616.358846
787.014891	2588.632500
787.337983	2603.755962
787.661030	2634.002885
787.984031	2510.494615
788.306987	2628.961731
788.629897	2598.714808
788.952760	2510.494615
789.275579	2555.865000
789.598351	2596.194231
789.921078	2603.755962
790.243759	2513.015192
790.566395	2540.741538
790.888984	2639.044038
791.211529	2634.002885
791.534027	2611.317692
791.856480	2636.523462
792.178888	2686.935000
792.501249	2634.002885
792.823566	2591.153077
793.145836	2651.646923
793.468062	2694.496731
793.790241	2578.550192
794.112375	2545.782692
794.434464	2686.935000
794.756507	2611.317692
795.078505	2631.482308
795.400457	2613.838269
795.722364	2583.591346
796.044226	2608.797115
796.366042	2586.111923
796.687812	2626.441154
797.009538	2555.865000
797.331218	2591.153077
797.652852	2684.414423
797.974442	2563.426731
798.295986	2538.220962
798.617484	2588.632500
798.938938	2666.770385
799.260346	2601.235385
799.581709	2676.852692
799.903026	2583.591346
800.224299	2613.838269
800.545526	2538.220962
800.866708	2591.153077
801.187845	2684.414423
801.508936	2540.741538
801.829983	2581.070769
802.150984	2502.932885
802.471940	2591.153077
802.792851	2646.605769
803.113717	2510.494615
803.434538	2631.482308
803.755314	2570.988462
804.076045	2626.441154
804.396731	2513.015192
804.717372	2601.235385
805.037967	2611.317692
805.358518	2671.811538
805.679024	2644.085192
805.999485	2651.646923
806.319901	2591.153077
806.640272	2616.358846
806.960598	2560.906154
807.280879	2555.865000
807.601115	2616.358846
807.921306	2636.523462
808.241453	2578.550192
808.561554	2651.646923
808.881611	2568.467885
809.201623	2598.714808
809.521590	2639.044038
809.841513	2523.097500
810.161390	2626.441154
810.481223	2568.467885
810.801011	2482.768269
811.120755	2583.591346
811.440453	2626.441154
811.760107	2608.797115
812.079716	2623.920577
812.399281	2525.618077
812.718801	2656.688077
813.038276	2558.385577
813.357707	2628.961731
813.677093	2540.741538
813.996434	2618.879423
814.315731	2573.509038
814.634983	2649.126346
814.954191	2573.509038
815.273354	2586.111923
815.592473	2654.167500
815.911547	2686.935000
816.230577	2578.550192
816.549562	2691.976154
816.868502	2563.426731
817.187399	2636.523462
817.506250	2538.220962
817.825058	2578.550192
818.143821	2581.070769
818.462539	2586.111923
818.781213	2623.920577
819.099843	2618.879423
819.418429	2628.961731
819.736970	2586.111923
820.055466	2533.179808
820.373919	2616.358846
820.692327	2613.838269
821.010691	2558.385577
821.329011	2674.332115
821.647286	2681.893846
821.965517	2674.332115
822.283704	2691.976154
822.601847	2694.496731
822.919945	2641.564615
823.237999	2686.935000
823.556010	2616.358846
823.873976	2681.893846
824.191897	2676.852692
824.509775	2631.482308
824.827609	2623.920577
825.145398	2523.097500
825.463144	2606.276538
825.780845	2613.838269
826.098502	2611.317692
826.416116	2656.688077
826.733685	2712.140769
827.051210	2694.496731
827.368692	2646.605769
827.686129	2601.235385
828.003522	2573.509038
828.320872	2641.564615
828.638177	2646.605769
828.955439	2664.249808
829.272656	2676.852692
829.589830	2606.276538
829.906960	2666.770385
830.224046	2603.755962
830.541088	2591.153077
830.858086	2558.385577
831.175041	2578.550192
831.491952	2664.249808
831.808819	2606.276538
832.125642	2530.659231
832.442421	2644.085192
832.759157	2618.879423
833.075849	2636.523462
833.392497	2608.797115
833.709101	2636.523462
834.025662	2666.770385
834.342179	2588.632500
834.658653	2588.632500
834.975083	2628.961731
835.291469	2613.838269
835.607811	2533.179808
835.924110	2588.632500
836.240366	2654.167500
836.556578	2528.138654
836.872746	2621.400000
837.188871	2591.153077
837.504952	2623.920577
837.820990	2636.523462
838.136984	2573.509038
838.452935	2606.276538
838.768842	2576.029615
839.084706	2520.576923
839.400526	2588.632500
839.716303	2515.535769
840.032037	2533.179808
840.347727	2613.838269
840.663373	2656.688077
840.978977	2487.809423
841.294537	2679.373269
841.610054	2565.947308
841.925527	2535.700385
842.240957	2563.426731
842.556344	2613.838269
842.871687	2608.797115
843.186987	2548.303269
843.502244	2573.509038
843.817458	2651.646923
844.132629	2606.276538
844.447756	2523.097500
844.762840	2694.496731
845.077881	2636.523462
845.392879	2661.729231
845.707833	2639.044038
846.022745	2616.358846
846.337613	2646.605769
846.652438	2598.714808
846.967221	2565.947308
847.281960	2644.085192
847.596656	2507.974038
847.911309	2502.932885
848.225919	2603.755962
848.540485	2608.797115
848.855009	2616.358846
849.169490	2553.344423
849.483928	2560.906154
849.798323	2576.029615
850.112675	2644.085192
850.426984	2538.220962
850.741251	2520.576923
851.055474	2596.194231
851.369654	2598.714808
851.683792	2586.111923
851.997887	2578.550192
852.311938	2606.276538
852.625947	2553.344423
852.939914	2568.467885
853.253837	2623.920577
853.567718	2588.632500
853.881555	2538.220962
854.195350	2611.317692
854.509103	2588.632500
854.822812	2681.893846
855.136479	2548.303269
855.450103	2618.879423
855.763685	2601.235385
856.077224	2618.879423
856.390720	2560.906154
856.704173	2578.550192
857.017584	2578.550192
857.330953	2621.400000
857.644278	2634.002885
857.957561	2681.893846
858.270802	2598.714808
858.584000	2654.167500
858.897155	2636.523462
859.210268	2586.111923
859.523339	2570.988462
859.836367	2598.714808
860.149352	2601.235385
860.462295	2654.167500
860.775195	2608.797115
861.088054	2586.111923
861.400869	2608.797115
861.713642	2681.893846
862.026373	2601.235385
862.339062	2558.385577
862.651708	2618.879423
862.964312	2588.632500
863.276873	2560.906154
863.589392	2681.893846
863.901869	2568.467885
864.214303	2608.797115
864.526696	2573.509038
864.839045	2500.412308
865.151353	2581.070769
865.463619	2598.714808
865.775842	2563.426731
866.088023	2545.782692
866.400162	2666.770385
866.712258	2565.947308
867.024313	2523.097500
867.336325	2656.688077
867.648296	2608.797115
867.960224	2603.755962
868.272110	2634.002885
868.583954	2520.576923
868.895755	2603.755962
869.207515	2618.879423
869.519233	2631.482308
869.830909	2621.400000
870.142542	2631.482308
870.454134	2681.893846
870.765684	2639.044038
871.077191	2581.070769
871.388657	2636.523462
871.700081	2530.659231
872.011463	2540.741538
872.322803	2623.920577
872.634101	2565.947308
872.945357	2634.002885
873.256571	2545.782692
873.567744	2641.564615
873.878874	2581.070769
874.189963	2628.961731
874.501010	2535.700385
874.812015	2578.550192
875.122979	2621.400000
875.433900	2570.988462
875.744780	2628.961731
876.055618	2664.249808
876.366415	2518.056346
876.677169	2545.782692
876.987882	2570.988462
877.298554	2548.303269
877.609183	2591.153077
877.919771	2477.727115
878.230317	2603.755962
878.540822	2611.317692
878.851285	2659.208654
879.161707	2641.564615
879.472087	2603.755962
879.782425	2676.852692
880.092722	2651.646923
880.402977	2634.002885
880.713191	2727.264231
881.023363	2636.523462
881.333494	2644.085192
881.643583	2651.646923
881.953631	2651.646923
882.263637	2724.743654
882.573602	2608.797115
882.883526	2555.865000
883.193408	2621.400000
883.503248	2596.194231
883.813048	2606.276538
884.122806	2598.714808
884.432522	2704.579038
884.742197	2651.646923
885.051831	2603.755962
885.361424	2618.879423
885.670975	2608.797115
885.980485	2656.688077
886.289954	2505.453462
886.599382	2545.782692
886.908768	2649.126346
887.218113	2598.714808
887.527417	2608.797115
887.836680	2573.509038
888.145901	2649.126346
888.455082	2644.085192
888.764221	2634.002885
889.073319	2548.303269
889.382376	2490.330000
889.691392	2593.673654
890.000366	2626.441154
890.309300	2525.618077
890.618193	2618.879423
890.927044	2570.988462
891.235855	2641.564615
891.544625	2593.673654
891.853353	2674.332115
892.162041	2603.755962
892.470687	2591.153077
892.779293	2540.741538
893.087858	2525.618077
893.396381	2576.029615
893.704864	2616.358846
894.013306	2565.947308
894.321707	2586.111923
894.630068	2634.002885
894.938387	2608.797115
895.246665	2684.414423
895.554903	2598.714808
895.863100	2628.961731
896.171256	2626.441154
896.479371	2608.797115
896.787446	2606.276538
897.095480	2664.249808
897.403473	2563.426731
897.711425	2654.167500
898.019336	2563.426731
898.327207	2623.920577
898.635038	2606.276538
898.942827	2576.029615
899.250576	2545.782692
899.558284	2616.358846
899.865952	2540.741538
900.173579	2593.673654
900.481165	2533.179808
900.788711	2588.632500
901.096216	2649.126346
901.403681	2540.741538
901.711105	2565.947308
902.018489	2591.153077
902.325832	2613.838269
902.633135	2639.044038
902.940397	2601.235385
903.247619	2588.632500
903.554800	2606.276538
903.861941	2591.153077
904.169041	2664.249808
904.476101	2500.412308
904.783121	2608.797115
905.090100	2578.550192
905.397039	2671.811538
905.703938	2631.482308
906.010796	2540.741538
906.317614	2588.632500
906.624391	2543.262115
906.931129	2611.317692
907.237826	2581.070769
907.544483	2601.235385
907.851099	2543.262115
908.157675	2646.605769
908.464211	2596.194231
908.770707	2550.823846
909.077163	2586.111923
909.383578	2636.523462
909.689954	2477.727115
909.996289	2623.920577
910.302584	2646.605769
910.608839	2487.809423
910.915054	2543.262115
911.221229	2573.509038
911.527363	2591.153077
911.833458	2603.755962
912.139513	2649.126346
912.445527	2550.823846
912.751502	2641.564615
913.057436	2621.400000
913.363331	2535.700385
913.669186	2628.961731
913.975000	2611.317692
914.280775	2545.782692
914.586510	2646.605769
914.892205	2613.838269
915.197859	2644.085192
915.503475	2565.947308
915.809050	2639.044038
916.114585	2659.208654
916.420081	2631.482308
916.725536	2611.317692
917.030952	2608.797115
917.336328	2669.290962
917.641665	2659.208654
917.946961	2631.482308
918.252218	2570.988462
918.557435	2649.126346
918.862612	2603.755962
919.167750	2598.714808
919.472848	2636.523462
919.777906	2601.235385
920.082925	2724.743654
920.387904	2661.729231
920.692843	2477.727115
920.997743	2528.138654
921.302603	2565.947308
921.607423	2535.700385
921.912204	2581.070769
922.216946	2518.056346
922.521647	2583.591346
922.826310	2654.167500
923.130932	2553.344423
923.435516	2550.823846
923.740059	2528.138654
924.044564	2560.906154
924.349028	2621.400000
924.653454	2560.906154
924.957840	2601.235385
925.262186	2628.961731
925.566493	2646.605769
925.870761	2631.482308
926.174989	2596.194231
926.479178	2565.947308
926.783328	2613.838269
927.087438	2634.002885
927.391509	2530.659231
927.695541	2613.838269
927.999533	2583.591346
928.303486	2646.605769
928.607400	2601.235385
928.911275	2626.441154
929.215110	2621.400000
929.518906	2656.688077
929.822663	2563.426731
930.126381	2626.441154
930.430060	2472.685962
930.733699	2565.947308
931.037299	2659.208654
931.340861	2510.494615
931.644383	2598.714808
931.947866	2591.153077
932.251309	2543.262115
932.554714	2568.467885
932.858080	2576.029615
933.161407	2558.385577
933.464694	2616.358846
933.767943	2641.564615
934.071153	2674.332115
934.374323	2598.714808
934.677455	2578.550192
934.980548	2553.344423
935.283602	2606.276538
935.586617	2671.811538
935.889593	2593.673654
936.192530	2603.755962
936.495428	2621.400000
936.798287	2603.755962
937.101108	2500.412308
937.403890	2550.823846
937.706632	2606.276538
938.009336	2586.111923
938.312002	2596.194231
938.614628	2550.823846
938.917216	2636.523462
939.219765	2608.797115
939.522275	2563.426731
939.824747	2603.755962
940.127179	2495.371154
940.429573	2502.932885
940.731929	2553.344423
941.034246	2616.358846
941.336524	2601.235385
941.638763	2659.208654
941.940964	2565.947308
942.243126	2601.235385
942.545250	2598.714808
942.847335	2570.988462
943.149381	2578.550192
943.451389	2598.714808
943.753359	2576.029615
944.055290	2578.550192
944.357182	2611.317692
944.659036	2603.755962
944.960851	2664.249808
945.262628	2644.085192
945.564367	2578.550192
945.866067	2606.276538
946.167729	2555.865000
946.469352	2510.494615
946.770937	2576.029615
947.072484	2588.632500
947.373992	2568.467885
947.675462	2679.373269
947.976893	2606.276538
948.278286	2523.097500
948.579641	2538.220962
948.880958	2628.961731
949.182236	2548.303269
949.483476	2613.838269
949.784678	2510.494615
950.085841	2548.303269
950.386967	2573.509038
950.688054	2568.467885
950.989103	2621.400000
951.290114	2601.235385
951.591087	2553.344423
951.892021	2515.535769
952.192917	2674.332115
952.493776	2651.646923
952.794596	2550.823846
953.095378	2581.070769
953.396122	2618.879423
953.696828	2545.782692
953.997496	2651.646923
954.298126	2596.194231
954.598718	2545.782692
954.899272	2623.920577
955.199788	2568.467885
955.500266	2576.029615
955.800706	2644.085192
956.101108	2583.591346
956.401472	2570.988462
956.701798	2568.467885
957.002087	2669.290962
957.302337	2611.317692
957.602550	2570.988462
957.902724	2686.935000
958.202861	2502.932885
958.502960	2563.426731
958.803022	2515.535769
959.103045	2576.029615
959.403031	2573.509038
959.702979	2626.441154
960.002889	2621.400000
960.302762	2563.426731
960.602596	2578.550192
960.902393	2626.441154
961.202153	2548.303269
961.501875	2576.029615
961.801559	2576.029615
962.101205	2659.208654
962.400814	2538.220962
962.700385	2583.591346
962.999918	2583.591346
963.299414	2634.002885
963.598873	2543.262115
963.898293	2608.797115
964.197677	2621.400000
964.497022	2565.947308
964.796331	2606.276538
965.095601	2525.618077
965.394835	2618.879423
965.694030	2550.823846
965.993189	2649.126346
966.292309	2618.879423
966.591393	2674.332115
966.890439	2558.385577
967.189447	2616.358846
967.488419	2634.002885
967.787353	2593.673654
968.086249	2666.770385
968.385108	2578.550192
968.683930	2659.208654
968.982714	2565.947308
969.281462	2601.235385
969.580172	2603.755962
969.878844	2634.002885
970.177480	2507.974038
970.476078	2613.838269
970.774639	2646.605769
971.073162	2631.482308
971.371649	2596.194231
971.670098	2573.509038
971.968510	2666.770385
972.266885	2613.838269
972.565223	2576.029615
972.863524	2528.138654
973.161788	2565.947308
973.460014	2558.385577
973.758204	2646.605769
974.056356	2598.714808
974.354471	2563.426731
974.652550	2618.879423
974.950591	2583.591346
975.248595	2583.591346
975.546563	2628.961731
975.844493	2611.317692
976.142386	2573.509038
976.440243	2550.823846
976.738062	2621.400000
977.035845	2608.797115
977.333590	2601.235385
977.631299	2651.646923
977.928971	2631.482308
978.226606	2591.153077
978.524204	2613.838269
978.821765	2500.412308
979.119290	2550.823846
979.416777	2565.947308
979.714228	2621.400000
980.011642	2596.194231
980.309020	2616.358846
980.606360	2576.029615
980.903664	2523.097500
981.200931	2565.947308
981.498162	2583.591346
981.795356	2618.879423
982.092513	2628.961731
982.389633	2616.358846
982.686717	2548.303269
982.983764	2581.070769
983.280775	2649.126346
983.577749	2593.673654
983.874686	2598.714808
984.171587	2628.961731
984.468451	2581.070769
984.765279	2628.961731
985.062070	2616.358846
985.358824	2628.961731
985.655543	2578.550192
985.952224	2601.235385
986.248869	2649.126346
986.545478	2573.509038
986.842050	2477.727115
987.138586	2573.509038
987.435086	2661.729231
987.731549	2639.044038
988.027975	2591.153077
988.324366	2533.179808
988.620719	2565.947308
988.917037	2601.235385
989.213318	2568.467885
989.509563	2540.741538
989.805772	2646.605769
990.101944	2523.097500
990.398080	2601.235385
990.694180	2477.727115
990.990244	2565.947308
991.286271	2558.385577
991.582262	2515.535769
991.878217	2550.823846
992.174136	2628.961731
992.470019	2583.591346
992.765865	2649.126346
993.061676	2634.002885
993.357450	2560.906154
993.653188	2583.591346
993.948890	2596.194231
994.244556	2548.303269
994.540186	2555.865000
994.835780	2646.605769
995.131337	2576.029615
995.426859	2568.467885
995.722345	2623.920577
996.017795	2613.838269
996.313208	2553.344423
996.608586	2644.085192
996.903928	2588.632500
997.199234	2576.029615
997.494504	2601.235385
997.789738	2611.317692
998.084936	2596.194231
998.380099	2523.097500
998.675225	2588.632500
998.970316	2591.153077
999.265371	2691.976154
999.560390	2573.509038
999.855373	2626.441154
1000.150320	2623.920577
1000.445232	2651.646923
1000.740108	2601.235385
1001.034948	2601.235385
1001.329752	2608.797115
1001.624521	2576.029615
1001.919254	2576.029615
1002.213951	2581.070769
1002.508613	2570.988462
1002.803239	2623.920577
1003.097829	2608.797115
1003.392384	2533.179808
1003.686903	2581.070769
1003.981386	2606.276538
1004.275834	2641.564615
1004.570246	2578.550192
1004.864623	2515.535769
1005.158964	2611.317692
1005.453270	2623.920577
1005.747540	2616.358846
1006.041775	2674.332115
1006.335974	2583.591346
1006.630138	2596.194231
1006.924266	2616.358846
1007.218359	2603.755962
1007.512416	2616.358846
1007.806438	2611.317692
1008.100425	2613.838269
1008.394376	2654.167500
1008.688292	2550.823846
1008.982172	2573.509038
1009.276017	2550.823846
1009.569827	2611.317692
1009.863602	2576.029615
1010.157341	2616.358846
1010.451045	2545.782692
1010.744714	2596.194231
1011.038347	2550.823846
1011.331945	2548.303269
1011.625508	2588.632500
1011.919036	2563.426731
1012.212528	2618.879423
1012.505986	2626.441154
1012.799408	2548.303269
1013.092795	2497.891731
1013.386147	2661.729231
1013.679464	2588.632500
1013.972745	2568.467885
1014.265992	2533.179808
1014.559204	2628.961731
1014.852380	2601.235385
1015.145521	2618.879423
1015.438628	2639.044038
1015.731699	2626.441154
1016.024736	2588.632500
1016.317737	2560.906154
1016.610703	2613.838269
1016.903635	2623.920577
1017.196531	2538.220962
1017.489393	2563.426731
1017.782219	2576.029615
1018.075011	2646.605769
1018.367768	2616.358846
1018.660490	2618.879423
1018.953177	2618.879423
1019.245829	2618.879423
