Dividing Wavelength (nm)	Counts (n)	Blue Motor Position (mm): 20.500000	Red Motor Position (mm): 0.000000	
326.493990	2103.058479
326.888308	2103.058479
327.282561	2103.058479
327.676750	2078.082083
328.070874	2079.677608
328.464933	2086.649523
328.858929	2097.097315
329.252859	2108.555858
329.646726	2123.974227
330.040528	2138.709519
330.434265	2160.204999
330.827938	2179.547907
331.221547	2196.967614
331.615091	2217.984184
332.008571	2239.169633
332.401986	2261.882552
332.795338	2279.241765
333.188625	2298.677934
333.581847	2318.114102
333.975006	2339.221413
334.368100	2351.960409
334.761129	2373.324819
335.154095	2386.131871
335.546996	2429.044693
335.939833	2495.799652
336.332606	2505.733246
336.725315	2519.656913
337.117960	2526.447347
337.510540	2533.769623
337.903056	2544.025850
338.295508	2551.917777
338.687896	2558.141081
339.080220	2564.825651
339.472480	2568.387226
339.864676	2570.446537
340.256807	2575.205387
340.648875	2575.485171
341.040879	2580.072621
341.432818	2578.845100
341.824694	2581.668146
342.216506	2579.409709
342.608253	2577.577250
342.999937	2579.807960
343.391557	2576.589183
343.783113	2578.043556
344.174605	2575.112125
344.566033	2573.090623
344.957397	2572.465520
345.348697	2569.690364
345.739934	2567.936043
346.131106	2565.889334
346.522215	2561.586710
346.913260	2563.998902
347.304241	2562.194169
347.695159	2560.951524
348.086012	2557.755433
348.476802	2555.945658
348.867528	2555.799465
349.258191	2556.444733
349.648789	2553.835936
350.039324	2547.501726
350.429796	2552.595812
350.820203	2552.358878
351.210548	2550.665050
351.600828	2547.300080
351.991045	2547.600028
352.381198	2544.882846
352.771288	2547.559699
353.161314	2547.809236
353.551276	2546.717826
353.941175	2546.586756
354.331010	2546.117929
354.720782	2551.083466
355.110490	2554.471121
355.500135	2550.178578
355.889717	2549.114895
356.279235	2548.802343
356.668689	2550.675132
357.058080	2549.147663
357.447408	2547.718495
357.836672	2548.187323
358.225873	2548.411654
358.615010	2547.138763
359.004084	2551.688404
359.393095	2550.874258
359.782043	2552.736964
360.170927	2552.615976
360.559748	2552.492468
360.948505	2554.947510
361.337199	2558.277192
361.725830	2555.917932
362.114398	2557.977243
362.502903	2555.870041
362.891344	2558.715772
363.279722	2555.320555
363.668037	2561.017059
364.056289	2557.939435
364.444478	2557.132850
364.832603	2560.092007
365.220665	2559.240052
365.608665	2560.631411
365.996601	2562.307595
366.384474	2561.337173
366.772284	2559.666030
367.160031	2559.998746
367.547715	2564.276165
367.935336	2561.155691
368.322893	2561.201061
368.710388	2564.631567
369.097820	2563.260373
369.485189	2562.920095
369.872495	2563.764488
370.259738	2564.356824
370.646918	2563.159550
371.034035	2562.441185
371.421090	2565.357493
371.808081	2564.495455
372.195010	2565.246587
372.581875	2562.927657
372.968678	2564.855898
373.355418	2564.976886
373.742096	2570.015519
374.128710	2563.562842
374.515262	2568.132648
374.901751	2571.109449
375.288177	2566.837071
375.674540	2564.681978
376.060841	2568.689695
376.447079	2570.350756
376.833254	2570.759089
377.219367	2565.758264
377.605417	2565.591906
377.991404	2565.478480
378.377329	2567.525189
378.763191	2567.114335
379.148991	2571.041394
379.534727	2571.157340
379.920402	2571.671538
380.306013	2573.892166
380.691563	2573.652711
381.077049	2569.340004
381.462474	2571.323698
381.847835	2570.068451
382.233134	2573.952660
382.618371	2573.693041
383.003545	2572.863771
383.388657	2575.268401
383.773706	2574.050963
384.158693	2575.049111
384.543618	2576.402661
384.928480	2574.592887
385.313280	2577.292424
385.698017	2574.025757
386.082692	2577.037846
386.467305	2577.912486
386.851856	2577.025243
387.236344	2576.760583
387.620770	2578.209914
388.005133	2577.418453
388.389435	2580.712847
388.773674	2576.984914
389.157851	2575.913669
389.541965	2578.588001
389.926018	2580.619586
390.310008	2579.190419
390.693936	2581.781572
391.077802	2578.857703
391.461606	2580.624627
391.845348	2579.165213
392.229027	2581.317786
392.612645	2581.844586
392.996200	2583.470358
393.379694	2582.041191
393.763125	2581.509350
394.146494	2583.009093
394.529801	2583.929103
394.913047	2582.900708
395.296230	2583.223342
395.679351	2580.990111
396.062410	2585.265009
396.445408	2585.789289
396.828343	2587.674681
397.211217	2581.020358
397.594028	2582.303331
397.976778	2582.081521
398.359466	2582.779720
398.742092	2582.920873
399.124656	2583.694690
399.507158	2583.518249
399.889598	2584.929773
400.271977	2585.350709
400.654294	2589.948241
401.036549	2584.307190
401.418742	2586.656368
401.800874	2587.057139
402.182944	2588.876996
402.564952	2589.492017
402.946898	2588.231728
403.328783	2587.321800
403.710606	2588.372881
404.092367	2587.992273
404.474067	2588.995463
404.855705	2587.977150
405.237282	2589.227356
405.618797	2591.269023
406.000250	2593.484611
406.381642	2591.619384
406.762972	2594.596185
407.144240	2591.150556
407.525447	2592.055443
407.906593	2592.057964
408.287677	2591.790783
408.668700	2590.646441
409.049661	2592.672985
409.430560	2592.849425
409.811399	2595.498552
410.192176	2596.035434
410.572891	2594.381936
410.953545	2592.476380
411.334138	2592.635176
411.714669	2595.052409
412.095139	2593.426637
412.475547	2594.064343
412.855894	2592.947728
413.236180	2594.971751
413.616405	2598.724890
413.996568	2596.163984
414.376670	2598.389653
414.756711	2595.304467
415.136691	2596.552153
415.516609	2595.795980
415.896466	2595.808582
416.276262	2598.848398
416.655997	2598.518203
417.035670	2593.076277
417.415283	2596.355548
417.794834	2592.100814
418.174324	2595.107862
418.553753	2597.081474
418.933121	2600.091043
419.312428	2600.002822
419.691674	2598.803028
420.070859	2599.849067
420.449983	2600.169181
420.829045	2600.577514
421.208047	2602.135231
421.586988	2599.660024
421.965867	2602.593976
422.344686	2601.734459
422.723444	2603.841661
423.102141	2597.628439
423.480777	2603.957608
423.859352	2602.553646
424.237866	2602.672113
424.616319	2602.740169
424.994712	2604.406270
425.373044	2605.127155
425.751314	2605.149841
426.129524	2603.650097
426.507673	2602.803183
426.885762	2605.767382
427.263789	2606.211003
427.641756	2606.321909
428.019662	2606.319388
428.397508	2606.226127
428.775292	2609.341560
429.153016	2606.266456
429.530679	2607.120932
429.908282	2605.333843
430.285824	2608.353494
430.663305	2606.904162
431.040726	2607.357866
431.418086	2606.699995
431.795385	2608.897938
432.172624	2607.841817
432.549802	2609.686879
432.926920	2605.689244
433.303977	2610.876591
433.680974	2608.655963
434.057910	2610.627054
434.434786	2612.683845
434.811601	2611.458845
435.188355	2612.646036
435.565050	2612.008330
435.941683	2615.325410
436.318257	2611.093361
436.694770	2608.998762
437.071222	2614.649895
437.447614	2608.340891
437.823946	2612.046139
438.200218	2612.376335
438.576429	2615.723661
438.952580	2613.697117
439.328670	2616.341202
439.704700	2614.801130
440.080670	2613.568567
440.456580	2615.627879
440.832429	2615.519494
441.208218	2617.974536
441.583947	2617.619135
441.959616	2616.764659
442.335224	2617.853548
442.710773	2616.653754
443.086261	2619.786831
443.461689	2616.522684
443.837057	2620.023765
444.212365	2619.383538
444.587612	2620.366563
444.962800	2621.158025
445.337927	2620.835391
445.712995	2619.348250
446.088002	2622.002418
446.462949	2620.527880
446.837837	2622.990484
447.212664	2622.768673
447.587431	2625.475773
447.962139	2629.107924
448.336786	2634.756537
448.711374	2632.165384
449.085901	2627.013325
449.460369	2626.037862
449.834776	2628.185393
450.209124	2628.387039
450.583412	2634.522123
450.957640	2631.449540
451.331808	2629.720424
451.705917	2630.766464
452.079965	2633.919706
452.453954	2630.494242
452.827883	2632.795528
453.201752	2634.068420
453.575562	2637.284676
453.949311	2636.084881
454.323001	2636.495735
454.696632	2636.115128
455.070202	2643.618886
455.443713	2641.090747
455.817164	2640.891621
456.190556	2640.846251
456.563888	2644.009575
456.937160	2641.393216
457.310373	2646.517549
457.683526	2647.626603
458.056619	2645.993269
458.429653	2651.054587
458.802628	2649.408651
459.175542	2652.198929
459.548398	2659.493479
459.921194	2661.552790
460.293930	2664.960610
460.666607	2670.599141
461.039224	2674.132990
461.411782	2674.198525
461.784280	2672.386230
462.156719	2676.976201
462.529099	2675.841941
462.901419	2676.958557
463.273680	2673.185253
463.645882	2676.396468
464.018024	2679.370749
464.390106	2684.495082
464.762130	2691.194775
465.134094	2703.764892
465.505999	2719.258878
465.877845	2734.011815
466.249631	2739.617578
466.621358	2737.885942
466.993026	2736.169429
467.364634	2734.205900
467.736184	2727.647358
468.107674	2725.756926
468.479105	2726.818089
468.850477	2727.360013
469.221790	2724.292471
469.593043	2723.334651
469.964238	2723.863972
470.335373	2724.501678
470.706449	2733.520303
471.077467	2744.993969
471.448425	2763.832761
471.819324	2776.269287
472.190164	2772.238885
472.560945	2762.953079
472.931667	2757.488469
473.302330	2752.711975
473.672934	2753.861358
474.043479	2759.968716
474.413965	2755.439240
474.784393	2757.420413
475.154761	2767.245622
475.525070	2769.002464
475.895321	2769.710746
476.265513	2774.673762
476.635645	2787.286729
477.005719	2794.815692
477.375734	2802.702577
477.745691	2808.013433
478.115588	2822.322748
478.485427	2841.020388
478.855207	2869.528113
479.224928	2890.418654
479.594591	2910.061510
479.964194	2910.726943
480.333739	2923.246648
480.703226	2931.584717
481.072653	2952.954168
481.442022	2971.228351
481.811333	2984.239569
482.180584	2984.025320
482.549777	2999.385715
482.918912	3009.306706
483.287988	3022.174251
483.657005	3031.167670
484.025964	3042.376675
484.394864	3061.001218
484.763706	3073.833475
485.132489	3082.932758
485.501213	3104.745831
485.869879	3126.909264
486.238487	3143.076244
486.607036	3174.248219
486.975527	3192.373687
487.343959	3219.598439
487.712333	3250.820825
488.080648	3280.356946
488.448905	3322.775735
488.817104	3351.845548
489.185244	3405.967376
489.553326	3487.016527
489.921350	3595.527363
490.289315	3709.091957
490.657222	3773.860701
491.025070	3835.619877
491.392861	3863.462170
491.760593	3879.367010
492.128267	3887.384965
492.495883	3896.927870
492.863440	3918.365376
493.230939	3942.898152
493.598380	3966.931852
493.965763	4019.506046
494.333088	4059.063980
494.700354	4108.278245
495.067563	4170.894417
495.434713	4236.089139
495.801805	4315.799863
496.168839	4383.086664
496.535815	4445.738124
496.902733	4530.318603
497.269593	4602.195375
497.636395	4686.957336
498.003139	4795.959685
498.369825	4863.357391
498.736453	4976.019618
499.103023	5052.529210
499.469535	5142.017252
499.835989	5251.838789
500.202385	5340.525288
500.568723	5448.617709
500.935003	5580.506896
501.301226	5686.693761
501.667390	5849.520509
502.033497	5995.837479
502.399546	6067.131997
502.765537	6133.745804
503.131470	6296.101205
503.497345	6465.799047
503.863163	6474.391693
504.228923	6665.348080
504.594625	6850.789445
504.960269	6916.989878
505.325856	7145.749877
505.691385	7216.537760
506.056856	7377.307717
506.422270	7599.599917
506.787625	7699.084568
507.152924	7890.948362
507.518164	8068.558295
507.883347	8119.869679
508.248472	8323.645720
508.613540	8562.896361
508.978550	8779.552551
509.343503	8928.102752
509.708398	9135.432807
510.073236	9407.438345
510.438016	9595.385163
510.802738	9688.281025
511.167403	9994.120268
511.532010	10234.910981
511.896561	10483.583538
512.261053	10860.135046
512.625488	10972.714093
512.989866	11154.445169
513.354186	11331.792961
513.718449	11533.219825
514.082655	11908.964747
514.446803	12048.251828
514.810894	12394.430383
515.174927	12603.844955
515.538904	12816.216164
515.902822	13217.587792
516.266684	13307.799240
516.630488	13654.512158
516.994235	13845.410571
517.357925	14248.284463
517.721558	14536.714081
518.085133	14873.153127
518.448651	15154.000848
518.812112	15339.948849
519.175516	15622.744977
519.538863	15969.664582
519.902152	16219.700772
520.265385	16641.231974
520.628560	16904.723003
520.991678	17091.366683
521.354739	17443.695446
521.717743	17826.634095
522.080690	18069.184171
522.443580	18542.140184
522.806413	18846.071349
523.169189	19091.210058
523.531908	19451.040058
523.894569	19651.735954
524.257174	19996.117338
524.619722	20400.276724
524.982213	20675.639671
525.344647	20921.794172
525.707025	21211.622709
526.069345	21669.543481
526.431608	21922.004465
526.793815	22346.146985
527.155964	22407.084453
527.518057	22770.826388
527.880093	22943.228808
528.242072	23491.456810
528.603995	23621.364824
528.965860	23892.810794
529.327669	24229.693461
529.689421	24452.187307
530.051117	24707.783889
530.412755	25060.410080
530.774337	25375.882967
531.135862	25548.282867
531.497331	25922.071822
531.858743	26134.488401
532.220098	26596.774812
532.581396	26721.550931
532.942638	26788.016024
533.303824	27229.026245
533.664953	27492.792017
534.026025	27586.096213
534.387040	28145.830648
534.747999	28381.673469
535.108902	28746.625281
535.469748	28707.831081
535.830537	29045.734582
536.191270	29411.568597
536.551947	29467.797627
536.912567	29919.515258
537.273131	30245.224208
537.633638	30166.708237
537.994089	30641.035443
538.354483	30610.970002
538.714821	31239.173388
539.075103	31725.889231
539.435328	31819.568992
539.795497	31982.347850
540.155609	32220.002966
540.515665	32787.818371
540.875665	32633.170894
541.235609	33106.542802
541.595496	33344.560881
541.955328	34065.551745
542.315102	33819.356915
542.674821	33895.538832
543.034483	34158.067000
543.394090	34359.932444
543.753640	34554.483174
544.113134	35539.161673
544.472571	35009.354047
544.831953	36182.803593
545.191278	35765.731291
545.550548	35776.393332
545.909761	36357.235078
546.268918	36721.115645
546.628019	37168.422267
546.987064	37022.473301
547.346053	36638.140773
547.704986	37541.979328
548.063863	37376.611838
548.422684	37721.114210
548.781449	37784.174003
549.140158	38309.868047
549.498811	38368.950370
549.857408	38074.799043
550.215949	38972.414294
550.574434	39101.619067
550.932864	39061.763705
551.291237	39861.464624
551.649555	39708.231192
552.007817	40085.702709
552.366022	39944.994023
552.724173	40254.543554
553.082267	40764.322675
553.440305	41174.145798
553.798288	40729.813457
554.156215	41174.607063
554.514086	41507.439164
554.871902	41429.707092
555.229661	41614.339352
555.587365	41593.085847
555.945014	41836.145080
556.302606	41912.004363
556.660143	42259.390274
557.017625	42444.168727
557.375050	42413.100096
557.732421	42880.480593
558.089735	42995.307995
558.446994	43037.754511
558.804197	43603.729894
559.161345	43654.338038
559.518437	43088.324845
559.875474	43521.470866
560.232455	43799.114935
560.589381	44076.832100
560.946251	43907.991255
561.303065	44663.536708
561.659825	44579.115025
562.016528	44390.026386
562.373177	44236.873611
562.729770	44792.310463
563.086307	44443.560919
563.442789	44988.776831
563.799216	45110.613958
564.155587	45017.483682
564.511904	45137.074974
564.868164	45320.567933
565.224370	45629.782228
565.580520	45463.187217
565.936615	45742.567963
566.292654	45560.012658
566.648638	45901.596202
567.004567	45944.491380
567.360441	46061.287353
567.716260	45997.799061
568.072023	46352.799636
568.427732	46406.419869
568.783385	46026.747887
569.138982	46486.460789
569.494525	46495.129053
569.850013	46335.427820
570.205445	46373.866618
570.560823	46404.345434
570.916145	46349.585900
571.271412	46433.821060
571.626625	46234.151039
571.981782	46332.733323
572.336884	46087.123266
572.691931	46462.601008
573.046923	46137.310473
573.401860	46010.026380
573.756743	46041.135340
574.111570	46201.635597
574.466342	46116.177957
574.821059	46256.745490
575.175722	45836.885431
575.530330	45905.697181
575.884882	45651.539848
576.239380	45673.090780
576.593823	45687.642071
576.948211	45637.233053
577.302544	45216.518518
577.656823	45253.550834
578.011047	45534.731272
578.365216	45308.854812
578.719330	45110.561026
579.073389	45002.244273
579.427394	45120.313138
579.781344	45091.240803
580.135239	44777.386127
580.489080	44888.919135
580.842866	44405.031380
581.196597	44868.373912
581.550273	44829.322614
581.903895	44731.478859
582.257463	45151.089382
582.610975	44548.943720
582.964434	44871.620416
583.317837	44540.230085
583.671186	44394.775153
584.024481	44629.947500
584.377721	44174.108725
584.730906	44474.188449
585.084037	44541.568512
585.437113	44279.320127
585.790135	44311.107122
586.143103	43938.654073
586.496016	44060.236622
586.848874	44114.945744
587.201679	44137.618333
587.554428	43633.215603
587.907124	43833.954349
588.259765	43591.794962
588.612352	43850.822050
588.964884	43243.622631
589.317362	43556.315322
589.669786	43501.066796
590.022155	43275.908701
590.374470	43704.000965
590.726731	43246.488527
591.078937	42783.443423
591.431090	42888.211202
591.783188	42542.171279
592.135232	42232.737694
592.487222	42511.999973
592.839157	42586.833381
593.191038	42258.442538
593.542866	42010.495906
593.894639	41430.498553
594.246358	41729.809501
594.598022	41715.880793
594.949633	41322.186842
595.301190	41277.774277
595.652692	41129.501339
596.004141	41450.335494
596.355535	40494.878043
596.706876	40442.119848
597.058162	40286.985900
597.409395	40735.215053
597.760573	40831.251554
598.111698	40424.382548
598.462768	40436.481317
598.813785	40462.896963
599.164748	39930.772928
599.515657	40304.224126
599.866511	39809.013939
600.217312	40417.138410
600.568060	39391.724868
600.918753	40158.728864
601.269392	40098.552610
601.619978	39755.441597
601.970510	39968.241304
602.320988	40161.073000
602.671412	40474.821813
603.021783	40223.946271
603.372100	39885.515969
603.722363	39976.160957
604.072572	40051.468233
604.422728	40079.295403
604.772830	39882.859281
605.122878	40007.060709
605.472872	39937.331469
605.822813	40210.693078
606.172701	40025.193740
606.522534	40276.260845
606.872314	40540.626515
607.222041	40302.595833
607.571714	40688.493639
607.921333	40141.074743
608.270899	40411.386453
608.620411	40775.261979
608.969870	40564.501419
609.319276	40568.703221
609.668627	40631.475669
610.017926	41107.206837
610.367171	41267.296239
610.716362	41340.846673
611.065500	41276.884513
611.414585	41476.914977
611.763616	41771.202415
612.112594	41700.401930
612.461518	41924.140941
612.810389	42230.633012
613.159207	42094.168978
613.507971	42173.090762
613.856682	42656.358455
614.205340	42532.121739
614.553945	43242.165737
614.902496	42684.430120
615.250994	43163.430476
615.599439	43235.062752
615.947830	43427.929736
616.296169	43500.227444
616.644454	43597.950211
616.992686	43786.854849
617.340864	44297.438034
617.688990	44006.293755
618.037063	44621.324607
618.385082	44574.653604
618.733048	44870.163522
619.080961	44889.546759
619.428821	44896.720321
619.776628	45006.841806
620.124382	44837.685888
620.472083	44971.614223
620.819731	45107.072547
621.167326	44772.360096
621.514868	44757.173620
621.862357	44322.008618
622.209793	44357.291653
622.557176	44030.498855
622.904506	43768.613433
623.251783	43436.376189
623.599007	43178.284236
623.946179	42988.749454
624.293297	42950.756798
624.640363	42344.119468
624.987376	42326.931654
625.334336	42084.631115
625.681243	41735.412744
626.028097	41697.689789
626.374899	41541.514843
626.721647	41539.780686
627.068343	41433.205653
627.414987	41197.113295
627.761577	40945.216919
628.108115	41300.658595
628.454600	40733.695145
628.801032	40922.330081
629.147412	40889.802036
629.493739	40869.965095
629.840014	40518.178257
630.186236	40857.561336
630.532405	40447.181166
630.878521	40679.840499
631.224585	40538.899919
631.570597	40254.538513
631.916556	40390.763093
632.262462	40366.631090
632.608316	40372.030165
632.954117	40267.108630
633.299866	40236.148384
633.645562	40171.568683
633.991206	39695.035971
634.336797	39254.764280
634.682336	39244.480326
635.027823	39003.871094
635.373257	38815.795726
635.718639	38590.783824
636.063968	38449.979356
636.409245	37860.260138
636.754470	37912.065556
637.099642	37677.596449
637.444762	37183.407096
637.789829	37340.323092
638.134845	36996.082861
638.479808	36934.953829
638.824719	36838.927410
639.169577	36453.117824
639.514383	36511.738881
639.859137	36203.179937
640.203839	36455.444316
640.548489	36080.238797
640.893086	36152.965003
641.237632	35906.107261
641.582125	36016.153129
641.926566	35944.004135
642.270955	35916.713849
642.615292	35933.321930
642.959576	35899.004275
643.303809	35908.884937
643.647990	36049.250825
643.992118	36013.998036
644.336195	36010.028127
644.680219	36086.411690
645.024192	36397.375265
645.368112	36909.614469
645.711981	36908.455004
646.055797	37790.016700
646.399562	37697.060344
646.743274	38658.186572
647.086935	39081.686345
647.430544	38965.379364
647.774101	39072.302237
648.117606	39337.320736
648.461059	39645.670472
648.804460	39224.787058
649.147810	38624.244483
649.491108	38363.523568
649.834354	38000.641149
650.177548	37173.297062
650.520690	36702.294497
650.863781	36741.199602
651.206820	36590.607733
651.549807	36153.491804
651.892742	35655.251884
652.235626	35470.740612
652.578458	35350.125965
652.921238	34732.438426
653.263967	35049.320315
653.606644	34731.097479
653.949269	34663.268754
654.291843	34251.532513
654.634365	34659.611397
654.976836	34262.307980
655.319255	34260.699852
655.661622	34266.534987
656.003938	34049.770413
656.346203	33904.799431
656.688416	34116.774909
657.030577	33921.021864
657.372687	33752.790999
657.714746	34025.900549
658.056753	34146.565608
658.398708	33588.522480
658.740612	33640.494256
659.082465	33924.578398
659.424266	33739.220213
659.766016	33867.192423
660.107715	33739.315994
660.449362	33861.682442
660.790958	33834.102290
661.132503	33845.253322
661.473996	33880.496028
661.815438	34023.821073
662.156829	34196.437743
662.498168	33971.466170
662.839456	33979.668128
663.180693	34129.213956
663.521879	34309.616688
663.863013	34256.687093
664.204097	34235.410903
664.545129	34699.227304
664.886110	34660.828835
665.227040	34728.193774
665.567918	34844.800704
665.908746	34907.114406
666.249522	35061.164506
666.590248	35074.488276
666.930922	35171.301115
667.271545	35133.492461
667.612118	35203.955189
667.952639	34989.189432
668.293109	35049.141354
668.633528	34950.932116
668.973896	34869.565372
669.314213	34926.691727
669.654480	34653.700644
669.994695	34657.158875
670.334859	34558.251437
670.674973	34458.217300
671.015035	34607.082573
671.355047	34559.032816
671.695008	34501.984598
672.034918	34403.172942
672.374777	34483.733101
672.714585	34311.872604
673.054342	34534.333682
673.394049	34284.226917
673.733705	34563.917694
674.073310	34221.411619
674.412864	34300.731654
674.752368	33909.717077
675.091820	34206.053744
675.431223	33790.405568
675.770574	33493.030423
676.109875	33361.920094
676.449125	33082.226796
676.788324	33002.735362
677.127473	32456.365026
677.466571	32386.955899
677.805619	32031.957845
678.144616	32028.282844
678.483562	31952.786524
678.822458	31632.660652
679.161303	31557.118962
679.500098	31462.375516
679.838842	31358.805010
680.177535	31500.204335
680.516179	31785.160597
680.854771	32044.883364
681.193314	32899.716863
681.531805	34036.844894
681.870247	34773.486021
682.208638	35467.884798
682.546978	35676.333989
682.885268	35776.342920
683.223508	35245.146457
683.561697	34938.687153
683.899836	34727.508177
684.237925	34217.575301
684.575963	34069.446036
684.913951	33587.161368
685.251889	33754.600773
685.589776	33736.245932
685.927614	33733.773246
686.265401	33857.122719
686.603137	33949.305258
686.940824	34455.583297
687.278460	34822.939740
687.616046	34953.208197
687.953582	35538.022372
688.291068	35385.172067
688.628504	35672.825346
688.965889	35598.281804
689.303224	35218.945060
689.640510	34893.709978
689.977745	34154.654139
690.314930	33342.468802
690.652065	32848.244161
690.989150	32110.738477
691.326185	31206.751207
691.663170	30507.129794
692.000105	29759.383006
692.336990	29077.907226
692.673825	28622.592732
693.010610	28103.187527
693.347345	27513.962342
693.684030	26844.224889
694.020665	26570.061737
694.357251	25891.424127
694.693786	25844.556520
695.030272	25609.653874
695.366707	25050.216867
695.703093	24771.229331
696.039429	24759.281796
696.375716	24494.767413
696.711952	24449.359220
697.048139	24280.248673
697.384276	24102.605973
697.720363	24232.420726
698.056400	24024.185784
698.392388	23804.313338
698.728326	23767.409571
699.064214	23554.098187
699.400053	23503.789993
699.735842	23139.682574
700.071581	22864.654864
700.407270	22572.159556
700.742910	22383.668293
701.078501	22110.263835
701.414042	21831.160352
701.749533	21526.541069
702.084974	21177.118532
702.420366	21387.178371
702.755709	20941.351328
703.091002	20633.236005
703.426246	20654.771814
703.761440	20560.421579
704.096584	20288.221956
704.431679	20226.871114
704.766725	20143.447580
705.101721	20070.277752
705.436668	20155.790845
705.771565	19835.904427
706.106413	20192.593788
706.441212	20180.515184
706.775961	20309.064607
707.110661	20367.952846
707.445311	20723.986857
707.779913	20567.574976
708.114465	20804.108435
708.448967	21088.616035
708.783421	21775.001898
709.117825	22038.119882
709.452180	22260.548193
709.786485	22661.002331
710.120742	23438.549900
710.454949	23454.353917
710.789107	23919.365072
711.123216	24616.372647
711.457275	24722.930036
711.791286	25254.625573
712.125247	25330.018550
712.459159	25011.483162
712.793023	25689.422572
713.126837	24580.547687
713.460602	24867.480081
713.794318	24487.382123
714.127985	24108.524288
714.461602	23212.388615
714.795171	23173.725486
715.128691	22142.985965
715.462162	21611.340839
715.795584	21198.024197
716.128957	20938.200607
716.462281	20540.269566
716.795556	20302.072527
717.128782	19804.140117
717.461960	19243.382328
717.795088	19161.400563
718.128167	18763.693854
718.461198	18299.622875
718.794180	18154.581317
719.127113	17790.957849
719.459997	17575.398111
719.792833	17231.593939
720.125619	17199.542283
720.458357	16879.469343
720.791046	16701.798917
721.123686	16544.590534
721.456278	16289.853468
721.788821	16251.923827
722.121315	15997.469066
722.453761	16074.074440
722.786158	15993.068139
723.118506	15994.469579
723.450805	15857.680390
723.783056	16017.245513
724.115259	15908.780046
724.447412	15841.808318
724.779518	16083.766058
725.111574	16100.613594
725.443582	16313.867005
725.775542	16292.873120
726.107453	16756.508039
726.439315	16632.394831
726.771129	17028.299328
727.102895	17403.351092
727.434612	17591.930575
727.766281	17720.822796
728.097901	17974.360067
728.429473	18002.923245
728.760996	18006.242845
729.092471	18095.793902
729.423897	17967.246999
729.755276	17852.154936
730.086606	17962.162996
730.417887	18498.176281
730.749120	19001.175050
731.080305	19179.921763
731.411442	19496.213837
731.742530	19570.170085
732.073570	19673.226393
732.404562	19965.109201
732.735506	19767.614437
733.066401	19477.864037
733.397249	18940.643395
733.728048	18325.524324
734.058798	17483.908730
734.389501	16800.741643
734.720156	16347.481419
735.050762	15807.969572
735.381320	15451.628051
735.711831	15218.494850
736.042293	14860.504872
736.372707	14882.254930
736.703073	14666.158308
737.033391	14850.805692
737.363661	14808.908662
737.693883	14904.030194
738.024056	15075.061420
738.354182	15248.192288
738.684260	15515.254974
739.014290	15740.644963
739.344272	15912.591159
739.674207	16189.784044
740.004093	16300.361754
740.333931	16293.142821
740.663722	16337.837691
740.993464	16336.718555
741.323159	16169.639593
741.652806	15886.286418
741.982405	15676.783626
742.311956	15339.442213
742.641460	15227.405090
742.970915	14927.214460
743.300323	14593.570734
743.629683	14383.581471
743.958996	14113.005100
744.288260	13835.068644
744.617477	13540.718192
744.946647	13468.909476
745.275768	13201.385523
745.604842	13016.523891
745.933869	12840.554855
746.262847	12794.584573
746.591778	12715.337634
746.920662	12606.441149
747.249498	12604.147424
747.578286	12728.031260
747.907027	12871.729350
748.235720	13091.110283
748.564365	13111.037964
748.892963	13006.055935
749.221514	13068.896439
749.550017	12916.076380
749.878473	12874.096172
750.206881	12652.766833
750.535242	12554.441648
750.863555	12475.005666
751.191821	12373.701159
751.520039	12387.405535
751.848210	12303.598873
752.176334	12332.192298
752.504411	12239.311559
752.832440	12072.141856
753.160421	12124.353087
753.488356	12011.022907
753.816243	11918.026221
754.144082	11778.703852
754.471875	11719.480377
754.799620	11660.889567
755.127318	11631.119032
755.454969	11591.601428
755.782572	11541.701566
756.110129	11555.584904
756.437638	11472.645320
756.765100	11466.921090
757.092515	11461.045625
757.419882	11480.171763
757.747203	11478.094807
758.074477	11553.712115
758.401703	11508.739982
758.728882	11669.482213
759.056014	11704.548479
759.383099	11811.972947
759.710138	11922.333887
760.037129	12001.376659
760.364073	12006.523677
760.690970	11998.495640
761.017820	11996.058242
761.344623	12200.703882
761.671379	12537.503371
761.998088	13209.731154
762.324751	14825.645293
762.651366	17742.335920
762.977935	21324.463897
763.304456	23415.153905
763.630931	23804.852742
763.957359	22591.406682
764.283740	20718.771783
764.610074	18844.957254
764.936362	16753.037204
765.262602	15253.840900
765.588796	13796.024908
765.914943	12779.597222
766.241044	11939.534304
766.567097	11311.217492
766.893104	10763.072669
767.219064	10408.354400
767.544978	10029.236945
767.870845	9715.422598
768.196665	9527.745481
768.522438	9331.755502
768.848165	9161.770315
769.173846	8999.624122
769.499479	8885.152121
769.825066	8724.798058
770.150607	8539.157568
770.476101	8476.339750
770.801548	8371.244295
771.126949	8226.230463
771.452303	8138.408522
771.777611	7977.147052
772.102872	7953.435985
772.428087	7840.050352
772.753256	7716.453863
773.078378	7625.871890
773.403453	7484.898543
773.728482	7370.355966
774.053465	7311.273643
774.378401	7221.851136
774.703291	7126.921168
775.028135	7032.674276
775.352932	6989.640466
775.677683	6910.824546
776.002388	6824.116700
776.327046	6825.243398
776.651658	6734.726960
776.976224	6659.626371
777.300743	6642.735985
777.625216	6577.551345
777.949643	6531.482761
778.274024	6539.951899
778.598359	6468.649819
778.922647	6470.850283
779.246889	6430.276556
779.571086	6435.383245
779.895236	6447.348423
780.219339	6437.492968
780.543397	6432.701351
780.867409	6486.863508
781.191374	6483.044834
781.515294	6455.051307
781.839167	6501.487895
782.162995	6471.354398
782.486776	6424.043169
782.810511	6385.097735
783.134201	6309.175438
783.457844	6298.679755
783.781441	6252.734679
784.104993	6204.523604
784.428498	6180.421848
784.751958	6159.959804
785.075372	6141.766280
785.398739	6100.784220
785.722061	6124.384382
786.045337	6120.784998
786.368568	6233.845476
786.691752	6256.782726
787.014891	6513.785790
787.337983	6791.651669
787.661030	7223.640745
787.984031	7643.541134
788.306987	7886.975933
788.629897	7966.174981
788.952760	7875.003193
789.275579	7696.470729
789.598351	7408.096565
789.921078	7144.711400
790.243759	6868.743515
790.566395	6668.579460
790.888984	6480.501572
791.211529	6336.344736
791.534027	6178.037382
791.856480	6047.794131
792.178888	5979.998174
792.501249	5917.838226
792.823566	5815.787628
793.145836	5809.980219
793.468062	5792.265605
793.790241	5750.910499
794.112375	5791.169154
794.434464	5888.009719
794.756507	5920.754534
795.078505	6038.785589
795.400457	6255.857674
795.722364	6488.421224
796.044226	6671.505850
796.366042	6829.563667
796.687812	6771.038391
797.009538	6801.257588
797.331218	6713.249124
797.652852	6647.189844
797.974442	6523.522779
798.295986	6456.046934
798.617484	6324.780329
798.938938	6219.382405
799.260346	6158.114742
799.581709	6016.299523
799.903026	5966.717254
800.224299	5895.972222
800.545526	5777.764726
800.866708	5714.936825
801.187845	5664.505122
801.508936	5584.991002
801.829983	5561.539555
802.150984	5459.206652
802.471940	5426.973515
802.792851	5412.744858
803.113717	5384.345518
803.434538	5362.731571
803.755314	5328.918031
804.076045	5314.069312
804.396731	5281.561432
804.717372	5293.960150
805.037967	5296.606756
805.358518	5324.897711
805.679024	5380.294951
805.999485	5383.622112
806.319901	5404.837808
806.640272	5416.727369
806.960598	5460.484585
807.280879	5452.443944
807.601115	5491.931302
807.921306	5455.088030
808.241453	5448.688285
808.561554	5460.734122
808.881611	5430.734215
809.201623	5429.582312
809.521590	5382.286206
809.841513	5365.678125
810.161390	5383.574221
810.481223	5292.720026
810.801011	5283.232574
811.120755	5260.910345
811.440453	5203.249628
811.760107	5177.060833
812.079716	5153.445548
812.399281	5102.416468
812.718801	5097.387917
813.038276	5063.345005
813.357707	5028.291342
813.677093	5052.798912
813.996434	4990.061752
814.315731	5013.082181
814.634983	5011.093446
814.954191	5015.355741
815.273354	5076.406635
815.592473	5116.703098
815.911547	5188.048028
816.230577	5241.121296
816.549562	5328.471889
816.868502	5386.210745
817.187399	5441.550011
817.506250	5524.736611
817.825058	5552.475560
818.143821	5706.170259
818.462539	5878.736517
818.781213	6111.905005
819.099843	6482.356716
819.418429	7105.828980
819.736970	7727.446099
820.055466	8428.970548
820.373919	9364.543167
820.692327	10874.913188
821.010691	13714.075911
821.329011	20095.430589
821.647286	29578.773587
821.965517	39510.328094
822.283704	44436.815855
822.601847	45579.085864
822.919945	41009.617660
823.237999	36058.012350
823.556010	31047.423020
823.873976	26508.000092
824.191897	22410.446903
824.509775	19424.521068
824.827609	16736.063639
825.145398	15239.650052
825.463144	14544.525348
825.780845	14896.985181
826.098502	16199.647062
826.416116	18607.992777
826.733685	20715.580733
827.051210	21066.727345
827.368692	19552.095028
827.686129	17054.483081
828.003522	14660.471887
828.320872	12519.750947
828.638177	10934.963413
828.955439	9724.332837
829.272656	8684.599897
829.589830	7854.992332
829.906960	7138.036912
830.224046	6620.554908
830.541088	6223.518672
830.858086	5969.459642
831.175041	5774.588799
831.491952	5723.905038
831.808819	5764.546820
832.125642	6028.375607
832.442421	6598.454489
832.759157	7739.623006
833.075849	9490.259461
833.392497	11270.532860
833.709101	12283.895523
834.025662	11953.349586
834.342179	10900.552497
834.658653	9633.791193
834.975083	8564.948111
835.291469	7694.706325
835.607811	6972.704710
835.924110	6463.240661
836.240366	5984.920861
836.556578	5539.272778
836.872746	5192.532134
837.188871	4923.452986
837.504952	4711.275862
837.820990	4547.738311
838.136984	4429.162810
838.452935	4390.129156
838.768842	4431.017955
839.084706	4738.639245
839.400526	5489.589687
839.716303	6368.587956
840.032037	6881.217850
840.347727	6688.897831
840.663373	6096.463951
840.978977	5538.652716
841.294537	5115.752841
841.610054	4793.088748
841.925527	4554.909352
842.240957	4359.655381
842.556344	4172.172349
842.871687	4016.730891
843.186987	3868.094990
843.502244	3757.822270
843.817458	3665.760719
844.132629	3593.221036
844.447756	3546.746638
844.762840	3503.874145
845.077881	3465.359730
845.392879	3432.017538
845.707833	3406.935278
846.022745	3378.888818
846.337613	3365.771736
846.652438	3340.765092
846.967221	3334.801407
847.281960	3313.235351
847.596656	3304.887200
847.911309	3295.563586
848.225919	3280.361987
848.540485	3272.419649
848.855009	3263.096035
849.169490	3250.334354
849.483928	3243.007037
849.798323	3237.015625
850.112675	3229.733679
850.426984	3227.913822
850.741251	3219.905949
851.055474	3216.886298
851.369654	3222.484499
851.683792	3214.955536
851.997887	3219.076679
852.311938	3218.386041
852.625947	3220.316803
852.939914	3213.977552
853.253837	3217.778582
853.567718	3212.364383
853.881555	3210.058055
854.195350	3214.973180
854.509103	3211.230123
854.822812	3208.545709
855.136479	3206.163764
855.450103	3209.175853
855.763685	3202.501366
856.077224	3206.125955
856.390720	3215.366390
856.704173	3224.722772
857.017584	3229.784090
857.330953	3233.431365
857.644278	3244.133735
857.957561	3243.309506
858.270802	3240.902355
858.584000	3239.899165
858.897155	3233.912795
859.210268	3224.810992
859.523339	3212.568550
859.836367	3209.221224
860.149352	3207.098898
860.462295	3199.753937
860.775195	3191.914942
861.088054	3188.486958
861.400869	3187.178778
861.713642	3186.175589
862.026373	3194.339737
862.339062	3199.113710
862.651708	3207.943291
862.964312	3222.953327
863.276873	3232.720562
863.589392	3259.882299
863.901869	3283.631175
864.214303	3310.175371
864.526696	3325.228256
864.839045	3344.513190
865.151353	3351.606093
865.463619	3354.010724
865.775842	3360.740664
866.088023	3362.510109
866.400162	3357.158924
866.712258	3356.702700
867.024313	3354.779500
867.336325	3353.194057
867.648296	3355.094572
867.960224	3351.606093
868.272110	3357.340406
868.583954	3355.944006
868.895755	3364.445912
869.207515	3361.620346
869.519233	3381.147255
869.830909	3387.514232
870.142542	3397.588978
870.454134	3405.753127
870.765684	3418.232503
871.077191	3435.236315
871.388657	3448.529838
871.700081	3463.469297
872.011463	3482.476968
872.322803	3504.501769
872.634101	3522.445756
872.945357	3541.602141
873.256571	3571.660021
873.567744	3580.827359
873.878874	3587.695931
874.189963	3603.615895
874.501010	3602.645473
874.812015	3604.079681
875.122979	3621.159110
875.433900	3616.531331
875.744780	3619.024182
876.055618	3628.405769
876.366415	3625.116416
876.677169	3635.347438
876.987882	3651.897546
877.298554	3674.900331
877.609183	3710.785784
877.919771	3761.744288
878.230317	3827.256603
878.540822	3933.221657
878.851285	4089.454576
879.161707	4319.527797
879.472087	4705.019790
879.782425	5349.392677
880.092722	6563.294962
880.402977	8492.075712
880.713191	10799.419389
881.023363	13057.758009
881.333494	14257.134209
881.643583	14645.882788
881.953631	14210.226272
882.263637	13416.670519
882.573602	12423.220413
882.883526	11503.154383
883.193408	10581.039125
883.503248	9702.986071
883.813048	8898.685098
884.122806	8152.243969
884.432522	7403.294866
884.742197	6760.842658
885.051831	6213.703546
885.361424	5726.135748
885.670975	5346.718345
885.980485	5034.265109
886.289954	4773.496303
886.599382	4559.912697
886.908768	4383.404257
887.218113	4216.965522
887.527417	4088.274946
887.836680	3966.737768
888.145901	3871.318808
888.455082	3793.858959
888.764221	3727.867734
889.073319	3671.248015
889.382376	3637.028662
889.691392	3615.129890
890.000366	3605.259311
890.309300	3599.719083
890.618193	3606.822069
890.927044	3595.227415
891.235855	3605.289558
891.544625	3621.706075
891.853353	3650.803615
892.162041	3714.042370
892.470687	3806.348417
892.779293	3927.381480
893.087858	4102.145681
893.396381	4389.274681
893.704864	4803.097959
894.013306	5360.427763
894.321707	5908.386063
894.630068	6226.384568
894.938387	6244.477269
895.246665	6056.096912
895.554903	5750.671044
895.863100	5429.819246
896.171256	5168.891643
896.479371	4934.258699
896.787446	4717.743662
897.095480	4525.428684
897.403473	4384.432652
897.711425	4241.475612
898.019336	4124.465390
898.327207	4001.272192
898.635038	3901.129671
898.942827	3797.022283
899.250576	3711.857030
899.558284	3634.031697
899.865952	3580.928182
900.173579	3516.429139
900.481165	3472.324084
900.788711	3432.546860
901.096216	3401.911768
901.403681	3374.082078
901.711105	3362.931046
902.018489	3360.438195
902.325832	3394.869276
902.633135	3457.724903
902.940397	3639.256852
903.247619	4061.287129
903.554800	4817.803004
903.861941	5750.353452
904.169041	6396.843624
904.476101	6556.338170
904.783121	6275.571106
905.090100	5898.142438
905.397039	5496.675028
905.703938	5152.064272
906.010796	4840.659596
906.317614	4595.825877
906.624391	4367.267523
906.931129	4172.409283
907.237826	3992.873630
907.544483	3830.440092
907.851099	3662.441119
908.157675	3502.800380
908.464211	3367.402549
908.770707	3266.813886
909.077163	3189.485106
909.383578	3131.191724
909.689954	3086.781679
909.996289	3059.781259
910.302584	3040.924823
910.608839	3029.252031
910.915054	3015.633354
911.221229	3009.460461
911.527363	3014.000020
911.833458	3022.010414
912.139513	3037.257384
912.445527	3049.283056
912.751502	3086.184302
913.057436	3129.134933
913.363331	3186.215918
913.669186	3277.092798
913.975000	3395.922877
914.280775	3588.429419
914.586510	3858.584853
914.892205	4234.803644
915.197859	4724.758428
915.503475	5282.617554
915.809050	5749.524182
916.114585	6008.069839
916.420081	6054.771088
916.725536	5982.801055
917.030952	5759.296458
917.336328	5558.759358
917.641665	5354.585066
917.946961	5139.166480
918.252218	4939.047796
918.557435	4726.948809
918.862612	4532.577040
919.167750	4364.298284
919.472848	4178.451106
919.777906	4015.952032
920.082925	3864.422510
920.387904	3715.325343
920.692843	3605.095473
920.997743	3509.021163
921.302603	3417.962802
921.607423	3356.014583
921.912204	3291.119809
922.216946	3240.315061
922.521647	3194.342258
922.826310	3153.861793
923.130932	3117.021040
923.435516	3079.023343
923.740059	3050.596277
924.044564	3020.576206
924.349028	2994.982268
924.653454	2969.751293
924.957840	2939.665686
925.262186	2926.346958
925.566493	2900.319481
925.870761	2879.171840
926.174989	2867.690612
926.479178	2851.929445
926.783328	2833.294820
927.087438	2819.209836
927.391509	2811.070893
927.695541	2799.972793
927.999533	2786.810340
928.303486	2779.740122
928.607400	2773.862136
928.911275	2769.551950
929.215110	2762.569952
929.518906	2759.847729
929.822663	2759.741864
930.126381	2759.424272
930.430060	2763.920981
930.733699	2765.080446
931.037299	2767.114552
931.340861	2768.233688
931.644383	2770.265273
931.947866	2769.292330
932.251309	2765.299737
932.554714	2765.077926
932.858080	2764.425096
933.161407	2759.169693
933.464694	2755.552666
933.767943	2752.999321
934.071153	2750.332551
934.374323	2744.424318
934.677455	2741.344173
934.980548	2742.105388
935.283602	2736.547516
935.586617	2735.246898
935.889593	2739.670510
936.192530	2741.747466
936.495428	2745.634195
936.798287	2753.972264
937.101108	2766.822165
937.403890	2787.662295
937.706632	2816.364104
938.009336	2845.174299
938.312002	2873.777806
938.614628	2896.223543
938.917216	2915.969743
939.219765	2922.694642
939.522275	2934.558998
939.824747	2936.386416
940.127179	2928.746547
940.429573	2925.469797
940.731929	2923.602050
941.034246	2913.960843
941.336524	2910.928589
941.638763	2905.322826
941.940964	2900.531209
942.243126	2882.604866
942.545250	2878.035060
942.847335	2859.319776
943.149381	2844.468537
943.451389	2834.197186
943.753359	2822.683191
944.055290	2811.759010
944.357182	2803.408339
944.659036	2798.296609
944.960851	2796.940539
945.262628	2792.806792
945.564367	2791.904426
945.866067	2788.995680
946.167729	2791.334776
946.469352	2789.305711
946.770937	2788.289919
947.072484	2777.947992
947.373992	2778.452107
947.675462	2774.610748
947.976893	2768.780653
948.278286	2769.488935
948.579641	2765.203955
948.880958	2764.092380
949.182236	2761.987698
949.483476	2757.995105
949.784678	2758.433685
950.085841	2758.292533
950.386967	2764.016763
950.688054	2767.671599
950.989103	2774.910696
951.290114	2781.020575
951.591087	2796.844757
951.892021	2808.073927
952.192917	2818.201605
952.493776	2825.627225
952.794596	2828.924139
953.095378	2831.734582
953.396122	2831.333811
953.696828	2825.846515
953.997496	2819.295535
954.298126	2813.541058
954.598718	2804.880356
954.899272	2791.851494
955.199788	2783.054680
955.500266	2772.916920
955.800706	2757.833788
956.101108	2742.604462
956.401472	2732.927967
956.701798	2720.816595
957.002087	2705.231868
957.302337	2697.009746
957.602550	2688.323838
957.902724	2676.882939
958.202861	2669.835406
958.502960	2658.364261
958.803022	2654.023827
959.103045	2646.164668
959.403031	2641.383134
959.702979	2637.388019
960.002889	2630.746299
960.302762	2626.756226
960.602596	2622.461163
960.902393	2619.597787
961.202153	2620.674074
961.501875	2614.105450
961.801559	2612.202415
962.101205	2609.898607
962.400814	2608.439193
962.700385	2604.920468
962.999918	2605.401898
963.299414	2604.945674
963.598873	2602.881321
963.898293	2600.514500
964.197677	2600.007864
964.497022	2596.529467
964.796331	2596.252204
965.095601	2593.643407
965.394835	2595.858994
965.694030	2593.262800
965.993189	2593.681216
966.292309	2592.317583
966.591393	2591.664754
966.890439	2592.078129
967.189447	2591.894127
967.488419	2592.173911
967.787353	2592.420927
968.086249	2594.543253
968.385108	2594.283633
968.683930	2590.590988
968.982714	2596.733634
969.281462	2596.463932
969.580172	2599.838985
969.878844	2600.333018
970.177480	2605.694285
970.476078	2605.492639
970.774639	2608.955912
971.073162	2611.005141
971.371649	2609.853237
971.670098	2610.780809
971.968510	2614.165944
972.266885	2611.715943
972.565223	2618.710544
972.863524	2620.434619
973.161788	2621.324383
973.460014	2624.132305
973.758204	2625.367388
974.056356	2623.718931
974.354471	2621.400000
974.652550	2621.498302
974.950591	2622.990484
975.248595	2623.255145
975.546563	2621.145422
975.844493	2624.089456
976.142386	2615.549741
976.440243	2614.685183
976.738062	2615.955554
977.035845	2613.281222
977.333590	2610.392641
977.631299	2607.171343
977.928971	2606.730242
978.226606	2605.550612
978.524204	2603.675303
978.821765	2604.968359
979.119290	2601.265632
979.416777	2602.427617
979.714228	2598.901330
980.011642	2602.654469
980.309020	2610.745521
980.606360	2610.586725
980.903664	2620.169958
981.200931	2633.914664
981.498162	2651.044505
981.795356	2677.301355
982.092513	2716.264433
982.389633	2756.442429
982.686717	2793.633542
982.983764	2824.621514
983.280775	2839.442507
983.577749	2841.315295
983.874686	2832.682319
984.171587	2812.401757
984.468451	2799.763585
984.765279	2783.793209
985.062070	2766.209665
985.358824	2751.151738
985.655543	2727.385218
985.952224	2705.367979
986.248869	2683.166737
986.545478	2656.614980
986.842050	2638.610499
987.138586	2619.509567
987.435086	2608.522372
987.731549	2597.116762
988.027975	2594.679364
988.324366	2585.617890
988.620719	2583.412385
988.917037	2577.307548
989.213318	2576.838721
989.509563	2574.076168
989.805772	2575.286045
990.101944	2572.079871
990.398080	2572.883935
990.694180	2569.546692
990.990244	2571.646332
991.286271	2573.942578
991.582262	2570.801939
991.878217	2571.477453
992.174136	2572.447876
992.470019	2573.030129
992.765865	2577.491550
993.061676	2577.902404
993.357450	2579.399627
993.653188	2585.857345
993.948890	2588.748447
994.244556	2594.954107
994.540186	2602.599017
994.835780	2617.273816
995.131337	2626.514251
995.426859	2645.012765
995.722345	2660.531957
996.017795	2679.746315
996.313208	2691.981195
996.608586	2700.546115
996.903928	2705.831765
997.199234	2701.506455
997.494504	2698.585107
997.789738	2691.517409
998.084936	2682.886953
998.380099	2670.382371
998.675225	2661.333500
998.970316	2648.269350
999.265371	2637.970273
999.560390	2624.218005
999.855373	2612.479678
1000.150320	2605.527927
1000.445232	2596.337904
1000.740108	2589.376070
1001.034948	2583.959350
1001.329752	2578.678742
1001.624521	2574.338308
1001.919254	2568.051989
1002.213951	2565.574262
1002.508613	2560.817934
1002.803239	2564.011505
1003.097829	2556.417006
1003.392384	2559.335834
1003.686903	2559.073694
1003.981386	2559.524878
1004.275834	2556.532953
1004.570246	2557.868859
1004.864623	2556.346430
1005.158964	2553.639331
1005.453270	2553.601522
1005.747540	2553.291491
1006.041775	2552.368960
1006.335974	2552.968857
1006.630138	2551.285112
1006.924266	2553.049516
1007.218359	2552.361398
1007.512416	2550.922149
1007.806438	2550.516336
1008.100425	2550.758311
1008.394376	2549.843342
1008.688292	2548.537683
1008.982172	2548.842673
1009.276017	2551.910215
1009.569827	2550.407951
1009.863602	2548.404092
1010.157341	2548.320913
1010.451045	2549.540873
1010.744714	2546.246478
1011.038347	2550.163455
1011.331945	2545.281097
1011.625508	2549.407282
1011.919036	2548.648588
1012.212528	2545.752445
1012.505986	2546.115408
1012.799408	2547.453835
1013.092795	2547.083310
1013.386147	2547.421067
1013.679464	2546.218752
1013.972745	2545.283618
1014.265992	2544.293031
1014.559204	2545.601211
1014.852380	2548.751932
1015.145521	2546.687579
1015.438628	2545.812939
1015.731699	2547.244627
1016.024736	2545.167672
1016.317737	2546.347302
1016.610703	2550.455842
1016.903635	2545.455017
1017.196531	2543.766231
1017.489393	2545.563402
1017.782219	2545.238248
1018.075011	2546.196067
1018.367768	2548.875440
1018.660490	2548.971222
1018.953177	2548.971222
1019.245829	2548.971222
