Dividing Wavelength (nm)	Counts (n)	Blue Motor Position (mm): 18.000000	Red Motor Position (mm): 0.000000	
326.493990	2179.013544
326.888308	2179.013544
327.282561	2179.013544
327.676750	2138.283542
328.070874	2134.742131
328.464933	2135.062244
328.858929	2138.409571
329.252859	2144.552217
329.646726	2152.703762
330.040528	2164.726914
330.434265	2179.134532
330.827938	2199.397450
331.221547	2213.426981
331.615091	2232.938767
332.008571	2249.239338
332.401986	2267.838675
332.795338	2289.959258
333.188625	2305.949798
333.581847	2321.595019
333.975006	2340.398523
334.368100	2361.498272
334.761129	2377.027547
335.154095	2397.976062
335.546996	2418.909453
335.939833	2448.475820
336.332606	2461.376133
336.725315	2477.041518
337.117960	2490.786224
337.510540	2498.794097
337.903056	2513.131139
338.295508	2522.076666
338.687896	2530.555887
339.080220	2535.639891
339.472480	2543.728422
339.864676	2549.278732
340.256807	2553.319217
340.648875	2559.686195
341.040879	2560.006308
341.432818	2563.961093
341.824694	2567.547874
342.216506	2567.401681
342.608253	2565.249108
342.999937	2568.402350
343.391557	2568.387226
343.783113	2568.152812
344.174605	2566.832030
344.566033	2564.757595
344.957397	2564.961762
345.348697	2562.305074
345.739934	2561.979920
346.131106	2561.175856
346.522215	2559.161915
346.913260	2555.844835
347.304241	2554.703014
347.695159	2553.541028
348.086012	2553.490617
348.476802	2546.029709
348.867528	2543.786395
349.258191	2541.464944
349.648789	2540.333205
350.039324	2535.599562
350.429796	2540.008051
350.820203	2540.484440
351.210548	2536.428831
351.600828	2533.278110
351.991045	2537.578214
352.381198	2536.401105
352.771288	2535.849099
353.161314	2534.576207
353.551276	2533.517565
353.941175	2533.421783
354.331010	2533.814993
354.720782	2533.452030
355.110490	2532.375744
355.500135	2532.887421
355.889717	2533.275590
356.279235	2534.314067
356.668689	2533.446989
357.058080	2533.383974
357.447408	2532.963038
357.836672	2531.261649
358.225873	2534.127545
358.615010	2533.194931
359.004084	2534.334232
359.393095	2537.883204
359.782043	2536.222144
360.170927	2535.745755
360.559748	2536.328008
360.948505	2538.722556
361.337199	2537.626105
361.725830	2538.586445
362.114398	2537.343801
362.502903	2539.130890
362.891344	2540.620551
363.279722	2539.713143
363.668037	2543.612476
364.056289	2542.097609
364.444478	2541.820345
364.832603	2542.599204
365.220665	2545.233207
365.608665	2542.281611
365.996601	2543.161292
366.384474	2544.756817
366.772284	2545.235727
367.160031	2544.643392
367.547715	2544.429143
367.935336	2543.781354
368.322893	2543.657846
368.710388	2542.994934
369.097820	2542.004347
369.485189	2540.050900
369.872495	2548.489792
370.259738	2546.972405
370.646918	2549.561037
371.034035	2549.223280
371.421090	2547.620193
371.808081	2547.108516
372.195010	2548.157076
372.581875	2548.273022
372.968678	2548.908208
373.355418	2546.498536
373.742096	2549.326623
374.128710	2551.033054
374.515262	2552.071532
374.901751	2552.313507
375.288177	2553.309135
375.674540	2551.706048
376.060841	2551.393497
376.447079	2552.706717
376.833254	2552.207643
377.219367	2552.742005
377.605417	2554.335010
377.991404	2554.995401
378.377329	2552.452139
378.763191	2550.292004
379.148991	2552.621018
379.534727	2553.019269
379.920402	2552.772252
380.306013	2552.777293
380.691563	2555.101265
381.077049	2554.662685
381.462474	2551.388455
381.847835	2554.740823
382.233134	2554.640000
382.618371	2554.259392
383.003545	2556.134702
383.388657	2554.249310
383.773706	2556.280895
384.158693	2556.401883
384.543618	2553.079763
384.928480	2555.746533
385.313280	2555.832233
385.698017	2555.302911
386.082692	2555.824671
386.467305	2558.017573
386.851856	2557.188303
387.236344	2558.153684
387.620770	2556.732078
388.005133	2551.925338
388.389435	2557.543704
388.773674	2553.152859
389.157851	2560.366750
389.541965	2558.022614
389.926018	2558.181410
390.310008	2555.343241
390.693936	2559.461863
391.077802	2558.050340
391.461606	2558.932542
391.845348	2558.932542
392.229027	2561.344734
392.612645	2559.398849
392.996200	2560.084446
393.379694	2562.146278
393.763125	2560.840619
394.146494	2558.718293
394.529801	2564.790363
394.913047	2558.493962
395.296230	2561.722821
395.679351	2560.084446
396.062410	2562.161401
396.445408	2562.282389
396.828343	2560.754919
397.211217	2564.641649
397.594028	2562.073181
397.976778	2564.177863
398.359466	2563.988819
398.742092	2561.201061
399.124656	2562.773901
399.507158	2563.623336
399.889598	2566.269942
400.271977	2564.445044
400.654294	2565.712894
401.036549	2563.580486
401.418742	2561.831206
401.800874	2564.762637
402.182944	2567.036197
402.564952	2564.646690
402.946898	2566.837071
403.328783	2565.954869
403.710606	2564.641649
404.092367	2567.315981
404.474067	2566.121227
404.855705	2566.063254
405.237282	2568.619119
405.618797	2569.960066
406.000250	2569.156002
406.381642	2566.123748
406.762972	2566.211968
407.144240	2567.752041
407.525447	2565.173491
407.906593	2561.306926
408.287677	2566.504355
408.668700	2568.717422
409.049661	2569.639953
409.430560	2567.694068
409.811399	2570.633060
410.192176	2571.671538
410.572891	2573.531724
410.953545	2571.520303
411.334138	2568.394788
411.714669	2570.743966
412.095139	2571.754717
412.475547	2568.649366
412.855894	2569.692885
413.236180	2571.069120
413.616405	2570.749007
413.996568	2570.391085
414.376670	2570.023081
414.756711	2572.193297
415.136691	2572.049624
415.516609	2572.074830
415.896466	2574.736559
416.276262	2572.021898
416.655997	2571.283369
417.035670	2570.025601
417.415283	2573.372927
417.794834	2571.704305
418.174324	2575.192784
418.553753	2574.880232
418.933121	2571.593400
419.312428	2572.117680
419.691674	2574.880232
420.070859	2573.564491
420.449983	2573.783781
420.829045	2573.259501
421.208047	2572.221024
421.586988	2575.651529
421.965867	2577.584811
422.344686	2575.336457
422.723444	2573.325036
423.102141	2572.866291
423.480777	2573.372927
423.859352	2573.453586
424.237866	2576.571539
424.616319	2574.056004
424.994712	2574.426528
425.373044	2576.591704
425.751314	2570.696075
426.129524	2573.123390
426.507673	2573.171281
426.885762	2570.428893
427.263789	2575.258319
427.641756	2576.140521
428.019662	2576.684965
428.397508	2577.042887
428.775292	2575.931313
429.153016	2576.208576
429.530679	2577.247054
429.908282	2579.001376
430.285824	2579.185378
430.663305	2577.083217
431.040726	2579.379462
431.418086	2575.369224
431.795385	2577.478947
432.172624	2575.769996
432.549802	2579.664287
432.926920	2577.322671
433.303977	2576.140521
433.680974	2578.358628
434.057910	2578.124215
434.434786	2577.872157
434.811601	2580.221335
435.188355	2579.714699
435.565050	2580.312076
435.941683	2575.369224
436.318257	2583.112437
436.694770	2575.444842
437.071222	2582.131932
437.447614	2578.698906
437.823946	2581.063207
438.200218	2577.128587
438.576429	2579.565985
438.952580	2580.710327
439.328670	2580.843917
439.704700	2583.112437
440.080670	2578.204873
440.456580	2581.927765
440.832429	2582.472210
441.208218	2583.545976
441.583947	2581.370718
441.959616	2581.998342
442.335224	2580.521283
442.710773	2580.181006
443.086261	2578.875347
443.461689	2578.920717
443.837057	2582.472210
444.212365	2581.718557
444.587612	2580.208732
444.962800	2579.213104
445.337927	2579.535738
445.712995	2577.236972
446.088002	2583.387179
446.462949	2583.553537
446.837837	2583.757704
447.212664	2584.402972
447.587431	2584.140832
447.962139	2582.625965
448.336786	2584.942375
448.711374	2586.459763
449.085901	2585.073445
449.460369	2583.684607
449.834776	2583.109916
450.209124	2586.222828
450.583412	2587.599063
450.957640	2588.556883
451.331808	2587.031934
451.705917	2588.398086
452.079965	2587.888930
452.453954	2588.642582
452.827883	2587.218456
453.201752	2586.477407
453.575562	2588.551842
453.949311	2586.820205
454.323001	2587.992273
454.696632	2588.279619
455.070202	2586.477407
455.443713	2586.996646
455.817164	2585.973291
456.190556	2588.841708
456.563888	2591.248859
456.937160	2592.786411
457.310373	2592.194075
457.683526	2589.481934
458.056619	2587.112592
458.429653	2590.437233
458.802628	2591.241297
459.175542	2589.663416
459.548398	2591.498396
459.921194	2587.556214
460.293930	2591.629466
460.666607	2593.555187
461.039224	2592.977975
461.411782	2594.812955
461.784280	2593.986205
462.156719	2594.636514
462.529099	2596.453850
462.901419	2593.446802
463.273680	2591.576534
463.645882	2588.897161
464.018024	2590.495206
464.390106	2588.173755
464.762130	2595.233891
465.134094	2594.523088
465.505999	2597.303285
465.877845	2599.569283
466.249631	2601.782350
466.621358	2603.435848
466.993026	2603.539192
467.364634	2606.508432
467.736184	2601.555498
468.107674	2597.399067
468.479105	2597.157091
468.850477	2596.647935
469.221790	2599.407966
469.593043	2598.651793
469.964238	2598.651793
470.335373	2597.182297
470.706449	2601.520210
471.077467	2597.515013
471.448425	2600.832092
471.819324	2601.326125
472.190164	2606.662187
472.560945	2606.760489
472.931667	2599.274376
473.302330	2603.478698
473.672934	2602.924171
474.043479	2601.048862
474.413965	2601.895776
474.784393	2598.692122
475.154761	2603.214037
475.525070	2602.548605
475.895321	2604.607917
476.265513	2600.827051
476.635645	2601.361413
477.005719	2605.089347
477.375734	2604.691096
477.745691	2605.467433
478.115588	2604.963318
478.485427	2606.495829
478.855207	2606.458020
479.224928	2611.960439
479.594591	2610.359873
479.964194	2614.486057
480.333739	2614.612086
480.703226	2612.451952
481.072653	2612.683845
481.442022	2615.585029
481.811333	2614.322220
482.180584	2611.771396
482.549777	2612.184771
482.918912	2611.063114
483.287988	2616.568054
483.657005	2620.530401
484.025964	2616.910852
484.394864	2617.924124
484.763706	2615.116202
485.132489	2616.557972
485.501213	2618.211470
485.869879	2616.709206
486.238487	2616.762138
486.607036	2619.070987
486.975527	2618.806326
487.343959	2619.494444
487.712333	2620.832870
488.080648	2618.110647
488.448905	2620.250617
488.817104	2620.971502
489.185244	2620.177520
489.553326	2622.584671
489.921350	2624.994343
490.289315	2629.249077
490.657222	2629.801083
491.025070	2631.686474
491.392861	2631.827627
491.760593	2634.771661
492.128267	2632.056999
492.495883	2630.559777
492.863440	2628.946607
493.230939	2630.388377
493.598380	2631.381485
493.965763	2628.941566
494.333088	2631.091618
494.700354	2634.776702
495.067563	2634.456588
495.434713	2635.984058
495.801805	2639.061682
496.168839	2638.328195
496.535815	2638.368524
496.902733	2640.185860
497.269593	2642.456900
497.636395	2644.301962
498.003139	2643.586118
498.369825	2644.344812
498.736453	2647.893784
499.103023	2650.938641
499.469535	2654.447284
499.835989	2655.931904
500.202385	2654.613642
500.568723	2654.548107
500.935003	2663.687719
501.301226	2658.079435
501.667390	2669.532937
502.033497	2675.899914
502.399546	2676.668690
502.765537	2680.489885
503.131470	2685.619259
503.497345	2691.650999
503.863163	2693.851463
504.228923	2700.939325
504.594625	2706.524924
504.960269	2704.609285
505.325856	2712.281922
505.691385	2718.744681
506.056856	2729.399159
506.422270	2734.818400
506.787625	2740.197311
507.152924	2749.296594
507.518164	2759.215064
507.883347	2766.164294
508.248472	2773.985645
508.613540	2789.204888
508.978550	2799.708132
509.343503	2810.481078
509.708398	2821.969867
510.073236	2840.072651
510.438016	2855.422964
510.802738	2864.618029
511.167403	2883.550082
511.532010	2894.907802
511.896561	2926.634304
512.261053	2942.360183
512.625488	2957.218984
512.989866	2975.636840
513.354186	2994.329438
513.718449	3018.133767
514.082655	3045.792057
514.446803	3067.942887
514.810894	3102.419338
515.174927	3117.152110
515.538904	3145.632109
515.902822	3186.543593
516.266684	3214.731205
516.630488	3238.522930
516.994235	3273.352262
517.357925	3316.512101
517.721558	3362.169831
518.085133	3401.785739
518.448651	3440.642953
518.812112	3470.214361
519.175516	3520.124305
519.538863	3570.752613
519.902152	3605.292078
520.265385	3669.425638
520.628560	3710.836196
520.991678	3766.440123
521.354739	3820.932475
521.717743	3877.400960
522.080690	3924.500461
522.443580	4007.074561
522.806413	4055.212539
523.169189	4133.385711
523.531908	4187.404195
523.894569	4234.516299
524.257174	4306.655210
524.619722	4389.360380
524.982213	4429.097275
525.344647	4514.847302
525.707025	4590.280608
526.069345	4670.659285
526.431608	4743.869442
526.793815	4845.796532
527.155964	4859.362277
527.518057	4962.035457
527.880093	5034.817116
528.242072	5115.815855
528.603995	5175.298950
528.965860	5239.208178
529.327669	5359.684193
529.689421	5426.252630
530.051117	5496.526314
530.412755	5633.466738
530.774337	5671.650958
531.135862	5757.768989
531.497331	5874.343151
531.858743	5907.249283
532.220098	6092.844403
532.581396	6105.485096
532.942638	6239.473924
533.303824	6333.194015
533.664953	6445.568896
534.026025	6512.086921
534.387040	6626.488346
534.747999	6776.102230
535.108902	6890.538943
535.469748	6915.056595
535.830537	7067.206180
536.191270	7179.500402
536.551947	7311.117367
536.912567	7312.423026
537.273131	7492.649318
537.633638	7540.739405
537.994089	7736.938592
538.354483	7731.736121
538.714821	7972.978018
539.075103	8124.353785
539.435328	8193.851132
539.795497	8197.954632
540.155609	8421.978467
540.515665	8622.843242
540.875665	8541.496663
541.235609	8729.330056
541.595496	8872.957570
541.955328	9086.026978
542.315102	9188.531280
542.674821	9212.411226
543.034483	9289.825705
543.394090	9435.096635
543.753640	9515.966825
544.113134	9817.316920
544.472571	9855.791006
544.831953	10106.268297
545.191278	10080.293751
545.550548	10207.895437
545.909761	10346.111273
546.268918	10597.432957
546.628019	10691.717657
546.987064	10791.721547
547.346053	10832.746457
547.704986	10970.639658
548.063863	11189.950015
548.422684	11260.006930
548.781449	11276.468818
549.140158	11542.752647
549.498811	11559.983311
549.857408	11542.987060
550.215949	11869.973943
550.574434	11853.791839
550.932864	12084.583424
551.291237	12257.558015
551.649555	12376.060419
552.007817	12522.972245
552.366022	12624.269190
552.724173	12738.922672
553.082267	12870.600132
553.440305	13226.697157
553.798288	13019.183100
554.156215	13399.021439
554.514086	13577.347216
554.871902	13398.683682
555.229661	13663.359383
555.587365	13760.020987
555.945014	13775.278039
556.302606	14074.087392
556.660143	14126.792656
557.017625	14421.488427
557.375050	14317.101254
557.732421	14625.892092
558.089735	14685.954920
558.446994	14819.429550
558.804197	14978.840917
559.161345	15121.545900
559.518437	15042.606472
559.875474	15348.700292
560.232455	15524.225708
560.589381	15605.723521
560.946251	15672.690209
561.303065	16021.613672
561.659825	16193.131370
562.016528	16084.796974
562.373177	16055.643981
562.729770	16352.048704
563.086307	16458.374200
563.442789	16674.914443
563.799216	16675.456367
564.155587	16766.161848
564.511904	16917.968635
564.868164	16936.653672
565.224370	17107.639528
565.580520	17098.278105
565.936615	17333.097572
566.292654	17200.192592
566.648638	17590.453517
567.004567	17522.541613
567.360441	17615.414790
567.716260	17510.362185
568.072023	17894.419970
568.427732	17806.323286
568.783385	17743.202999
569.138982	18009.328031
569.494525	18168.507505
569.850013	18103.527032
570.205445	18256.616792
570.560823	18176.409513
570.916145	18116.694526
571.271412	18316.664496
571.626625	18268.655067
571.981782	18414.442716
572.336884	18340.504112
572.691931	18543.929793
573.046923	18386.187048
573.401860	18426.806146
573.756743	18506.058125
574.111570	18510.932921
574.466342	18539.264206
574.821059	18712.095124
575.175722	18532.695582
575.530330	18629.410119
575.884882	18705.133291
576.239380	18723.909068
576.593823	18691.691054
576.948211	18729.166992
577.302544	18672.874947
577.656823	18645.325041
578.011047	18802.248599
578.365216	18744.787007
578.719330	18712.642089
579.073389	18681.097069
579.427394	18887.234891
579.781344	18740.663343
580.135239	18725.088698
580.489080	18752.671371
580.842866	18581.748530
581.196597	18825.243822
581.550273	18826.151230
581.903895	18818.876845
582.257463	19129.308578
582.610975	18759.358462
582.964434	19076.900743
583.317837	18873.217963
583.671186	18998.520883
584.024481	19006.281739
584.377721	18843.512964
584.730906	18940.287994
585.084037	19025.579276
585.437113	18967.742118
585.790135	19171.865999
586.143103	18756.389222
586.496016	18787.420045
586.848874	19066.967149
587.201679	19044.768428
587.554428	18745.996884
587.907124	19097.103167
588.259765	18926.558412
588.612352	19044.216422
588.964884	18672.557354
589.317362	18865.671355
589.669786	18940.565258
590.022155	19024.767650
590.374470	19196.857519
590.726731	19064.335667
591.078937	18850.119396
591.431090	18978.482296
591.783188	18748.749354
592.135232	18754.329911
592.487222	18877.157624
592.839157	18921.668492
593.191038	18843.429785
593.542866	18755.262524
593.894639	18517.904837
594.246358	18741.492613
594.598022	18673.691614
594.949633	18471.669894
595.301190	18429.631712
595.652692	18619.516854
596.004141	18867.899545
596.355535	18233.122494
596.706876	18271.631868
597.058162	18181.254062
597.409395	18393.990755
597.760573	18523.472791
598.111698	18320.805804
598.462768	18262.709026
598.813785	18237.722547
599.164748	18069.847083
599.515657	18119.958673
599.866511	17923.406605
600.217312	18296.290672
600.568060	17839.113471
600.918753	18160.769334
601.269392	18078.036437
601.619978	17851.197117
601.970510	18089.671420
602.320988	18021.822531
602.671412	18254.141585
603.021783	18146.439854
603.372100	17911.968227
603.722363	18046.504020
604.072572	17993.370258
604.422728	18118.894989
604.772830	17905.830622
605.122878	17855.298096
605.472872	17859.225155
605.822813	17863.492491
606.172701	17812.075243
606.522534	18018.074433
606.872314	18050.607519
607.222041	17887.349752
607.571714	18107.688504
607.921333	17932.810877
608.270899	18016.425976
608.620411	18220.091112
608.969870	17967.839335
609.319276	17996.828490
609.668627	18018.160132
610.017926	18165.944078
610.367171	18275.377446
610.716362	18319.109455
611.065500	18145.424061
611.414585	18268.418133
611.763616	18262.588038
612.112594	18212.945276
612.461518	18187.903344
612.810389	18382.920381
613.159207	18234.841528
613.507971	18142.948855
613.856682	18426.092822
614.205340	18371.968474
614.553945	18510.428806
614.902496	18253.811390
615.250994	18514.829733
615.599439	18443.641079
615.947830	18433.248740
616.296169	18472.935224
616.644454	18454.280434
616.992686	18408.642868
617.340864	18620.048696
617.688990	18389.274755
618.037063	18575.462211
618.385082	18405.517353
618.733048	18702.945430
619.080961	18561.833451
619.428821	18608.083517
619.776628	18503.550151
620.124382	18415.408097
620.472083	18446.267520
620.819731	18472.312641
621.167326	18172.011107
621.514868	18211.153146
621.862357	17972.361250
622.209793	17985.213672
622.557176	17823.115370
622.904506	17658.259557
623.251783	17560.877067
623.599007	17341.516299
623.946179	17289.113504
624.293297	17239.523674
624.640363	16999.153897
624.987376	16996.333371
625.334336	16797.013710
625.681243	16642.590565
626.028097	16646.741955
626.374899	16581.816935
626.721647	16459.853779
627.068343	16289.029240
627.414987	16219.562140
627.761577	16194.439550
628.108115	16247.638846
628.454600	15958.727799
628.801032	16057.496605
629.147412	15987.041439
629.493739	16007.054820
629.840014	15834.402863
630.186236	15927.162614
630.532405	15690.573702
630.878521	15886.402364
631.224585	15771.277534
631.570597	15603.245794
631.916556	15640.436907
632.262462	15613.459172
632.608316	15539.351690
632.954117	15481.592669
633.299866	15474.479601
633.645562	15404.589044
633.991206	15145.541792
634.336797	15014.859961
634.682336	14989.616383
635.027823	14888.712648
635.373257	14770.059010
635.718639	14655.503830
636.063968	14607.060862
636.409245	14365.236712
636.754470	14397.515220
637.099642	14240.359769
637.444762	14015.509184
637.789829	14058.215319
638.134845	13901.942071
638.479808	13923.561059
638.824719	13883.960275
639.169577	13729.834558
639.514383	13781.271971
639.859137	13599.223303
640.203839	13679.697762
640.548489	13517.785983
640.893086	13499.388292
641.237632	13376.855486
641.582125	13518.748843
641.926566	13365.442314
642.270955	13364.260163
642.615292	13330.653311
642.959576	13349.406403
643.303809	13379.968398
643.647990	13318.942711
643.992118	13368.527500
644.336195	13145.012821
644.680219	13332.599196
645.024192	13268.037139
645.368112	13502.791071
645.711981	13570.297162
646.055797	13743.296959
646.399562	13700.406822
646.743274	13970.345487
647.086935	14250.628600
647.430544	14218.975195
647.774101	14242.497219
648.117606	14394.636721
648.461059	14366.436507
648.804460	14369.995561
649.147810	14096.971710
649.491108	13992.239218
649.834354	14010.992311
650.177548	13713.854100
650.520690	13526.252601
650.863781	13447.756794
651.206820	13481.386332
651.549807	13307.320330
651.892742	13122.730921
652.235626	13058.796487
652.578458	13063.086509
652.921238	12745.874424
653.263967	12944.188375
653.606644	12764.226744
653.949269	12738.347981
654.291843	12547.636090
654.634365	12704.836911
654.976836	12559.631515
655.319255	12571.039647
655.661622	12522.969724
656.003938	12450.215792
656.346203	12376.604863
656.688416	12438.003597
657.030577	12404.250551
657.372687	12324.726349
657.714746	12302.794809
658.056753	12481.183600
658.398708	12309.491982
658.740612	12316.093373
659.082465	12398.591856
659.424266	12368.060107
659.766016	12389.532902
660.107715	12294.164354
660.449362	12368.410468
660.790958	12332.676249
661.132503	12286.209413
661.473996	12341.102537
661.815438	12365.098430
662.156829	12368.551620
662.498168	12348.671830
662.839456	12348.394566
663.180693	12370.313503
663.521879	12455.695526
663.863013	12439.165582
664.204097	12420.624219
664.545129	12532.711754
664.886110	12495.871002
665.227040	12583.874424
665.567918	12590.664858
665.908746	12630.268163
666.249522	12606.887292
666.590248	12651.020073
666.930922	12773.613373
667.271545	12755.233326
667.612118	12834.434894
667.952639	12745.229156
668.293109	12750.224939
668.633528	12708.748846
668.973896	12677.821367
669.314213	12769.961057
669.654480	12508.357940
669.994695	12565.244840
670.334859	12596.686517
670.674973	12531.564891
671.015035	12583.329980
671.355047	12512.068229
671.695008	12491.495280
672.034918	12495.959222
672.374777	12540.144935
672.714585	12452.413735
673.054342	12483.207623
673.394049	12431.833224
673.733705	12526.556505
674.073310	12443.702621
674.412864	12461.717184
674.752368	12343.814678
675.091820	12343.877692
675.431223	12335.040550
675.770574	12203.400899
676.109875	12139.395890
676.449125	12095.631113
676.788324	12026.640402
677.127473	11872.769263
677.466571	11860.355421
677.805619	11761.158117
678.144616	11677.033862
678.483562	11648.858853
678.822458	11516.347083
679.161303	11494.135759
679.500098	11484.209727
679.838842	11446.743872
680.177535	11463.500667
680.516179	11519.664162
680.854771	11465.103754
681.193314	11680.703822
681.531805	11830.229486
681.870247	12227.081720
682.208638	12631.150365
682.546978	12951.147688
682.885268	13024.872042
683.223508	12707.818753
683.561697	12546.461501
683.899836	12449.492386
684.237925	12254.109866
684.575963	12171.835715
684.913951	12094.665732
685.251889	12043.568596
685.589776	12140.462094
685.927614	12073.477762
686.265401	12030.282635
686.603137	12074.697721
686.940824	12230.983573
687.278460	12342.080521
687.616046	12387.138354
687.953582	12568.635016
688.291068	12489.917399
688.628504	12715.665309
688.965889	12723.458933
689.303224	12692.811238
689.640510	12593.066968
689.977745	12297.342801
690.314930	12067.814026
690.652065	11980.289513
690.989150	11698.433560
691.326185	11471.228756
691.663170	11264.226376
692.000105	11022.495488
692.336990	10919.587893
692.673825	10672.281489
693.010610	10551.727336
693.347345	10343.978865
693.684030	10143.363627
694.020665	10087.850441
694.357251	9891.762159
694.693786	9840.365075
695.030272	9674.463223
695.366707	9554.826560
695.703093	9492.275923
696.039429	9483.242175
696.375716	9410.558819
696.711952	9290.193709
697.048139	9319.724788
697.384276	9275.952449
697.720363	9289.777814
698.056400	9222.523780
698.392388	9179.689096
698.728326	9139.511100
699.064214	9075.929547
699.400053	9126.565417
699.735842	8944.184032
700.071581	8896.121672
700.407270	8828.103903
700.742910	8746.996779
701.078501	8656.845825
701.414042	8537.693113
701.749533	8460.472718
702.084974	8333.652411
702.420366	8438.914224
702.755709	8327.749220
703.091002	8198.138634
703.426246	8220.433137
703.761440	8176.519645
704.096584	8128.550546
704.431679	8064.800114
704.766725	8051.683032
705.101721	7999.668407
705.436668	8043.990231
705.771565	7934.703057
706.106413	8016.674739
706.441212	8063.600320
706.775961	8014.638113
707.110661	8044.116260
707.445311	8195.751647
707.779913	8092.493693
708.114465	8226.737099
708.448967	8262.085670
708.783421	8392.880927
709.117825	8577.982014
709.452180	8619.314435
709.786485	8700.358544
710.120742	8976.747366
710.454949	8975.524886
710.789107	9078.777799
711.123216	9285.901167
711.457275	9454.936096
711.791286	9616.684038
712.125247	9609.636505
712.459159	9592.620090
712.793023	9857.885605
713.126837	9431.439278
713.460602	9575.523017
713.794318	9402.059433
714.127985	9435.595709
714.461602	9122.071228
714.795171	9073.882839
715.128691	8835.443823
715.462162	8573.636540
715.795584	8525.415383
716.128957	8386.760967
716.462281	8207.535344
716.795556	8254.372705
717.128782	8058.745689
717.461960	7785.421889
717.795088	7857.452416
718.128167	7768.433200
718.461198	7600.371213
718.794180	7537.626492
719.127113	7538.980042
719.459997	7389.613174
719.792833	7161.316960
720.125619	7217.205712
720.458357	7081.447439
720.791046	7068.627785
721.123686	7073.716830
721.456278	6916.944507
721.788821	6925.713594
722.121315	6822.538819
722.453761	6883.708180
722.786158	6833.115160
723.118506	6851.235587
723.450805	6810.886192
723.783056	6881.106944
724.115259	6785.877028
724.447412	6782.234794
724.779518	6825.855898
725.111574	6828.081568
725.443582	6912.145329
725.775542	6888.519961
726.107453	7071.594504
726.439315	6992.851681
726.771129	7046.219856
727.102895	7210.284208
727.434612	7325.035993
727.766281	7358.794080
728.097901	7441.380783
728.429473	7428.339318
728.760996	7403.499032
729.092471	7375.876030
729.423897	7333.454720
729.755276	7344.008376
730.086606	7277.684435
730.417887	7368.445369
730.749120	7542.138325
731.080305	7741.674756
731.411442	7871.968418
731.742530	7871.860033
732.073570	7968.929971
732.404562	8056.303250
732.735506	7901.096205
733.066401	8051.617497
733.397249	7986.649627
733.728048	7748.598781
734.058798	7417.430261
734.389501	7201.079061
734.720156	7019.416041
735.050762	6788.712677
735.381320	6689.258273
735.711831	6645.369988
736.042293	6535.679521
736.372707	6561.878398
736.703073	6420.196769
737.033391	6451.472087
737.363661	6462.366021
737.693883	6486.760164
738.024056	6570.758390
738.354182	6619.299661
738.684260	6660.027143
739.014290	6763.700992
739.344272	6876.143928
739.674207	6900.119656
740.004093	6966.161292
740.333931	6985.872204
740.663722	6996.365365
740.993464	7067.866571
741.323159	7067.415388
741.652806	6819.105793
741.982405	6812.373332
742.311956	6877.923456
742.641460	6730.189922
742.970915	6533.766403
743.300323	6527.268356
743.629683	6470.290715
743.958996	6337.879768
744.288260	6249.266365
744.617477	6196.430032
744.946647	6211.850922
745.275768	6039.798861
745.604842	5996.303786
745.933869	5979.254604
746.262847	5931.434218
746.591778	5920.999030
746.920662	5886.406632
747.249498	5869.715372
747.578286	5917.344193
747.907027	5993.558878
748.235720	6050.755809
748.564365	6028.390730
748.892963	6040.444129
749.221514	6205.990580
749.550017	6053.634308
749.878473	5919.978196
750.206881	5973.885775
750.535242	5915.736065
750.863555	5846.964644
751.191821	5865.662284
751.520039	5867.966091
751.848210	5778.730107
752.176334	5793.046983
752.504411	5843.844170
752.832440	5775.990239
753.160421	5697.565009
753.488356	5748.911682
753.816243	5778.593995
754.144082	5636.211646
754.471875	5598.599597
754.799620	5653.522968
755.127318	5659.035470
755.454969	5612.465291
755.782572	5576.257203
756.110129	5617.531651
756.437638	5612.949242
756.765100	5552.505807
757.092515	5546.930291
757.419882	5592.983752
757.747203	5576.506741
758.074477	5641.759436
758.401703	5630.031192
758.728882	5579.947328
759.056014	5624.705212
759.383099	5762.681593
759.710138	5773.401607
760.037129	5758.068937
760.364073	5759.031798
760.690970	5844.121434
761.017820	5827.798178
761.344623	5782.463081
761.671379	5875.706783
761.998088	5991.910420
762.324751	6214.313525
762.651366	6786.610516
762.977935	8057.180410
763.304456	9668.837295
763.630931	10599.893040
763.957359	10250.790616
764.283740	9320.513729
764.610074	8510.483485
764.936362	7524.179214
765.262602	6933.033350
765.588796	6390.262397
765.914943	6044.270365
766.241044	5887.235902
766.567097	5699.490730
766.893104	5441.592861
767.219064	5255.256691
767.544978	5196.900294
767.870845	5124.395899
768.196665	5015.832130
768.522438	4945.417293
768.848165	4911.427314
769.173846	4850.116801
769.499479	4809.180111
769.825066	4753.261112
770.150607	4693.641906
770.476101	4667.138039
770.801548	4663.195857
771.126949	4589.448818
771.452303	4538.192886
771.777611	4498.345085
772.102872	4513.201366
772.428087	4475.869101
772.753256	4436.480045
773.078378	4394.905649
773.403453	4325.773786
773.728482	4310.859533
774.053465	4267.550980
774.378401	4249.203700
774.703291	4256.999845
775.028135	4189.710523
775.352932	4138.600785
775.677683	4126.607880
776.002388	4140.319818
776.327046	4157.341274
776.651658	4082.170109
776.976224	4020.118546
777.300743	4020.615100
777.625216	4047.645767
777.949643	4045.223492
778.274024	3999.689270
778.598359	3951.127835
778.922647	3975.096001
779.246889	3968.920588
779.571086	3965.401862
779.895236	3949.451652
780.219339	3934.660906
780.543397	3921.034667
780.867409	3977.525837
781.191374	3994.428826
781.515294	3933.924898
781.839167	3922.259668
782.162995	3939.742389
782.486776	3928.606480
782.810511	3936.715176
783.134201	3937.133592
783.457844	3896.925349
783.781441	3837.774970
784.104993	3841.913758
784.428498	3861.448229
784.751958	3861.233980
785.075372	3839.867049
785.398739	3801.922284
785.722061	3808.732883
786.045337	3852.056559
786.368568	3892.186664
786.691752	3806.592913
787.014891	3845.104808
787.337983	3968.361020
787.661030	4123.401706
787.984031	4283.609575
788.306987	4457.418478
788.629897	4538.928894
788.952760	4498.055219
789.275579	4426.173406
789.598351	4364.525136
789.921078	4232.388932
790.243759	4033.843087
790.566395	4009.121269
790.888984	4011.157895
791.211529	3903.650248
791.534027	3843.826876
791.856480	3835.413190
792.178888	3776.787091
792.501249	3719.983370
792.823566	3734.489290
793.145836	3762.424844
793.468062	3712.615723
793.790241	3667.058816
794.112375	3694.933876
794.434464	3754.865634
794.756507	3780.101650
795.078505	3767.592027
795.400457	3788.497692
795.722364	3929.362653
796.044226	4033.074312
796.366042	4102.768263
796.687812	4087.634720
797.009538	4100.028396
797.331218	4055.651119
797.652852	4026.997201
797.974442	4007.530785
798.295986	4009.885004
798.617484	3929.856687
798.938938	3841.429807
799.260346	3875.707132
799.581709	3879.825755
799.903026	3805.259528
800.224299	3769.114455
800.545526	3762.654216
800.866708	3723.935634
801.187845	3663.376253
801.508936	3699.838919
801.829983	3703.075340
802.150984	3623.344450
802.471940	3607.401801
802.792851	3619.203142
803.113717	3622.346302
803.434538	3626.031385
803.755314	3571.244125
804.076045	3539.699105
804.396731	3559.974626
804.717372	3583.814242
805.037967	3572.143971
805.358518	3560.675346
805.679024	3586.299531
805.999485	3601.173456
806.319901	3602.683281
806.640272	3617.332874
806.960598	3633.038589
807.280879	3608.087398
807.601115	3620.133235
807.921306	3631.546408
808.241453	3676.992410
808.561554	3654.244203
808.881611	3586.201229
809.201623	3621.126343
809.521590	3634.704691
809.841513	3609.947584
810.161390	3634.520688
810.481223	3614.398923
810.801011	3564.047878
811.120755	3550.875343
811.440453	3587.564861
811.760107	3592.807661
812.079716	3552.516239
812.399281	3515.700692
812.718801	3540.634239
813.038276	3514.805887
813.357707	3509.857995
813.677093	3531.434133
813.996434	3478.864981
814.315731	3484.380003
814.634983	3487.255982
814.954191	3501.151922
815.273354	3531.522354
815.592473	3532.248280
815.911547	3530.108310
816.230577	3569.595668
816.549562	3620.657515
816.868502	3661.816016
817.187399	3689.454142
817.506250	3683.929037
817.825058	3652.930982
818.143821	3738.749065
818.462539	3844.762010
818.781213	3894.407293
819.099843	3943.934109
819.418429	4177.838606
819.736970	4413.618412
820.055466	4650.744207
820.373919	5008.900544
820.692327	5415.555301
821.010691	5824.944884
821.329011	7121.965713
821.647286	9748.873174
821.965517	14175.175130
822.283704	18196.783337
822.601847	20490.480610
822.919945	18749.044261
823.237999	16229.901546
823.556010	13771.451803
823.873976	11724.768548
824.191897	9654.651488
824.509775	8297.149416
824.827609	7174.880185
825.145398	6620.333097
825.463144	6505.886302
825.780845	6619.009794
826.098502	6783.285875
826.416116	7609.553675
826.733685	8896.015807
827.051210	10018.834524
827.368692	10134.375250
827.686129	8937.292775
828.003522	7419.953358
828.320872	6402.603142
828.638177	5716.277772
828.955439	5169.720913
829.272656	4674.523330
829.589830	4386.602869
829.906960	4215.836303
830.224046	4035.690670
830.541088	3907.930188
830.858086	3863.885627
831.175041	3786.488792
831.491952	3766.722428
831.808819	3779.146351
832.125642	3846.891897
832.442421	3984.074296
832.759157	4247.315788
833.075849	4773.662661
833.392497	5617.183811
833.709101	6377.616663
834.025662	6733.751497
834.342179	6416.582262
834.658653	5762.104381
834.975083	5124.544613
835.291469	4554.886667
835.607811	4138.762102
835.924110	4009.932895
836.240366	3813.519459
836.556578	3607.999178
836.872746	3498.170080
837.188871	3462.151036
837.504952	3394.047568
837.820990	3317.480003
838.136984	3268.202724
838.452935	3291.722227
838.768842	3286.628141
839.084706	3310.752583
839.400526	3454.523770
839.716303	3776.144344
840.032037	4283.004637
840.347727	4565.286567
840.663373	4312.414728
840.978977	3933.619908
841.294537	3631.170842
841.610054	3405.473343
841.925527	3298.699184
842.240957	3229.330386
842.556344	3171.989782
842.871687	3119.155969
843.186987	3069.901375
843.502244	3030.625746
843.817458	2999.632732
844.132629	2964.158132
844.447756	2974.311016
844.762840	2959.984057
845.077881	2926.964499
845.392879	2911.175605
845.707833	2909.098650
846.022745	2906.827610
846.337613	2906.731828
846.652438	2895.784963
846.967221	2894.580127
847.281960	2881.241234
847.596656	2875.511963
847.911309	2876.192518
848.225919	2869.949049
848.540485	2865.535519
848.855009	2865.908564
849.169490	2854.825588
849.483928	2845.900225
849.798323	2846.484999
850.112675	2841.161540
850.426984	2851.926924
850.741251	2850.361646
851.055474	2839.344204
851.369654	2833.738441
851.683792	2839.520645
851.997887	2847.485668
852.311938	2849.734022
852.625947	2840.725480
852.939914	2841.670697
853.253837	2847.110102
853.567718	2833.703153
853.881555	2828.155363
854.195350	2845.592714
854.509103	2839.376972
854.822812	2835.142402
855.136479	2834.963442
855.450103	2836.012002
855.763685	2827.497493
856.077224	2822.274857
856.390720	2835.981755
856.704173	2845.827128
857.017584	2839.523165
857.330953	2833.519151
857.644278	2844.592045
857.957561	2850.759897
858.270802	2857.583099
858.584000	2855.236442
858.897155	2842.590707
859.210268	2842.016016
859.523339	2842.131962
859.836367	2838.197342
860.149352	2832.037052
860.462295	2830.502020
860.775195	2840.110460
861.088054	2841.330419
861.400869	2818.451142
861.713642	2818.211687
862.026373	2833.408246
862.339062	2838.167095
862.651708	2841.398474
862.964312	2844.667663
863.276873	2837.408401
863.589392	2845.010461
863.901869	2858.185517
864.214303	2878.587066
864.526696	2895.316135
864.839045	2891.943603
865.151353	2889.975033
865.463619	2886.516801
865.775842	2886.945299
866.088023	2908.135790
866.400162	2915.866399
866.712258	2889.425547
867.024313	2876.994062
867.336325	2884.225597
867.648296	2905.915161
867.960224	2897.299829
868.272110	2886.229456
868.583954	2888.656771
868.895755	2905.562281
869.207515	2890.738768
869.519233	2894.401166
869.830909	2906.091602
870.142542	2913.754156
870.454134	2915.533683
870.765684	2915.815988
871.077191	2916.068045
871.388657	2922.578695
871.700081	2936.424224
872.011463	2948.429732
872.322803	2947.353446
872.634101	2945.684824
872.945357	2964.216106
873.256571	2991.506392
873.567744	2984.640340
873.878874	2973.305306
874.189963	2996.207268
874.501010	2998.291785
874.812015	2989.258037
875.122979	2989.300887
875.433900	2987.405413
875.744780	2990.719972
876.055618	2997.865807
876.366415	2993.258193
876.677169	3007.643125
876.987882	3004.157168
877.298554	2994.702483
877.609183	3013.773168
877.919771	3035.097249
878.230317	3062.024573
878.540822	3113.860237
878.851285	3152.699807
879.161707	3189.454859
879.472087	3286.791978
879.782425	3500.609998
880.092722	3916.127104
880.402977	4431.655661
880.713191	5032.871230
881.023363	6142.073791
881.333494	7404.350987
881.643583	7982.493196
881.953631	7698.865277
882.263637	7097.473267
882.573602	6539.762856
882.883526	5960.776254
883.193408	5394.911776
883.503248	4932.436322
883.813048	4634.378101
884.122806	4350.054504
884.432522	4042.007236
884.742197	3811.588697
885.051831	3617.126187
885.361424	3481.637616
885.670975	3413.055238
885.980485	3337.082529
886.289954	3256.363574
886.599382	3215.308417
886.908768	3176.274763
887.218113	3133.412352
887.527417	3077.233734
887.836680	3032.460726
888.145901	3024.987215
888.455082	3015.661081
888.764221	2966.877835
889.073319	2939.373299
889.382376	2933.737289
889.691392	2936.164605
890.000366	2939.242229
890.309300	2926.309149
890.618193	2938.105449
890.927044	2955.263016
891.235855	2956.263685
891.544625	2941.772889
891.853353	2953.707820
892.162041	2967.565952
892.470687	3007.275121
892.779293	3057.033830
893.087858	3102.038731
893.396381	3169.401149
893.704864	3281.377779
894.013306	3511.554343
894.321707	3805.478818
894.630068	4013.731404
894.938387	4014.885828
895.246665	3969.454950
895.554903	3854.383052
895.863100	3664.006397
896.171256	3494.709328
896.479371	3363.858618
896.787446	3246.316554
897.095480	3142.622540
897.403473	3079.560226
897.711425	3041.933054
898.019336	3030.983668
898.327207	3006.828979
898.635038	2973.229689
898.942827	2957.181175
899.250576	2946.632561
899.558284	2915.281625
899.865952	2898.789490
900.173579	2876.842827
900.481165	2870.385109
900.788711	2860.721217
901.096216	2834.605520
901.403681	2823.993891
901.711105	2827.852894
902.018489	2826.738799
902.325832	2824.218222
902.633135	2838.099039
902.940397	2865.971579
903.247619	2942.829010
903.554800	3122.531022
903.861941	3444.910289
904.169041	3863.290771
904.476101	4165.444929
904.783121	4141.572545
905.090100	3906.463212
905.397039	3636.756440
905.703938	3391.723596
906.010796	3209.178374
906.317614	3098.585541
906.624391	3008.202693
906.931129	2939.088474
907.237826	2879.985987
907.544483	2830.459171
907.851099	2801.684264
908.157675	2783.949485
908.464211	2763.343769
908.770707	2751.262644
909.077163	2735.725807
909.383578	2722.906153
909.689954	2712.773434
909.996289	2708.674976
910.302584	2711.061962
910.608839	2711.901314
910.915054	2706.386292
911.221229	2698.902699
911.527363	2701.312371
911.833458	2707.170192
912.139513	2712.581870
912.445527	2717.471789
912.751502	2724.252141
913.057436	2730.941752
913.363331	2746.037488
913.669186	2764.730086
913.975000	2793.293264
914.280775	2854.555886
914.586510	2923.564241
914.892205	2996.177021
915.197859	3118.051956
915.503475	3304.783857
915.809050	3508.648118
916.114585	3651.950478
916.420081	3682.260415
916.725536	3623.838483
917.030952	3509.628623
917.336328	3386.385014
917.641665	3260.668719
917.946961	3158.227432
918.252218	3095.492793
918.557435	3017.314579
918.862612	2960.016824
919.167750	2912.982859
919.472848	2874.034904
919.777906	2847.228569
920.082925	2825.186124
920.387904	2793.900723
920.692843	2773.504214
920.997743	2764.959459
921.302603	2754.655340
921.607423	2743.741242
921.912204	2730.137688
922.216946	2722.366750
922.521647	2711.886191
922.826310	2704.700026
923.130932	2699.013605
923.435516	2689.269054
923.740059	2680.794875
924.044564	2675.375634
924.349028	2669.996723
924.653454	2664.751403
924.957840	2658.954076
925.262186	2651.977119
925.566493	2649.375883
925.870761	2645.355563
926.174989	2641.110912
926.479178	2636.278966
926.783328	2633.912144
927.087438	2630.700929
927.391509	2631.802421
927.695541	2625.488376
927.999533	2623.391256
928.303486	2620.598457
928.607400	2617.087293
928.911275	2619.297839
929.215110	2619.302880
929.518906	2613.349277
929.822663	2617.450256
930.126381	2617.450256
930.430060	2617.704834
930.733699	2619.227263
931.037299	2618.849176
931.340861	2621.957047
931.644383	2623.202212
931.947866	2620.424537
932.251309	2620.996708
932.554714	2617.006634
932.858080	2615.781634
933.161407	2614.473455
933.464694	2614.518825
933.767943	2608.650922
934.071153	2612.714092
934.374323	2610.722836
934.677455	2609.820470
934.980548	2611.224431
935.283602	2609.575974
935.586617	2609.291148
935.889593	2610.924482
936.192530	2607.176384
936.495428	2610.311982
936.798287	2609.752414
937.101108	2617.367077
937.403890	2618.004783
937.706632	2621.664661
938.009336	2629.009622
938.312002	2636.198307
938.614628	2645.746252
938.917216	2652.571975
939.219765	2653.895278
939.522275	2651.717499
939.824747	2651.596512
940.127179	2648.932262
940.429573	2644.606952
940.731929	2642.819863
941.034246	2637.249388
941.336524	2638.832310
941.638763	2632.488018
941.940964	2630.663120
942.243126	2629.269241
942.545250	2627.063736
942.847335	2629.133130
943.149381	2620.863117
943.451389	2617.218363
943.753359	2615.050667
944.055290	2615.950513
944.357182	2617.815740
944.659036	2615.262395
944.960851	2612.371293
945.262628	2611.927672
945.564367	2610.077568
945.866067	2611.400871
946.167729	2611.925151
946.469352	2612.409102
946.770937	2613.860954
947.072484	2612.620831
947.373992	2612.643516
947.675462	2609.283587
947.976893	2606.289141
948.278286	2604.222268
948.579641	2604.802001
948.880958	2600.862339
949.182236	2601.517689
949.483476	2602.815786
949.784678	2602.286465
950.085841	2603.821497
950.386967	2602.498194
950.688054	2605.316199
950.989103	2605.633791
951.290114	2604.839810
951.591087	2608.797115
951.892021	2610.627054
952.192917	2612.530090
952.493776	2613.855913
952.794596	2614.919597
953.095378	2613.331633
953.396122	2613.243413
953.696828	2612.305758
953.997496	2611.894904
954.298126	2609.926334
954.598718	2606.271497
954.899272	2603.602206
955.199788	2601.270673
955.500266	2599.781012
955.800706	2598.535847
956.101108	2595.811103
956.401472	2594.891092
956.701798	2593.764395
957.002087	2589.978488
957.302337	2589.212233
957.602550	2589.325659
957.902724	2583.886254
958.202861	2583.457756
958.502960	2587.102510
958.803022	2583.719896
959.103045	2582.404154
959.403031	2581.390882
959.702979	2583.520770
960.002889	2579.641602
960.302762	2580.987590
960.602596	2578.288052
960.902393	2580.798547
961.202153	2579.442477
961.501875	2578.449369
961.801559	2579.497929
962.101205	2580.085224
962.400814	2579.104719
962.700385	2576.911817
962.999918	2577.526838
963.299414	2574.252609
963.598873	2575.989286
963.898293	2571.459809
964.197677	2578.593042
964.497022	2578.109091
964.796331	2579.076993
965.095601	2574.189594
965.394835	2576.543813
965.694030	2577.254616
965.993189	2575.233113
966.292309	2575.754872
966.591393	2571.840417
966.890439	2578.595563
967.189447	2578.116653
967.488419	2577.640264
967.787353	2572.977197
968.086249	2575.974163
968.385108	2574.280335
968.683930	2575.023905
968.982714	2577.340315
969.281462	2576.160685
969.580172	2577.438618
969.878844	2576.354770
970.177480	2575.863257
970.476078	2578.033474
970.774639	2577.451221
971.073162	2574.529872
971.371649	2576.669842
971.670098	2576.198494
971.968510	2575.286045
972.266885	2575.618761
972.565223	2578.010789
972.863524	2577.952816
973.161788	2573.322516
973.460014	2575.999368
973.758204	2576.203535
974.056356	2575.749831
974.354471	2578.346026
974.652550	2574.517269
974.950591	2579.076993
975.248595	2576.246385
975.546563	2576.705130
975.844493	2575.661611
976.142386	2576.211097
976.440243	2573.743452
976.738062	2572.828483
977.035845	2574.476940
977.333590	2577.877198
977.631299	2574.434090
977.928971	2572.362176
978.226606	2572.215982
978.524204	2571.522824
978.821765	2569.524006
979.119290	2574.605489
979.416777	2574.633216
979.714228	2574.005592
980.011642	2573.428380
980.309020	2573.751014
980.606360	2573.778740
980.903664	2576.632033
981.200931	2573.940057
981.498162	2576.266550
981.795356	2577.660429
982.092513	2575.797722
982.389633	2578.703947
982.686717	2586.212746
982.983764	2589.295412
983.280775	2590.351533
983.577749	2589.197109
983.874686	2589.449167
984.171587	2588.589650
984.468451	2582.308372
984.765279	2584.488672
985.062070	2581.577405
985.358824	2581.932807
985.655543	2579.044225
985.952224	2578.691345
986.248869	2577.925089
986.545478	2574.106415
986.842050	2575.192784
987.138586	2572.707495
987.435086	2573.259501
987.731549	2574.887794
988.027975	2573.819069
988.324366	2570.212124
988.620719	2572.659604
988.917037	2571.323698
989.213318	2575.790161
989.509563	2570.814542
989.805772	2571.716908
990.101944	2572.309244
990.398080	2571.237999
990.694180	2568.898903
990.990244	2572.276476
991.286271	2572.158009
991.582262	2570.746486
991.878217	2571.908472
992.174136	2572.682289
992.470019	2573.652711
992.765865	2570.081054
993.061676	2566.882442
993.357450	2566.895045
993.653188	2565.508727
993.948890	2571.553071
994.244556	2570.703636
994.540186	2570.754048
994.835780	2570.451579
995.131337	2570.444017
995.426859	2571.769840
995.722345	2573.924934
996.017795	2572.894018
996.313208	2573.433421
996.608586	2574.973494
996.903928	2575.454924
997.199234	2574.386199
997.494504	2575.028946
997.789738	2573.849316
998.084936	2574.827300
998.380099	2572.888977
998.675225	2573.060376
998.970316	2571.646332
999.265371	2574.424008
999.560390	2572.609192
999.855373	2571.782443
1000.150320	2572.384861
1000.445232	2569.660117
1000.740108	2571.505180
1001.034948	2570.169274
1001.329752	2570.496949
1001.624521	2571.207752
1001.919254	2571.797567
1002.213951	2570.645663
1002.508613	2570.191959
1002.803239	2569.995354
1003.097829	2571.704305
1003.392384	2569.017370
1003.686903	2568.109963
1003.981386	2567.510065
1004.275834	2568.183059
1004.570246	2569.508883
1004.864623	2567.089129
1005.158964	2567.104253
1005.453270	2566.118707
1005.747540	2565.218861
1006.041775	2568.001578
1006.335974	2567.701629
1006.630138	2566.615261
1006.924266	2569.713050
1007.218359	2568.982082
1007.512416	2563.081412
1007.806438	2564.339180
1008.100425	2565.755744
1008.394376	2564.661813
1008.688292	2568.732545
1008.982172	2568.006619
1009.276017	2568.460323
1009.569827	2568.372103
1009.863602	2567.313460
1010.157341	2567.555436
1010.451045	2567.963769
1010.744714	2567.890672
1011.038347	2571.394274
1011.331945	2565.899417
1011.625508	2567.973852
1011.919036	2567.598286
1012.212528	2568.780436
1012.505986	2567.626012
1012.799408	2568.059551
1013.092795	2564.475291
1013.386147	2568.606516
1013.679464	2567.873028
1013.972745	2567.283213
1014.265992	2567.197514
1014.559204	2572.168092
1014.852380	2568.757751
1015.145521	2567.452092
1015.438628	2566.423697
1015.731699	2568.641804
1016.024736	2568.006619
1016.317737	2566.201886
1016.610703	2566.882442
1016.903635	2569.360169
1017.196531	2569.675241
1017.489393	2567.396639
1017.782219	2568.112483
1018.075011	2568.661969
1018.367768	2569.496280
1018.660490	2566.953018
1018.953177	2566.953018
1019.245829	2566.953018
