Dividing Wavelength (nm)	Counts (n)	Blue Motor Position (mm): 4.300000	Red Motor Position (mm): 0.000000	
326.493990	2145.300828
326.888308	2145.300828
327.282561	2145.300828
327.676750	2111.709099
328.070874	2109.082658
328.464933	2113.173554
328.858929	2120.450460
329.252859	2127.896244
329.646726	2140.683131
330.040528	2152.839873
330.434265	2170.622544
330.827938	2188.851356
331.221547	2207.508666
331.615091	2226.191183
332.008571	2245.062742
332.401986	2263.944384
332.795338	2281.059101
333.188625	2301.311937
333.581847	2321.070739
333.975006	2337.819973
334.368100	2359.108765
334.761129	2377.360263
335.154095	2392.592109
335.546996	2406.568708
335.939833	2424.046389
336.332606	2438.590118
336.725315	2450.860286
337.117960	2460.199023
337.510540	2467.785960
337.903056	2480.061170
338.295508	2487.330513
338.687896	2499.787205
339.080220	2506.670900
339.472480	2512.753052
339.864676	2515.427384
340.256807	2519.210770
340.648875	2525.434075
341.040879	2524.256965
341.432818	2529.998840
341.824694	2528.904909
342.216506	2529.015815
342.608253	2527.884076
342.999937	2531.123017
343.391557	2526.464991
343.783113	2526.943900
344.174605	2526.286030
344.566033	2522.648837
344.957397	2524.607326
345.348697	2517.612725
345.739934	2517.781603
346.131106	2517.378311
346.522215	2515.427384
346.913260	2516.014679
347.304241	2511.633916
347.695159	2511.142404
348.086012	2509.234327
348.476802	2510.144255
348.867528	2506.005468
349.258191	2503.862978
349.648789	2503.807525
350.039324	2501.113028
350.429796	2501.750734
350.820203	2497.856443
351.210548	2495.933243
351.600828	2498.249653
351.991045	2495.915598
352.381198	2498.645383
352.771288	2500.193017
353.161314	2495.517347
353.551276	2496.639004
353.941175	2494.148674
354.331010	2495.817296
354.720782	2494.176400
355.110490	2496.271000
355.500135	2493.563900
355.889717	2495.373674
356.279235	2496.092039
356.668689	2493.732779
357.058080	2494.889724
357.447408	2491.439054
357.836672	2491.819661
358.225873	2493.737820
358.615010	2491.582727
359.004084	2498.239570
359.393095	2495.832419
359.782043	2499.522544
360.170927	2499.819972
360.559748	2499.257883
360.948505	2498.879797
361.337199	2500.031701
361.725830	2504.485560
362.114398	2501.843995
362.502903	2503.568070
362.891344	2503.908348
363.279722	2503.222751
363.668037	2505.952536
364.056289	2505.887001
364.444478	2505.506394
364.832603	2504.462875
365.220665	2504.175529
365.608665	2507.888339
365.996601	2503.058913
366.384474	2508.082423
366.772284	2504.639315
367.160031	2506.605365
367.547715	2508.042094
367.935336	2508.485716
368.322893	2508.034532
368.710388	2507.386744
369.097820	2511.878412
369.485189	2507.588390
369.872495	2507.787516
370.259738	2509.309944
370.646918	2508.644512
371.034035	2509.156189
371.421090	2510.991169
371.808081	2510.698782
372.195010	2511.316323
372.581875	2511.409585
372.968678	2512.672394
373.355418	2512.972342
373.742096	2514.202384
374.128710	2513.128618
374.515262	2512.271622
374.901751	2515.369411
375.288177	2514.782117
375.674540	2511.858248
376.060841	2515.313958
376.447079	2512.380007
376.833254	2511.908659
377.219367	2509.935047
377.605417	2512.576612
377.991404	2507.850530
378.377329	2512.090141
378.763191	2509.161230
379.148991	2511.424708
379.534727	2514.046108
379.920402	2517.332941
380.306013	2511.475120
380.691563	2515.024092
381.077049	2515.182888
381.462474	2516.647344
381.847835	2515.326561
382.233134	2516.478465
382.618371	2515.881088
383.003545	2517.521984
383.388657	2519.848476
383.773706	2515.989473
384.158693	2516.811181
384.543618	2516.967457
384.928480	2515.558454
385.313280	2517.320338
385.698017	2515.989473
386.082692	2518.575585
386.467305	2519.689680
386.851856	2517.806809
387.236344	2520.251769
387.620770	2519.372087
388.005133	2520.108096
388.389435	2519.719927
388.773674	2519.835873
389.157851	2522.537932
389.541965	2519.334279
389.926018	2520.430730
390.310008	2520.561800
390.693936	2521.353261
391.077802	2520.118178
391.461606	2519.631707
391.845348	2522.127078
392.229027	2524.763601
392.612645	2522.134640
392.996200	2524.970289
393.379694	2523.437778
393.763125	2521.932993
394.146494	2521.524660
394.529801	2522.273271
394.913047	2523.304187
395.296230	2523.493231
395.679351	2524.309898
396.062410	2523.127747
396.445408	2523.145391
396.828343	2523.639424
397.211217	2518.353774
397.594028	2525.149250
397.976778	2519.692201
398.359466	2525.159332
398.742092	2520.647499
399.124656	2525.615556
399.507158	2528.068078
399.889598	2526.270906
400.271977	2524.748478
400.654294	2528.015146
401.036549	2526.109589
401.418742	2526.666637
401.800874	2529.217461
402.182944	2525.960875
402.564952	2525.393746
402.946898	2526.001205
403.328783	2525.487007
403.710606	2528.105886
404.092367	2527.437933
404.474067	2529.121679
404.855705	2527.548839
405.237282	2531.188552
405.618797	2529.509848
406.000250	2527.984899
406.381642	2528.299971
406.762972	2527.669827
407.144240	2529.277955
407.525447	2528.224353
407.906593	2527.821061
408.287677	2530.626463
408.668700	2528.027748
409.049661	2529.930784
409.430560	2525.159332
409.811399	2530.092101
410.192176	2529.351051
410.572891	2530.802904
410.953545	2529.603109
411.334138	2529.172090
411.714669	2527.180835
412.095139	2531.112935
412.475547	2531.133099
412.855894	2530.089580
413.236180	2531.347348
413.616405	2532.307688
413.996568	2530.412214
414.376670	2532.955476
414.756711	2529.232584
415.136691	2530.891124
415.516609	2531.886752
415.896466	2533.396577
416.276262	2533.013450
416.655997	2528.307532
417.035670	2529.000691
417.415283	2530.727286
417.794834	2527.485824
418.174324	2530.903727
418.553753	2533.366330
418.933121	2535.476053
419.312428	2531.596885
419.691674	2529.401463
420.070859	2533.923378
420.449983	2532.693336
420.829045	2533.704088
421.208047	2536.864891
421.586988	2534.220806
421.965867	2535.549150
422.344686	2534.167874
422.723444	2532.635363
423.102141	2533.709129
423.480777	2535.110570
423.859352	2534.480425
424.237866	2533.003367
424.616319	2534.132586
424.994712	2536.890097
425.373044	2533.255425
425.751314	2538.919161
426.129524	2535.942360
426.507673	2534.256094
426.885762	2533.111752
427.263789	2536.481763
427.641756	2533.701567
428.019662	2538.112577
428.397508	2536.436393
428.775292	2535.627288
429.153016	2538.641898
429.530679	2536.822041
429.908282	2536.920344
430.285824	2535.150899
430.663305	2536.007895
431.040726	2537.553009
431.418086	2535.367668
431.795385	2538.523431
432.172624	2536.945550
432.549802	2537.827752
432.926920	2538.720036
433.303977	2536.607792
433.680974	2539.002340
434.057910	2535.193749
434.434786	2537.001002
434.811601	2539.816487
435.188355	2539.445962
435.565050	2539.829090
435.941683	2539.304810
436.318257	2537.358924
436.694770	2533.119314
437.071222	2535.362627
437.447614	2536.527134
437.823946	2537.341280
438.200218	2539.025026
438.576429	2540.043339
438.952580	2538.621733
439.328670	2540.028215
439.704700	2537.404295
440.080670	2538.931764
440.456580	2537.558050
440.832429	2541.376724
441.208218	2538.815818
441.583947	2541.164995
441.959616	2538.276414
442.335224	2541.328833
442.710773	2536.028060
443.086261	2537.779861
443.461689	2541.636343
443.837057	2541.895963
444.212365	2540.229861
444.587612	2539.738349
444.962800	2539.057793
445.337927	2541.432177
445.712995	2539.934954
446.088002	2541.706919
446.462949	2539.821528
446.837837	2541.172557
447.212664	2542.132897
447.587431	2540.741538
447.962139	2539.786240
448.336786	2541.016281
448.711374	2539.929913
449.085901	2543.126004
449.460369	2539.007382
449.834776	2540.658359
450.209124	2540.428987
450.583412	2543.844369
450.957640	2542.183308
451.331808	2539.897145
451.705917	2544.023330
452.079965	2543.075593
452.453954	2540.176929
452.827883	2543.108360
453.201752	2542.455531
453.575562	2543.546941
453.949311	2540.333205
454.323001	2541.348998
454.696632	2542.710109
455.070202	2544.978628
455.443713	2542.200952
455.817164	2540.703730
456.190556	2540.202135
456.563888	2542.256405
456.937160	2537.116949
457.310373	2542.437887
457.683526	2543.466282
458.056619	2543.940151
458.429653	2540.081147
458.802628	2546.677497
459.175542	2544.368649
459.548398	2544.872764
459.921194	2540.839841
460.293930	2545.722198
460.666607	2543.269677
461.039224	2542.190870
461.411782	2543.957795
461.784280	2544.635830
462.156719	2545.160110
462.529099	2543.436035
462.901419	2544.038453
463.273680	2544.570295
463.645882	2541.961498
464.018024	2543.494008
464.390106	2544.832435
464.762130	2547.310162
465.134094	2545.023999
465.505999	2544.555171
465.877845	2544.371169
466.249631	2545.296221
466.621358	2544.625747
466.993026	2546.730429
467.364634	2548.746891
467.736184	2546.627086
468.107674	2544.351005
468.479105	2546.707744
468.850477	2546.992569
469.221790	2547.587425
469.593043	2541.749769
469.964238	2543.519214
470.335373	2544.729091
470.706449	2545.936448
471.077467	2546.924514
471.448425	2546.715306
471.819324	2547.408464
472.190164	2545.197918
472.560945	2546.559030
472.931667	2546.196067
473.302330	2545.578526
473.672934	2545.893598
474.043479	2545.994421
474.413965	2544.507280
474.784393	2541.684234
475.154761	2544.391334
475.525070	2539.932433
475.895321	2542.475695
476.265513	2541.477547
476.635645	2550.276881
477.005719	2546.183464
477.375734	2545.313865
477.745691	2547.811757
478.115588	2547.879812
478.485427	2547.567261
478.855207	2547.579864
479.224928	2545.926365
479.594591	2547.269833
479.964194	2547.597508
480.333739	2548.925852
480.703226	2550.032385
481.072653	2549.329144
481.442022	2546.969884
481.811333	2549.936603
482.180584	2549.810574
482.549777	2546.188505
482.918912	2546.085162
483.287988	2549.518187
483.657005	2548.633465
484.025964	2546.261602
484.394864	2546.221273
484.763706	2548.555327
485.132489	2546.339740
485.501213	2549.492982
485.869879	2547.506767
486.238487	2547.010213
486.607036	2546.775800
486.975527	2547.511808
487.343959	2548.245296
487.712333	2548.434339
488.080648	2548.633465
488.448905	2549.326623
488.817104	2547.713454
489.185244	2546.813608
489.553326	2547.264792
489.921350	2545.969215
490.289315	2549.939124
490.657222	2548.625903
491.025070	2549.135060
491.392861	2547.894936
491.760593	2547.405944
492.128267	2549.528270
492.495883	2550.460883
492.863440	2550.599515
493.230939	2549.258568
493.598380	2550.526418
493.965763	2542.989893
494.333088	2547.300080
494.700354	2544.532486
495.067563	2548.998948
495.434713	2544.456869
495.801805	2551.176727
496.168839	2549.208156
496.535815	2549.339226
496.902733	2550.344937
497.269593	2551.141439
497.636395	2551.650595
498.003139	2547.552137
498.369825	2549.755122
498.736453	2550.455842
499.103023	2548.681356
499.469535	2548.436860
499.835989	2547.421067
500.202385	2550.662529
500.568723	2548.494833
500.935003	2548.068856
501.301226	2551.703528
501.667390	2551.307797
502.033497	2553.523384
502.399546	2551.643034
502.765537	2547.622713
503.131470	2548.968702
503.497345	2550.082797
503.863163	2552.855431
504.228923	2548.078938
504.594625	2550.019782
504.960269	2549.003990
505.325856	2549.213197
505.691385	2550.735626
506.056856	2551.675801
506.422270	2550.208825
506.787625	2550.717982
507.152924	2550.329813
507.518164	2550.791079
507.883347	2551.257385
508.248472	2550.743188
508.613540	2551.824515
508.978550	2550.256716
509.343503	2551.537169
509.708398	2553.031872
510.073236	2550.571788
510.438016	2551.922818
510.802738	2551.872406
511.167403	2549.465255
511.532010	2550.871737
511.896561	2550.944834
512.261053	2551.673281
512.625488	2546.501057
512.989866	2547.279915
513.354186	2547.663043
513.718449	2546.523742
514.082655	2547.345450
514.446803	2549.243444
514.810894	2550.095399
515.174927	2554.161090
515.538904	2550.644885
515.902822	2550.476007
516.266684	2549.296377
516.630488	2552.976419
516.994235	2551.864844
517.357925	2551.648075
517.721558	2549.500543
518.085133	2553.261244
518.448651	2552.237890
518.812112	2552.487427
519.175516	2551.517005
519.538863	2548.688917
519.902152	2550.586912
520.265385	2551.534649
520.628560	2551.469114
520.991678	2551.020451
521.354739	2552.021120
521.717743	2551.128836
522.080690	2551.645554
522.443580	2551.985832
522.806413	2551.305276
523.169189	2551.917777
523.531908	2552.926007
523.894569	2550.831408
524.257174	2551.368291
524.619722	2552.878116
524.982213	2552.621017
525.344647	2551.738816
525.707025	2550.367622
526.069345	2552.331151
526.431608	2550.622200
526.793815	2552.086655
527.155964	2553.682180
527.518057	2550.087838
527.880093	2554.579506
528.242072	2552.898281
528.603995	2553.256203
528.965860	2552.351316
529.327669	2551.527087
529.689421	2552.429454
530.051117	2553.803168
530.412755	2551.494320
530.774337	2555.970864
531.135862	2554.236707
531.497331	2550.160934
531.858743	2546.639688
532.220098	2547.410985
532.581396	2550.055070
532.942638	2551.549772
533.303824	2552.374001
533.664953	2553.213353
534.026025	2552.797458
534.387040	2552.389124
534.747999	2551.827036
535.108902	2552.920966
535.469748	2551.917777
535.830537	2554.314845
536.191270	2555.000442
536.551947	2552.056408
536.912567	2553.006666
537.273131	2553.198230
537.633638	2553.157900
537.994089	2553.278888
538.354483	2553.538508
538.714821	2551.718651
539.075103	2553.505740
539.435328	2554.294681
539.795497	2550.607077
540.155609	2552.845349
540.515665	2552.225287
540.875665	2553.082283
541.235609	2551.779145
541.595496	2553.835936
541.955328	2552.973898
542.315102	2552.744526
542.674821	2551.695966
543.034483	2552.646223
543.394090	2555.373487
543.753640	2553.452808
544.113134	2551.199412
544.472571	2551.219577
544.831953	2553.639331
545.191278	2556.724517
545.550548	2551.113713
545.909761	2553.697304
546.268918	2552.711758
546.628019	2553.931718
546.987064	2553.793086
547.346053	2551.020451
547.704986	2553.901471
548.063863	2555.123950
548.422684	2555.020607
548.781449	2552.437015
549.140158	2551.774104
549.498811	2552.555483
549.857408	2553.916594
550.215949	2551.325441
550.574434	2549.435008
550.932864	2551.065822
551.291237	2549.576161
551.649555	2552.852911
552.007817	2553.127653
552.366022	2552.830225
552.724173	2550.218908
553.082267	2552.648744
553.440305	2554.095555
553.798288	2552.968857
554.156215	2552.603373
554.514086	2551.907694
554.871902	2552.240410
555.229661	2551.678322
555.587365	2553.283929
555.945014	2553.409958
556.302606	2553.064639
556.660143	2552.106820
557.017625	2552.953734
557.375050	2552.371480
557.732421	2553.977088
558.089735	2552.109340
558.446994	2554.060267
558.804197	2553.956923
559.161345	2551.166645
559.518437	2553.601522
559.875474	2554.529094
560.232455	2552.494989
560.589381	2551.708569
560.946251	2555.446584
561.303065	2554.534135
561.659825	2552.479865
562.016528	2553.414999
562.373177	2552.356357
562.729770	2551.365770
563.086307	2551.592622
563.442789	2552.991542
563.799216	2551.922818
564.155587	2554.881975
564.511904	2553.301573
564.868164	2551.517005
565.224370	2554.082952
565.580520	2549.341747
565.936615	2550.125646
566.292654	2554.040102
566.648638	2550.445760
567.004567	2553.662016
567.360441	2555.174362
567.716260	2553.735112
568.072023	2553.462890
568.427732	2548.048691
568.783385	2549.750080
569.138982	2550.009700
569.494525	2549.089689
569.850013	2547.925183
570.205445	2555.239897
570.560823	2551.544731
570.916145	2555.015566
571.271412	2553.944320
571.626625	2555.292829
571.981782	2554.123281
572.336884	2553.800648
572.691931	2549.797971
573.046923	2551.365770
573.401860	2553.866182
573.756743	2554.271995
574.111570	2552.479865
574.466342	2551.050698
574.821059	2554.672767
575.175722	2550.228990
575.530330	2550.493651
575.884882	2555.307953
576.239380	2553.629248
576.593823	2555.963303
576.948211	2554.105637
577.302544	2553.462890
577.656823	2553.253682
578.011047	2552.676470
578.365216	2550.748229
578.719330	2551.844680
579.073389	2554.009855
579.427394	2553.719989
579.781344	2553.092365
580.135239	2555.106306
580.489080	2556.233004
580.842866	2550.889381
581.196597	2557.412634
581.550273	2553.755277
581.903895	2552.739485
582.257463	2552.293343
582.610975	2554.677808
582.964434	2554.818961
583.317837	2554.491286
583.671186	2556.283416
584.024481	2554.642520
584.377721	2555.839794
584.730906	2553.220915
585.084037	2554.695452
585.437113	2551.209494
585.790135	2554.985319
586.143103	2554.415668
586.496016	2555.847356
586.848874	2548.371325
587.201679	2551.980791
587.554428	2549.303938
587.907124	2553.029351
588.259765	2548.446942
588.612352	2552.840308
588.964884	2556.220401
589.317362	2555.509599
589.669786	2552.074052
590.022155	2555.544887
590.374470	2554.231666
590.726731	2554.713096
591.078937	2554.458518
591.431090	2554.466080
591.783188	2551.307797
592.135232	2554.133364
592.487222	2555.439022
592.839157	2554.587067
593.191038	2554.163611
593.542866	2553.893909
593.894639	2552.605894
594.246358	2554.640000
594.598022	2553.430123
594.949633	2556.590926
595.301190	2552.759649
595.652692	2552.608415
596.004141	2551.363250
596.355535	2556.245607
596.706876	2554.589588
597.058162	2553.641851
597.409395	2553.238559
597.760573	2552.038764
598.111698	2553.331820
598.462768	2552.575647
598.813785	2557.465566
599.164748	2553.730071
599.515657	2554.355174
599.866511	2553.528425
600.217312	2555.617983
600.568060	2553.982129
600.918753	2556.293498
601.269392	2551.648075
601.619978	2553.409958
601.970510	2553.417520
602.320988	2555.315514
602.671412	2551.683363
603.021783	2552.174875
603.372100	2555.401214
603.722363	2552.265616
604.072572	2554.370298
604.422728	2554.231666
604.772830	2550.349978
605.122878	2551.809392
605.472872	2550.717982
605.822813	2547.368135
606.172701	2555.076059
606.522534	2553.462890
606.872314	2553.500699
607.222041	2554.529094
607.571714	2553.021789
607.921333	2549.999617
608.270899	2551.479196
608.620411	2552.918446
608.969870	2553.190668
609.319276	2554.390463
609.668627	2557.626883
610.017926	2561.876576
610.367171	2561.558983
610.716362	2559.552604
611.065500	2557.785680
611.414585	2556.875751
611.763616	2555.630586
612.112594	2554.438353
612.461518	2558.234342
612.810389	2554.579506
613.159207	2554.655123
613.507971	2555.025648
613.856682	2554.493806
614.205340	2553.684701
614.553945	2556.422047
614.902496	2555.343241
615.250994	2552.565565
615.599439	2553.367108
615.947830	2556.495144
616.296169	2554.894578
616.644454	2555.386090
616.992686	2555.171841
617.340864	2555.053374
617.688990	2553.551110
618.037063	2554.544218
618.385082	2552.895760
618.733048	2556.744681
619.080961	2553.722510
619.428821	2553.188147
619.776628	2556.359033
620.124382	2556.714434
620.472083	2556.694270
620.819731	2554.095555
621.167326	2555.393652
621.514868	2555.401214
621.862357	2552.686552
622.209793	2553.485575
622.557176	2554.128323
622.904506	2551.680842
623.251783	2550.375183
623.599007	2549.954247
623.946179	2550.642365
624.293297	2547.952909
624.640363	2553.427602
624.987376	2555.570092
625.334336	2552.895760
625.681243	2553.941800
626.028097	2552.920966
626.374899	2554.219063
626.721647	2554.660164
627.068343	2553.087324
627.414987	2555.580175
627.761577	2554.622356
628.108115	2553.961964
628.454600	2552.184958
628.801032	2554.519012
629.147412	2552.585729
629.493739	2554.818961
629.840014	2555.232335
630.186236	2553.785524
630.532405	2554.839125
630.878521	2551.832077
631.224585	2555.083621
631.570597	2552.215205
631.916556	2553.961964
632.262462	2554.735782
632.608316	2556.220401
632.954117	2555.020607
633.299866	2556.308622
633.645562	2552.212684
633.991206	2556.543035
634.336797	2553.709907
634.682336	2554.755946
635.027823	2552.850390
635.373257	2554.703014
635.718639	2552.817622
636.063968	2552.026161
636.409245	2551.683363
636.754470	2550.440718
637.099642	2555.197047
637.444762	2554.113199
637.789829	2553.934238
638.134845	2554.448436
638.479808	2553.135215
638.824719	2554.360216
639.169577	2555.126471
639.514383	2553.301573
639.859137	2550.607077
640.203839	2550.851573
640.548489	2554.564382
640.893086	2549.109854
641.237632	2548.716644
641.582125	2549.200595
641.926566	2548.885522
642.270955	2550.917108
642.615292	2552.363919
642.959576	2551.509443
643.303809	2553.835936
643.647990	2552.459701
643.992118	2553.294012
644.336195	2554.153528
644.680219	2553.682180
645.024192	2552.794937
645.368112	2550.904505
645.711981	2554.430792
646.055797	2553.712427
646.399562	2553.155380
646.743274	2553.548590
647.086935	2555.002963
647.430544	2554.455998
647.774101	2551.761501
648.117606	2554.975236
648.461059	2555.446584
648.804460	2557.026986
649.147810	2550.707900
649.491108	2553.140256
649.834354	2553.387273
650.177548	2552.076573
650.520690	2553.483055
650.863781	2552.265616
651.206820	2556.490103
651.549807	2554.660164
651.892742	2555.340720
652.235626	2551.053219
652.578458	2554.781152
652.921238	2551.990873
653.263967	2553.427602
653.606644	2554.085473
653.949269	2553.639331
654.291843	2552.482386
654.634365	2553.299053
654.976836	2551.736295
655.319255	2551.799309
655.661622	2551.048178
656.003938	2555.832232
656.346203	2551.809392
656.688416	2551.345606
657.030577	2551.587581
657.372687	2552.507592
657.714746	2555.222253
658.056753	2553.319217
658.398708	2546.874102
658.740612	2552.207643
659.082465	2551.789227
659.424266	2548.051212
659.766016	2548.724206
660.107715	2556.338868
660.449362	2552.414330
660.790958	2553.425082
661.132503	2551.680842
661.473996	2552.043805
661.815438	2550.972560
662.156829	2551.126315
662.498168	2554.042623
662.839456	2553.316697
663.180693	2552.696635
663.521879	2554.803837
663.863013	2551.595143
664.204097	2550.596994
664.545129	2553.208312
664.886110	2555.156718
665.227040	2549.210677
665.567918	2549.097251
665.908746	2554.067829
666.249522	2553.092365
666.590248	2552.429454
666.930922	2552.580688
667.271545	2551.796789
667.612118	2554.980278
667.952639	2553.225956
668.293109	2551.446429
668.633528	2550.924669
668.973896	2553.382232
669.314213	2551.522046
669.654480	2554.140925
669.994695	2551.038095
670.334859	2551.685883
670.674973	2555.297870
671.015035	2555.416337
671.355047	2553.795606
671.695008	2554.607232
672.034918	2551.632951
672.374777	2550.685214
672.714585	2550.355019
673.054342	2552.646223
673.394049	2553.520863
673.733705	2548.484751
674.073310	2556.439692
674.412864	2553.031872
674.752368	2550.662529
675.091820	2552.447098
675.431223	2554.206460
675.770574	2552.570606
676.109875	2550.604556
676.449125	2552.189999
676.788324	2548.736808
677.127473	2549.382076
677.466571	2546.392672
677.805619	2552.489947
678.144616	2551.527087
678.483562	2552.293343
678.822458	2553.039433
679.161303	2552.512633
679.500098	2553.165462
679.838842	2551.675801
680.177535	2554.360216
680.516179	2551.958106
680.854771	2553.155380
681.193314	2553.455328
681.531805	2554.723179
681.870247	2552.815102
682.208638	2552.895760
682.546978	2553.525905
682.885268	2549.442570
683.223508	2554.430792
683.561697	2549.495502
683.899836	2553.863662
684.237925	2551.007848
684.575963	2554.864331
684.913951	2551.595143
685.251889	2555.907850
685.589776	2552.076573
685.927614	2554.818961
686.265401	2551.948023
686.603137	2552.167314
686.940824	2550.995245
687.278460	2553.014228
687.616046	2549.394679
687.953582	2552.631100
688.291068	2552.883157
688.628504	2551.915256
688.965889	2552.338713
689.303224	2553.639331
689.640510	2551.091027
689.977745	2552.782334
690.314930	2551.116233
690.652065	2553.921635
690.989150	2551.542211
691.326185	2551.519525
691.663170	2552.280740
692.000105	2552.502550
692.336990	2550.531459
692.673825	2554.498847
693.010610	2554.413148
693.347345	2550.594474
693.684030	2547.554658
694.020665	2548.106664
694.357251	2547.100954
694.693786	2550.276881
695.030272	2551.736295
695.366707	2552.605894
695.703093	2552.003476
696.039429	2550.274360
696.375716	2549.835780
696.711952	2549.553475
697.048139	2552.792417
697.384276	2551.191850
697.720363	2554.844166
698.056400	2551.133877
698.392388	2554.105637
698.728326	2551.706048
699.064214	2551.456511
699.400053	2552.303425
699.735842	2549.719833
700.071581	2553.329300
700.407270	2551.701007
700.742910	2549.772766
701.078501	2552.298384
701.414042	2553.762839
701.749533	2553.409958
702.084974	2552.230328
702.420366	2551.262427
702.755709	2551.428785
703.091002	2551.275029
703.426246	2552.139587
703.761440	2550.639844
704.096584	2553.939279
704.431679	2551.567416
704.766725	2551.524567
705.101721	2549.954247
705.436668	2549.800492
705.771565	2551.327962
706.106413	2551.854762
706.441212	2553.203271
706.775961	2551.053219
707.110661	2549.855945
707.445311	2554.072870
707.779913	2552.182437
708.114465	2553.775442
708.448967	2553.392314
708.783421	2552.719320
709.117825	2550.478527
709.452180	2554.103117
709.786485	2550.128167
710.120742	2553.500699
710.454949	2549.803012
710.789107	2549.245965
711.123216	2549.006510
711.457275	2547.267312
711.791286	2549.666901
712.125247	2548.618341
712.459159	2550.705379
712.793023	2551.138918
713.126837	2551.005328
713.460602	2549.790410
713.794318	2550.032385
714.127985	2551.955585
714.461602	2551.380894
714.795171	2554.602191
715.128691	2550.959957
715.462162	2551.985832
715.795584	2552.361398
716.128957	2551.471634
716.462281	2550.576830
716.795556	2551.020451
717.128782	2549.266130
717.461960	2554.647561
717.795088	2549.956768
718.128167	2553.203271
718.461198	2550.786038
718.794180	2551.378373
719.127113	2550.599515
719.459997	2551.106151
719.792833	2550.949875
720.125619	2552.013558
720.458357	2550.206305
720.791046	2551.965667
721.123686	2549.752601
721.456278	2551.930379
721.788821	2549.344268
722.121315	2553.422561
722.453761	2551.138918
722.786158	2551.499361
723.118506	2552.126984
723.450805	2549.344267
723.783056	2553.084804
724.115259	2551.978270
724.447412	2551.945503
724.779518	2552.046326
725.111574	2551.217056
725.443582	2551.620348
725.775542	2553.999773
726.107453	2550.314690
726.439315	2551.038095
726.771129	2555.993549
727.102895	2550.087838
727.434612	2553.861141
727.766281	2551.320400
728.097901	2548.497354
728.429473	2547.690769
728.760996	2550.264278
729.092471	2547.678166
729.423897	2550.884340
729.755276	2550.934752
730.086606	2552.474824
730.417887	2550.294525
730.749120	2551.131357
731.080305	2550.760832
731.411442	2551.748898
731.742530	2551.993394
732.073570	2554.055226
732.404562	2550.576830
732.735506	2553.170503
733.066401	2551.506922
733.397249	2551.801830
733.728048	2550.876778
734.058798	2551.864844
734.389501	2548.434339
734.720156	2551.378373
735.050762	2549.629093
735.381320	2553.362067
735.711831	2550.249155
736.042293	2551.859803
736.372707	2548.930893
736.703073	2551.133877
737.033391	2549.649257
737.363661	2549.566078
737.693883	2550.118085
738.024056	2552.351316
738.354182	2549.573640
738.684260	2549.147662
739.014290	2552.154711
739.344272	2549.949206
739.674207	2550.554144
740.004093	2549.026675
740.333931	2553.977088
740.663722	2552.376522
740.993464	2553.843497
741.323159	2550.879299
741.652806	2549.745039
741.982405	2549.586243
742.311956	2550.539021
742.641460	2552.414330
742.970915	2550.768393
743.300323	2550.463404
743.629683	2548.671273
743.958996	2551.164124
744.288260	2551.804351
744.617477	2551.590102
744.946647	2545.397044
745.275768	2549.130018
745.604842	2546.193546
745.933869	2547.771427
746.262847	2546.261602
746.591778	2551.002807
746.920662	2550.208825
747.249498	2547.181613
747.578286	2551.206974
747.907027	2553.462890
748.235720	2551.658157
748.564365	2551.910215
748.892963	2549.573640
749.221514	2551.537169
749.550017	2548.658671
749.878473	2552.343754
750.206881	2550.922149
750.535242	2550.521377
750.863555	2550.145811
751.191821	2548.739329
751.520039	2551.201933
751.848210	2550.924669
752.176334	2551.020451
752.504411	2551.879968
752.832440	2551.486758
753.160421	2548.499874
753.488356	2550.667570
753.816243	2551.726213
754.144082	2550.775955
754.471875	2549.863506
754.799620	2548.371325
755.127318	2545.916283
755.454969	2548.202446
755.782572	2554.627397
756.110129	2548.315872
756.437638	2549.745039
756.765100	2550.546583
757.092515	2550.019782
757.419882	2548.903167
757.747203	2549.308979
758.074477	2551.242262
758.401703	2549.215718
758.728882	2550.087838
759.056014	2550.750749
759.383099	2549.349309
759.710138	2550.322251
760.037129	2551.466593
760.364073	2551.554813
760.690970	2548.658671
761.017820	2548.769576
761.344623	2551.879968
761.671379	2549.762683
761.998088	2544.938299
762.324751	2546.160779
762.651366	2545.099616
762.977935	2547.037940
763.304456	2544.260264
763.630931	2549.054401
763.957359	2551.980791
764.283740	2551.559855
764.610074	2549.886192
764.936362	2550.418033
765.262602	2550.503733
765.588796	2551.055739
765.914943	2547.237065
766.241044	2551.411141
766.567097	2548.230172
766.893104	2549.243444
767.219064	2550.677653
767.544978	2548.416695
767.870845	2550.007179
768.196665	2551.368291
768.522438	2549.717313
768.848165	2549.099772
769.173846	2549.331665
769.499479	2549.606407
769.825066	2551.317879
770.150607	2550.896943
770.476101	2550.087838
770.801548	2551.149001
771.126949	2549.036757
771.452303	2551.136398
771.777611	2547.093392
772.102872	2547.824360
772.428087	2549.268650
772.753256	2550.007179
773.078378	2548.968702
773.403453	2551.645554
773.728482	2549.500543
774.053465	2550.586912
774.378401	2549.752601
774.703291	2550.173537
775.028135	2549.243444
775.352932	2549.225800
775.677683	2549.901315
776.002388	2549.503064
776.327046	2554.448436
776.651658	2548.877961
776.976224	2553.485575
777.300743	2549.803013
777.625216	2550.443239
777.949643	2549.903836
778.274024	2550.854093
778.598359	2549.155224
778.922647	2547.015254
779.246889	2547.176571
779.571086	2545.018958
779.895236	2546.377548
780.219339	2549.876109
780.543397	2549.258568
780.867409	2548.179761
781.191374	2549.835780
781.515294	2547.973074
781.839167	2548.976263
782.162995	2548.981304
782.486776	2549.253527
782.810511	2550.148332
783.134201	2549.525749
783.457844	2548.348640
783.781441	2551.751418
784.104993	2549.155224
784.428498	2550.831408
784.751958	2548.875440
785.075372	2548.129349
785.398739	2552.585729
785.722061	2548.406613
786.045337	2546.745553
786.368568	2551.764021
786.691752	2547.786551
787.014891	2550.251675
787.337983	2547.176571
787.661030	2551.166645
787.984031	2549.399720
788.306987	2552.058929
788.629897	2548.877961
788.952760	2549.150183
789.275579	2549.611449
789.598351	2552.058929
789.921078	2549.455173
790.243759	2547.854607
790.566395	2547.504246
790.888984	2548.751932
791.211529	2547.781510
791.534027	2549.535831
791.856480	2551.627910
792.178888	2551.517005
792.501249	2549.760163
792.823566	2551.151521
793.145836	2551.471634
793.468062	2547.612631
793.790241	2547.537014
794.112375	2548.754453
794.434464	2547.839483
794.756507	2548.673794
795.078505	2550.370142
795.400457	2546.314534
795.722364	2543.483926
796.044226	2545.991900
796.366042	2545.336550
796.687812	2548.222611
797.009538	2551.285112
797.331218	2548.648588
797.652852	2548.441901
797.974442	2550.055070
798.295986	2548.280584
798.617484	2547.027857
798.938938	2548.986346
799.260346	2549.210677
799.581709	2550.347457
799.903026	2548.451983
800.224299	2551.247303
800.545526	2546.564071
800.866708	2546.332178
801.187845	2551.015410
801.508936	2547.385779
801.829983	2549.107333
802.150984	2550.932231
802.471940	2550.332334
802.792851	2549.419885
803.113717	2549.470296
803.434538	2547.421067
803.755314	2547.617672
804.076045	2545.737322
804.396731	2549.558517
804.717372	2548.497354
805.037967	2547.668084
805.358518	2547.642878
805.679024	2551.622869
805.999485	2549.845862
806.319901	2550.271840
806.640272	2552.132026
806.960598	2549.160265
807.280879	2548.877961
807.601115	2551.612787
807.921306	2550.055070
808.241453	2548.237734
808.561554	2547.693290
808.881611	2547.998279
809.201623	2548.557847
809.521590	2551.108671
809.841513	2553.309135
810.161390	2546.180943
810.481223	2546.133052
810.801011	2550.307128
811.120755	2548.956099
811.440453	2549.992056
811.760107	2547.489123
812.079716	2546.528783
812.399281	2545.833104
812.718801	2546.059956
813.038276	2544.779503
813.357707	2548.250337
813.677093	2548.177240
813.996434	2550.869217
814.315731	2550.332334
814.634983	2551.338044
814.954191	2548.386448
815.273354	2548.726726
815.592473	2548.003321
815.911547	2550.465924
816.230577	2549.566078
816.549562	2547.473999
816.868502	2546.546427
817.187399	2546.390151
817.506250	2549.795451
817.825058	2547.484082
818.143821	2546.012065
818.462539	2549.787889
818.781213	2547.048022
819.099843	2548.562889
819.418429	2546.806047
819.736970	2549.223280
820.055466	2548.227652
820.373919	2548.678835
820.692327	2545.137425
821.010691	2548.565409
821.329011	2547.446273
821.647286	2552.719320
821.965517	2548.043650
822.283704	2549.117416
822.601847	2548.981304
822.919945	2548.845193
823.237999	2548.361242
823.556010	2551.554813
823.873976	2549.006510
824.191897	2549.326623
824.509775	2549.939124
824.827609	2548.772097
825.145398	2547.179092
825.463144	2548.124308
825.780845	2547.821839
826.098502	2548.570450
826.416116	2546.238917
826.733685	2547.806716
827.051210	2547.055584
827.368692	2546.586756
827.686129	2548.643547
828.003522	2546.473330
828.320872	2547.055584
828.638177	2544.587939
828.955439	2544.842517
829.272656	2547.453835
829.589830	2542.639533
829.906960	2548.691438
830.224046	2549.160265
830.541088	2548.709082
830.858086	2547.093392
831.175041	2548.472148
831.491952	2546.627086
831.808819	2547.781510
832.125642	2546.685059
832.442421	2549.407282
832.759157	2544.257743
833.075849	2548.474668
833.392497	2548.772097
833.709101	2547.128680
834.025662	2548.840152
834.342179	2548.222611
834.658653	2549.619010
834.975083	2546.566592
835.291469	2552.119423
835.607811	2544.348484
835.924110	2546.783361
836.240366	2546.937117
836.556578	2546.798485
836.872746	2548.875440
837.188871	2547.408464
837.504952	2548.328475
837.820990	2546.720347
838.136984	2547.680687
838.452935	2546.896787
838.768842	2548.285625
839.084706	2549.924000
839.400526	2546.627086
839.716303	2547.622713
840.032037	2546.312013
840.347727	2548.252858
840.663373	2549.540872
840.978977	2548.406613
841.294537	2548.056253
841.610054	2549.845862
841.925527	2547.123639
842.240957	2550.778476
842.556344	2546.490974
842.871687	2547.804195
843.186987	2550.133208
843.502244	2547.022816
843.817458	2548.182282
844.132629	2547.897456
844.447756	2546.243958
844.762840	2544.655994
845.077881	2544.582898
845.392879	2544.673638
845.707833	2543.698175
846.022745	2541.815304
846.337613	2547.645399
846.652438	2546.248999
846.967221	2548.966181
847.281960	2544.151879
847.596656	2547.247148
847.911309	2548.073897
848.225919	2549.351829
848.540485	2547.297559
848.855009	2548.845193
849.169490	2546.256561
849.483928	2546.506098
849.798323	2547.753783
850.112675	2546.145655
850.426984	2547.272353
850.741251	2547.078269
851.055474	2548.835111
851.369654	2547.751263
851.683792	2547.161448
851.997887	2548.376366
852.311938	2547.428629
852.625947	2548.081458
852.939914	2548.202446
853.253837	2545.941489
853.567718	2548.106664
853.881555	2548.391489
854.195350	2546.614483
854.509103	2546.407795
854.822812	2548.363763
855.136479	2546.894267
855.450103	2544.431663
855.763685	2545.727240
856.077224	2544.623227
856.390720	2549.760163
856.704173	2547.050543
857.017584	2547.103475
857.330953	2547.889895
857.644278	2549.130018
857.957561	2551.819474
858.270802	2544.910573
858.584000	2546.617003
858.897155	2550.128167
859.210268	2545.752445
859.523339	2545.714637
859.836367	2547.882333
860.149352	2546.281767
860.462295	2548.681356
860.775195	2546.375028
861.088054	2545.956612
861.400869	2547.340409
861.713642	2542.029553
862.026373	2545.956612
862.339062	2546.191026
862.651708	2549.578681
862.964312	2547.252189
863.276873	2548.494833
863.589392	2547.307641
863.901869	2544.754297
864.214303	2546.170861
864.526696	2548.154555
864.839045	2547.842004
865.151353	2546.296890
865.463619	2546.319575
865.775842	2548.502395
866.088023	2549.714792
866.400162	2547.642878
866.712258	2550.286963
867.024313	2547.582384
867.336325	2548.068856
867.648296	2547.169010
867.960224	2546.410316
868.272110	2547.728578
868.583954	2548.469627
868.895755	2544.930737
869.207515	2548.676315
869.519233	2549.525749
869.830909	2546.700182
870.142542	2546.901828
870.454134	2545.417209
870.765684	2545.044163
871.077191	2547.189174
871.388657	2545.938968
871.700081	2546.642209
872.011463	2547.032898
872.322803	2546.004503
872.634101	2545.646581
872.945357	2544.063659
873.256571	2548.043650
873.567744	2547.960471
873.878874	2547.451314
874.189963	2546.858979
874.501010	2547.221942
874.812015	2546.677497
875.122979	2551.557334
875.433900	2546.846376
875.744780	2548.875440
876.055618	2547.511808
876.366415	2548.003321
876.677169	2547.794113
876.987882	2544.618186
877.298554	2542.924358
877.609183	2544.172044
877.919771	2542.944523
878.230317	2544.590459
878.540822	2547.143804
878.851285	2547.834442
879.161707	2547.330327
879.472087	2545.785213
879.782425	2546.488454
880.092722	2545.613814
880.402977	2547.718495
880.713191	2547.778989
881.023363	2547.219421
881.333494	2544.872764
881.643583	2545.558361
881.953631	2544.996272
882.263637	2546.213711
882.573602	2548.217570
882.883526	2547.307641
883.193408	2546.289328
883.503248	2545.785213
883.813048	2547.658002
884.122806	2545.558361
884.432522	2548.406613
884.742197	2546.004503
885.051831	2546.879143
885.361424	2548.487271
885.670975	2544.396375
885.980485	2546.501057
886.289954	2547.453835
886.599382	2546.170861
886.908768	2546.627086
887.218113	2546.203629
887.527417	2547.032898
887.836680	2545.896118
888.145901	2545.780172
888.455082	2546.284287
888.764221	2545.081972
889.073319	2546.317055
889.382376	2546.203629
889.691392	2548.472148
890.000366	2544.270346
890.309300	2547.025337
890.618193	2545.709596
890.927044	2546.095244
891.235855	2546.659853
891.544625	2548.923331
891.853353	2544.799667
892.162041	2545.006355
892.470687	2547.088351
892.779293	2543.453679
893.087858	2543.932589
893.396381	2541.044008
893.704864	2542.183308
894.013306	2542.994934
894.321707	2545.641540
894.630068	2544.381252
894.938387	2546.392672
895.246665	2542.770603
895.554903	2547.509288
895.863100	2543.284801
896.171256	2545.016437
896.479371	2545.603731
896.787446	2548.903167
897.095480	2546.942158
897.403473	2546.024668
897.711425	2543.902342
898.019336	2544.751776
898.327207	2544.106509
898.635038	2547.234545
898.942827	2542.924358
899.250576	2546.130532
899.558284	2546.982487
899.865952	2544.325799
900.173579	2546.851417
900.481165	2547.300080
900.788711	2545.868392
901.096216	2545.676828
901.403681	2544.577857
901.711105	2546.629606
902.018489	2545.044163
902.325832	2548.860317
902.633135	2544.005686
902.940397	2545.896118
903.247619	2545.147507
903.554800	2544.711447
903.861941	2546.538865
904.169041	2546.667415
904.476101	2545.313865
904.783121	2545.875954
905.090100	2546.788402
905.397039	2548.000800
905.703938	2547.408464
906.010796	2546.606921
906.317614	2547.204298
906.624391	2546.064997
906.931129	2546.765717
907.237826	2543.645243
907.544483	2546.518701
907.851099	2545.555840
908.157675	2545.707075
908.464211	2546.145655
908.770707	2539.629964
909.077163	2542.382434
909.383578	2543.824204
909.689954	2542.667259
909.996289	2542.674821
910.302584	2545.913762
910.608839	2545.462579
910.915054	2544.459389
911.221229	2545.492826
911.527363	2545.951571
911.833458	2542.894111
912.139513	2547.461397
912.445527	2543.564585
912.751502	2546.075079
913.057436	2544.446787
913.363331	2543.698175
913.669186	2545.371838
913.975000	2544.335881
914.280775	2545.107178
914.586510	2543.589790
914.892205	2546.841335
915.197859	2545.586087
915.503475	2546.269164
915.809050	2544.348484
916.114585	2546.627086
916.420081	2547.327806
916.725536	2545.480223
917.030952	2548.361243
917.336328	2545.739842
917.641665	2546.463248
917.946961	2546.309493
918.252218	2543.146169
918.557435	2547.010213
918.862612	2545.512991
919.167750	2545.694472
919.472848	2547.940306
919.777906	2545.434853
920.082925	2543.919986
920.387904	2545.669266
920.692843	2545.268495
920.997743	2545.845707
921.302603	2548.129349
921.607423	2547.098433
921.912204	2547.320244
922.216946	2545.805377
922.521647	2547.307641
922.826310	2545.568443
923.130932	2545.071890
923.435516	2545.613814
923.740059	2543.720860
924.044564	2544.608103
924.349028	2544.245140
924.653454	2539.859337
924.957840	2543.390665
925.262186	2542.387475
925.566493	2542.551313
925.870761	2539.917310
926.174989	2546.208670
926.479178	2546.274205
926.783328	2544.940820
927.087438	2543.456200
927.391509	2543.922507
927.695541	2544.134235
927.999533	2547.824360
928.303486	2547.320244
928.607400	2544.358566
928.911275	2543.579708
929.215110	2544.378731
929.518906	2544.585418
929.822663	2545.593649
930.126381	2546.483413
930.430060	2546.148176
930.733699	2543.378062
931.037299	2547.847045
931.340861	2542.969728
931.644383	2547.705892
931.947866	2543.562064
932.251309	2542.783206
932.554714	2545.016437
932.858080	2548.449463
933.161407	2543.456200
933.464694	2545.941489
933.767943	2544.461910
934.071153	2544.837476
934.374323	2545.565923
934.677455	2544.691283
934.980548	2546.569112
935.283602	2544.635830
935.586617	2546.075079
935.889593	2545.104657
936.192530	2544.492157
936.495428	2543.667928
936.798287	2542.256405
937.101108	2547.516849
937.403890	2544.953422
937.706632	2547.826880
938.009336	2546.783361
938.312002	2545.875954
938.614628	2542.833617
938.917216	2546.659853
939.219765	2544.731612
939.522275	2545.437373
939.824747	2546.133052
940.127179	2541.404450
940.429573	2540.630633
940.731929	2543.589790
941.034246	2539.640046
941.336524	2541.737166
941.638763	2544.141797
941.940964	2543.178936
942.243126	2546.415357
942.545250	2544.217414
942.847335	2542.725233
943.149381	2546.470810
943.451389	2543.100798
943.753359	2543.509132
944.055290	2544.260264
944.357182	2548.651109
944.659036	2544.262784
944.960851	2544.547610
945.262628	2544.348484
945.564367	2544.358566
945.866067	2546.599359
946.167729	2544.373690
946.469352	2545.134904
946.770937	2544.608103
947.072484	2545.356715
947.373992	2542.079965
947.675462	2543.675490
947.976893	2547.398382
948.278286	2543.118443
948.579641	2543.660367
948.880958	2545.288659
949.182236	2544.411498
949.483476	2545.646581
949.784678	2544.567774
950.085841	2542.745397
950.386967	2544.358566
950.688054	2546.541386
950.989103	2543.509132
951.290114	2543.476364
951.591087	2545.112219
951.892021	2543.380583
952.192917	2543.897301
952.493776	2542.299255
952.794596	2546.720347
953.095378	2546.826211
953.396122	2545.364277
953.696828	2543.962836
953.997496	2545.883515
954.298126	2544.114070
954.598718	2546.604400
954.899272	2546.317055
955.199788	2544.351005
955.500266	2545.785213
955.800706	2540.003009
956.101108	2539.597197
956.401472	2542.510983
956.701798	2541.500232
957.002087	2539.529141
957.302337	2546.743032
957.602550	2541.999306
957.902724	2544.608103
958.202861	2542.513504
958.502960	2546.470810
958.803022	2542.326981
959.103045	2543.040305
959.403031	2545.381921
959.702979	2545.344112
960.002889	2545.676828
960.302762	2545.535676
960.602596	2544.981149
960.902393	2544.688762
961.202153	2542.949564
961.501875	2542.586601
961.801559	2544.784544
962.101205	2545.250851
962.400814	2543.960315
962.700385	2542.697506
962.999918	2544.061138
963.299414	2543.373021
963.598873	2544.590459
963.898293	2543.279759
964.197677	2545.268495
964.497022	2543.587270
964.796331	2543.947712
965.095601	2541.699358
965.394835	2544.731612
965.694030	2543.647764
965.993189	2543.715819
966.292309	2542.715150
966.591393	2544.955943
966.890439	2544.842517
967.189447	2544.250182
967.488419	2541.805222
967.787353	2542.954605
968.086249	2543.367980
968.385108	2544.653474
968.683930	2544.272867
968.982714	2544.449307
969.281462	2542.374872
969.580172	2544.618186
969.878844	2542.342105
970.177480	2542.266487
970.476078	2544.310675
970.774639	2542.374872
971.073162	2545.949050
971.371649	2541.278421
971.670098	2541.301107
971.968510	2541.301107
972.266885	2539.493853
972.565223	2545.570964
972.863524	2544.209852
973.161788	2545.351674
973.460014	2544.076262
973.758204	2544.650953
974.056356	2543.741025
974.354471	2544.701365
974.652550	2541.497712
974.950591	2543.655325
975.248595	2543.541899
975.546563	2541.369162
975.844493	2541.396888
976.142386	2544.933258
976.440243	2543.983000
976.738062	2544.524924
977.035845	2542.551313
977.333590	2541.772454
977.631299	2543.864533
977.928971	2541.752290
978.226606	2541.442259
978.524204	2545.661705
978.821765	2541.744728
979.119290	2544.411498
979.416777	2544.245140
979.714228	2543.428473
980.011642	2541.969059
980.309020	2544.489636
980.606360	2542.074924
980.903664	2545.127342
981.200931	2541.837989
981.498162	2541.835469
981.795356	2542.611807
982.092513	2543.758669
982.389633	2542.274049
982.686717	2545.535676
982.983764	2546.929555
983.280775	2542.321940
983.577749	2545.785213
983.874686	2543.491488
984.171587	2543.151210
984.468451	2541.686755
984.765279	2542.689944
985.062070	2545.230686
985.358824	2541.399409
985.655543	2544.613145
985.952224	2542.208514
986.248869	2543.448638
986.545478	2537.971424
986.842050	2541.964018
987.138586	2540.073586
987.435086	2542.770603
987.731549	2538.089892
988.027975	2544.938299
988.324366	2542.752959
988.620719	2542.198432
988.917037	2544.214893
989.213318	2544.592980
989.509563	2542.979811
989.805772	2543.970397
990.101944	2541.964018
990.398080	2544.250182
990.694180	2541.837989
990.990244	2541.190201
991.286271	2542.637012
991.582262	2543.592311
991.878217	2545.097095
992.174136	2542.931920
992.470019	2544.847558
992.765865	2544.958464
993.061676	2541.475026
993.357450	2542.896632
993.653188	2545.558361
993.948890	2543.055428
994.244556	2542.694986
994.540186	2541.941333
994.835780	2541.434697
995.131337	2544.230017
995.426859	2544.832435
995.722345	2542.339584
996.017795	2542.137938
996.313208	2543.506611
996.608586	2543.340253
996.903928	2542.445448
997.199234	2543.811601
997.494504	2545.714637
997.789738	2542.838658
998.084936	2542.873947
998.380099	2542.253885
998.675225	2540.517207
998.970316	2541.734646
999.265371	2545.129863
999.560390	2544.703885
999.855373	2542.979811
1000.150320	2543.534338
1000.445232	2545.013916
1000.740108	2541.054090
1001.034948	2545.573484
1001.329752	2546.959802
1001.624521	2545.185316
1001.919254	2540.562577
1002.213951	2540.602907
1002.508613	2539.531662
1002.803239	2540.282793
1003.097829	2539.569470
1003.392384	2542.208514
1003.686903	2541.883360
1003.981386	2542.672300
1004.275834	2541.593493
1004.570246	2542.758000
1004.864623	2543.128525
1005.158964	2542.725232
1005.453270	2540.776827
1005.747540	2542.725233
1006.041775	2543.909904
1006.335974	2541.795140
1006.630138	2543.330171
1006.924266	2544.368649
1007.218359	2541.921168
1007.512416	2542.689944
1007.806438	2543.080634
1008.100425	2541.152393
1008.394376	2543.851930
1008.688292	2541.679193
1008.982172	2539.629964
1009.276017	2544.167003
1009.569827	2540.761703
1009.863602	2543.332692
1010.157341	2540.597866
1010.451045	2543.793957
1010.744714	2543.297403
1011.038347	2542.553833
1011.331945	2541.812784
1011.625508	2540.769265
1011.919036	2544.471992
1012.212528	2544.608103
1012.505986	2542.349667
1012.799408	2542.475695
1013.092795	2540.721374
1013.386147	2541.906045
1013.679464	2542.415202
1013.972745	2541.971580
1014.265992	2540.996117
1014.559204	2544.434184
1014.852380	2539.488812
1015.145521	2544.497198
1015.438628	2542.178267
1015.731699	2542.795809
1016.024736	2543.030222
1016.317737	2541.686755
1016.610703	2543.327650
1016.903635	2538.662062
1017.196531	2538.387320
1017.489393	2540.307999
1017.782219	2540.655839
1018.075011	2542.886549
1018.367768	2542.205994
1018.660490	2540.804553
1018.953177	2540.804553
1019.245829	2540.804553
