Dividing Wavelength (nm)	Counts (n)	Blue Motor Position (mm): 44.000000	Red Motor Position (mm): 0.000000	
326.493990	2132.130813
326.888308	2132.130813
327.282561	2132.130813
327.676750	2097.170412
328.070874	2095.627818
328.464933	2099.169229
328.858929	2105.997472
329.252859	2114.128853
329.646726	2124.155708
330.040528	2136.488891
330.434265	2157.250883
330.827938	2172.865857
331.221547	2191.160204
331.615091	2210.016640
332.008571	2231.227295
332.401986	2250.098855
332.795338	2269.104005
333.188625	2288.187293
333.581847	2308.238482
333.975006	2326.232881
334.368100	2343.682835
334.761129	2360.459795
335.154095	2379.858155
335.546996	2399.773233
335.939833	2424.389187
336.332606	2439.923503
336.725315	2452.463373
337.117960	2460.940073
337.510540	2468.889973
337.903056	2482.556541
338.295508	2489.117602
338.687896	2497.077584
339.080220	2506.406240
339.472480	2514.620800
339.864676	2514.648526
340.256807	2523.541122
340.648875	2523.783097
341.040879	2527.803417
341.432818	2529.524971
341.824694	2527.488345
342.216506	2530.770136
342.608253	2530.828109
342.999937	2527.430372
343.391557	2530.371885
343.783113	2527.813499
344.174605	2527.773170
344.566033	2526.437264
344.957397	2524.483817
345.348697	2522.910977
345.739934	2521.527181
346.131106	2520.042561
346.522215	2519.122550
346.913260	2517.816891
347.304241	2515.623989
347.695159	2514.114164
348.086012	2510.892867
348.476802	2509.856909
348.867528	2510.232475
349.258191	2508.087464
349.648789	2507.537979
350.039324	2504.127638
350.429796	2502.166629
350.820203	2504.145282
351.210548	2502.587566
351.600828	2498.065651
351.991045	2498.935250
352.381198	2499.333501
352.771288	2498.889879
353.161314	2497.899293
353.551276	2499.940960
353.941175	2498.065651
354.331010	2499.877945
354.720782	2496.071874
355.110490	2497.974910
355.500135	2497.029693
355.889717	2498.993223
356.279235	2499.547750
356.668689	2500.278717
357.058080	2498.587410
357.447408	2499.792246
357.836672	2494.017604
358.225873	2495.960969
358.615010	2496.449961
359.004084	2499.572956
359.393095	2501.077740
359.782043	2501.418018
360.170927	2502.199397
360.559748	2505.128307
360.948505	2503.676455
361.337199	2507.180057
361.725830	2507.275839
362.114398	2506.912876
362.502903	2507.840448
362.891344	2507.159892
363.279722	2509.161230
363.668037	2507.853051
364.056289	2508.775582
364.444478	2508.712568
364.832603	2509.677948
365.220665	2512.463186
365.608665	2509.186436
365.996601	2510.981087
366.384474	2512.652229
366.772284	2509.930006
367.160031	2513.282373
367.547715	2512.647188
367.935336	2512.717764
368.322893	2517.262364
368.710388	2514.497292
369.097820	2518.063908
369.485189	2516.932169
369.872495	2515.419823
370.259738	2515.666839
370.646918	2516.544000
371.034035	2516.836387
371.421090	2519.508198
371.808081	2521.373425
372.195010	2516.576767
372.581875	2519.631707
372.968678	2519.412417
373.355418	2520.501306
373.742096	2522.217819
374.128710	2518.187416
374.515262	2521.562469
374.901751	2521.305370
375.288177	2523.251255
375.674540	2523.513395
376.060841	2526.026410
376.447079	2523.833508
376.833254	2529.502286
377.219367	2526.157480
377.605417	2533.192411
377.991404	2535.627288
378.377329	2540.741538
378.763191	2546.581715
379.148991	2558.007490
379.534727	2565.145764
379.920402	2574.471899
380.306013	2582.946078
380.691563	2599.105497
381.077049	2612.646036
381.462474	2627.499796
381.847835	2640.095119
382.233134	2658.316370
382.618371	2669.482525
383.003545	2696.036803
383.388657	2713.103630
383.773706	2739.698237
384.158693	2755.938314
384.543618	2783.631892
384.928480	2811.322951
385.313280	2845.070955
385.698017	2864.570138
386.082692	2905.027918
386.467305	2923.249169
386.851856	2959.399283
387.236344	2990.513285
387.620770	3027.936290
388.005133	3066.327197
388.389435	3105.106273
388.773674	3130.077629
389.157851	3183.370187
389.541965	3213.082747
389.926018	3216.165413
390.310008	3286.902884
390.693936	3319.526711
391.077802	3371.049824
391.461606	3387.786455
391.845348	3457.742547
392.229027	3477.435814
392.612645	3511.554343
392.996200	3590.382866
393.379694	3644.865136
393.763125	3718.339953
394.146494	3715.388358
394.529801	3788.679173
394.913047	3845.724870
395.296230	3836.842357
395.679351	3904.950866
396.062410	3940.158284
396.445408	3938.547636
396.828343	3985.054801
397.211217	4022.132487
397.594028	3956.668063
397.976778	4032.923077
398.359466	4068.926998
398.742092	4107.615333
399.124656	4041.684602
399.507158	4125.685349
399.889598	4155.287004
400.271977	4222.810739
400.654294	4203.573696
401.036549	4212.536868
401.418742	4189.710523
401.800874	4290.659629
402.182944	4317.579391
402.564952	4386.711254
402.946898	4372.464953
403.328783	4371.053430
403.710606	4285.275677
404.092367	4481.527796
404.474067	4448.044452
404.855705	4458.104075
405.237282	4386.358373
405.618797	4497.097400
406.000250	4531.707441
406.381642	4615.894711
406.762972	4575.414245
407.144240	4583.301130
407.525447	4584.773147
407.906593	4644.268845
408.287677	4689.404816
408.668700	4616.298003
409.049661	4666.749871
409.430560	4709.932394
409.811399	4639.444461
410.192176	4798.941527
410.572891	4737.767125
410.953545	4840.679761
411.334138	4723.402357
411.714669	4792.481289
412.095139	4686.012119
412.475547	4828.777596
412.855894	4810.387467
413.236180	4814.879135
413.616405	4771.318525
413.996568	4857.981001
414.376670	4800.708452
414.756711	4757.238582
415.136691	4788.095485
415.516609	4862.502916
415.896466	4896.792844
416.276262	4939.395635
416.655997	4916.347480
417.035670	5097.425726
417.415283	5191.967525
417.794834	5133.437208
418.174324	5087.897945
418.553753	4996.209439
418.933121	5178.144681
419.312428	5246.875773
419.691674	5185.338408
420.070859	5309.864990
420.449983	5220.906269
420.829045	5338.788610
421.208047	5245.965845
421.586988	5318.750024
421.965867	5329.593546
422.344686	5457.270849
422.723444	5317.076361
423.102141	5134.944513
423.480777	5434.827632
423.859352	5202.995049
424.237866	5463.063135
424.616319	5454.916630
424.994712	5560.685079
425.373044	5442.565803
425.751314	5580.920271
426.129524	5385.331063
426.507673	5578.772739
426.885762	5661.855996
427.263789	5588.247588
427.641756	5477.853880
428.019662	5597.762766
428.397508	5600.328713
428.775292	5547.378954
429.153016	5646.982071
429.530679	5577.126803
429.908282	5662.158465
430.285824	5530.448238
430.663305	5803.895547
431.040726	5543.797214
431.418086	5541.327048
431.795385	5648.340662
432.172624	5658.186036
432.549802	5654.178318
432.926920	5671.086348
433.303977	5675.966185
433.680974	5710.099838
434.057910	5729.987190
434.434786	5739.290639
434.811601	5706.535742
435.188355	5941.438388
435.565050	5817.113452
435.941683	5793.440193
436.318257	6010.371126
436.694770	5993.516028
437.071222	6026.737232
437.447614	5959.437828
437.823946	5873.768459
438.200218	6031.415423
438.576429	5897.134208
438.952580	5988.570656
439.328670	6030.727305
439.704700	5937.692811
440.080670	5928.467499
440.456580	6201.955137
440.832429	6079.409728
441.208218	5927.076141
441.583947	6083.977013
441.959616	6085.413742
442.335224	6010.764336
442.710773	6150.260624
443.086261	6178.135685
443.461689	5974.488193
443.837057	6125.064938
444.212365	6278.434482
444.587612	6169.792575
444.962800	6321.503579
445.337927	6299.796371
445.712995	5917.641621
446.088002	6490.283931
446.462949	6322.907541
446.837837	6254.020173
447.212664	6428.030722
447.587431	6566.997689
447.962139	7113.846935
448.336786	8039.579222
448.711374	7771.614168
449.085901	6853.846905
449.460369	6769.301714
449.834776	6703.398710
450.209124	7099.532579
450.583412	7246.754436
450.957640	7391.569142
451.331808	7158.675396
451.705917	6708.747374
452.079965	6641.427805
452.453954	6848.049578
452.827883	6726.588017
453.201752	6820.182080
453.575562	6612.781449
453.949311	6821.086967
454.323001	6707.751746
454.696632	6782.965761
455.070202	6917.771256
455.443713	7074.185657
455.817164	7181.297574
456.190556	7258.427227
456.563888	7330.747621
456.937160	7373.446194
457.310373	7034.252157
457.683526	7058.086732
458.056619	6948.182017
458.429653	6941.058867
458.802628	6869.706375
459.175542	6982.953376
459.548398	7338.684917
459.921194	7494.753999
460.293930	7495.658886
460.666607	8026.812500
461.039224	8331.782143
461.411782	8460.321483
461.784280	8473.113411
462.156719	8365.842699
462.529099	8246.710151
462.901419	7839.694951
463.273680	7727.897282
463.645882	7740.905980
464.018024	7603.935309
464.390106	7777.658512
464.762130	8160.733272
465.134094	8629.285837
465.505999	9659.460749
465.877845	10879.046934
466.249631	11528.239165
466.621358	11135.276181
466.993026	10508.741417
467.364634	10252.786912
467.736184	9897.120906
468.107674	9562.872241
468.479105	9589.499616
468.850477	9353.548410
469.221790	9130.215212
469.593043	8803.490470
469.964238	8661.622318
470.335373	8675.959360
470.706449	8733.806600
471.077467	8716.964105
471.448425	10026.877685
471.819324	11095.872002
472.190164	11119.494849
472.560945	9869.510506
472.931667	9078.649250
473.302330	8951.531514
473.672934	8585.387469
474.043479	8950.903891
474.413965	8892.562617
474.784393	8777.432746
475.154761	8930.456971
475.525070	9019.677832
475.895321	8844.308692
476.265513	9021.364098
476.635645	9191.382053
477.005719	9197.186941
477.375734	9302.501686
477.745691	9541.676710
478.115588	9677.752576
478.485427	9922.848434
478.855207	10455.025402
479.224928	11272.554362
479.594591	11900.813202
479.964194	11710.371012
480.333739	11650.512351
480.703226	11567.313148
481.072653	11659.382262
481.442022	11892.318857
481.811333	12081.301633
482.180584	11887.280224
482.549777	11599.758014
482.918912	11426.110429
483.287988	11442.930239
483.657005	11454.623195
484.025964	11138.389094
484.394864	11270.870617
484.763706	11237.999773
485.132489	10994.431384
485.501213	10961.482403
485.869879	11036.991325
486.238487	10883.566329
486.607036	10985.674900
486.975527	10765.568041
487.343959	10961.220263
487.712333	11006.656182
488.080648	10939.321490
488.448905	10983.093829
488.817104	10925.644840
489.185244	11190.839779
489.553326	11338.903509
489.921350	11886.458516
490.289315	12952.360085
490.657222	13283.115230
491.025070	13190.534440
491.392861	13071.038929
491.760593	12685.791432
492.128267	12328.567708
492.495883	12009.651713
492.863440	11665.083807
493.230939	11331.795482
493.598380	11263.397106
493.965763	11132.750563
494.333088	11034.248938
494.700354	10955.092740
495.067563	11014.258242
495.434713	10839.075625
495.801805	10971.189144
496.168839	10898.097455
496.535815	10837.054123
496.902733	10835.385501
497.269593	10766.573751
497.636395	10867.154852
498.003139	10858.468944
498.369825	10720.774868
498.736453	10880.846626
499.103023	10808.743003
499.469535	10839.922539
499.835989	10825.129273
500.202385	10784.459765
500.568723	10645.991871
500.935003	10865.133350
501.301226	10672.243680
501.667390	10932.480644
502.033497	11022.918944
502.399546	10885.426514
502.765537	10789.110229
503.131470	10868.097548
503.497345	11038.347396
503.863163	10649.840792
504.228923	10962.752773
504.594625	11028.209635
504.960269	10766.946796
505.325856	10991.827628
505.691385	10783.582604
506.056856	10933.244379
506.422270	10964.156735
506.787625	10851.466782
507.152924	10971.733589
507.518164	10948.614857
507.883347	10876.498631
508.248472	10783.774168
508.613540	11021.769561
508.978550	10913.188149
509.343503	10883.765454
509.708398	11006.315904
510.073236	11119.426794
510.438016	11124.805705
510.802738	11066.981150
511.167403	11126.590273
511.532010	11014.737152
511.896561	11252.185580
512.261053	11329.693321
512.625488	11196.256499
512.989866	11171.428816
513.354186	11163.728454
513.718449	11062.252547
514.082655	11258.812177
514.446803	11155.322330
514.810894	11272.569486
515.174927	11139.790535
515.538904	11160.726447
515.902822	11315.033645
516.266684	11202.174813
516.630488	11143.352110
516.994235	11196.185923
517.357925	11262.935841
517.721558	11349.908347
518.085133	11366.854186
518.448651	11378.365661
518.812112	11252.677093
519.175516	11272.579568
519.538863	11392.629606
519.902152	11319.984058
520.265385	11473.630866
520.628560	11377.009591
520.991678	11358.775737
521.354739	11417.174984
521.717743	11357.341529
522.080690	11338.618683
522.443580	11467.291615
522.806413	11427.569843
523.169189	11459.737446
523.531908	11516.132834
523.894569	11334.452170
524.257174	11337.963333
524.619722	11464.438322
524.982213	11395.687066
525.344647	11458.779627
525.707025	11408.201730
526.069345	11502.758653
526.431608	11424.149420
526.793815	11528.118177
527.155964	11319.588328
527.518057	11363.605163
527.880093	11315.537761
528.242072	11385.844213
528.603995	11292.298041
528.965860	11214.132430
529.327669	11268.329875
529.689421	11209.305526
530.051117	11187.694099
530.412755	11293.215531
530.774337	11177.432830
531.135862	11152.998358
531.497331	11182.642863
531.858743	11036.474607
532.220098	11203.445184
532.581396	11071.641696
532.942638	11050.698223
533.303824	11016.856957
533.664953	11042.231605
534.026025	10946.081678
534.387040	11041.349403
534.747999	11043.864939
535.108902	11108.232912
535.469748	10868.848680
535.830537	10971.844494
536.191270	10944.208889
536.551947	10970.780811
536.912567	10966.831067
537.273131	10888.514221
537.633638	10873.058043
537.994089	10859.504901
538.354483	10815.677110
538.714821	10958.956784
539.075103	10965.883330
539.435328	10925.450755
539.795497	10752.506411
540.155609	10910.791080
540.515665	11001.567137
540.875665	10736.520912
541.235609	10808.435492
541.595496	10803.127157
541.955328	10955.407812
542.315102	10834.525984
542.674821	10790.867071
543.034483	10790.562081
543.394090	10794.695827
543.753640	10722.698068
544.113134	10941.617736
544.472571	10794.375714
544.831953	10943.188055
545.191278	10749.166647
545.550548	10776.519947
545.909761	10913.064640
546.268918	10878.641121
546.628019	10970.390121
546.987064	10833.036323
547.346053	10753.312996
547.704986	10856.346618
548.063863	10847.335556
548.422684	10826.371918
548.781449	10754.616134
549.140158	10853.412667
549.498811	10730.136291
549.857408	10588.600855
550.215949	10809.562190
550.574434	10670.781745
550.932864	10766.775397
551.291237	10829.361322
551.649555	10772.484504
552.007817	10783.953129
552.366022	10751.357028
552.724173	10737.985367
553.082267	10727.197298
553.440305	10866.897753
553.798288	10665.793524
554.156215	10817.411267
554.514086	10799.978957
554.871902	10645.081943
555.229661	10679.765082
555.587365	10652.651236
555.945014	10552.296986
556.302606	10678.174597
556.660143	10571.173587
557.017625	10728.389531
557.375050	10619.982038
557.732421	10755.528583
558.089735	10662.839408
558.446994	10670.343165
558.804197	10706.810872
559.161345	10708.164422
559.518437	10554.822604
559.875474	10650.170988
560.232455	10668.309059
560.589381	10619.777871
560.946251	10617.857192
561.303065	10726.403316
561.659825	10665.536425
562.016528	10589.349467
562.373177	10467.892947
562.729770	10581.081974
563.086307	10506.356951
563.442789	10594.221742
563.799216	10478.852416
564.155587	10522.775989
564.511904	10479.991716
564.868164	10472.523247
565.224370	10490.820115
565.580520	10410.552343
565.936615	10411.293392
566.292654	10281.503845
566.648638	10419.611296
567.004567	10365.575168
567.360441	10356.317089
567.716260	10273.521178
568.072023	10359.989570
568.427732	10312.466612
568.783385	10215.862981
569.138982	10291.818046
569.494525	10308.277413
569.850013	10184.128918
570.205445	10265.044478
570.560823	10157.612448
570.916145	10077.311909
571.271412	10151.464761
571.626625	10090.665925
571.981782	10069.714890
572.336884	10046.921313
572.691931	10053.278208
573.046923	9997.273509
573.401860	9952.041756
573.756743	9888.283763
574.111570	9928.449156
574.466342	9909.491897
574.821059	9948.449934
575.175722	9836.070012
575.530330	9842.618471
575.884882	9835.155043
576.239380	9766.532336
576.593823	9738.332121
576.948211	9752.112115
577.302544	9634.189445
577.656823	9651.072269
578.011047	9651.848607
578.365216	9626.819278
578.719330	9550.889418
579.073389	9561.417868
579.427394	9512.259057
579.781344	9484.199994
580.135239	9435.628477
580.489080	9447.689437
580.842866	9346.359725
581.196597	9351.274850
581.550273	9391.798165
581.903895	9364.843115
582.257463	9435.121841
582.610975	9310.154158
582.964434	9330.827930
583.317837	9254.779603
583.671186	9238.126152
584.024481	9233.105162
584.377721	9149.361515
584.730906	9124.725396
585.084037	9156.744284
585.437113	9090.790869
585.790135	9113.528993
586.143103	9013.557871
586.496016	8990.494592
586.848874	9040.676758
587.201679	9033.495635
587.554428	8918.728726
587.907124	8964.278072
588.259765	8933.945449
588.612352	8936.302188
588.964884	8811.896594
589.317362	8837.188063
589.669786	8828.928132
590.022155	8869.428762
590.374470	8890.011793
590.726731	8829.775046
591.078937	8683.498405
591.431090	8791.313563
591.783188	8671.238319
592.135232	8658.990836
592.487222	8659.910847
592.839157	8709.946819
593.191038	8649.241244
593.542866	8591.119261
593.894639	8491.357347
594.246358	8537.181436
594.598022	8560.002739
594.949633	8458.088252
595.301190	8437.606044
595.652692	8462.776525
596.004141	8568.542454
596.355535	8345.690686
596.706876	8332.036721
597.058162	8256.958817
597.409395	8341.771189
597.760573	8399.084067
598.111698	8311.045356
598.462768	8296.115979
598.813785	8261.516020
599.164748	8232.917554
599.515657	8218.535142
599.866511	8129.911658
600.217312	8256.956296
600.568060	8117.207950
600.918753	8220.614618
601.269392	8187.806789
601.619978	8098.225485
601.970510	8167.506062
602.320988	8155.893764
602.671412	8220.354999
603.021783	8157.774115
603.372100	8134.327708
603.722363	8127.219681
604.072572	8102.449972
604.422728	8112.650747
604.772830	8043.735653
605.122878	8050.669760
605.472872	8049.583392
605.822813	8078.141528
606.172701	8020.231273
606.522534	8096.042665
606.872314	8097.318077
607.222041	8067.204745
607.571714	8123.017880
607.921333	8078.622958
608.270899	8086.499761
608.620411	8167.322060
608.969870	8078.731343
609.319276	8071.671207
609.668627	8088.123013
610.017926	8119.768856
610.367171	8168.219386
610.716362	8144.974625
611.065500	8136.109756
611.414585	8161.103797
611.763616	8150.575347
612.112594	8138.388358
612.461518	8151.664236
612.810389	8205.060138
613.159207	8153.655492
613.507971	8099.359745
613.856682	8213.012558
614.205340	8174.079727
614.553945	8253.719875
614.902496	8151.329000
615.250994	8204.210703
615.599439	8190.566821
615.947830	8199.172070
616.296169	8174.319182
616.644454	8188.968775
616.992686	8183.473917
617.340864	8244.779389
617.688990	8150.429154
618.037063	8236.852175
618.385082	8185.465173
618.733048	8272.213348
619.080961	8212.894091
619.428821	8227.364723
619.776628	8233.464519
620.124382	8183.942744
620.472083	8166.190321
620.819731	8194.579579
621.167326	8093.161646
621.514868	8089.990760
621.862357	7978.571178
622.209793	8000.361565
622.557176	7937.120290
622.904506	7905.043428
623.251783	7841.794592
623.599007	7794.443034
623.946179	7793.414638
624.293297	7754.554904
624.640363	7667.050555
624.987376	7652.340468
625.334336	7600.356090
625.681243	7548.091928
626.028097	7535.607510
626.374899	7515.604212
626.721647	7508.957450
627.068343	7438.714012
627.414987	7410.382728
627.761577	7372.238837
628.108115	7405.707058
628.454600	7298.529606
628.801032	7350.188830
629.147412	7308.742984
629.493739	7299.142107
629.840014	7233.100471
630.186236	7286.571989
630.532405	7173.191398
630.878521	7222.877011
631.224585	7183.515681
631.570597	7110.282839
631.916556	7135.433156
632.262462	7134.117415
632.608316	7099.545182
632.954117	7072.748928
633.299866	7061.338277
633.645562	7053.279992
633.991206	6972.344267
634.336797	6916.619353
634.682336	6877.643672
635.027823	6841.453228
635.373257	6836.044070
635.718639	6757.654128
636.063968	6780.301512
636.409245	6675.768145
636.754470	6669.933010
637.099642	6626.352235
637.444762	6569.034316
637.789829	6583.605771
638.134845	6526.280290
638.479808	6505.356981
638.824719	6514.980543
639.169577	6442.120747
639.514383	6462.189580
639.859137	6389.546553
640.203839	6395.762296
640.548489	6387.522530
640.893086	6356.713518
641.237632	6335.074366
641.582125	6352.640266
641.926566	6322.158929
642.270955	6339.278688
642.615292	6332.831052
642.959576	6346.225398
643.303809	6336.453121
643.647990	6339.873544
643.992118	6338.477144
644.336195	6279.704852
644.680219	6298.899046
645.024192	6295.128262
645.368112	6392.714919
645.711981	6412.524133
646.055797	6489.167315
646.399562	6445.674760
646.743274	6568.449542
647.086935	6629.984386
647.430544	6624.081195
647.774101	6641.130377
648.117606	6649.012221
648.461059	6641.185830
648.804460	6606.525377
649.147810	6512.069277
649.491108	6484.695812
649.834354	6454.254804
650.177548	6371.552155
650.520690	6291.193642
650.863781	6264.825887
651.206820	6288.577283
651.549807	6205.877154
651.892742	6150.051417
652.235626	6154.457385
652.578458	6135.270753
652.921238	6051.217075
653.263967	6083.309060
653.606644	6025.222365
653.949269	6031.627151
654.291843	5967.060053
654.634365	6022.976531
654.976836	5975.617411
655.319255	5973.941228
655.661622	5954.593279
656.003938	5949.766374
656.346203	5909.958903
656.688416	5945.294871
657.030577	5891.094905
657.372687	5862.128435
657.714746	5848.882803
658.056753	5891.815790
658.398708	5840.885013
658.740612	5821.733669
659.082465	5869.828798
659.424266	5867.870309
659.766016	5861.712540
660.107715	5837.988870
660.449362	5851.864646
660.790958	5844.822154
661.132503	5835.942162
661.473996	5874.774170
661.815438	5858.995358
662.156829	5853.094688
662.498168	5847.746023
662.839456	5825.658208
663.180693	5862.377972
663.521879	5860.442169
663.863013	5852.305747
664.204097	5870.683273
664.545129	5908.476804
664.886110	5904.794241
665.227040	5938.454025
665.567918	5903.226442
665.908746	5933.029743
666.249522	5934.902532
666.590248	5919.476601
666.930922	5950.174708
667.271545	5960.844310
667.612118	5965.424198
667.952639	5940.384787
668.293109	5957.814576
668.633528	5918.223875
668.973896	5921.130100
669.314213	5913.674233
669.654480	5896.927520
669.994695	5886.472167
670.334859	5876.725096
670.674973	5870.900043
671.015035	5875.366505
671.355047	5872.591350
671.695008	5860.137179
672.034918	5833.116595
672.374777	5845.590930
672.714585	5824.304658
673.054342	5831.377397
673.394049	5829.857489
673.733705	5860.036356
674.073310	5843.294684
674.412864	5806.259848
674.752368	5794.266943
675.091820	5801.614424
675.431223	5734.751080
675.770574	5739.126802
676.109875	5688.402712
676.449125	5694.545358
676.788324	5659.743752
677.127473	5598.919711
677.466571	5590.538792
677.805619	5583.992854
678.144616	5570.858128
678.483562	5548.924067
678.822458	5517.467267
679.161303	5508.751112
679.500098	5500.851624
679.838842	5489.554398
680.177535	5492.019523
680.516179	5504.819012
680.854771	5518.767885
681.193314	5595.544658
681.531805	5707.443150
681.870247	5860.134659
682.208638	5961.156861
682.546978	5975.582123
682.885268	5950.981292
683.223508	5865.221183
683.561697	5814.575231
683.899836	5781.747237
684.237925	5735.109002
684.575963	5704.536925
684.913951	5659.690820
685.251889	5724.061314
685.589776	5691.445048
685.927614	5662.486140
686.265401	5734.138580
686.603137	5717.832968
686.940824	5792.648732
687.278460	5817.935160
687.616046	5826.101829
687.953582	5896.325102
688.291068	5872.954313
688.628504	5939.502585
688.965889	5901.482203
689.303224	5844.300395
689.640510	5798.836749
689.977745	5720.454368
690.314930	5624.042301
690.652065	5565.900153
690.989150	5479.449406
691.326185	5399.083331
691.663170	5343.804558
692.000105	5269.845790
692.336990	5188.632802
692.673825	5164.977188
693.010610	5096.707362
693.347345	5029.748236
693.684030	5010.836347
694.020665	4975.525585
694.357251	4882.871698
694.693786	4891.852513
695.030272	4862.162638
695.366707	4822.458510
695.703093	4789.010454
696.039429	4809.467457
696.375716	4794.989263
696.711952	4769.481024
697.048139	4756.547944
697.384276	4736.481631
697.720363	4749.472685
698.056400	4761.047174
698.392388	4706.847208
698.728326	4688.356256
699.064214	4664.632586
699.400053	4662.500178
699.735842	4626.839056
700.071581	4603.009521
700.407270	4577.075305
700.742910	4562.705496
701.078501	4500.709386
701.414042	4505.019573
701.749533	4471.248883
702.084974	4405.582813
702.420366	4460.647337
702.755709	4407.566507
703.091002	4349.061396
703.426246	4399.122575
703.761440	4354.674721
704.096584	4318.292714
704.431679	4339.014377
704.766725	4323.651460
705.101721	4310.846930
705.436668	4337.078574
705.771565	4283.899442
706.106413	4314.867250
706.441212	4348.194318
706.775961	4358.374928
707.110661	4335.760312
707.445311	4363.365670
707.779913	4386.335688
708.114465	4400.912184
708.448967	4420.592849
708.783421	4483.670286
709.117825	4528.418088
709.452180	4529.925393
709.786485	4574.927774
710.120742	4662.913552
710.454949	4645.367817
710.789107	4712.160584
711.123216	4785.138848
711.457275	4778.718939
711.791286	4855.299107
712.125247	4870.616653
712.459159	4772.299029
712.793023	4844.715204
713.126837	4805.381601
713.460602	4801.656189
713.794318	4717.113518
714.127985	4729.416454
714.461602	4642.592661
714.795171	4607.415490
715.128691	4548.257549
715.462162	4490.790916
715.795584	4440.525571
716.128957	4426.551493
716.462281	4371.623080
716.795556	4342.883462
717.128782	4306.675375
717.461960	4237.440168
717.795088	4244.409563
718.128167	4206.366496
718.461198	4149.890449
718.794180	4138.416783
719.127113	4125.927324
719.459997	4101.875979
719.792833	4057.491140
720.125619	4049.082496
720.458357	4010.855426
720.791046	4018.638967
721.123686	3992.417406
721.456278	3946.673976
721.788821	3967.564517
722.121315	3939.548305
722.453761	3917.702465
722.786158	3926.093465
723.118506	3947.236064
723.450805	3902.274013
723.783056	3924.548352
724.115259	3938.900517
724.447412	3945.118780
724.779518	3935.167542
725.111574	3941.955456
725.443582	3973.336638
725.775542	3958.193012
726.107453	4009.176722
726.439315	4007.311495
726.771129	4024.945451
727.102895	4058.995925
727.434612	4106.662555
727.766281	4121.050008
728.097901	4122.837097
728.429473	4123.510091
728.760996	4132.251452
729.092471	4126.650730
729.423897	4110.272021
729.755276	4117.206128
730.086606	4116.381899
730.417887	4153.603259
730.749120	4222.780493
731.080305	4286.314154
731.411442	4313.062517
731.742530	4277.902989
732.073570	4282.976911
732.404562	4339.268955
732.735506	4331.563551
733.066401	4295.705824
733.397249	4230.322059
733.728048	4148.831807
734.058798	4064.584044
734.389501	3997.844208
734.720156	3933.718210
735.050762	3890.298752
735.381320	3884.365314
735.711831	3833.298426
736.042293	3800.314156
736.372707	3825.416582
736.703073	3797.334834
737.033391	3785.168009
737.363661	3804.936894
737.693883	3827.836336
738.024056	3837.832944
738.354182	3831.599557
738.684260	3900.333169
739.014290	3915.965787
739.344272	3913.851023
739.674207	3959.697797
740.004093	3963.513950
740.333931	3962.024289
740.663722	3957.212508
740.993464	3953.131694
741.323159	3931.767284
741.652806	3903.259559
741.982405	3873.070609
742.311956	3840.182121
742.641460	3831.652489
742.970915	3814.172288
743.300323	3766.356944
743.629683	3731.847725
743.958996	3722.332547
744.288260	3697.719114
744.617477	3666.186696
744.946647	3650.942247
745.275768	3626.661530
745.604842	3623.949389
745.933869	3577.459868
746.262847	3566.641552
746.591778	3602.932818
746.920662	3575.700505
747.249498	3546.073644
747.578286	3591.882609
747.907027	3610.817183
748.235720	3608.929271
748.564365	3627.412662
748.892963	3632.259731
749.221514	3614.540075
749.550017	3591.834718
749.878473	3585.976898
750.206881	3557.842218
750.535242	3557.282650
750.863555	3558.046385
751.191821	3552.652350
751.520039	3535.590565
751.848210	3511.894621
752.176334	3547.114642
752.504411	3550.411557
752.832440	3511.025022
753.160421	3492.594564
753.488356	3503.082684
753.816243	3515.095754
754.144082	3472.160247
754.471875	3456.159624
754.799620	3474.040597
755.127318	3465.526088
755.454969	3469.269145
755.782572	3475.522696
756.110129	3450.415229
756.437638	3439.473405
756.765100	3453.278605
757.092515	3463.454174
757.419882	3469.624546
757.747203	3442.598920
758.074477	3444.486833
758.401703	3459.837146
758.728882	3482.373624
759.056014	3492.153463
759.383099	3498.154956
759.710138	3489.577433
760.037129	3510.132738
760.364073	3537.377654
760.690970	3519.842000
761.017820	3499.586644
761.344623	3518.722864
761.671379	3564.730955
761.998088	3615.596197
762.324751	3741.413315
762.651366	3991.910770
762.977935	4468.040189
763.304456	4915.364455
763.630931	5007.698229
763.957359	4646.267662
764.283740	4302.793686
764.610074	4110.163636
764.936362	3910.289448
765.262602	3752.879419
765.588796	3639.478663
765.914943	3551.140004
766.241044	3459.847228
766.567097	3430.701797
766.893104	3384.343347
767.219064	3350.257585
767.544978	3326.286898
767.870845	3268.258176
768.196665	3252.612955
768.522438	3258.695107
768.848165	3256.431629
769.173846	3221.814026
769.499479	3203.363403
769.825066	3186.157945
770.150607	3168.879390
770.476101	3184.005372
770.801548	3178.003878
771.126949	3134.970069
771.452303	3116.516925
771.777611	3121.636217
772.102872	3127.879686
772.428087	3104.735748
772.753256	3091.928697
773.078378	3087.699169
773.403453	3053.689025
773.728482	3040.498846
774.053465	3060.000549
774.378401	3049.030998
774.703291	3020.949251
775.028135	3018.237110
775.352932	3011.623116
775.677683	3004.552898
776.002388	2997.646517
776.327046	3000.441837
776.651658	2990.215857
776.976224	2974.653815
777.300743	2976.718167
777.625216	2969.587455
777.949643	2962.698718
778.274024	2967.084522
778.598359	2951.819908
778.922647	2957.778552
779.246889	2957.854169
779.571086	2940.817590
779.895236	2937.913885
780.219339	2948.598611
780.543397	2959.898357
780.867409	2965.932618
781.191374	2954.975671
781.515294	2952.881071
781.839167	2956.732513
782.162995	2945.851182
782.486776	2955.494909
782.810511	2955.419292
783.134201	2940.391613
783.457844	2948.490226
783.781441	2936.688885
784.104993	2918.248344
784.428498	2917.361101
784.751958	2929.132195
785.075372	2925.142122
785.398739	2908.428177
785.722061	2925.313521
786.045337	2940.570573
786.368568	2925.058943
786.691752	2912.710637
787.014891	2962.668471
787.337983	2991.259375
787.661030	3020.674508
787.984031	3086.819488
788.306987	3133.253556
788.629897	3126.301805
788.952760	3112.317644
789.275579	3092.636979
789.598351	3035.674461
789.921078	2990.667040
790.243759	2981.524907
790.566395	2964.095118
790.888984	2940.225254
791.211529	2926.351999
791.534027	2916.297418
791.856480	2904.465830
792.178888	2887.716596
792.501249	2880.293497
792.823566	2876.726881
793.145836	2874.922148
793.468062	2871.259749
793.790241	2867.448637
794.112375	2872.915768
794.434464	2886.423540
794.756507	2891.487379
795.078505	2897.703122
795.400457	2910.091757
795.722364	2946.609876
796.044226	2971.392188
796.366042	2976.201449
796.687812	2965.138637
797.009538	2984.168993
797.331218	2971.296406
797.652852	2955.144549
797.974442	2941.346911
798.295986	2935.224430
798.617484	2930.576486
798.938938	2915.745411
799.260346	2898.804614
799.581709	2894.101217
799.903026	2890.111144
800.224299	2885.758108
800.545526	2875.333002
800.866708	2855.624611
801.187845	2846.921058
801.508936	2846.195132
801.829983	2854.203005
802.150984	2839.676920
802.471940	2831.656445
802.792851	2828.614108
803.113717	2828.604026
803.434538	2833.209120
803.755314	2826.738799
804.076045	2821.591781
804.396731	2821.085145
804.717372	2821.561534
805.037967	2812.699186
805.358518	2823.739312
805.679024	2832.420179
805.999485	2828.936742
806.319901	2833.872032
806.640272	2825.050012
806.960598	2830.194510
807.280879	2840.876715
807.601115	2849.159331
807.921306	2833.073009
808.241453	2828.515806
808.561554	2839.147599
808.881611	2837.665500
809.201623	2833.239367
809.521590	2829.367761
809.841513	2825.279385
810.161390	2831.689212
810.481223	2826.948007
810.801011	2816.220432
811.120755	2811.733805
811.440453	2813.049546
811.760107	2814.345122
812.079716	2815.675987
812.399281	2804.315747
812.718801	2796.000363
813.038276	2791.241514
813.357707	2799.277113
813.677093	2805.649132
813.996434	2802.500931
814.315731	2796.597740
814.634983	2790.442491
814.954191	2792.204375
815.273354	2808.517548
815.592473	2814.945020
815.911547	2816.759835
816.230577	2822.814261
816.549562	2832.064778
816.868502	2829.735765
817.187399	2842.174812
817.506250	2861.484952
817.825058	2854.064373
818.143821	2866.145499
818.462539	2880.182592
818.781213	2909.184350
819.099843	2946.085596
819.418429	3001.545850
819.736970	3066.846436
820.055466	3139.010553
820.373919	3245.547778
820.692327	3388.149418
821.010691	3559.233576
821.329011	4006.056247
821.647286	4912.596861
821.965517	6314.057795
822.283704	7070.432518
822.601847	7060.773668
822.919945	6407.770325
823.237999	5895.281583
823.556010	5305.300225
823.873976	4744.285337
824.191897	4328.216225
824.509775	4034.001884
824.827609	3758.482662
825.145398	3634.303919
825.463144	3619.790437
825.780845	3713.182853
826.098502	3816.161023
826.416116	4105.966876
826.733685	4424.998817
827.051210	4494.506247
827.368692	4378.035428
827.686129	4105.500569
828.003522	3775.892286
828.320872	3516.618182
828.638177	3318.019406
828.955439	3178.719722
829.272656	3090.212184
829.589830	3024.515867
829.906960	2975.331850
830.224046	2929.331321
830.541088	2895.721948
830.858086	2881.009341
831.175041	2859.304653
831.491952	2862.841022
831.808819	2875.005327
832.125642	2898.635735
832.442421	2943.534772
832.759157	3029.108358
833.075849	3206.549412
833.392497	3492.347547
833.709101	3698.129968
834.025662	3651.627844
834.342179	3486.358656
834.658653	3307.450627
834.975083	3157.665343
835.291469	3058.715055
835.607811	2974.479895
835.924110	2912.191398
836.240366	2860.885055
836.556578	2817.579022
836.872746	2795.438275
837.188871	2772.490942
837.504952	2756.545773
837.820990	2748.565626
838.136984	2733.832854
838.452935	2728.829509
838.768842	2725.172152
839.084706	2741.465161
839.400526	2820.631441
839.716303	2955.608335
840.032037	3039.861140
840.347727	3024.619211
840.663373	2962.182000
840.978977	2886.993190
841.294537	2813.145328
841.610054	2763.368975
841.925527	2740.724112
842.240957	2719.155535
842.556344	2696.198120
842.871687	2680.366377
843.186987	2669.527896
843.502244	2667.758451
843.817458	2662.606392
844.132629	2652.813950
844.447756	2643.142497
844.762840	2636.462968
845.077881	2636.883904
845.392879	2637.572022
845.707833	2631.474746
846.022745	2623.829836
846.337613	2631.762092
846.652438	2625.800927
846.967221	2625.937038
847.281960	2623.030813
847.596656	2623.608025
847.911309	2619.539814
848.225919	2619.502006
848.540485	2617.140225
848.855009	2616.620986
849.169490	2614.859103
849.483928	2615.579988
849.798323	2614.544031
850.112675	2613.694596
850.426984	2613.608897
850.741251	2611.332816
851.055474	2610.498505
851.369654	2616.762138
851.683792	2618.087962
851.997887	2612.083948
852.311938	2610.768207
852.625947	2615.711058
852.939914	2615.438836
853.253837	2617.157869
853.567718	2612.872888
853.881555	2613.596294
854.195350	2619.050822
854.509103	2617.972015
854.822812	2612.094030
855.136479	2612.174688
855.450103	2613.838269
855.763685	2617.740122
856.077224	2614.801130
856.390720	2609.565891
856.704173	2611.599997
857.017584	2616.666357
857.330953	2619.691049
857.644278	2618.879423
857.957561	2623.421503
858.270802	2616.169803
858.584000	2617.190637
858.897155	2620.495113
859.210268	2620.790020
859.523339	2616.557972
859.836367	2610.528752
860.149352	2614.198712
860.462295	2613.470265
860.775195	2612.938423
861.088054	2609.762496
861.400869	2609.076899
861.713642	2605.898452
862.026373	2607.647732
862.339062	2610.067486
862.651708	2616.409258
862.964312	2618.607201
863.276873	2614.879267
863.589392	2617.775410
863.901869	2624.122223
864.214303	2628.515589
864.526696	2628.815537
864.839045	2631.154633
865.151353	2636.001702
865.463619	2633.206382
865.775842	2634.610344
866.088023	2634.005405
866.400162	2634.524644
866.712258	2634.764099
867.024313	2634.575056
867.336325	2629.170939
867.648296	2632.268728
867.960224	2635.953811
868.272110	2635.789974
868.583954	2629.312091
868.895755	2631.958697
869.207515	2635.290899
869.519233	2638.933133
869.830909	2637.657721
870.142542	2635.724439
870.454134	2637.435910
870.765684	2640.979842
871.077191	2642.270377
871.388657	2647.588794
871.700081	2645.879843
872.011463	2642.199801
872.322803	2645.506798
872.634101	2649.552324
872.945357	2655.115237
873.256571	2661.111689
873.567744	2660.698315
873.878874	2658.810403
874.189963	2663.382729
874.501010	2663.004643
874.812015	2668.602844
875.122979	2667.783657
875.433900	2660.516833
875.744780	2656.443581
876.055618	2665.792401
876.366415	2669.485046
876.677169	2670.291631
876.987882	2663.952380
877.298554	2663.690240
877.609183	2674.357321
877.919771	2681.382169
878.230317	2689.168231
878.540822	2699.038810
878.851285	2714.797457
879.161707	2737.679255
879.472087	2777.501849
879.782425	2827.063953
880.092722	2944.515276
880.402977	3138.289668
880.713191	3402.935122
881.023363	3704.988457
881.333494	3903.776277
881.643583	4079.213472
881.953631	4072.859098
882.263637	3895.907036
882.573602	3671.729445
882.883526	3534.736089
883.193408	3418.829880
883.503248	3312.905155
883.813048	3193.712114
884.122806	3076.417067
884.432522	2990.984633
884.742197	2923.992739
885.051831	2881.493292
885.361424	2846.895853
885.670975	2813.062149
885.980485	2779.984618
886.289954	2762.665734
886.599382	2749.470513
886.908768	2736.618092
887.218113	2715.147817
887.527417	2703.701878
887.836680	2693.538912
888.145901	2687.471883
888.455082	2681.200687
888.764221	2668.804490
889.073319	2662.273675
889.382376	2659.226298
889.691392	2662.404745
890.000366	2660.663027
890.309300	2657.338386
890.618193	2660.635300
890.927044	2665.431958
891.235855	2666.374654
891.544625	2663.773419
891.853353	2664.040600
892.162041	2673.044101
892.470687	2693.483459
892.779293	2703.565767
893.087858	2714.638661
893.396381	2737.444841
893.704864	2780.153496
894.013306	2853.756863
894.321707	2948.036522
894.630068	3002.231447
894.938387	3023.174920
895.246665	3013.992459
895.554903	2968.349852
895.863100	2924.340579
896.171256	2866.102649
896.479371	2800.212247
896.787446	2763.089191
897.095480	2743.983217
897.403473	2734.987278
897.711425	2721.577809
898.019336	2700.266331
898.327207	2685.778055
898.635038	2686.446008
898.942827	2682.725637
899.250576	2672.227434
899.558284	2661.096566
899.865952	2656.073056
900.173579	2652.924856
900.481165	2653.146666
900.788711	2643.018988
901.096216	2638.199645
901.403681	2634.305354
901.711105	2632.903913
902.018489	2633.521454
902.325832	2636.568832
902.633135	2638.381127
902.940397	2653.917963
903.247619	2693.060002
903.554800	2761.468460
903.861941	2893.443347
904.169041	3028.556352
904.476101	3092.447936
904.783121	3084.918973
905.090100	3025.002339
905.397039	2947.723971
905.703938	2871.282434
906.010796	2806.783392
906.317614	2751.822212
906.624391	2714.908363
906.931129	2686.133457
907.237826	2663.715445
907.544483	2646.058804
907.851099	2630.665641
908.157675	2621.856224
908.464211	2612.222579
908.770707	2599.838985
909.077163	2597.504931
909.383578	2592.859507
909.689954	2594.097111
909.996289	2592.695670
910.302584	2591.528643
910.608839	2588.395566
910.915054	2588.287181
911.221229	2590.928746
911.527363	2593.227512
911.833458	2592.574682
912.139513	2592.057964
912.445527	2592.133581
912.751502	2602.029366
913.057436	2606.788216
913.363331	2611.163937
913.669186	2624.419651
913.975000	2637.256949
914.280775	2654.643889
914.586510	2675.360511
914.892205	2713.736294
915.197859	2783.815895
915.503475	2869.137423
915.809050	2940.608382
916.114585	2955.830146
916.420081	2971.462764
916.725536	2980.965339
917.030952	2950.189095
917.336328	2902.545150
917.641665	2850.114629
917.946961	2800.814665
918.252218	2763.437030
918.557435	2735.922412
918.862612	2713.597663
919.167750	2695.933460
919.472848	2678.609534
919.777906	2660.221926
920.082925	2649.262457
920.387904	2635.311064
920.692843	2635.127062
920.997743	2628.482821
921.302603	2619.726337
921.607423	2613.596294
921.912204	2609.253340
922.216946	2605.636312
922.521647	2603.866867
922.826310	2599.203800
923.130932	2592.115937
923.435516	2588.393045
923.740059	2585.789289
924.044564	2584.851635
924.349028	2583.699731
924.653454	2572.178174
924.957840	2570.789336
925.262186	2569.758420
925.566493	2569.536609
925.870761	2568.147771
926.174989	2568.689695
926.479178	2563.991340
926.783328	2562.993192
927.087438	2566.073337
927.391509	2563.204920
927.695541	2560.517985
927.999533	2559.527398
928.303486	2557.185782
928.607400	2558.196534
928.911275	2555.507078
929.215110	2557.654610
929.518906	2557.934394
929.822663	2559.393808
930.126381	2556.245607
930.430060	2555.018086
930.733699	2557.664692
931.037299	2555.592778
931.340861	2555.658313
931.644383	2558.115875
931.947866	2555.721327
932.251309	2557.135371
932.554714	2556.182593
932.858080	2558.057902
933.161407	2557.064795
933.464694	2556.220401
933.767943	2555.048333
934.071153	2554.352654
934.374323	2555.164280
934.677455	2552.973898
934.980548	2554.589588
935.283602	2550.407951
935.586617	2549.495502
935.889593	2554.947510
936.192530	2554.902140
936.495428	2554.171172
936.798287	2554.440874
937.101108	2557.107644
937.403890	2558.511606
937.706632	2561.639642
938.009336	2565.705332
938.312002	2570.184398
938.614628	2574.398802
938.917216	2574.386199
939.219765	2579.414750
939.522275	2578.527507
939.824747	2576.720253
940.127179	2572.775551
940.429573	2569.279510
940.731929	2569.934860
941.034246	2565.833882
941.336524	2568.772874
941.638763	2568.820765
941.940964	2567.769685
942.243126	2565.791032
942.545250	2564.671896
942.847335	2562.849519
943.149381	2563.414128
943.451389	2562.108469
943.753359	2558.262069
944.055290	2556.152346
944.357182	2558.985474
944.659036	2557.032027
944.960851	2558.483879
945.262628	2559.348437
945.564367	2558.698128
945.866067	2556.197716
946.167729	2559.575289
946.469352	2558.965310
946.770937	2558.355330
947.072484	2556.643858
947.373992	2558.113355
947.675462	2556.338868
947.976893	2556.467418
948.278286	2554.130843
948.579641	2554.004814
948.880958	2555.847356
949.182236	2555.900288
949.483476	2550.637323
949.784678	2556.265772
950.085841	2552.489947
950.386967	2553.767880
950.688054	2554.047664
950.989103	2555.922973
951.290114	2554.322407
951.591087	2559.441699
951.892021	2558.173848
952.192917	2561.039744
952.493776	2558.055381
952.794596	2562.312636
953.095378	2560.961607
953.396122	2563.840105
953.696828	2560.611246
953.997496	2559.358520
954.298126	2556.963972
954.598718	2558.567058
954.899272	2553.173024
955.199788	2557.619322
955.500266	2554.710576
955.800706	2546.518701
956.101108	2545.449976
956.401472	2545.132383
956.701798	2544.046015
957.002087	2544.265305
957.302337	2546.856458
957.602550	2544.043494
957.902724	2542.652136
958.202861	2542.727753
958.502960	2543.350336
958.803022	2542.085006
959.103045	2542.087527
959.403031	2540.681045
959.702979	2541.631302
960.002889	2543.506611
960.302762	2540.466796
960.602596	2540.756662
960.902393	2541.946374
961.202153	2540.890253
961.501875	2538.679707
961.801559	2536.809438
962.101205	2536.834644
962.400814	2537.464788
962.700385	2538.291538
962.999918	2540.131559
963.299414	2540.502084
963.598873	2537.268183
963.898293	2538.336908
964.197677	2538.657021
964.497022	2536.486805
964.796331	2537.404295
965.095601	2538.294058
965.394835	2538.697351
965.694030	2538.311702
965.993189	2538.107536
966.292309	2535.917154
966.591393	2537.976466
966.890439	2536.902700
967.189447	2539.196425
967.488419	2535.904551
967.787353	2540.524769
968.086249	2538.684748
968.385108	2539.642567
968.683930	2538.505787
968.982714	2535.594520
969.281462	2535.493697
969.580172	2535.781043
969.878844	2536.635519
970.177480	2539.778678
970.476078	2537.666435
970.774639	2540.635674
971.073162	2539.738349
971.371649	2536.199459
971.670098	2532.171577
971.968510	2536.448996
972.266885	2533.895652
972.565223	2540.872608
972.863524	2538.203318
973.161788	2540.497043
973.460014	2536.345652
973.758204	2540.925541
974.056356	2539.642567
974.354471	2537.658873
974.652550	2537.129552
974.950591	2538.551157
975.248595	2539.725746
975.546563	2538.261291
975.844493	2538.170550
976.142386	2535.662576
976.440243	2536.882535
976.738062	2538.125180
977.035845	2538.402443
977.333590	2537.190046
977.631299	2535.745755
977.928971	2536.517052
978.226606	2536.113759
978.524204	2538.319264
978.821765	2537.157278
979.119290	2536.814480
979.416777	2535.307175
979.714228	2537.361445
980.011642	2535.024870
980.309020	2539.047711
980.606360	2537.870601
980.903664	2537.109387
981.200931	2537.857998
981.498162	2536.862371
981.795356	2541.164995
982.092513	2543.768751
982.389633	2544.131714
982.686717	2551.731254
982.983764	2554.788714
983.280775	2553.929197
983.577749	2555.605381
983.874686	2551.045657
984.171587	2548.570450
984.468451	2546.483413
984.765279	2545.271015
985.062070	2543.541899
985.358824	2542.450490
985.655543	2539.859337
985.952224	2538.450334
986.248869	2535.894469
986.545478	2532.670651
986.842050	2535.745755
987.138586	2530.906247
987.435086	2530.172759
987.731549	2529.499765
988.027975	2534.485467
988.324366	2532.532019
988.620719	2534.377082
988.917037	2531.985054
989.213318	2534.334232
989.509563	2532.771474
989.805772	2534.246012
990.101944	2536.282638
990.398080	2534.205682
990.694180	2532.952956
990.990244	2533.857843
991.286271	2535.471012
991.582262	2532.955476
991.878217	2533.537730
992.174136	2533.540250
992.470019	2532.050589
992.765865	2533.383974
993.061676	2532.524458
993.357450	2534.251053
993.653188	2535.148378
993.948890	2535.052596
994.244556	2533.255425
994.540186	2535.231557
994.835780	2532.751310
995.131337	2534.049407
995.426859	2534.399767
995.722345	2535.884387
996.017795	2535.803728
996.313208	2537.104346
996.608586	2537.013605
996.903928	2535.728111
997.199234	2540.033256
997.494504	2538.800694
997.789738	2537.696682
998.084936	2536.358255
998.380099	2537.769778
998.675225	2534.051927
998.970316	2538.772968
999.265371	2535.294572
999.560390	2531.221319
999.855373	2532.965559
1000.150320	2532.035466
1000.445232	2536.378420
1000.740108	2532.990764
1001.034948	2533.469674
1001.329752	2533.625950
1001.624521	2534.493028
1001.919254	2529.272913
1002.213951	2530.026566
1002.508613	2530.210568
1002.803239	2531.528830
1003.097829	2526.399456
1003.392384	2530.487832
1003.686903	2533.099149
1003.981386	2534.326670
1004.275834	2533.782226
1004.570246	2533.008408
1004.864623	2532.773995
1005.158964	2531.193593
1005.453270	2531.808614
1005.747540	2531.707791
1006.041775	2531.559077
1006.335974	2532.312729
1006.630138	2532.940353
1006.924266	2528.516740
1007.218359	2532.015301
1007.512416	2530.379447
1007.806438	2531.985054
1008.100425	2531.667462
1008.394376	2533.661238
1008.688292	2533.260466
1008.982172	2531.543953
1009.276017	2529.285516
1009.569827	2533.943543
1009.863602	2534.112421
1010.157341	2531.362472
1010.451045	2532.597554
1010.744714	2531.861546
1011.038347	2533.935981
1011.331945	2529.585465
1011.625508	2532.058151
1011.919036	2531.642256
1012.212528	2532.673172
1012.505986	2527.390043
1012.799408	2532.736186
1013.092795	2531.342307
1013.386147	2530.838192
1013.679464	2531.647297
1013.972745	2532.247194
1014.265992	2528.249559
1014.559204	2529.514889
1014.852380	2531.712832
1015.145521	2527.080012
1015.438628	2529.577903
1015.731699	2530.906247
1016.024736	2528.988088
1016.317737	2533.363810
1016.610703	2531.460774
1016.903635	2528.123530
1017.196531	2527.763088
1017.489393	2527.601771
1017.782219	2526.074301
1018.075011	2529.348531
1018.367768	2530.876000
1018.660490	2531.458254
1018.953177	2531.458254
1019.245829	2531.458254
