Dividing Wavelength (nm)	Counts (n)	Blue Motor Position (mm): 20.400000	Red Motor Position (mm): 0.000000	
326.493990	2061.461398
326.888308	2061.461398
327.282561	2061.461398
327.676750	2036.989117
328.070874	2035.789322
328.464933	2043.484644
328.858929	2051.474873
329.252859	2062.189845
329.646726	2077.250292
330.040528	2091.322673
330.434265	2107.661053
330.827938	2131.740124
331.221547	2148.459111
331.615091	2171.361073
332.008571	2193.597602
332.401986	2209.757021
332.795338	2235.015722
333.188625	2253.723444
333.581847	2272.100971
333.975006	2289.790379
334.368100	2303.772020
334.761129	2323.074598
335.154095	2337.540189
335.546996	2384.110368
335.939833	2481.061839
336.332606	2489.036944
336.725315	2502.524551
337.117960	2511.666684
337.510540	2524.965247
337.903056	2529.494724
338.295508	2537.888245
338.687896	2543.637681
339.080220	2551.660678
339.472480	2555.754095
339.864676	2558.617470
340.256807	2561.359858
340.648875	2562.053016
341.040879	2563.232646
341.432818	2565.579303
341.824694	2569.082905
342.216506	2564.218192
342.608253	2566.332956
342.999937	2563.835064
343.391557	2562.567214
343.783113	2562.075702
344.174605	2560.979251
344.566033	2559.542522
344.957397	2558.093190
345.348697	2556.346430
345.739934	2554.871893
346.131106	2550.576830
346.522215	2548.061294
346.913260	2549.051881
347.304241	2548.928372
347.695159	2548.076417
348.086012	2544.048535
348.476802	2540.703730
348.867528	2539.491332
349.258191	2537.522762
349.648789	2537.532844
350.039324	2534.661907
350.429796	2538.006712
350.820203	2536.156609
351.210548	2536.096115
351.600828	2536.975797
351.991045	2536.348173
352.381198	2530.949097
352.771288	2533.202493
353.161314	2530.326515
353.551276	2534.646783
353.941175	2528.678057
354.331010	2531.685106
354.720782	2536.587628
355.110490	2536.055786
355.500135	2531.705270
355.889717	2534.490508
356.279235	2536.456558
356.668689	2535.692823
357.058080	2536.166691
357.447408	2534.571166
357.836672	2537.653832
358.225873	2533.961187
358.615010	2539.587114
359.004084	2535.881866
359.393095	2538.503266
359.782043	2537.563091
360.170927	2539.060314
360.559748	2539.451003
360.948505	2538.866229
361.337199	2541.243133
361.725830	2540.950746
362.114398	2541.192722
362.502903	2542.780685
362.891344	2541.691796
363.279722	2543.690613
363.668037	2542.579039
364.056289	2540.423946
364.444478	2542.621889
364.832603	2542.367311
365.220665	2540.600386
365.608665	2547.100954
365.996601	2541.971580
366.384474	2545.732281
366.772284	2545.623896
367.160031	2546.337219
367.547715	2546.697662
367.935336	2545.525593
368.322893	2542.286652
368.710388	2544.398896
369.097820	2542.894111
369.485189	2541.686755
369.872495	2546.059956
370.259738	2544.978628
370.646918	2546.289328
371.034035	2548.908208
371.421090	2545.389482
371.808081	2550.760832
372.195010	2548.590615
372.581875	2548.441901
372.968678	2548.807385
373.355418	2548.696479
373.742096	2546.982487
374.128710	2550.226469
374.515262	2550.438198
374.901751	2549.286294
375.288177	2554.332489
375.674540	2549.054401
376.060841	2551.360729
376.447079	2552.036244
376.833254	2552.802499
377.219367	2551.464073
377.605417	2551.998435
377.991404	2551.998435
378.377329	2551.143959
378.763191	2553.800647
379.148991	2553.223435
379.534727	2549.301418
379.920402	2556.069167
380.306013	2553.425082
380.691563	2554.186296
381.077049	2553.089845
381.462474	2553.785524
381.847835	2556.520350
382.233134	2554.269475
382.618371	2555.872562
383.003545	2555.277706
383.388657	2556.923642
383.773706	2556.482541
384.158693	2556.326266
384.543618	2558.342727
384.928480	2557.142932
385.313280	2555.938097
385.698017	2557.687377
386.082692	2556.911039
386.467305	2556.285936
386.851856	2559.693756
387.236344	2559.179559
387.620770	2556.031358
388.005133	2555.323076
388.389435	2557.614280
388.773674	2552.442057
389.157851	2560.316339
389.541965	2557.790721
389.926018	2562.738613
390.310008	2561.117882
390.693936	2562.231977
391.077802	2562.398335
391.461606	2560.999415
391.845348	2561.125444
392.229027	2562.080743
392.612645	2561.183417
392.996200	2561.362378
393.379694	2563.028480
393.763125	2560.654096
394.146494	2561.112841
394.529801	2559.716442
394.913047	2565.382698
395.296230	2563.996381
395.679351	2563.441854
396.062410	2563.605692
396.445408	2562.277348
396.828343	2566.227092
397.211217	2563.794735
397.594028	2562.118551
397.976778	2564.031669
398.359466	2567.799932
398.742092	2563.920764
399.124656	2566.290106
399.507158	2566.020404
399.889598	2566.695919
400.271977	2565.032338
400.654294	2565.891855
401.036549	2565.687688
401.418742	2565.261711
401.800874	2564.954200
402.182944	2566.476629
402.564952	2569.014850
402.946898	2571.764799
403.328783	2567.767164
403.710606	2567.005950
404.092367	2568.170457
404.474067	2568.036866
404.855705	2569.425704
405.237282	2568.470405
405.618797	2567.079047
406.000250	2570.300344
406.381642	2571.061558
406.762972	2568.712381
407.144240	2567.220199
407.525447	2570.801939
407.906593	2564.848336
408.287677	2570.935529
408.668700	2570.058369
409.049661	2571.792526
409.430560	2574.350911
409.811399	2571.303534
410.192176	2574.502146
410.572891	2573.133472
410.953545	2571.212793
411.334138	2570.302865
411.714669	2573.695561
412.095139	2571.908472
412.475547	2573.957701
412.855894	2571.288410
413.236180	2571.941240
413.616405	2574.524831
413.996568	2573.503997
414.376670	2571.696744
414.756711	2572.490725
415.136691	2572.808318
415.516609	2572.616754
415.896466	2572.291600
416.276262	2571.142217
416.655997	2572.616754
417.035670	2571.918554
417.415283	2576.626992
417.794834	2573.551888
418.174324	2572.828483
418.553753	2574.534913
418.933121	2574.671024
419.312428	2576.760583
419.691674	2573.388051
420.070859	2576.082547
420.449983	2576.589183
420.829045	2574.986097
421.208047	2575.810325
421.586988	2573.163719
421.965867	2576.717733
422.344686	2578.240161
422.723444	2576.944585
423.102141	2574.766806
423.480777	2577.420974
423.859352	2578.144379
424.237866	2576.753021
424.616319	2577.141190
424.994712	2577.662949
425.373044	2575.827969
425.751314	2577.305027
426.129524	2572.367217
426.507673	2575.890984
426.885762	2572.233627
427.263789	2576.851323
427.641756	2579.553382
428.019662	2579.253433
428.397508	2578.121694
428.775292	2576.664801
429.153016	2581.080852
429.530679	2578.938361
429.908282	2580.841397
430.285824	2580.357446
430.663305	2577.642785
431.040726	2577.022723
431.418086	2578.469534
431.795385	2579.288721
432.172624	2581.625296
432.549802	2577.945254
432.926920	2579.591191
433.303977	2576.248906
433.680974	2580.564133
434.057910	2578.804771
434.434786	2581.597570
434.811601	2582.121850
435.188355	2580.622107
435.565050	2578.628330
435.941683	2578.703947
436.318257	2582.963722
436.694770	2581.519432
437.071222	2580.596901
437.447614	2582.177302
437.823946	2582.638568
438.200218	2578.598083
438.576429	2579.480285
438.952580	2581.050605
439.328670	2581.995821
439.704700	2579.117322
440.080670	2580.851479
440.456580	2580.390213
440.832429	2583.792992
441.208218	2582.139494
441.583947	2582.247879
441.959616	2583.856007
442.335224	2581.963053
442.710773	2580.329720
443.086261	2584.095462
443.461689	2584.622262
443.837057	2583.672005
444.212365	2584.014803
444.587612	2580.473393
444.962800	2581.617734
445.337927	2581.169072
445.712995	2578.091447
446.088002	2583.465317
446.462949	2584.939855
446.837837	2585.385997
447.212664	2586.706779
447.587431	2586.918508
447.962139	2585.093610
448.336786	2585.993456
448.711374	2586.724423
449.085901	2585.645616
449.460369	2585.554876
449.834776	2585.776686
450.209124	2587.389856
450.583412	2586.505133
450.957640	2588.292222
451.331808	2586.961357
451.705917	2588.080494
452.079965	2586.197623
452.453954	2587.936821
452.827883	2589.887747
453.201752	2586.467324
453.575562	2586.991604
453.949311	2590.601071
454.323001	2587.732654
454.696632	2588.642582
455.070202	2589.297932
455.443713	2588.773652
455.817164	2591.942017
456.190556	2588.904722
456.563888	2590.843046
456.937160	2590.918663
457.310373	2591.306832
457.683526	2592.584765
458.056619	2591.324476
458.429653	2593.164497
458.802628	2594.452512
459.175542	2593.235073
459.548398	2594.702049
459.921194	2593.862697
460.293930	2596.963007
460.666607	2595.808582
461.039224	2598.883686
461.411782	2601.747062
461.784280	2600.622884
462.156719	2599.891917
462.529099	2600.882504
462.901419	2599.065168
463.273680	2597.532657
463.645882	2596.771443
464.018024	2599.362596
464.390106	2596.340424
464.762130	2606.999944
465.134094	2605.812752
465.505999	2611.809205
465.877845	2613.392127
466.249631	2617.757766
466.621358	2616.880606
466.993026	2615.862293
467.364634	2619.186933
467.736184	2613.954216
468.107674	2616.701645
468.479105	2614.228959
468.850477	2615.025461
469.221790	2615.607714
469.593043	2614.483537
469.964238	2615.148969
470.335373	2613.349277
470.706449	2617.893877
471.077467	2620.784979
471.448425	2624.364198
471.819324	2627.829992
472.190164	2630.005250
472.560945	2623.222377
472.931667	2626.678088
473.302330	2628.510547
473.672934	2623.555093
474.043479	2626.728500
474.413965	2629.463326
474.784393	2627.535084
475.154761	2633.211423
475.525070	2632.740076
475.895321	2631.157153
476.265513	2636.904069
476.635645	2640.503452
477.005719	2642.041004
477.375734	2646.217600
477.745691	2646.275574
478.115588	2649.300266
478.485427	2655.594147
478.855207	2665.179901
479.224928	2672.043432
479.594591	2676.792198
479.964194	2678.334792
480.333739	2685.064732
480.703226	2685.667150
481.072653	2693.556556
481.442022	2697.448326
481.811333	2707.371838
482.180584	2704.639532
482.549777	2712.685214
482.918912	2714.850389
483.287988	2724.421020
483.657005	2731.302195
484.025964	2735.413256
484.394864	2743.458937
484.763706	2750.796337
485.132489	2755.081318
485.501213	2765.761002
485.869879	2777.040584
486.238487	2788.594908
486.607036	2798.586475
486.975527	2807.156437
487.343959	2821.657316
487.712333	2840.569205
488.080648	2852.937676
488.448905	2873.261087
488.817104	2889.354971
489.185244	2916.063004
489.553326	2955.625979
489.921350	3002.644821
490.289315	3058.939386
490.657222	3096.006991
491.025070	3130.886734
491.392861	3149.375166
491.760593	3162.003256
492.128267	3171.369720
492.495883	3188.018131
492.863440	3202.796273
493.230939	3218.960733
493.598380	3241.199783
493.965763	3274.395781
494.333088	3300.030048
494.700354	3332.643793
495.067563	3375.213817
495.434713	3411.759662
495.801805	3464.890903
496.168839	3504.491687
496.535815	3549.272256
496.902733	3603.595730
497.269593	3651.907628
497.636395	3705.825289
498.003139	3775.370527
498.369825	3822.061694
498.736453	3898.692273
499.103023	3953.051035
499.469535	4020.252137
499.835989	4091.347529
500.202385	4153.570491
500.568723	4218.757652
500.935003	4313.090243
501.301226	4384.969535
501.667390	4506.320191
502.033497	4601.202268
502.399546	4665.287936
502.765537	4723.619127
503.131470	4834.627855
503.497345	4958.214263
503.863163	4967.368998
504.228923	5112.831492
504.594625	5243.001646
504.960269	5298.880316
505.325856	5452.660714
505.691385	5522.342063
506.056856	5655.446169
506.422270	5813.766126
506.787625	5872.125043
507.152924	6028.080699
507.518164	6167.108161
507.883347	6227.354990
508.248472	6365.487647
508.613540	6561.999385
508.978550	6716.704835
509.343503	6824.320867
509.708398	6998.381827
510.073236	7207.196502
510.438016	7362.010336
510.802738	7446.767256
511.167403	7673.508273
511.532010	7850.120057
511.896561	8075.378976
512.261053	8347.089606
512.625488	8463.167215
512.989866	8599.739634
513.354186	8765.442361
513.718449	8911.555164
514.082655	9232.056602
514.446803	9342.344446
514.810894	9629.417992
515.174927	9800.696236
515.538904	9967.679416
515.902822	10271.391291
516.266684	10384.189629
516.630488	10640.048351
516.994235	10814.363889
517.357925	11139.641821
517.721558	11375.514888
518.085133	11654.207517
518.448651	11887.696119
518.812112	12047.379708
519.175516	12283.759412
519.538863	12609.997683
519.902152	12826.777381
520.265385	13195.096684
520.628560	13403.266091
520.991678	13595.311367
521.354739	13863.604096
521.717743	14183.258620
522.080690	14374.215007
522.443580	14791.539366
522.806413	15021.436146
523.169189	15284.972546
523.531908	15574.700260
523.894569	15761.674136
524.257174	16049.239195
524.619722	16385.514404
524.982213	16666.019327
525.344647	16907.949342
525.707025	17182.205755
526.069345	17599.668746
526.431608	17797.181154
526.793815	18196.690075
527.155964	18256.218541
527.518057	18590.429397
527.880093	18778.625752
528.242072	19267.836965
528.603995	19402.224044
528.965860	19610.632906
529.327669	19950.189906
529.689421	20204.349759
530.051117	20422.374622
530.412755	20800.274638
530.774337	21079.242009
531.135862	21278.531424
531.497331	21579.926889
531.858743	21836.584634
532.220098	22275.016304
532.581396	22383.736349
532.942638	22502.105162
533.303824	22864.475903
533.664953	23146.616681
534.026025	23210.538512
534.387040	23749.488269
534.747999	24021.166132
535.108902	24446.647079
535.469748	24323.695857
535.830537	24695.750655
536.191270	25074.916000
536.551947	25170.322357
536.912567	25557.041872
537.273131	25888.086883
537.633638	25893.143161
537.994089	26256.103717
538.354483	26317.777193
538.714821	26934.643025
539.075103	27344.002361
539.435328	27490.266399
539.795497	27585.254340
540.155609	27885.550833
540.515665	28478.907244
540.875665	28273.444937
541.235609	28695.883547
541.595496	29009.831485
541.955328	29576.953731
542.315102	29456.860843
542.674821	29600.047257
543.034483	29745.018238
543.394090	29976.767642
543.753640	30197.285356
544.113134	31117.464811
544.472571	30732.255122
544.831953	31738.020767
545.191278	31434.324016
545.550548	31424.345052
545.909761	32097.697012
546.268918	32402.638929
546.628019	32927.670061
546.987064	32724.536766
547.346053	32393.983268
547.704986	33276.243164
548.063863	33225.405648
548.422684	33581.913527
548.781449	33491.966740
549.140158	34080.728139
549.498811	34103.627580
549.857408	33835.743185
550.215949	34678.238460
550.574434	34746.246146
550.932864	34889.314092
551.291237	35640.355274
551.649555	35617.428107
552.007817	35964.319985
552.366022	35882.857460
552.724173	36115.453778
553.082267	36634.107850
553.440305	37066.328819
553.798288	36648.250807
554.156215	37152.784607
554.514086	37480.290729
554.871902	37341.785027
555.229661	37679.862448
555.587365	37571.858247
555.945014	37870.972590
556.302606	38035.170532
556.660143	38284.112792
557.017625	38627.327148
557.375050	38543.477637
557.732421	39039.648163
558.089735	39256.117829
558.446994	39296.351278
558.804197	39873.752437
559.161345	39909.143858
559.518437	39487.111060
559.875474	39865.227846
560.232455	40218.131300
560.589381	40410.831927
560.946251	40401.878837
561.303065	41111.769081
561.659825	40984.437096
562.016528	40954.674124
562.373177	40710.848636
562.729770	41409.597929
563.086307	41116.991716
563.442789	41742.901378
563.799216	41741.452046
564.155587	41767.449276
564.511904	41870.871068
564.868164	42032.550954
565.224370	42441.441463
565.580520	42321.668689
565.936615	42592.424021
566.292654	42415.650920
566.648638	42854.586706
567.004567	42918.443002
567.360441	43127.063592
567.716260	42985.631500
568.072023	43422.573510
568.427732	43461.823934
568.783385	43130.630208
569.138982	43603.866005
569.494525	43852.203326
569.850013	43555.148294
570.205445	43760.378709
570.560823	43646.889733
570.916145	43637.550995
571.271412	43949.699241
571.626625	43702.347466
571.981782	43861.085839
572.336884	43560.766660
572.691931	43952.189571
573.046923	43729.473915
573.401860	43643.781861
573.756743	43746.243313
574.111570	43964.956293
574.466342	43957.704594
574.821059	44170.390874
575.175722	43767.025470
575.530330	43938.606182
575.884882	43661.302392
576.239380	43632.489677
576.593823	43790.265189
576.948211	43781.697748
577.302544	43422.565948
577.656823	43476.758352
578.011047	43788.762925
578.365216	43678.197819
578.719330	43464.525992
579.073389	43509.367056
579.427394	43608.007313
579.781344	43591.709263
580.135239	43407.296293
580.489080	43511.557437
580.842866	43074.706168
581.196597	43614.538128
581.550273	43644.021316
581.903895	43625.656393
582.257463	44089.382053
582.610975	43574.488681
582.964434	43949.767297
583.317837	43509.480482
583.671186	43507.509391
584.024481	43803.016788
584.377721	43412.062704
584.730906	43669.874874
585.084037	43821.011187
585.437113	43572.247888
585.790135	43736.418104
586.143103	43334.675952
586.496016	43515.318138
586.848874	43638.244154
587.201679	43715.537645
587.554428	43268.818318
587.907124	43553.772059
588.259765	43358.281154
588.612352	43537.529462
588.964884	43031.914334
589.317362	43368.897824
589.669786	43387.429106
590.022155	43267.958801
590.374470	43751.226494
590.726731	43347.036861
591.078937	42729.024167
591.431090	43066.438676
591.783188	42644.912515
592.135232	42459.982827
592.487222	42751.021242
592.839157	42897.207141
593.191038	42573.928027
593.542866	42410.113213
593.894639	41840.634227
594.246358	42156.850685
594.598022	42154.020077
594.949633	41756.394026
595.301190	41779.553087
595.652692	41733.436611
596.004141	42208.799775
596.355535	41150.205358
596.706876	41180.139730
597.058162	40907.985478
597.409395	41420.549836
597.760573	41652.455516
598.111698	41252.586152
598.462768	41198.237472
598.813785	41221.247819
599.164748	40827.470689
599.515657	41129.385393
599.866511	40657.021716
600.217312	41341.396159
600.568060	40299.664402
600.918753	41126.101081
601.269392	41060.530793
601.619978	40783.295058
601.970510	41001.506443
602.320988	41138.812351
602.671412	41423.657707
603.021783	41293.106946
603.372100	40856.969001
603.722363	40985.873825
604.072572	41024.743642
604.422728	41028.111133
604.772830	40814.562815
605.122878	40972.257669
605.472872	40849.689575
605.822813	41119.686213
606.172701	40877.473894
606.522534	41200.984901
606.872314	41416.053127
607.222041	41249.463157
607.571714	41588.551329
607.921333	41078.799935
608.270899	41302.352423
608.620411	41698.781199
608.969870	41427.337750
609.319276	41466.784779
609.668627	41498.307114
610.017926	41897.057342
610.367171	42024.379244
610.716362	42082.448295
611.065500	41955.292751
611.414585	42194.210676
611.763616	42396.998651
612.112594	42278.886937
612.461518	42413.876434
612.810389	42807.998883
613.159207	42600.598252
613.507971	42571.926689
613.856682	43061.924323
614.205340	42927.564970
614.553945	43616.998211
614.902496	42926.531533
615.250994	43354.283519
615.599439	43414.467335
615.947830	43539.727405
616.296169	43543.208322
616.644454	43588.072070
616.992686	43728.107762
617.340864	44203.566708
617.688990	43725.446033
618.037063	44408.676134
618.385082	44223.438936
618.733048	44578.545375
619.080961	44448.665087
619.428821	44460.408455
619.776628	44487.050953
620.124382	44292.018793
620.472083	44411.683183
620.819731	44506.517369
621.167326	44077.348818
621.514868	44072.728601
621.862357	43557.179879
622.209793	43638.062672
622.557176	43197.165877
622.904506	42947.036427
623.251783	42586.167949
623.599007	42272.620783
623.946179	42199.899618
624.293297	41941.086779
624.640363	41397.630230
624.987376	41254.083374
625.334336	41042.959851
625.681243	40639.637297
626.028097	40556.475902
626.374899	40384.199511
626.721647	40343.751813
627.068343	40139.159105
627.414987	39853.454231
627.761577	39588.642419
628.108115	39937.495307
628.454600	39174.456178
628.801032	39396.403059
629.147412	39303.313112
629.493739	39223.148683
629.840014	38784.404461
630.186236	39211.894307
630.532405	38652.071652
630.878521	38892.469156
631.224585	38662.970627
631.570597	38305.986358
631.916556	38485.111157
632.262462	38369.378868
632.608316	38306.059455
632.954117	38177.484826
633.299866	38131.408680
633.645562	38055.924963
633.991206	37520.327573
634.336797	37116.997456
634.682336	37024.467077
635.027823	36775.335775
635.373257	36647.403893
635.718639	36313.203119
636.063968	36211.908695
636.409245	35562.537503
636.754470	35524.517121
637.099642	35288.732273
637.444762	34721.352928
637.789829	34875.410590
638.134845	34511.895507
638.479808	34416.620219
638.824719	34363.975450
639.169577	33850.496122
639.514383	33951.790547
639.859137	33566.729572
640.203839	33736.003956
640.548489	33448.932930
640.893086	33431.372071
641.237632	33163.933818
641.582125	33260.245062
641.926566	33070.317070
642.270955	33079.489450
642.615292	33020.253372
642.959576	32898.988416
643.303809	32915.793102
643.647990	32989.146932
643.992118	32958.655513
644.336195	32798.278765
644.680219	32884.414440
645.024192	33096.231122
645.368112	33625.123777
645.711981	33635.879079
646.055797	34366.896798
646.399562	34168.996222
646.743274	35037.642482
647.086935	35456.108663
647.430544	35393.832769
647.774101	35446.835461
648.117606	35747.187407
648.461059	35868.774996
648.804460	35473.893854
649.147810	34949.167712
649.491108	34604.761122
649.834354	34456.094975
650.177548	33630.316166
650.520690	33145.037053
650.863781	33142.299706
651.206820	32959.610811
651.549807	32540.481719
651.892742	31964.035859
652.235626	31867.475077
652.578458	31734.822155
652.921238	31040.869520
653.263967	31354.318383
653.606644	31053.515254
653.949269	30975.140435
654.291843	30582.406824
654.634365	30939.406216
654.976836	30487.549953
655.319255	30556.810366
655.661622	30434.990883
656.003938	30293.523503
656.346203	30122.010846
656.688416	30357.364675
657.030577	30130.462341
657.372687	29958.967328
657.714746	30108.941655
658.056753	30313.670474
658.398708	29697.643995
658.740612	29749.169628
659.082465	29970.486365
659.424266	29853.546719
659.766016	29846.836943
660.107715	29711.277796
660.449362	29818.379630
660.790958	29802.568051
661.132503	29724.639374
661.473996	29809.726489
661.815438	29884.766585
662.156829	30001.683545
662.498168	29810.853187
662.839456	29789.844178
663.180693	29914.592571
663.521879	30014.170483
663.863013	29956.860126
664.204097	29944.194227
664.545129	30349.339158
664.886110	30293.566353
665.227040	30391.044624
665.567918	30391.581507
665.908746	30464.196808
666.249522	30553.747865
666.590248	30573.491544
666.930922	30666.916727
667.271545	30670.763128
667.612118	30732.348384
667.952639	30532.232220
668.293109	30573.955330
668.633528	30432.147672
668.973896	30392.206610
669.314213	30383.288809
669.654480	30184.032162
669.994695	30166.025161
670.334859	30091.900034
670.674973	29926.996330
671.015035	30123.089653
671.355047	30054.071216
671.695008	29978.421141
672.034918	29887.345135
672.374777	29995.104839
672.714585	29861.549551
673.054342	29987.669138
673.394049	29843.971047
673.733705	30061.519521
674.073310	29770.140828
674.412864	29822.573870
674.752368	29523.961122
675.091820	29764.187226
675.431223	29350.903351
675.770574	29149.572269
676.109875	28990.183588
676.449125	28776.562173
676.788324	28687.679069
677.127473	28201.979019
677.466571	28103.232898
677.805619	27839.288165
678.144616	27768.941383
678.483562	27716.087406
678.822458	27392.228559
679.161303	27333.247059
679.500098	27250.562054
679.838842	27181.180653
680.177535	27249.747908
680.516179	27497.850815
680.854771	27641.155695
681.193314	28412.404343
681.531805	29430.742625
681.870247	30170.794092
682.208638	30906.885733
682.546978	31161.489208
682.885268	31309.003452
683.223508	30855.559225
683.561697	30581.428840
683.899836	30420.663924
684.237925	30015.536636
684.575963	29868.206394
684.913951	29501.530507
685.251889	29673.935448
685.589776	29701.442504
685.927614	29703.562310
686.265401	29888.623067
686.603137	29997.045684
686.940824	30507.248262
687.278460	30836.279332
687.616046	31005.856186
687.953582	31657.710145
688.291068	31575.342733
688.628504	31907.564853
688.965889	31909.064597
689.303224	31641.863278
689.640510	31346.507116
689.977745	30719.528729
690.314930	29971.774379
690.652065	29541.703462
690.989150	28880.301557
691.326185	28036.359471
691.663170	27378.607362
692.000105	26659.360737
692.336990	26053.756843
692.673825	25634.784026
693.010610	25147.717824
693.347345	24633.474761
693.684030	24010.793958
694.020665	23807.786693
694.357251	23133.255103
694.693786	23133.844918
695.030272	22909.337131
695.366707	22416.488725
695.703093	22131.396352
696.039429	22210.630687
696.375716	21970.046661
696.711952	21966.417031
697.048139	21826.822439
697.384276	21678.604955
697.720363	21783.622272
698.056400	21681.191067
698.392388	21508.871825
698.728326	21514.933813
699.064214	21355.308197
699.400053	21356.903722
699.735842	20970.975669
700.071581	20763.814492
700.407270	20516.687049
700.742910	20356.101093
701.078501	20107.854513
701.414042	19888.040041
701.749533	19587.698177
702.084974	19278.309962
702.420366	19512.617752
702.755709	19089.886755
703.091002	18790.311147
703.426246	18862.508031
703.761440	18791.160581
704.096584	18559.811949
704.431679	18487.070619
704.766725	18438.506664
705.101721	18363.453965
705.436668	18483.922419
705.771565	18210.737251
706.106413	18522.146968
706.441212	18599.052290
706.775961	18703.580615
707.110661	18784.138254
707.445311	19143.696031
707.779913	19020.598616
708.114465	19323.095573
708.448967	19634.860692
708.783421	20269.209245
709.117825	20640.671707
709.452180	20853.824294
709.786485	21302.885238
710.120742	22074.075912
710.454949	22185.755114
710.789107	22691.798740
711.123216	23396.849476
711.457275	23617.475574
711.791286	24172.491489
712.125247	24313.031296
712.459159	24048.688312
712.793023	24803.890967
713.126837	23773.234625
713.460602	24035.871178
713.794318	23703.374315
714.127985	23428.127315
714.461602	22534.262682
714.795171	22515.287779
715.128691	21542.221578
715.462162	21012.660970
715.795584	20578.413457
716.128957	20313.468055
716.462281	19937.758420
716.795556	19648.766714
717.128782	19176.400517
717.461960	18574.708558
717.795088	18533.890336
718.128167	18188.599023
718.461198	17733.423160
718.794180	17602.703521
719.127113	17266.733302
719.459997	17087.981548
719.792833	16706.033486
720.125619	16757.218842
720.458357	16425.919252
720.791046	16278.483146
721.123686	16133.600384
721.456278	15917.317240
721.788821	15905.495735
722.121315	15626.077180
722.453761	15740.508852
722.786158	15613.401198
723.118506	15701.810434
723.450805	15590.456387
723.783056	15767.763850
724.115259	15655.678835
724.447412	15649.954605
724.779518	15863.122316
725.111574	15914.428659
725.443582	16183.699371
725.775542	16146.767878
726.107453	16662.430026
726.439315	16581.610247
726.771129	16992.618041
727.102895	17420.543947
727.434612	17697.343622
727.766281	17851.832302
728.097901	18166.906938
728.429473	18264.269263
728.760996	18269.202032
729.092471	18404.267147
729.423897	18286.417573
729.755276	18167.557247
730.086606	18276.083207
730.417887	18862.228247
730.749120	19420.457898
731.080305	19624.765781
731.411442	20032.380878
731.742530	20148.219032
732.073570	20309.523352
732.404562	20633.762806
732.735506	20467.329111
733.066401	20257.302039
733.397249	19765.275342
733.728048	19140.578077
734.058798	18278.175286
734.389501	17519.486673
734.720156	16999.123650
735.050762	16435.537773
735.381320	16055.656584
735.711831	15778.320026
736.042293	15410.225054
736.372707	15442.528768
736.703073	15233.784670
737.033391	15427.675008
737.363661	15428.922694
737.693883	15551.667228
738.024056	15743.016826
738.354182	15971.033255
738.684260	16318.935885
739.014290	16608.479597
739.344272	16833.191551
739.674207	17180.774067
740.004093	17355.563474
740.333931	17405.173469
740.663722	17487.109863
740.993464	17523.272580
741.323159	17369.860186
741.652806	17081.334787
741.982405	16905.945483
742.311956	16554.776185
742.641460	16434.968123
742.970915	16120.800895
743.300323	15771.217040
743.629683	15551.503391
743.958996	15235.617129
744.288260	14921.520477
744.617477	14616.568478
744.946647	14573.438886
745.275768	14267.380354
745.604842	14060.897213
745.933869	13882.667219
746.262847	13855.044216
746.591778	13776.550930
746.920662	13656.760512
747.249498	13668.428263
747.578286	13821.994412
747.907027	13992.004805
748.235720	14266.460343
748.564365	14328.990816
748.892963	14249.534669
749.221514	14358.625239
749.550017	14216.194998
749.878473	14191.185834
750.206881	13964.868273
750.535242	13890.675092
750.863555	13812.501919
751.191821	13709.929562
751.520039	13733.570053
751.848210	13663.762675
752.176334	13706.315054
752.504411	13628.562818
752.832440	13453.014718
753.160421	13565.344228
753.488356	13457.728197
753.816243	13364.270245
754.144082	13203.313765
754.471875	13147.548521
754.799620	13113.913942
755.127318	13092.473915
755.454969	13076.122933
755.782572	13053.137792
756.110129	13066.456520
756.437638	12975.125936
756.765100	12969.744504
757.092515	13007.732119
757.419882	13042.647151
757.747203	13049.049416
758.074477	13145.779076
758.401703	13119.373512
758.728882	13318.620077
759.056014	13362.747817
759.383099	13529.887273
759.710138	13650.053257
760.037129	13772.409623
760.364073	13837.947143
760.690970	13856.503630
761.017820	13881.855593
761.344623	14107.043935
761.671379	14490.794210
761.998088	15199.388877
762.324751	16974.154815
762.651366	20398.139275
762.977935	24860.823238
763.304456	27808.925295
763.630931	28850.843575
763.957359	27652.747828
764.283740	25392.972479
764.610074	23141.971258
764.936362	20506.100626
765.262602	18629.452968
765.588796	16701.307404
765.914943	15415.722433
766.241044	14309.473989
766.567097	13518.678267
766.893104	12803.121767
767.219064	12339.290242
767.544978	11860.000020
767.870845	11475.082718
768.196665	11251.842782
768.522438	11015.389981
768.848165	10816.614764
769.173846	10603.827661
769.499479	10476.092384
769.825066	10311.009719
770.150607	10079.159492
770.476101	9994.803344
770.801548	9875.423780
771.126949	9719.810922
771.452303	9606.044683
771.777611	9403.140761
772.102872	9393.872600
772.428087	9257.292618
772.753256	9098.309750
773.078378	9004.985389
773.403453	8825.313625
773.728482	8713.677273
774.053465	8639.481571
774.378401	8541.171509
774.703291	8415.941686
775.028135	8292.025083
775.352932	8258.786235
775.677683	8153.577354
776.002388	8045.961322
776.327046	8057.709732
776.651658	7960.949825
776.976224	7857.452416
777.300743	7859.179011
777.625216	7770.021164
777.949643	7724.292857
778.274024	7740.384220
778.598359	7653.494893
778.922647	7671.721184
779.246889	7620.301415
779.571086	7626.721325
779.895236	7635.631564
780.219339	7645.270250
780.543397	7642.905949
780.867409	7733.399702
781.191374	7739.592759
781.515294	7698.293106
781.839167	7797.873539
782.162995	7772.335053
782.486776	7714.150056
782.810511	7664.613158
783.134201	7577.842297
783.457844	7579.415137
783.781441	7523.478494
784.104993	7453.214892
784.428498	7432.102539
784.751958	7414.856752
785.075372	7385.610498
785.398739	7332.499422
785.722061	7376.937193
786.045337	7380.196299
786.368568	7535.983076
786.691752	7565.234371
787.014891	7903.127790
787.337983	8263.293027
787.661030	8858.025672
787.984031	9482.576743
788.306987	9885.483402
788.629897	10093.080638
788.952760	10038.426969
789.275579	9821.135594
789.598351	9422.861755
789.921078	9067.258762
790.243759	8654.622676
790.566395	8367.443265
790.888984	8115.861962
791.211529	7904.801453
791.534027	7682.844490
791.856480	7485.589182
792.178888	7405.165134
792.501249	7310.449415
792.823566	7154.834037
793.145836	7152.767163
793.468062	7128.602392
793.790241	7077.235555
794.112375	7147.859600
794.434464	7299.648743
794.756507	7337.165009
795.078505	7505.496698
795.400457	7809.763100
795.722364	8165.930702
796.044226	8452.177499
796.366042	8725.050116
796.687812	8672.934667
797.009538	8750.354188
797.331218	8644.484916
797.652852	8560.184221
797.974442	8409.294924
798.295986	8322.561872
798.617484	8131.461812
798.938938	7985.517888
799.260346	7879.961168
799.581709	7682.360540
799.903026	7604.928417
800.224299	7498.718867
800.545526	7327.168401
800.866708	7230.607620
801.187845	7160.220509
801.508936	7054.767133
801.829983	7021.054416
802.150984	6864.526589
802.471940	6822.531257
802.792851	6805.265305
803.113717	6775.787158
803.434538	6743.223825
803.755314	6684.393560
804.076045	6685.565628
804.396731	6630.652339
804.717372	6661.945302
805.037967	6660.861453
805.358518	6705.722682
805.679024	6790.794673
805.999485	6800.171219
806.319901	6840.913825
806.640272	6862.462237
806.960598	6946.742768
807.280879	6943.801254
807.601115	7022.985178
807.921306	6969.359904
808.241453	6982.330793
808.561554	7005.930955
808.881611	6969.034750
809.201623	6979.250648
809.521590	6917.698160
809.841513	6898.700571
810.161390	6947.047757
810.481223	6811.344937
810.801011	6794.774664
811.120755	6773.218690
811.440453	6698.571805
811.760107	6665.227093
812.079716	6630.117977
812.399281	6565.475261
812.718801	6561.391926
813.038276	6510.788824
813.357707	6451.162056
813.677093	6489.681513
813.996434	6394.572584
814.315731	6442.254337
814.634983	6435.821825
814.954191	6451.116686
815.273354	6552.088477
815.592473	6614.694567
815.911547	6740.312559
816.230577	6823.327760
816.549562	6969.332178
816.868502	7070.646767
817.187399	7170.043198
817.506250	7323.405180
817.825058	7353.725200
818.143821	7628.737786
818.462539	7896.284424
818.781213	8261.866380
819.099843	8815.674939
819.418429	9820.787754
819.736970	10783.307861
820.055466	11966.302831
820.373919	13509.596628
820.692327	15874.724532
821.010691	20032.085971
821.329011	29037.419199
821.647286	42005.424505
821.965517	55411.024651
822.283704	60785.287861
822.601847	62771.739410
822.919945	60070.802605
823.237999	55883.882361
823.556010	49748.518346
823.873976	43038.898853
824.191897	36502.949630
824.509775	31658.368016
824.827609	27134.885217
825.145398	24551.573655
825.463144	23185.796529
825.780845	23503.288398
826.098502	25271.246258
826.416116	29050.382526
826.733685	32690.503937
827.051210	33838.364585
827.368692	32035.574873
827.686129	28086.367718
828.003522	23975.241221
828.320872	20265.453585
828.638177	17419.137465
828.955439	15263.056130
829.272656	13451.363740
829.589830	11980.793628
829.906960	10702.281395
830.224046	9774.638511
830.541088	9015.206328
830.858086	8556.680619
831.175041	8178.349584
831.491952	8062.332470
831.808819	8107.909542
832.125642	8514.362653
832.442421	9408.718798
832.759157	11209.076153
833.075849	14122.835350
833.392497	17343.041248
833.709101	19505.560137
834.025662	19345.130457
834.342179	17645.296229
834.658653	15450.697958
834.975083	13525.415769
835.291469	11914.247877
835.607811	10593.538666
835.924110	9693.128095
836.240366	8820.080907
836.556578	8016.959564
836.872746	7365.410594
837.188871	6872.569750
837.504952	6452.865966
837.820990	6139.182689
838.136984	5922.183701
838.452935	5831.198436
838.768842	5857.535944
839.084706	6286.712056
839.400526	7493.821386
839.716303	9080.680835
840.032037	10162.489765
840.347727	10093.100803
840.663373	9115.742060
840.978977	8074.524500
841.294537	7266.992148
841.610054	6669.340674
841.925527	6230.251133
842.240957	5868.152614
842.556344	5539.277819
842.871687	5255.909521
843.186987	4973.282271
843.502244	4749.245833
843.817458	4586.194753
844.132629	4449.214000
844.447756	4356.847458
844.762840	4274.825365
845.077881	4201.708469
845.392879	4142.318636
845.707833	4094.699897
846.022745	4046.708112
846.337613	4020.531921
846.652438	3973.308912
846.967221	3959.264257
847.281960	3923.323351
847.596656	3907.413470
847.911309	3886.638875
848.225919	3865.534084
848.540485	3844.545240
848.855009	3835.105679
849.169490	3817.499450
849.483928	3799.091676
849.798323	3791.882826
850.112675	3773.147378
850.426984	3781.976959
850.741251	3764.963065
851.055474	3760.852004
851.369654	3765.903240
851.683792	3763.753188
851.997887	3767.087911
852.311938	3768.330556
852.625947	3773.107049
852.939914	3761.668671
853.253837	3773.175104
853.567718	3771.554373
853.881555	3760.403341
854.195350	3773.752317
854.509103	3772.600413
854.822812	3772.509672
855.136479	3759.327055
855.450103	3769.558077
855.763685	3754.054008
856.077224	3758.994339
856.390720	3779.073254
856.704173	3796.729896
857.017584	3810.749345
857.330953	3822.913649
857.644278	3841.530630
857.957561	3847.645550
858.270802	3845.838296
858.584000	3851.048328
858.897155	3843.189170
859.210268	3825.971109
859.523339	3806.829848
859.836367	3804.558808
860.149352	3795.711583
860.462295	3790.141108
860.775195	3779.821866
861.088054	3774.591669
861.400869	3774.203500
861.713642	3772.439096
862.026373	3782.183646
862.339062	3785.450314
862.651708	3808.006957
862.964312	3842.422914
863.276873	3856.762476
863.589392	3912.477309
863.901869	3960.126295
864.214303	4003.323942
864.526696	4037.898696
864.839045	4084.055500
865.151353	4108.391671
865.463619	4118.375676
865.775842	4126.123929
866.088023	4143.525992
866.400162	4132.654744
866.712258	4139.397287
867.024313	4142.374089
867.336325	4141.678409
867.648296	4147.947084
867.960224	4145.358452
868.272110	4158.309176
868.583954	4159.715658
868.895755	4171.625384
869.207515	4169.523223
869.519233	4211.861353
869.830909	4225.870720
870.142542	4251.144545
870.454134	4261.163838
870.765684	4292.333292
871.077191	4329.907532
871.388657	4355.277139
871.700081	4390.645874
872.011463	4435.005508
872.322803	4469.582782
872.634101	4498.624869
872.945357	4538.865880
873.256571	4595.639354
873.567744	4622.813694
873.878874	4640.687105
874.189963	4680.217313
874.501010	4690.012275
874.812015	4688.348694
875.122979	4729.418975
875.433900	4733.005756
875.744780	4744.217282
876.055618	4769.554121
876.366415	4770.312815
876.677169	4789.335609
876.987882	4838.363350
877.298554	4888.759765
877.609183	4970.688598
877.919771	5077.697170
878.230317	5223.704109
878.540822	5445.293068
878.851285	5759.326705
879.161707	6219.213527
879.472087	6981.148643
879.782425	8216.614462
880.092722	10401.919367
880.402977	13702.370352
880.713191	17452.252805
881.023363	21162.121099
881.333494	23363.141800
881.643583	24567.874226
881.953631	24583.716052
882.263637	23740.383946
882.573602	22255.612903
882.883526	20708.825586
883.193408	19037.718374
883.503248	17344.926639
883.813048	15801.726103
884.122806	14367.953894
884.432522	12892.990416
884.742197	11641.213943
885.051831	10551.301358
885.361424	9544.910610
885.670975	8732.442968
885.980485	8034.669138
886.289954	7461.419369
886.599382	6992.949984
886.908768	6616.625328
887.218113	6253.271562
887.527417	5962.749866
887.836680	5696.156007
888.145901	5479.890507
888.455082	5316.423531
888.764221	5164.175644
889.073319	5029.748236
889.382376	4957.516063
889.691392	4895.371239
890.000366	4878.843816
890.309300	4860.763717
890.618193	4861.507288
890.927044	4849.285010
891.235855	4870.508268
891.544625	4900.467845
891.853353	4962.164007
892.162041	5082.261935
892.470687	5269.291263
892.779293	5517.217730
893.087858	5892.103136
893.396381	6468.982535
893.704864	7266.472909
894.013306	8416.130729
894.321707	9588.808978
894.630068	10398.226722
894.938387	10603.031158
895.246665	10364.345127
895.554903	9763.789948
895.863100	9069.673475
896.171256	8511.315275
896.479371	8009.591918
896.787446	7513.600353
897.095480	7086.191165
897.403473	6764.308451
897.711425	6447.476973
898.019336	6185.178177
898.327207	5912.655920
898.635038	5681.730745
898.942827	5435.654382
899.250576	5243.840998
899.558284	5048.289599
899.865952	4926.558337
900.173579	4782.847644
900.481165	4673.255480
900.788711	4582.018157
901.096216	4506.990664
901.403681	4446.214513
901.711105	4423.388169
902.018489	4406.044079
902.325832	4472.146209
902.633135	4599.458028
902.940397	4942.853867
903.247619	5734.788889
903.554800	7176.415216
903.861941	9087.128470
904.169041	10610.189597
904.476101	11226.407640
904.783121	10862.368277
905.090100	10126.866451
905.397039	9301.730390
905.703938	8551.279022
906.010796	7856.915533
906.317614	7300.719988
906.624391	6769.054697
906.931129	6345.628021
907.237826	5948.357372
907.544483	5570.926183
907.851099	5198.997414
908.157675	4844.747972
908.464211	4518.940719
908.770707	4286.223414
909.077163	4087.231427
909.383578	3946.258081
909.689954	3829.842715
909.996289	3758.780090
910.302584	3695.125440
910.608839	3661.800892
910.915054	3631.289309
911.221229	3618.540231
911.527363	3628.292343
911.833458	3642.896566
912.139513	3672.324301
912.445527	3701.137016
912.751502	3781.072072
913.057436	3883.790623
913.363331	4020.083258
913.669186	4222.949371
913.975000	4480.338084
914.280775	4901.103031
914.586510	5480.797914
914.892205	6274.018431
915.197859	7311.187944
915.503475	8531.590796
915.809050	9581.713554
916.114585	10224.843797
916.420081	10482.192180
916.725536	10446.440317
917.030952	10003.385908
917.336328	9591.687477
917.641665	9182.567595
917.946961	8711.451603
918.252218	8289.451574
918.557435	7775.548789
918.862612	7352.215374
919.167750	6976.972047
919.472848	6554.178035
919.777906	6184.795049
920.082925	5821.380789
920.387904	5462.342250
920.692843	5197.240572
920.997743	4951.202018
921.302603	4716.392633
921.607423	4555.073189
921.912204	4392.357346
922.216946	4273.489459
922.521647	4154.729957
922.826310	4047.643246
923.130932	3953.512301
923.435516	3856.676777
923.740059	3785.225983
924.044564	3712.885425
924.349028	3652.366373
924.653454	3585.618976
924.957840	3517.777648
925.262186	3472.636636
925.566493	3414.433994
925.870761	3358.658668
926.174989	3318.652071
926.479178	3283.706792
926.783328	3239.276583
927.087438	3212.044270
927.391509	3176.277283
927.695541	3150.428767
927.999533	3120.075980
928.303486	3106.207765
928.607400	3083.928386
928.911275	3072.787436
929.215110	3056.401165
929.518906	3043.944474
929.822663	3045.305586
930.126381	3041.136552
930.430060	3049.540155
930.733699	3051.695248
931.037299	3063.920046
931.340861	3063.032803
931.644383	3066.493555
931.947866	3065.003894
932.251309	3058.793193
932.554714	3059.501475
932.858080	3055.017369
933.161407	3044.922458
933.464694	3038.583207
933.767943	3028.712628
934.071153	3025.713141
934.374323	3017.309538
934.677455	3012.596059
934.980548	3004.641118
935.283602	2999.836899
935.586617	2993.918584
935.889593	3006.564318
936.192530	3009.218486
936.495428	3021.231556
936.798287	3045.320709
937.101108	3075.396233
937.403890	3128.300622
937.706632	3190.836136
938.009336	3266.297167
938.312002	3343.331039
938.614628	3405.168353
938.917216	3456.159624
939.219765	3489.844614
939.522275	3518.629603
939.824747	3523.562372
940.127179	3520.169675
940.429573	3515.262112
940.731929	3510.803211
941.034246	3498.631345
941.336524	3486.230107
941.638763	3471.857777
941.940964	3458.569296
942.243126	3412.961977
942.545250	3391.443812
942.847335	3354.600539
943.149381	3320.950837
943.451389	3288.758028
943.753359	3256.008172
944.055290	3231.969430
944.357182	3206.030173
944.659036	3190.271526
944.960851	3181.109229
945.262628	3165.595078
945.564367	3170.369051
945.866067	3166.124399
946.167729	3161.035355
946.469352	3162.525016
946.770937	3153.602173
947.072484	3138.329998
947.373992	3138.541726
947.675462	3134.455871
947.976893	3114.979373
948.278286	3110.223044
948.579641	3102.129472
948.880958	3095.328955
949.182236	3098.789707
949.483476	3090.307966
949.784678	3092.551280
950.085841	3095.114706
950.386967	3102.379009
950.688054	3118.205712
950.989103	3139.229844
951.290114	3158.902947
951.591087	3188.277750
951.892021	3217.667677
952.192917	3242.742376
952.493776	3267.466715
952.794596	3277.967439
953.095378	3282.517080
953.396122	3279.225207
953.696828	3270.393105
953.997496	3259.925149
954.298126	3235.916654
954.598718	3218.065928
954.899272	3188.784386
955.199788	3162.081394
955.500266	3129.996970
955.800706	3094.204778
956.101108	3058.669685
956.401472	3025.972761
956.701798	2996.386229
957.002087	2952.722275
957.302337	2928.854932
957.602550	2895.180024
957.902724	2869.760006
958.202861	2843.926613
958.502960	2823.870382
958.803022	2804.298103
959.103045	2781.348250
959.403031	2765.781167
959.702979	2750.292222
960.002889	2739.063051
960.302762	2728.300188
960.602596	2715.551110
960.902393	2707.240768
961.202153	2698.751465
961.501875	2692.278623
961.801559	2685.954496
962.101205	2677.835717
962.400814	2672.943277
962.700385	2666.793070
962.999918	2659.627070
963.299414	2655.286636
963.598873	2651.367139
963.898293	2646.993938
964.197677	2646.056283
964.497022	2643.202990
964.796331	2638.071096
965.095601	2639.122176
965.394835	2633.526496
965.694030	2633.481125
965.993189	2635.142185
966.292309	2633.377782
966.591393	2629.727986
966.890439	2630.584982
967.189447	2627.814868
967.488419	2631.424334
967.787353	2634.438944
968.086249	2630.365692
968.385108	2635.442134
968.683930	2634.552370
968.982714	2641.410860
969.281462	2644.463279
969.580172	2652.125833
969.878844	2658.565907
970.177480	2666.261228
970.476078	2673.107115
970.774639	2681.051973
971.073162	2685.082376
971.371649	2691.562779
971.670098	2698.451516
971.968510	2703.790098
972.266885	2707.137424
972.565223	2710.746890
972.863524	2712.304607
973.161788	2717.774259
973.460014	2721.265258
973.758204	2721.721482
974.056356	2726.712224
974.354471	2727.564179
974.652550	2728.892523
974.950591	2725.414127
975.248595	2723.259034
975.546563	2720.257027
975.844493	2717.436501
976.142386	2713.930379
976.440243	2706.787064
976.738062	2703.616178
977.035845	2697.158460
977.333590	2691.978674
977.631299	2686.897191
977.928971	2679.489216
978.226606	2673.558298
978.524204	2671.115859
978.821765	2667.347597
979.119290	2669.860612
979.416777	2670.072340
979.714228	2672.789522
980.011642	2673.835562
980.309020	2679.953002
980.606360	2697.425641
980.903664	2721.287943
981.200931	2755.643406
981.498162	2803.660397
981.795356	2879.265102
982.092513	2966.235088
982.389633	3067.141344
982.686717	3166.714214
982.983764	3239.148033
983.280775	3287.157462
983.577749	3297.065850
983.874686	3284.581433
984.171587	3246.757655
984.468451	3210.524362
984.765279	3165.698422
985.062070	3119.493726
985.358824	3077.410174
985.655543	3016.755011
985.952224	2967.485294
986.248869	2907.407343
986.545478	2848.456090
986.842050	2792.264868
987.138586	2748.411871
987.435086	2707.739842
987.731549	2678.483506
988.027975	2655.299239
988.324366	2634.257463
988.620719	2621.306739
988.917037	2612.653598
989.213318	2602.856116
989.509563	2595.317070
989.805772	2591.889085
990.101944	2584.657550
990.398080	2584.455904
990.694180	2584.024885
990.990244	2584.987746
991.286271	2586.300966
991.582262	2583.077148
991.878217	2585.544793
992.174136	2590.212902
992.470019	2590.964034
992.765865	2595.821185
993.061676	2599.188676
993.357450	2609.366766
993.653188	2615.131325
993.948890	2632.563635
994.244556	2653.257572
994.540186	2675.725994
994.835780	2708.105326
995.131337	2743.995820
995.426859	2782.532921
995.722345	2831.187617
996.017795	2880.149824
996.313208	2918.449990
996.608586	2946.524176
996.903928	2959.542956
997.199234	2958.360805
997.494504	2954.900053
997.789738	2939.708536
998.084936	2914.517890
998.380099	2885.690052
998.675225	2856.544621
998.970316	2825.115547
999.265371	2789.101544
999.560390	2754.589805
999.855373	2725.865311
1000.150320	2699.142154
1000.445232	2672.111487
1000.740108	2651.195740
1001.034948	2635.706795
1001.329752	2617.392283
1001.624521	2603.566918
1001.919254	2595.090218
1002.213951	2589.265165
1002.508613	2575.638926
1002.803239	2570.139027
1003.097829	2566.920250
1003.392384	2562.257183
1003.686903	2556.873231
1003.981386	2551.285112
1004.275834	2548.583053
1004.570246	2546.160779
1004.864623	2545.681869
1005.158964	2543.312527
1005.453270	2541.923689
1005.747540	2540.963349
1006.041775	2537.321116
1006.335974	2535.534027
1006.630138	2535.740714
1006.924266	2534.182997
1007.218359	2534.873635
1007.512416	2530.712163
1007.806438	2527.228726
1008.100425	2532.579910
1008.394376	2529.202337
1008.688292	2530.601258
1008.982172	2530.628984
1009.276017	2530.213089
1009.569827	2528.685619
1009.863602	2527.274096
1010.157341	2528.176462
1010.451045	2526.482635
1010.744714	2524.894671
1011.038347	2525.360978
1011.331945	2525.721421
1011.625508	2520.100534
1011.919036	2524.042716
1012.212528	2521.640607
1012.505986	2519.142715
1012.799408	2520.987777
1013.092795	2520.360153
1013.386147	2520.176151
1013.679464	2518.378980
1013.972745	2520.518950
1014.265992	2519.969464
1014.559204	2522.094310
1014.852380	2519.878723
1015.145521	2521.433919
1015.438628	2518.338651
1015.731699	2520.085411
1016.024736	2519.402334
1016.317737	2521.960720
1016.610703	2521.040709
1016.903635	2521.479290
1017.196531	2523.667150
1017.489393	2525.963396
1017.782219	2527.327028
1018.075011	2528.733510
1018.367768	2529.829961
1018.660490	2530.923891
1018.953177	2530.923891
1019.245829	2530.923891
