Dividing Wavelength (nm)	Counts (n)	Blue Motor Position (mm): 44.700000	Red Motor Position (mm): 0.000000	
326.493990	2131.755248
326.888308	2131.755248
327.282561	2131.755248
327.676750	2098.723087
328.070874	2096.608323
328.464933	2095.736203
328.858929	2106.998141
329.252859	2114.300252
329.646726	2126.416666
330.040528	2136.743469
330.434265	2155.040337
330.827938	2176.220745
331.221547	2192.513754
331.615091	2209.446990
332.008571	2228.452140
332.401986	2250.781931
332.795338	2271.052411
333.188625	2288.998918
333.581847	2306.509366
333.975006	2323.747592
334.368100	2341.956239
334.761129	2360.328725
335.154095	2378.673483
335.546996	2400.655435
335.939833	2425.180648
336.332606	2439.305961
336.725315	2451.823146
337.117960	2462.018880
337.510540	2471.997844
337.903056	2482.337251
338.295508	2488.691625
338.687896	2497.168325
339.080220	2505.576970
339.472480	2513.325223
339.864676	2518.046264
340.256807	2521.612880
340.648875	2524.090607
341.040879	2528.917512
341.432818	2527.873993
341.824694	2529.346010
342.216506	2529.824920
342.608253	2531.904396
342.999937	2529.227543
343.391557	2532.126207
343.783113	2531.690147
344.174605	2527.800897
344.566033	2527.047244
344.957397	2525.751667
345.348697	2524.216636
345.739934	2522.943745
346.131106	2521.176820
346.522215	2519.130112
346.913260	2516.226407
347.304241	2511.931344
347.695159	2513.453773
348.086012	2508.858761
348.476802	2508.601662
348.867528	2505.156033
349.258191	2506.514624
349.648789	2506.610406
350.039324	2503.255518
350.429796	2503.913389
350.820203	2500.669407
351.210548	2498.877276
351.600828	2497.289313
351.991045	2498.549601
352.381198	2496.129848
352.771288	2499.162102
353.161314	2498.867194
353.551276	2497.493480
353.941175	2497.175887
354.331010	2496.359220
354.720782	2495.358551
355.110490	2496.722183
355.500135	2496.825527
355.889717	2498.612616
356.279235	2499.661176
356.668689	2497.440548
357.058080	2498.146309
357.447408	2494.065495
357.836672	2496.404590
358.225873	2497.851402
358.615010	2499.232678
359.004084	2501.576814
359.393095	2501.372648
359.782043	2501.382730
360.170927	2504.092350
360.559748	2502.587566
360.948505	2504.057062
361.337199	2506.338184
361.725830	2506.693585
362.114398	2506.444048
362.502903	2508.473113
362.891344	2505.839110
363.279722	2505.461023
363.668037	2507.112001
364.056289	2508.536127
364.444478	2509.161230
364.832603	2508.105108
365.220665	2511.286077
365.608665	2509.851868
365.996601	2511.457476
366.384474	2511.001251
366.772284	2514.046108
367.160031	2511.709533
367.547715	2512.995028
367.935336	2514.656088
368.322893	2515.331603
368.710388	2516.634741
369.097820	2517.446367
369.485189	2516.274298
369.872495	2515.901253
370.259738	2512.528721
370.646918	2517.292611
371.034035	2520.226563
371.421090	2519.863600
371.808081	2521.489372
372.195010	2519.387211
372.581875	2517.597601
372.968678	2517.889988
373.355418	2520.707993
373.742096	2520.216481
374.128710	2522.512726
374.515262	2520.813857
374.901751	2523.089938
375.288177	2527.931967
375.674540	2530.573531
376.060841	2532.819365
376.447079	2536.360776
376.833254	2541.263298
377.219367	2546.553989
377.605417	2552.636141
377.991404	2559.237532
378.377329	2564.835733
378.763191	2575.795202
379.148991	2593.935794
379.534727	2603.307299
379.920402	2619.141563
380.306013	2635.084212
380.691563	2652.340082
381.077049	2669.908503
381.462474	2685.896522
381.847835	2710.875440
382.233134	2726.853377
382.618371	2740.956005
383.003545	2781.118877
383.388657	2800.325673
383.773706	2828.914057
384.158693	2847.682273
384.543618	2880.031357
384.928480	2913.741553
385.313280	2955.792338
385.698017	2974.222796
386.082692	3017.727954
386.467305	3044.521686
386.851856	3080.197932
387.236344	3117.595732
387.620770	3156.276505
388.005133	3194.949717
388.389435	3232.551684
388.773674	3266.221550
389.157851	3313.779796
389.541965	3345.513859
389.926018	3337.952128
390.310008	3414.184457
390.693936	3445.668983
391.077802	3500.441120
391.461606	3510.493180
391.845348	3576.892738
392.229027	3594.236828
392.612645	3621.146507
392.996200	3707.027604
393.379694	3756.803957
393.763125	3829.666274
394.146494	3815.873677
394.529801	3886.631313
394.913047	3945.186835
395.296230	3923.877878
395.679351	3985.826097
396.062410	4019.057383
396.445408	4011.472967
396.828343	4050.957805
397.211217	4085.958536
397.594028	4012.234182
397.976778	4084.262188
398.359466	4115.482053
398.742092	4150.487826
399.124656	4079.909151
399.507158	4162.140453
399.889598	4189.292108
400.271977	4253.032457
400.654294	4227.420875
401.036549	4235.673243
401.418742	4205.887586
401.800874	4309.163184
402.182944	4333.650589
402.564952	4398.172317
402.946898	4383.563053
403.328783	4380.281262
403.710606	4297.354281
404.092367	4492.978777
404.474067	4455.737253
404.855705	4461.995845
405.237282	4390.678642
405.618797	4499.935569
406.000250	4533.857493
406.381642	4617.759937
406.762972	4579.336263
407.144240	4590.046194
407.525447	4591.162810
407.906593	4655.195546
408.287677	4690.508829
408.668700	4620.202377
409.049661	4675.420655
409.430560	4713.551943
409.811399	4640.760202
410.192176	4802.661899
410.572891	4739.261827
410.953545	4841.020038
411.334138	4724.536617
411.714669	4791.510867
412.095139	4685.278632
412.475547	4823.731401
412.855894	4810.631963
413.236180	4817.233354
413.616405	4772.591416
413.996568	4859.044684
414.376670	4800.695849
414.756711	4756.568109
415.136691	4789.421308
415.516609	4866.538359
415.896466	4902.093617
416.276262	4940.406387
416.655997	4918.590793
417.035670	5102.497127
417.415283	5189.262946
417.794834	5134.354698
418.174324	5089.901804
418.553753	4997.116847
418.933121	5177.078477
419.312428	5250.265949
419.691674	5187.990055
420.070859	5313.035876
420.449983	5225.060180
420.829045	5346.410835
421.208047	5248.894755
421.586988	5321.101722
421.965867	5330.725285
422.344686	5464.951047
422.723444	5317.335980
423.102141	5137.870903
423.480777	5433.884937
423.859352	5199.672929
424.237866	5464.275532
424.616319	5455.776147
424.994712	5562.230193
425.373044	5438.227891
425.751314	5583.813893
426.129524	5385.487339
426.507673	5581.986475
426.885762	5660.764586
427.263789	5594.183547
427.641756	5478.786494
428.019662	5598.599597
428.397508	5604.848107
428.775292	5552.160488
429.153016	5653.197814
429.530679	5577.388942
429.908282	5663.436397
430.285824	5529.392117
430.663305	5812.135313
431.040726	5543.706473
431.418086	5543.519950
431.795385	5646.291433
432.172624	5659.257281
432.549802	5655.110932
432.926920	5667.086193
433.303977	5674.143808
433.680974	5720.746755
434.057910	5733.009362
434.434786	5736.792748
434.811601	5711.793666
435.188355	5937.453356
435.565050	5816.490869
435.941683	5793.856089
436.318257	6010.650910
436.694770	5993.228682
437.071222	6030.939033
437.447614	5964.252130
437.823946	5876.246187
438.200218	6028.380648
438.576429	5895.170678
438.952580	5992.827910
439.328670	6038.336927
439.704700	5947.752433
440.080670	5928.427170
440.456580	6201.866916
440.832429	6084.899544
441.208218	5933.160813
441.583947	6085.731335
441.959616	6086.542960
442.335224	6020.292117
442.710773	6152.871942
443.086261	6183.554925
443.461689	5977.734696
443.837057	6122.100739
444.212365	6276.919615
444.587612	6171.793913
444.962800	6328.084806
445.337927	6303.728471
445.712995	5911.730868
446.088002	6497.797771
446.462949	6323.373847
446.837837	6258.665597
447.212664	6428.832265
447.587431	6570.201343
447.962139	7112.904239
448.336786	8040.398409
448.711374	7773.645753
449.085901	6852.190886
449.460369	6770.289780
449.834776	6707.419030
450.209124	7097.349759
450.583412	7250.903305
450.957640	7388.514203
451.331808	7160.535582
451.705917	6717.498817
452.079965	6637.717516
452.453954	6845.405493
452.827883	6723.412090
453.201752	6814.956924
453.575562	6621.958869
453.949311	6824.209962
454.323001	6710.695780
454.696632	6784.223529
455.070202	6920.674961
455.443713	7081.865855
455.817164	7175.444794
456.190556	7260.587362
456.563888	7329.525141
456.937160	7373.080710
457.310373	7037.218876
457.683526	7058.295940
458.056619	6953.513037
458.429653	6940.123733
458.802628	6872.025306
459.175542	6986.025959
459.548398	7336.703744
459.921194	7498.328177
460.293930	7505.831935
460.666607	8030.318622
461.039224	8338.754058
461.411782	8466.091084
461.784280	8478.331006
462.156719	8371.909727
462.529099	8247.584791
462.901419	7836.972728
463.273680	7732.472129
463.645882	7746.211794
464.018024	7611.287832
464.390106	7782.873586
464.762130	8166.747369
465.134094	8636.507290
465.505999	9656.557044
465.877845	10879.616585
466.249631	11528.622293
466.621358	11152.002730
466.993026	10515.478919
467.364634	10260.202450
467.736184	9896.357171
468.107674	9559.545080
468.479105	9594.528167
468.850477	9357.301549
469.221790	9129.176735
469.593043	8805.479205
469.964238	8666.182042
470.335373	8680.030092
470.706449	8739.069565
471.077467	8718.824291
471.448425	10030.567810
471.819324	11106.660072
472.190164	11122.738832
472.560945	9876.023677
472.931667	9090.937062
473.302330	8946.334085
473.672934	8598.713759
474.043479	8952.184344
474.413965	8896.991271
474.784393	8779.802088
475.154761	8937.945605
475.525070	9023.463738
475.895321	8851.449487
476.265513	9021.659005
476.635645	9198.976551
477.005719	9196.481180
477.375734	9307.850350
477.745691	9547.751300
478.115588	9679.481691
478.485427	9921.963712
478.855207	10463.345826
479.224928	11280.955445
479.594591	11904.697411
479.964194	11710.925539
480.333739	11649.874645
480.703226	11573.145763
481.072653	11662.570791
481.442022	11897.912017
481.811333	12087.071233
482.180584	11889.924309
482.549777	11593.877508
482.918912	11430.801223
483.287988	11442.847060
483.657005	11456.284255
484.025964	11144.788839
484.394864	11268.501275
484.763706	11236.731923
485.132489	11007.203147
485.501213	10966.309307
485.869879	11038.112982
486.238487	10881.096163
486.607036	10993.324851
486.975527	10773.666654
487.343959	10959.745725
487.712333	11009.595175
488.080648	10944.773498
488.448905	10985.125414
488.817104	10918.307440
489.185244	11187.883142
489.553326	11345.346103
489.921350	11886.425748
490.289315	12941.526646
490.657222	13284.778811
491.025070	13195.953680
491.392861	13068.049525
491.760593	12685.665403
492.128267	12336.593225
492.495883	12011.413596
492.863440	11675.584530
493.230939	11335.389824
493.598380	11273.028231
493.965763	11140.755916
494.333088	11034.206088
494.700354	10963.511467
495.067563	11025.888184
495.434713	10848.903355
495.801805	10975.874897
496.168839	10903.940152
496.535815	10834.727630
496.902733	10832.403658
497.269593	10769.638772
497.636395	10872.453105
498.003139	10858.534479
498.369825	10728.818029
498.736453	10882.565660
499.103023	10807.318877
499.469535	10841.939001
499.835989	10832.081024
500.202385	10789.974787
500.568723	10646.105297
500.935003	10862.854748
501.301226	10675.016315
501.667390	10930.570047
502.033497	11027.652588
502.399546	10887.016998
502.765537	10787.958325
503.131470	10863.454645
503.497345	11039.733713
503.863163	10649.132510
504.228923	10964.169337
504.594625	11025.230313
504.960269	10765.348750
505.325856	10999.545635
505.691385	10787.774323
506.056856	10938.338465
506.422270	10964.960799
506.787625	10855.010713
507.152924	10971.962961
507.518164	10958.845879
507.883347	10874.527540
508.248472	10791.076279
508.613540	11032.514781
508.978550	10915.028170
509.343503	10886.543130
509.708398	11011.606595
510.073236	11111.981009
510.438016	11121.067689
510.802738	11069.055584
511.167403	11124.296548
511.532010	11025.386589
511.896561	11254.020560
512.261053	11328.559061
512.625488	11198.514936
512.989866	11178.851915
513.354186	11168.678867
513.718449	11062.900336
514.082655	11260.024574
514.446803	11153.333594
514.810894	11274.633838
515.174927	11142.663992
515.538904	11162.727785
515.902822	11319.933647
516.266684	11201.635410
516.630488	11152.406022
516.994235	11204.962572
517.357925	11260.760583
517.721558	11353.250632
518.085133	11363.653053
518.448651	11381.266845
518.812112	11260.662280
519.175516	11280.474015
519.538863	11391.964173
519.902152	11316.114973
520.265385	11473.514919
520.628560	11383.520241
520.991678	11352.804490
521.354739	11426.869123
521.717743	11358.916889
522.080690	11336.032572
522.443580	11474.744961
522.806413	11431.789289
523.169189	11458.131838
523.531908	11521.519307
523.894569	11340.478869
524.257174	11342.661689
524.619722	11464.418157
524.982213	11411.586865
525.344647	11462.068979
525.707025	11408.478993
526.069345	11510.396001
526.431608	11422.248905
526.793815	11527.856037
527.155964	11320.173102
527.518057	11366.118178
527.880093	11318.887607
528.242072	11389.307485
528.603995	11292.688731
528.965860	11215.448172
529.327669	11268.783579
529.689421	11213.973634
530.051117	11190.933040
530.412755	11291.272167
530.774337	11179.829899
531.135862	11168.885554
531.497331	11187.739469
531.858743	11036.855214
532.220098	11206.316121
532.581396	11070.550287
532.942638	11067.593650
533.303824	11023.518842
533.664953	11039.973168
534.026025	10949.363469
534.387040	11049.180835
534.747999	11053.367514
535.108902	11113.082502
535.469748	10865.211488
535.830537	10973.722324
536.191270	10955.465785
536.551947	10972.993877
536.912567	10974.803652
537.273131	10904.126675
537.633638	10880.224044
537.994089	10863.202588
538.354483	10818.190125
538.714821	10956.358070
539.075103	10970.314504
539.435328	10932.455439
539.795497	10761.686352
540.155609	10925.566702
540.515665	10999.391879
540.875665	10740.705070
541.235609	10807.654113
541.595496	10805.786366
541.955328	10963.440891
542.315102	10841.714669
542.674821	10794.184150
543.034483	10799.318566
543.394090	10801.869389
543.753640	10726.420960
544.113134	10947.778026
544.472571	10805.004987
544.831953	10948.209044
545.191278	10751.994734
545.550548	10780.081523
545.909761	10916.815259
546.268918	10890.949098
546.628019	10974.150822
546.987064	10838.256438
547.346053	10755.294169
547.704986	10852.134734
548.063863	10854.050373
548.422684	10838.208547
548.781449	10755.609241
549.140158	10861.836435
549.498811	10735.616025
549.857408	10598.685684
550.215949	10821.988634
550.574434	10672.538587
550.932864	10766.702300
551.291237	10826.659263
551.649555	10778.748137
552.007817	10791.585436
552.366022	10749.267470
552.724173	10752.314847
553.082267	10736.946890
553.440305	10872.306912
553.798288	10667.532722
554.156215	10815.059568
554.514086	10797.355036
554.871902	10649.712243
555.229661	10680.574187
555.587365	10662.005097
555.945014	10554.885618
556.302606	10687.904024
556.660143	10573.162322
557.017625	10729.412885
557.375050	10628.955292
557.732421	10758.142421
558.089735	10675.119658
558.446994	10675.603609
558.804197	10711.816738
559.161345	10708.920595
559.518437	10559.868799
559.875474	10650.420525
560.232455	10673.085553
560.589381	10628.730961
560.946251	10625.292894
561.303065	10731.255427
561.659825	10669.975161
562.016528	10596.873389
562.373177	10476.122631
562.729770	10594.549417
563.086307	10511.014977
563.442789	10602.630387
563.799216	10475.863011
564.155587	10528.711948
564.511904	10478.701181
564.868164	10471.638524
565.224370	10488.027316
565.580520	10410.633001
565.936615	10416.979814
566.292654	10294.431884
566.648638	10422.799826
567.004567	10374.588751
567.360441	10366.043995
567.716260	10270.060426
568.072023	10362.840342
568.427732	10315.360235
568.783385	10224.198529
569.138982	10295.321648
569.494525	10315.277056
569.850013	10193.003869
570.205445	10269.868862
570.560823	10156.392489
570.916145	10083.323485
571.271412	10154.194546
571.626625	10093.279764
571.981782	10069.304036
572.336884	10046.901148
572.691931	10053.734432
573.046923	9998.768211
573.401860	9955.515111
573.756743	9888.089679
574.111570	9935.216905
574.466342	9918.795347
574.821059	9951.681314
575.175722	9838.530095
575.530330	9842.431948
575.884882	9839.477832
576.239380	9763.439588
576.593823	9746.241692
576.948211	9762.786759
577.302544	9643.074478
577.656823	9660.317745
578.011047	9654.661570
578.365216	9637.433427
578.719330	9557.367301
579.073389	9568.876255
579.427394	9512.478347
579.781344	9493.843722
580.135239	9440.651987
580.489080	9449.085837
580.842866	9350.120425
581.196597	9357.067135
581.550273	9397.867714
581.903895	9369.254125
582.257463	9429.982385
582.610975	9314.391247
582.964434	9335.075102
583.317837	9257.101055
583.671186	9238.789063
584.024481	9233.687416
584.377721	9157.800406
584.730906	9131.223443
585.084037	9162.536570
585.437113	9092.600643
585.790135	9120.347154
586.143103	9016.189353
586.496016	8986.890167
586.848874	9045.947285
587.201679	9038.289772
587.554428	8922.000435
587.907124	8968.794946
588.259765	8938.278321
588.612352	8939.911655
588.964884	8815.634609
589.317362	8837.863577
589.669786	8827.113317
590.022155	8884.448880
590.374470	8895.857011
590.726731	8831.864604
591.078937	8687.632152
591.431090	8797.080643
591.783188	8671.621447
592.135232	8664.851177
592.487222	8660.896392
592.839157	8721.276812
593.191038	8648.883323
593.542866	8592.613963
593.894639	8495.591916
594.246358	8552.415803
594.598022	8562.452740
594.949633	8457.195968
595.301190	8434.233512
595.652692	8461.039848
596.004141	8574.584277
596.355535	8353.086059
596.706876	8337.922268
597.058162	8265.138089
597.409395	8342.063576
597.760573	8405.314933
598.111698	8313.850758
598.462768	8294.419631
598.813785	8268.727390
599.164748	8230.908654
599.515657	8225.605360
599.866511	8133.306875
600.217312	8256.797500
600.568060	8122.680122
600.918753	8224.120741
601.269392	8195.968417
601.619978	8103.894263
601.970510	8165.918099
602.320988	8165.938263
602.671412	8225.602840
603.021783	8155.399731
603.372100	8131.381154
603.722363	8132.283520
604.072572	8108.222093
604.422728	8118.664843
604.772830	8047.188843
605.122878	8051.108341
605.472872	8050.841159
605.822813	8083.162517
606.172701	8015.187599
606.522534	8092.476049
606.872314	8101.804704
607.222041	8070.783964
607.571714	8124.394115
607.921333	8077.145900
608.270899	8089.826923
608.620411	8179.375459
608.969870	8081.309893
609.319276	8073.269253
609.668627	8097.376051
610.017926	8130.231771
610.367171	8173.701640
610.716362	8147.711972
611.065500	8142.602762
611.414585	8165.729056
611.763616	8153.564751
612.112594	8141.889439
612.461518	8153.063157
612.810389	8208.967032
613.159207	8154.832602
613.507971	8101.184642
613.856682	8218.383908
614.205340	8176.076024
614.553945	8261.659693
614.902496	8152.526274
615.250994	8215.893577
615.599439	8193.137809
615.947830	8204.067031
616.296169	8180.887805
616.644454	8192.752161
616.992686	8185.515584
617.340864	8245.452383
617.688990	8149.526787
618.037063	8239.486178
618.385082	8187.700925
618.733048	8272.115046
619.080961	8211.396868
619.428821	8234.084581
619.776628	8235.382678
620.124382	8188.414248
620.472083	8172.073348
620.819731	8193.939352
621.167326	8085.491530
621.514868	8099.964683
621.862357	7985.036458
622.209793	8001.384920
622.557176	7931.287675
622.904506	7907.470744
623.251783	7841.875250
623.599007	7797.455123
623.946179	7795.978065
624.293297	7756.619256
624.640363	7674.208994
624.987376	7661.321284
625.334336	7603.126204
625.681243	7552.152577
626.028097	7545.084879
626.374899	7518.540684
626.721647	7510.618510
627.068343	7444.710465
627.414987	7417.722648
627.761577	7366.592745
628.108115	7405.132366
628.454600	7296.334184
628.801032	7352.525405
629.147412	7305.564537
629.493739	7299.986500
629.840014	7237.871923
630.186236	7293.380068
630.532405	7176.478231
630.878521	7225.947073
631.224585	7183.946700
631.570597	7112.248889
631.916556	7141.293497
632.262462	7141.495143
632.608316	7096.485201
632.954117	7070.964360
633.299866	7062.686785
633.645562	7057.658234
633.991206	6978.615463
634.336797	6919.492810
634.682336	6877.444546
635.027823	6846.622932
635.373257	6834.564492
635.718639	6762.218893
636.063968	6779.109279
636.409245	6675.740419
636.754470	6668.685324
637.099642	6629.961701
637.444762	6573.168062
637.789829	6585.571821
638.134845	6522.265011
638.479808	6510.375449
638.824719	6520.853488
639.169577	6442.297187
639.514383	6462.691175
639.859137	6389.914558
640.203839	6401.952833
640.548489	6383.729062
640.893086	6362.163006
641.237632	6336.432957
641.582125	6354.878538
641.926566	6320.074412
642.270955	6338.542679
642.615292	6331.452297
642.959576	6351.032138
643.303809	6337.189130
643.647990	6346.568196
643.992118	6336.248954
644.336195	6279.351972
644.680219	6303.035312
645.024192	6293.396626
645.368112	6393.282048
645.711981	6412.990439
646.055797	6488.539692
646.399562	6447.333300
646.743274	6574.839204
647.086935	6625.961545
647.430544	6617.603312
647.774101	6648.727396
648.117606	6648.775287
648.461059	6640.696838
648.804460	6599.561023
649.147810	6508.648854
649.491108	6480.181458
649.834354	6459.485001
650.177548	6375.688422
650.520690	6288.839423
650.863781	6266.393686
651.206820	6284.461181
651.549807	6205.229366
651.892742	6146.245345
652.235626	6155.715153
652.578458	6138.711341
652.921238	6048.729265
653.263967	6089.418939
653.606644	6027.984917
653.949269	6031.160844
654.291843	5968.718592
654.634365	6022.051479
654.976836	5973.202698
655.319255	5973.495085
655.661622	5953.937929
656.003938	5950.487259
656.346203	5908.307925
656.688416	5940.669612
657.030577	5889.333022
657.372687	5865.294280
657.714746	5849.265931
658.056753	5893.073558
658.398708	5833.068704
658.740612	5826.578218
659.082465	5874.358274
659.424266	5865.969794
659.766016	5860.411922
660.107715	5837.666236
660.449362	5855.849678
660.790958	5851.025294
661.132503	5833.827398
661.473996	5867.842583
661.815438	5857.422518
662.156829	5858.849165
662.498168	5851.665520
662.839456	5825.000337
663.180693	5859.628023
663.521879	5863.411409
663.863013	5848.076219
664.204097	5866.264702
664.545129	5906.271299
664.886110	5902.981946
665.227040	5938.723727
665.567918	5899.642182
665.908746	5933.788437
666.249522	5936.974446
666.590248	5919.980717
666.930922	5947.883503
667.271545	5960.420853
667.612118	5969.131967
667.952639	5934.499240
668.293109	5961.542510
668.633528	5920.842754
668.973896	5922.191263
669.314213	5909.921094
669.654480	5894.684207
669.994695	5889.756479
670.334859	5875.996649
670.674973	5869.191092
671.015035	5873.090424
671.355047	5874.398604
671.695008	5859.809504
672.034918	5832.468807
672.374777	5840.557338
672.714585	5824.042518
673.054342	5828.839176
673.394049	5827.825904
673.733705	5855.582497
674.073310	5843.652606
674.412864	5801.354805
674.752368	5795.154186
675.091820	5797.992355
675.431223	5730.864351
675.770574	5735.323251
676.109875	5687.092012
676.449125	5693.612744
676.788324	5656.582949
677.127473	5599.451552
677.466571	5594.990131
677.805619	5580.922791
678.144616	5570.767387
678.483562	5547.517585
678.822458	5516.731259
679.161303	5511.049878
679.500098	5501.204505
679.838842	5486.771682
680.177535	5487.351414
680.516179	5505.091235
680.854771	5513.174725
681.193314	5594.095326
681.531805	5704.431061
681.870247	5855.733732
682.208638	5959.470595
682.546978	5968.285053
682.885268	5945.718328
683.223508	5860.394278
683.561697	5807.817564
683.899836	5775.844046
684.237925	5732.873251
684.575963	5699.412592
684.913951	5656.509852
685.251889	5719.373041
685.589776	5685.221744
685.927614	5655.574718
686.265401	5730.801336
686.603137	5716.134099
686.940824	5792.109329
687.278460	5815.747299
687.616046	5821.186704
687.953582	5887.961828
688.291068	5870.421133
688.628504	5934.927738
688.965889	5899.453138
689.303224	5840.154046
689.640510	5790.932219
689.977745	5716.219799
690.314930	5621.158761
690.652065	5568.864351
690.989150	5468.691583
691.326185	5392.918000
691.663170	5340.053940
692.000105	5259.627372
692.336990	5190.351835
692.673825	5165.902239
693.010610	5093.077731
693.347345	5021.576525
693.684030	5009.218137
694.020665	4969.508968
694.357251	4878.122931
694.693786	4893.435436
695.030272	4852.362635
695.366707	4819.509435
695.703093	4789.002892
696.039429	4806.989729
696.375716	4793.882729
696.711952	4766.410962
697.048139	4754.539044
697.384276	4735.687649
697.720363	4743.758537
698.056400	4757.432667
698.392388	4706.474163
698.728326	4686.813663
699.064214	4664.642668
699.400053	4659.369621
699.735842	4623.698417
700.071581	4595.843521
700.407270	4571.953493
700.742910	4555.552099
701.078501	4497.611597
701.414042	4495.247296
701.749533	4469.933142
702.084974	4402.321187
702.420366	4460.135660
702.755709	4401.985950
703.091002	4348.640460
703.426246	4397.355650
703.761440	4355.120863
704.096584	4310.037824
704.431679	4332.833922
704.766725	4318.539730
705.101721	4305.969613
705.436668	4336.476156
705.771565	4285.873053
706.106413	4308.280982
706.441212	4344.610058
706.775961	4355.435935
707.110661	4331.374508
707.445311	4360.777038
707.779913	4386.471799
708.114465	4399.183068
708.448967	4422.856327
708.783421	4479.418073
709.117825	4520.009444
709.452180	4526.767111
709.786485	4574.988268
710.120742	4659.939272
710.454949	4644.916633
710.789107	4708.349472
711.123216	4783.351759
711.457275	4773.708032
711.791286	4851.727449
712.125247	4866.984501
712.459159	4767.998925
712.793023	4840.276468
713.126837	4801.008400
713.460602	4797.522442
713.794318	4716.047314
714.127985	4725.053335
714.461602	4638.804234
714.795171	4608.940439
715.128691	4538.623904
715.462162	4485.492663
715.795584	4438.239408
716.128957	4421.608641
716.462281	4365.861042
716.795556	4343.027135
717.128782	4302.216474
717.461960	4233.089652
717.795088	4245.095160
718.128167	4202.560424
718.461198	4144.050272
718.794180	4136.186072
719.127113	4117.536324
719.459997	4099.849435
719.792833	4055.545255
720.125619	4046.687947
720.458357	4007.719828
720.791046	4015.493287
721.123686	3989.498578
721.456278	3945.751445
721.788821	3962.808189
722.121315	3933.735854
722.453761	3910.375147
722.786158	3920.732198
723.118506	3946.651291
723.450805	3896.675812
723.783056	3920.444852
724.115259	3936.299281
724.447412	3938.328346
724.779518	3935.585958
725.111574	3939.472687
725.443582	3966.604177
725.775542	3956.501705
726.107453	4005.882328
726.439315	4004.995085
726.771129	4022.200543
727.102895	4056.346798
727.434612	4100.207357
727.766281	4116.240747
728.097901	4114.675469
728.429473	4122.587560
728.760996	4128.994866
729.092471	4121.324751
729.423897	4107.186835
729.755276	4113.291672
730.086606	4113.785705
730.417887	4148.476405
730.749120	4212.249522
731.080305	4278.901138
731.411442	4305.621774
731.742530	4275.878966
732.073570	4279.871560
732.404562	4337.537319
732.735506	4325.919980
733.066401	4289.099392
733.397249	4227.141091
733.728048	4147.107732
734.058798	4062.481882
734.389501	3991.870441
734.720156	3932.790638
735.050762	3885.986045
735.381320	3882.079151
735.711831	3831.133250
736.042293	3799.991522
736.372707	3822.172599
736.703073	3794.657982
737.033391	3782.211373
737.363661	3804.102583
737.693883	3826.515553
738.024056	3838.581555
738.354182	3831.551666
738.684260	3896.290164
739.014290	3915.025612
739.344272	3909.356834
739.674207	3952.778813
740.004093	3959.833908
740.333931	3952.791416
740.663722	3954.971715
740.993464	3950.553144
741.323159	3930.504475
741.652806	3895.959968
741.982405	3869.718242
742.311956	3838.389991
742.641460	3829.073939
742.970915	3805.236843
743.300323	3768.320473
743.629683	3729.674988
743.958996	3719.098647
744.288260	3694.384390
744.617477	3660.596057
744.946647	3648.658604
745.275768	3623.178092
745.604842	3621.695993
745.933869	3574.011719
746.262847	3564.670461
746.591778	3601.798559
746.920662	3573.293354
747.249498	3540.919064
747.578286	3587.098554
747.907027	3605.498766
748.235720	3602.882407
748.564365	3630.432313
748.892963	3629.489617
749.221514	3609.163685
749.550017	3588.033688
749.878473	3590.929831
750.206881	3553.645457
750.535242	3554.086558
750.863555	3555.190571
751.191821	3550.484654
751.520039	3530.110831
751.848210	3507.942357
752.176334	3542.186915
752.504411	3547.389385
752.832440	3508.297758
753.160421	3490.068946
753.488356	3501.081346
753.816243	3511.214065
754.144082	3468.094556
754.471875	3452.981177
754.799620	3473.314671
755.127318	3466.899803
755.454969	3465.332004
755.782572	3468.923826
756.110129	3447.493881
756.437638	3440.179167
756.765100	3449.452369
757.092515	3461.034420
757.419882	3468.097077
757.747203	3441.192438
758.074477	3442.046914
758.401703	3457.293884
758.728882	3479.863130
759.056014	3487.124912
759.383099	3491.800582
759.710138	3485.698265
760.037129	3502.828106
760.364073	3535.988816
760.690970	3522.370139
761.017820	3499.047241
761.344623	3513.648943
761.671379	3558.139646
761.998088	3611.376751
762.324751	3737.960124
762.651366	3985.526148
762.977935	4460.947285
763.304456	4904.218464
763.630931	4997.197505
763.957359	4635.313235
764.283740	4294.705155
764.610074	4102.611988
764.936362	3909.008995
765.262602	3747.203080
765.588796	3637.424393
765.914943	3544.480640
766.241044	3458.095427
766.567097	3428.851694
766.893104	3381.795043
767.219064	3350.335723
767.544978	3327.693380
767.870845	3267.834719
768.196665	3248.635485
768.522438	3258.644696
768.848165	3250.921648
769.173846	3218.910321
769.499479	3202.892055
769.825066	3183.677697
770.150607	3164.927125
770.476101	3181.177285
770.801548	3177.255267
771.126949	3133.427476
771.452303	3115.123046
771.777611	3125.255765
772.102872	3124.497072
772.428087	3100.891869
772.753256	3092.354675
773.078378	3086.459045
773.403453	3047.788354
773.728482	3036.695295
774.053465	3058.888975
774.378401	3044.987993
774.703291	3014.128570
775.028135	3014.544465
775.352932	3011.539937
775.677683	3000.479646
776.002388	2996.214830
776.327046	2998.062413
776.651658	2987.607059
776.976224	2974.915955
777.300743	2974.389154
777.625216	2966.046044
777.949643	2960.725107
778.274024	2964.110241
778.598359	2953.985084
778.922647	2957.977678
779.246889	2954.012810
779.571086	2943.459155
779.895236	2933.596137
780.219339	2944.217848
780.543397	2959.348872
780.867409	2963.210395
781.191374	2955.421813
781.515294	2950.413426
781.839167	2952.646658
782.162995	2943.507046
782.486776	2951.736729
782.810511	2948.109619
783.134201	2939.184256
783.457844	2943.859926
783.781441	2934.322063
784.104993	2913.660894
784.428498	2914.774989
784.751958	2927.816454
785.075372	2924.534663
785.398739	2906.633526
785.722061	2921.401586
786.045337	2937.480346
786.368568	2919.856472
786.691752	2912.440935
787.014891	2959.578244
787.337983	2988.456494
787.661030	3014.191584
787.984031	3084.104826
788.306987	3129.369347
788.629897	3126.445477
788.952760	3108.806480
789.275579	3094.429109
789.598351	3033.436189
789.921078	2987.685197
790.243759	2977.570122
790.566395	2960.722586
790.888984	2938.876746
791.211529	2920.713468
791.534027	2911.364649
791.856480	2902.663617
792.178888	2885.506050
792.501249	2880.147303
792.823566	2877.583877
793.145836	2872.126828
793.468062	2869.777650
793.790241	2867.042824
794.112375	2874.523896
794.434464	2886.463869
794.756507	2889.372615
795.078505	2895.084242
795.400457	2907.528331
795.722364	2946.803960
796.044226	2968.992599
796.366042	2973.786736
796.687812	2962.555045
797.009538	2983.795947
797.331218	2971.140130
797.652852	2956.041875
797.974442	2935.892383
798.295986	2930.042124
798.617484	2929.016249
798.938938	2914.626275
799.260346	2896.561300
799.581709	2890.786659
799.903026	2884.825494
800.224299	2879.683517
800.545526	2869.792773
800.866708	2852.446163
801.187845	2844.115656
801.508936	2843.840913
801.829983	2853.285515
802.150984	2840.601972
802.471940	2824.808037
802.792851	2827.137050
803.113717	2827.270641
803.434538	2832.344562
803.755314	2824.666885
804.076045	2821.183447
804.396731	2818.801502
804.717372	2820.132367
805.037967	2814.151038
805.358518	2823.260403
805.679024	2831.842967
805.999485	2828.104952
806.319901	2834.562670
806.640272	2823.003304
806.960598	2831.679130
807.280879	2837.514265
807.601115	2847.745287
807.921306	2831.157370
808.241453	2831.795076
808.561554	2837.478977
808.881611	2836.790860
809.201623	2832.210972
809.521590	2829.471104
809.841513	2825.702842
810.161390	2832.314315
810.481223	2823.459528
810.801011	2814.209011
811.120755	2812.215235
811.440453	2815.461738
811.760107	2811.050728
812.079716	2809.757672
812.399281	2802.626960
812.718801	2796.625467
813.038276	2789.920732
813.357707	2797.341310
813.677093	2804.789615
813.996434	2797.820220
814.315731	2794.177986
814.634983	2787.516102
814.954191	2792.136319
815.273354	2804.078812
815.592473	2809.190542
815.911547	2818.536842
816.230577	2821.117912
816.549562	2832.425221
816.868502	2829.239211
817.187399	2839.916375
817.506250	2859.944879
817.825058	2849.426512
818.143821	2864.353368
818.462539	2878.859289
818.781213	2905.370717
819.099843	2943.285235
819.418429	3002.823782
819.736970	3063.738565
820.055466	3132.714152
820.373919	3242.029053
820.692327	3382.601628
821.010691	3555.218297
821.329011	4000.697501
821.647286	4906.365995
821.965517	6298.334436
822.283704	7052.291926
822.601847	7032.759976
822.919945	6394.870012
823.237999	5882.945880
823.556010	5293.151045
823.873976	4734.888627
824.191897	4320.752797
824.509775	4023.244062
824.827609	3753.554934
825.145398	3629.023310
825.463144	3616.916979
825.780845	3707.715722
826.098502	3812.798574
826.416116	4100.310701
826.733685	4419.756017
827.051210	4483.660204
827.368692	4365.213253
827.686129	4096.164352
828.003522	3769.336266
828.320872	3508.053262
828.638177	3314.326761
828.955439	3176.957839
829.272656	3091.409458
829.589830	3021.027389
829.906960	2972.554174
830.224046	2925.976433
830.541088	2894.900240
830.858086	2877.777961
831.175041	2860.880013
831.491952	2860.794314
831.808819	2873.067003
832.125642	2897.990468
832.442421	2943.812035
832.759157	3025.650127
833.075849	3204.424566
833.392497	3488.173472
833.709101	3697.083928
834.025662	3644.774395
834.342179	3482.106443
834.658653	3306.880977
834.975083	3155.835404
835.291469	3057.487534
835.607811	2971.477888
835.924110	2910.810122
836.240366	2859.758357
836.556578	2818.670432
836.872746	2792.678243
837.188871	2770.736621
837.504952	2753.536204
837.820990	2747.002869
838.136984	2732.940570
838.452935	2722.528067
838.768842	2722.467573
839.084706	2742.128073
839.400526	2818.892243
839.716303	2957.667647
840.032037	3038.633619
840.347727	3020.908922
840.663373	2959.421968
840.978977	2882.662839
841.294537	2811.559885
841.610054	2761.506268
841.925527	2739.960377
842.240957	2719.084959
842.556344	2698.806917
842.871687	2679.055677
843.186987	2673.051662
843.502244	2667.793739
843.817458	2665.512617
844.132629	2649.494350
844.447756	2639.888432
844.762840	2633.707977
845.077881	2638.371044
845.392879	2636.064717
845.707833	2631.205044
846.022745	2621.538632
846.337613	2626.897378
846.652438	2623.739095
846.967221	2624.459980
847.281960	2622.506533
847.596656	2624.349075
847.911309	2623.640793
848.225919	2618.687859
848.540485	2614.917076
848.855009	2616.310955
849.169490	2616.792385
849.483928	2616.714247
849.798323	2614.733074
850.112675	2614.234000
850.426984	2613.324072
850.741251	2610.221241
851.055474	2612.653598
851.369654	2614.894391
851.683792	2612.194853
851.997887	2610.755604
852.311938	2611.627723
852.625947	2614.501181
852.939914	2615.370780
853.253837	2615.887498
853.567718	2613.253495
853.881555	2614.783486
854.195350	2616.716768
854.509103	2614.654936
854.822812	2611.461365
855.136479	2610.271653
855.450103	2611.720985
855.763685	2617.578805
856.077224	2612.310800
856.390720	2610.604369
856.704173	2613.495471
857.017584	2620.076697
857.330953	2618.629886
857.644278	2620.129629
857.957561	2621.780607
858.270802	2616.563013
858.584000	2618.539145
858.897155	2617.848507
859.210268	2619.711213
859.523339	2616.089144
859.836367	2610.130501
860.149352	2611.277363
860.462295	2611.476489
860.775195	2610.276694
861.088054	2607.836776
861.400869	2605.757300
861.713642	2606.276538
862.026373	2607.962804
862.339062	2608.746704
862.651708	2613.301386
862.964312	2616.689042
863.276873	2614.864144
863.589392	2616.641151
863.901869	2622.778756
864.214303	2626.567183
864.526696	2629.158336
864.839045	2633.644963
865.151353	2631.986423
865.463619	2633.581948
865.775842	2632.717390
866.088023	2633.057668
866.400162	2635.096815
866.712258	2634.507000
867.024313	2632.913995
867.336325	2625.816051
867.648296	2625.926956
867.960224	2636.833493
868.272110	2635.018677
868.583954	2628.661782
868.895755	2627.373767
869.207515	2633.781074
869.519233	2641.703247
869.830909	2635.994140
870.142542	2632.387195
870.454134	2634.615385
870.765684	2640.092598
871.077191	2642.141827
871.388657	2644.312044
871.700081	2644.617034
872.011463	2642.270377
872.322803	2645.030409
872.634101	2647.745070
872.945357	2655.611791
873.256571	2660.325269
873.567744	2659.470794
873.878874	2657.598005
874.189963	2661.346103
874.501010	2661.149498
874.812015	2668.426404
875.122979	2669.968997
875.433900	2656.977943
875.744780	2659.574137
876.055618	2663.712925
876.366415	2667.501352
876.677169	2665.605878
876.987882	2661.242759
877.298554	2660.660506
877.609183	2673.984276
877.919771	2678.425532
878.230317	2687.925587
878.540822	2696.490507
878.851285	2712.717981
879.161707	2735.635067
879.472087	2777.395985
879.782425	2822.887357
880.092722	2937.540840
880.402977	3131.100983
880.713191	3395.524626
881.023363	3699.281871
881.333494	3895.692787
881.643583	4068.765681
881.953631	4066.116554
882.263637	3888.546951
882.573602	3664.994463
882.883526	3529.548742
883.193408	3413.287131
883.503248	3306.797798
883.813048	3191.942669
884.122806	3075.209710
884.432522	2986.555979
884.742197	2919.415371
885.051831	2880.129659
885.361424	2846.837879
885.670975	2808.293217
885.980485	2775.205604
886.289954	2758.635331
886.599382	2747.817015
886.908768	2732.922926
887.218113	2715.228476
887.527417	2700.236084
887.836680	2693.748119
888.145901	2686.153621
888.455082	2678.632220
888.764221	2667.158553
889.073319	2657.194713
889.382376	2658.956596
889.691392	2659.432985
890.000366	2658.084477
890.309300	2657.724034
890.618193	2659.687563
890.927044	2663.723007
891.235855	2664.897596
891.544625	2659.609426
891.853353	2660.370640
892.162041	2671.879594
892.470687	2690.468849
892.779293	2703.074254
893.087858	2711.276211
893.396381	2735.751013
893.704864	2777.088475
894.013306	2849.923066
894.321707	2946.123404
894.630068	2996.103924
894.938387	3018.060670
895.246665	3009.087416
895.554903	2965.552011
895.863100	2918.961668
896.171256	2860.743902
896.479371	2798.946918
896.787446	2760.866042
897.095480	2738.856364
897.403473	2735.151116
897.711425	2718.061604
898.019336	2696.125023
898.327207	2682.884433
898.635038	2685.397448
898.942827	2681.898887
899.250576	2672.797084
899.558284	2660.418531
899.865952	2656.178920
900.173579	2653.615494
900.481165	2649.307828
900.788711	2643.001344
901.096216	2636.594038
901.403681	2634.393574
901.711105	2635.116980
902.018489	2628.891155
902.325832	2635.603451
902.633135	2637.622433
902.940397	2653.539876
903.247619	2689.339630
903.554800	2764.004160
903.861941	2894.043244
904.169041	3025.050230
904.476101	3087.943665
904.783121	3083.751946
905.090100	3024.919160
905.397039	2945.074844
905.703938	2868.280427
906.010796	2804.731642
906.317614	2750.408168
906.624391	2713.149000
906.931129	2685.982222
907.237826	2661.149498
907.544483	2644.775830
907.851099	2629.624642
908.157675	2619.688528
908.464211	2611.332816
908.770707	2599.702874
909.077163	2596.032914
909.383578	2594.581062
909.689954	2594.568459
909.996289	2592.128540
910.302584	2590.366657
910.608839	2588.289702
910.915054	2587.019331
911.221229	2591.364805
911.527363	2591.637028
911.833458	2589.202150
912.139513	2591.004363
912.445527	2593.040989
912.751502	2598.714808
913.057436	2604.378544
913.363331	2610.934565
913.669186	2623.729013
913.975000	2634.693523
914.280775	2654.651451
914.586510	2672.872701
914.892205	2713.464072
915.197859	2779.470420
915.503475	2866.231198
915.809050	2937.029163
916.114585	2956.430043
916.420081	2967.225674
916.725536	2974.792446
917.030952	2949.125412
917.336328	2898.303019
917.641665	2848.410719
917.946961	2798.646969
918.252218	2762.678337
918.557435	2734.326887
918.862612	2710.716643
919.167750	2692.583613
919.472848	2677.412260
919.777906	2660.494148
920.082925	2647.031747
920.387904	2633.155971
920.692843	2631.893162
920.997743	2626.259672
921.302603	2620.333796
921.607423	2613.034205
921.912204	2609.951540
922.216946	2604.345777
922.521647	2601.865529
922.826310	2596.784046
923.130932	2591.455546
923.435516	2583.394741
923.740059	2588.324990
924.044564	2586.137129
924.349028	2582.522622
924.653454	2575.817887
924.957840	2575.810325
925.262186	2564.971844
925.566493	2570.970818
925.870761	2564.820610
926.174989	2566.945456
926.479178	2562.668037
926.783328	2562.337842
927.087438	2561.662327
927.391509	2562.582338
927.695541	2558.836760
927.999533	2559.900444
928.303486	2560.028993
928.607400	2556.374157
928.911275	2556.986657
929.215110	2554.279557
929.518906	2555.502037
929.822663	2553.001625
930.126381	2554.226625
930.430060	2555.678477
930.733699	2557.337017
931.037299	2555.965823
931.340861	2556.837943
931.644383	2555.696121
931.947866	2558.060422
932.251309	2557.304249
932.554714	2556.848025
932.858080	2557.611760
933.161407	2555.633107
933.464694	2555.464228
933.767943	2554.201419
934.071153	2555.416337
934.374323	2552.343754
934.677455	2555.544887
934.980548	2551.920297
935.283602	2553.417520
935.586617	2554.277037
935.889593	2551.975750
936.192530	2550.738147
936.495428	2553.972047
936.798287	2553.689742
937.101108	2554.932387
937.403890	2558.123437
937.706632	2558.965310
938.009336	2563.875393
938.312002	2568.112483
938.614628	2573.909810
938.917216	2576.637074
939.219765	2577.383165
939.522275	2577.133628
939.824747	2574.585325
940.127179	2571.580797
940.429573	2566.020404
940.731929	2570.126424
941.034246	2566.315312
941.336524	2569.226578
941.638763	2566.358162
941.940964	2568.094839
942.243126	2564.422359
942.545250	2565.241546
942.847335	2562.330280
943.149381	2561.690053
943.451389	2562.252142
943.753359	2560.598643
944.055290	2558.509085
944.357182	2552.837787
944.659036	2556.792572
944.960851	2556.119578
945.262628	2557.067315
945.564367	2556.195196
945.866067	2557.936914
946.167729	2555.872562
946.469352	2554.317366
946.770937	2557.815927
947.072484	2557.878941
947.373992	2556.759805
947.675462	2555.736451
947.976893	2552.139587
948.278286	2554.087993
948.579641	2554.781152
948.880958	2551.363250
949.182236	2553.362067
949.483476	2555.010524
949.784678	2550.556665
950.085841	2551.988353
950.386967	2551.350647
950.688054	2553.072201
950.989103	2557.163097
951.290114	2557.710062
951.591087	2557.266441
951.892021	2555.537325
952.192917	2559.345917
952.493776	2559.940773
952.794596	2562.473953
953.095378	2562.511761
953.396122	2564.611402
953.696828	2560.528067
953.997496	2560.177707
954.298126	2554.551779
954.598718	2554.254351
954.899272	2551.448949
955.199788	2552.903322
955.500266	2549.629093
955.800706	2546.130532
956.101108	2542.205994
956.401472	2542.979811
956.701798	2544.746735
957.002087	2545.898639
957.302337	2544.340922
957.602550	2543.940151
957.902724	2542.926879
958.202861	2541.144831
958.502960	2541.137269
958.803022	2542.679862
959.103045	2542.316899
959.403031	2541.790098
959.702979	2538.982176
960.002889	2540.522248
960.302762	2537.827752
960.602596	2539.516538
960.902393	2537.789943
961.202153	2541.868236
961.501875	2536.075951
961.801559	2537.580735
962.101205	2538.793132
962.400814	2536.522093
962.700385	2538.967052
962.999918	2537.525282
963.299414	2535.748276
963.598873	2539.992927
963.898293	2536.678368
964.197677	2537.147196
964.497022	2535.249201
964.796331	2539.456044
965.095601	2536.668286
965.394835	2536.547298
965.694030	2536.771630
965.993189	2538.677186
966.292309	2535.657535
966.591393	2538.483102
966.890439	2537.454706
967.189447	2536.905220
967.488419	2536.451517
967.787353	2534.850950
968.086249	2537.366486
968.385108	2538.384799
968.683930	2537.348842
968.982714	2537.613502
969.281462	2537.530323
969.580172	2538.021836
969.878844	2534.664428
970.177480	2537.633667
970.476078	2537.036290
970.774639	2537.800025
971.073162	2535.846578
971.371649	2537.868081
971.670098	2534.172915
971.968510	2535.173584
972.266885	2531.276772
972.565223	2540.305479
972.863524	2539.670293
973.161788	2537.164840
973.460014	2537.643749
973.758204	2537.331198
974.056356	2536.920344
974.354471	2540.466796
974.652550	2535.133255
974.950591	2537.951260
975.248595	2539.045190
975.546563	2538.956970
975.844493	2537.240457
976.142386	2535.138296
976.440243	2536.885056
976.738062	2539.014943
977.035845	2536.282638
977.333590	2535.367668
977.631299	2537.235416
977.928971	2534.485467
978.226606	2533.676361
978.524204	2536.156609
978.821765	2536.736342
979.119290	2538.868750
979.416777	2535.055117
979.714228	2535.060158
980.011642	2538.044521
980.309020	2537.409336
980.606360	2535.687782
980.903664	2535.977648
981.200931	2535.004705
981.498162	2537.553009
981.795356	2540.237423
982.092513	2543.642722
982.389633	2545.197918
982.686717	2550.052550
982.983764	2552.265616
983.280775	2553.188147
983.577749	2553.752757
983.874686	2552.986501
984.171587	2546.987528
984.468451	2549.072045
984.765279	2543.506611
985.062070	2540.585263
985.358824	2541.338915
985.655543	2541.623740
985.952224	2536.852288
986.248869	2535.899510
986.545478	2533.681402
986.842050	2534.646783
987.138586	2533.116793
987.435086	2532.630322
987.731549	2530.266021
988.027975	2534.702236
988.324366	2533.482277
988.620719	2535.586959
988.917037	2532.400949
989.213318	2534.656866
989.509563	2536.423790
989.805772	2533.633512
990.101944	2530.074457
990.398080	2535.660055
990.694180	2533.033614
990.990244	2534.104859
991.286271	2532.688295
991.582262	2533.991433
991.878217	2531.949766
992.174136	2534.094777
992.470019	2530.818027
992.765865	2533.835158
993.061676	2530.853315
993.357450	2532.905065
993.653188	2535.891948
993.948890	2535.934798
994.244556	2534.288862
994.540186	2535.778523
994.835780	2533.507483
995.131337	2535.808769
995.426859	2534.341794
995.722345	2534.147709
996.017795	2535.675179
996.313208	2537.351363
996.608586	2538.009233
996.903928	2537.573173
997.199234	2538.049562
997.494504	2538.873791
997.789738	2536.640560
998.084936	2537.046373
998.380099	2534.634181
998.675225	2534.359438
998.970316	2535.410518
999.265371	2533.149561
999.560390	2532.383305
999.855373	2534.616537
1000.150320	2534.001516
1000.445232	2532.741227
1000.740108	2530.974303
1001.034948	2535.541588
1001.329752	2529.935825
1001.624521	2533.056299
1001.919254	2527.180835
1002.213951	2530.109745
1002.508613	2528.544467
1002.803239	2531.334745
1003.097829	2525.870135
1003.392384	2534.049407
1003.686903	2530.697039
1003.981386	2532.889941
1004.275834	2532.302647
1004.570246	2534.767771
1004.864623	2529.197296
1005.158964	2531.019673
1005.453270	2530.439941
1005.747540	2529.008253
1006.041775	2533.164684
1006.335974	2533.212575
1006.630138	2530.825589
1006.924266	2530.724766
1007.218359	2530.298788
1007.512416	2530.157636
1007.806438	2530.016484
1008.100425	2529.787111
1008.394376	2533.676361
1008.688292	2530.959179
1008.982172	2529.429189
1009.276017	2529.414066
1009.569827	2529.212420
1009.863602	2532.514375
1010.157341	2529.643438
1010.451045	2531.397760
1010.744714	2530.379447
1011.038347	2530.323994
1011.331945	2530.979344
1011.625508	2531.503624
1011.919036	2529.577903
1012.212528	2527.823582
1012.505986	2532.113604
1012.799408	2527.679909
1013.092795	2528.846936
1013.386147	2529.131761
1013.679464	2529.988757
1013.972745	2530.359282
1014.265992	2532.027904
1014.559204	2530.762574
1014.852380	2530.845753
1015.145521	2531.964890
1015.438628	2528.788963
1015.731699	2529.618232
1016.024736	2529.799714
1016.317737	2529.323325
1016.610703	2532.330373
1016.903635	2526.497758
1017.196531	2527.490866
1017.489393	2527.790814
1017.782219	2526.117151
1018.075011	2528.340300
1018.367768	2530.049251
1018.660490	2532.524458
1018.953177	2532.524458
1019.245829	2532.524458
