Dividing Wavelength (nm)	Counts (n)	Blue Motor Position (mm): 12.500000	Red Motor Position (mm): 0.000000	
326.493990	2102.728284
326.888308	2102.728284
327.282561	2102.728284
327.676750	2081.716754
328.070874	2082.326734
328.464933	2087.511561
328.858929	2098.045052
329.252859	2111.618358
329.646726	2124.339710
330.040528	2143.080200
330.434265	2162.120638
330.827938	2180.039419
331.221547	2201.741586
331.615091	2222.443085
332.008571	2242.751373
332.401986	2264.758530
332.795338	2282.475665
333.188625	2303.162040
333.581847	2321.254741
333.975006	2339.516321
334.368100	2359.993488
334.761129	2374.718698
335.154095	2390.721841
335.546996	2424.253076
335.939833	2478.916828
336.332606	2490.813951
336.725315	2500.981958
337.117960	2510.270284
337.510540	2516.569206
337.903056	2527.208561
338.295508	2531.750641
338.687896	2541.606096
339.080220	2544.608103
339.472480	2553.162942
339.864676	2556.270813
340.256807	2559.540001
340.648875	2559.575289
341.040879	2562.471432
341.432818	2562.279868
341.824694	2562.773901
342.216506	2562.927657
342.608253	2561.621998
342.999937	2557.672254
343.391557	2560.515464
343.783113	2559.063612
344.174605	2557.553787
344.566033	2559.003118
344.957397	2551.534649
345.348697	2551.522046
345.739934	2550.861655
346.131106	2547.728578
346.522215	2548.830070
346.913260	2545.122301
347.304241	2544.529966
347.695159	2541.666590
348.086012	2538.737680
348.476802	2535.962525
348.867528	2541.311189
349.258191	2537.111908
349.648789	2535.755837
350.039324	2533.076464
350.429796	2532.461443
350.820203	2534.487987
351.210548	2532.068233
351.600828	2529.908099
351.991045	2530.142513
352.381198	2531.342307
352.771288	2528.781401
353.161314	2529.958510
353.551276	2527.016997
353.941175	2527.758047
354.331010	2530.139992
354.720782	2532.831968
355.110490	2533.033614
355.500135	2531.463295
355.889717	2531.478418
356.279235	2530.876000
356.668689	2534.296423
357.058080	2530.923891
357.447408	2529.643438
357.836672	2527.132944
358.225873	2530.215609
358.615010	2529.840043
359.004084	2534.966897
359.393095	2536.443955
359.782043	2533.567977
360.170927	2537.305992
360.559748	2537.404295
360.948505	2536.350693
361.337199	2536.968235
361.725830	2539.100643
362.114398	2537.918492
362.502903	2534.999664
362.891344	2538.125180
363.279722	2538.520910
363.668037	2542.095088
364.056289	2538.919161
364.444478	2540.880170
364.832603	2540.928061
365.220665	2538.735159
365.608665	2542.097609
365.996601	2540.875129
366.384474	2539.914789
366.772284	2541.817825
367.160031	2540.388658
367.547715	2547.174051
367.935336	2543.229348
368.322893	2543.335212
368.710388	2542.016950
369.097820	2546.536345
369.485189	2544.330840
369.872495	2545.505429
370.259738	2543.481406
370.646918	2544.950902
371.034035	2544.136756
371.421090	2547.751263
371.808081	2546.874102
372.195010	2545.104657
372.581875	2546.985007
372.968678	2546.785882
373.355418	2546.939637
373.742096	2544.232537
374.128710	2550.206305
374.515262	2544.585418
374.901751	2547.466438
375.288177	2549.631613
375.674540	2547.988197
376.060841	2551.050698
376.447079	2548.978784
376.833254	2549.036757
377.219367	2546.896787
377.605417	2545.540717
377.991404	2546.072559
378.377329	2549.750080
378.763191	2547.088351
379.148991	2549.820657
379.534727	2547.232024
379.920402	2550.208825
380.306013	2554.692932
380.691563	2551.574978
381.077049	2550.178578
381.462474	2552.444577
381.847835	2554.357695
382.233134	2552.517674
382.618371	2552.883157
383.003545	2551.191850
383.388657	2554.410627
383.773706	2555.068498
384.158693	2555.421378
384.543618	2554.584547
384.928480	2553.230997
385.313280	2552.452139
385.698017	2555.154197
386.082692	2554.030020
386.467305	2557.518498
386.851856	2556.399362
387.236344	2553.283929
387.620770	2555.958261
388.005133	2553.956923
388.389435	2556.454815
388.773674	2556.084290
389.157851	2556.406924
389.541965	2555.799465
389.926018	2555.587737
390.310008	2560.003787
390.693936	2554.468600
391.077802	2555.703683
391.461606	2559.076215
391.845348	2560.389436
392.229027	2562.179045
392.612645	2557.463046
392.996200	2557.954558
393.379694	2560.328942
393.763125	2560.034034
394.146494	2558.985474
394.529801	2560.016390
394.913047	2562.539488
395.296230	2560.991853
395.679351	2561.541339
396.062410	2564.966803
396.445408	2559.184600
396.828343	2559.600495
397.211217	2557.810885
397.594028	2559.887841
397.976778	2557.921791
398.359466	2561.130485
398.742092	2559.502193
399.124656	2560.205433
399.507158	2562.272307
399.889598	2562.892368
400.271977	2560.923798
400.654294	2566.126269
401.036549	2562.463870
401.418742	2563.154508
401.800874	2566.320353
402.182944	2564.853377
402.564952	2565.233984
402.946898	2567.147102
403.328783	2565.927143
403.710606	2567.147102
404.092367	2564.513099
404.474067	2566.353121
404.855705	2566.292627
405.237282	2565.327246
405.618797	2564.997050
406.000250	2566.453944
406.381642	2565.952349
406.762972	2565.768347
407.144240	2566.524520
407.525447	2568.351938
407.906593	2568.384706
408.287677	2567.200034
408.668700	2567.109294
409.049661	2567.396639
409.430560	2569.486198
409.811399	2569.932340
410.192176	2569.408060
410.572891	2568.382185
410.953545	2569.433266
411.334138	2568.125086
411.714669	2569.723132
412.095139	2570.038204
412.475547	2569.226578
412.855894	2571.016188
413.236180	2567.850343
413.616405	2572.049624
413.996568	2570.171795
414.376670	2573.524162
414.756711	2570.534758
415.136691	2570.534758
415.516609	2570.212124
415.896466	2569.410580
416.276262	2570.912844
416.655997	2569.531568
417.035670	2565.249108
417.415283	2570.444017
417.794834	2565.828841
418.174324	2569.440827
418.553753	2573.836713
418.933121	2569.405539
419.312428	2567.857905
419.691674	2570.421332
420.070859	2572.793195
420.449983	2571.905952
420.829045	2572.357135
421.208047	2574.434090
421.586988	2574.577763
421.965867	2577.042887
422.344686	2573.103226
422.723444	2574.212279
423.102141	2573.693041
423.480777	2575.212948
423.859352	2576.720253
424.237866	2573.221693
424.616319	2573.942578
424.994712	2576.649677
425.373044	2574.524831
425.751314	2574.849985
426.129524	2576.379976
426.507673	2574.383679
426.885762	2573.539285
427.263789	2575.991807
427.641756	2573.715726
428.019662	2575.185222
428.397508	2576.332085
428.775292	2575.621282
429.153016	2576.145562
429.530679	2574.590366
429.908282	2576.266550
430.285824	2574.580284
430.663305	2576.014492
431.040726	2577.327712
431.418086	2576.470716
431.795385	2578.209914
432.172624	2575.724626
432.549802	2577.524317
432.926920	2576.009451
433.303977	2576.493402
433.680974	2578.703948
434.057910	2576.871488
434.434786	2578.472054
434.811601	2574.033318
435.188355	2577.385686
435.565050	2576.069945
435.941683	2577.625141
436.318257	2575.129769
436.694770	2575.517938
437.071222	2576.614389
437.447614	2574.570201
437.823946	2574.297979
438.200218	2576.690007
438.576429	2580.624627
438.952580	2578.865264
439.328670	2579.550861
439.704700	2577.340315
440.080670	2578.598083
440.456580	2577.259657
440.832429	2580.833835
441.208218	2577.050449
441.583947	2576.455593
441.959616	2581.559761
442.335224	2581.146387
442.710773	2579.066911
443.086261	2581.617734
443.461689	2579.734863
443.837057	2582.867941
444.212365	2580.029771
444.587612	2579.359297
444.962800	2579.404668
445.337927	2581.305183
445.712995	2580.657395
446.088002	2583.273753
446.462949	2583.021696
446.837837	2581.181675
447.212664	2580.173444
447.587431	2581.451376
447.962139	2582.328537
448.336786	2586.605956
448.711374	2584.229052
449.085901	2582.331058
449.460369	2579.825604
449.834776	2582.605801
450.209124	2584.639906
450.583412	2585.539752
450.957640	2581.287539
451.331808	2583.135122
451.705917	2583.959350
452.079965	2584.685277
452.453954	2585.476738
452.827883	2581.698393
453.201752	2587.024372
453.575562	2586.021182
453.949311	2586.220308
454.323001	2584.370204
454.696632	2584.965061
455.070202	2587.946903
455.443713	2586.535380
455.817164	2583.286356
456.190556	2586.084197
456.563888	2585.839701
456.937160	2584.080338
457.310373	2587.919177
457.683526	2586.666450
458.056619	2588.819023
458.429653	2586.868096
458.802628	2589.688622
459.175542	2586.966399
459.548398	2589.159301
459.921194	2588.629979
460.293930	2592.655341
460.666607	2593.141812
461.039224	2593.928232
461.411782	2592.191555
461.784280	2593.683736
462.156719	2592.781370
462.529099	2592.990577
462.901419	2595.622060
463.273680	2593.560228
463.645882	2592.199116
464.018024	2593.552666
464.390106	2593.666092
464.762130	2594.555856
465.134094	2597.830085
465.505999	2601.613471
465.877845	2605.752258
466.249631	2607.516662
466.621358	2604.802001
466.993026	2605.719491
467.364634	2608.098916
467.736184	2602.110025
468.107674	2603.529110
468.479105	2601.298399
468.850477	2599.934767
469.221790	2600.887545
469.593043	2600.892586
469.964238	2596.615167
470.335373	2598.566094
470.706449	2601.202617
471.077467	2604.081116
471.448425	2605.406939
471.819324	2608.565222
472.190164	2606.158071
472.560945	2602.984665
472.931667	2604.010540
473.302330	2601.787391
473.672934	2600.224633
474.043479	2601.164808
474.413965	2601.116917
474.784393	2599.276896
475.154761	2599.433172
475.525070	2600.209510
475.895321	2597.056268
476.265513	2598.989551
476.635645	2605.298555
477.005719	2604.872577
477.375734	2605.490118
477.745691	2603.783688
478.115588	2608.119080
478.485427	2609.586056
478.855207	2613.008999
479.224928	2612.734257
479.594591	2614.372632
479.964194	2612.399020
480.333739	2616.237858
480.703226	2616.068980
481.072653	2616.361367
481.442022	2617.165431
481.811333	2617.858589
482.180584	2617.788013
482.549777	2616.424381
482.918912	2612.830038
483.287988	2616.895729
483.657005	2616.636110
484.025964	2613.296345
484.394864	2612.920779
484.763706	2617.616614
485.132489	2615.373301
485.501213	2616.129474
485.869879	2616.416819
486.238487	2617.810698
486.607036	2618.241717
486.975527	2618.652571
487.343959	2621.553755
487.712333	2620.066615
488.080648	2620.704321
488.448905	2621.954527
488.817104	2621.064763
489.185244	2626.209261
489.553326	2628.775208
489.921350	2633.564304
490.289315	2639.840541
490.657222	2643.868423
491.025070	2645.010244
491.392861	2643.646612
491.760593	2642.260295
492.128267	2644.107877
492.495883	2643.200470
492.863440	2643.830614
493.230939	2642.855151
493.598380	2644.107878
493.965763	2640.183339
494.333088	2640.770634
494.700354	2643.515542
495.067563	2644.969915
495.434713	2643.855820
495.801805	2649.766573
496.168839	2651.631800
496.535815	2652.687921
496.902733	2657.701349
497.269593	2656.350320
497.636395	2658.437357
498.003139	2659.800989
498.369825	2664.103614
498.736453	2667.133348
499.103023	2668.502021
499.469535	2668.282731
499.835989	2671.120900
500.202385	2672.219872
500.568723	2676.648526
500.935003	2681.573733
501.301226	2680.005934
501.667390	2684.031295
502.033497	2687.809640
502.399546	2688.167562
502.765537	2689.115299
503.131470	2694.766432
503.497345	2697.324818
503.863163	2698.953111
504.228923	2700.452854
504.594625	2703.157433
504.960269	2703.585931
505.325856	2709.589945
505.691385	2709.884853
506.056856	2713.453990
506.422270	2717.136553
506.787625	2720.756101
507.152924	2721.915567
507.518164	2725.893037
507.883347	2725.036041
508.248472	2731.839078
508.613540	2732.484346
508.978550	2737.918709
509.343503	2740.348546
509.708398	2745.581263
510.073236	2748.366501
510.438016	2751.350864
510.802738	2751.620566
511.167403	2757.349837
511.532010	2762.242277
511.896561	2765.166146
512.261053	2774.303237
512.625488	2768.818462
512.989866	2772.059924
513.354186	2776.009668
513.718449	2778.016047
514.082655	2784.720782
514.446803	2785.988632
514.810894	2793.144550
515.174927	2796.965744
515.538904	2796.721248
515.902822	2804.403967
516.266684	2801.754841
516.630488	2808.278094
516.994235	2813.364618
517.357925	2813.664567
517.721558	2821.715289
518.085133	2828.059581
518.448651	2829.571927
518.812112	2832.684840
519.175516	2836.833710
519.538863	2836.498473
519.902152	2839.692044
520.265385	2847.652026
520.628560	2848.637571
520.991678	2853.240145
521.354739	2855.982532
521.717743	2860.635517
522.080690	2866.493338
522.443580	2866.795807
522.806413	2874.536499
523.169189	2872.958618
523.531908	2876.608413
523.894569	2879.711244
524.257174	2881.972201
524.619722	2886.642830
524.982213	2891.895712
525.344647	2888.634086
525.707025	2895.711866
526.069345	2899.964079
526.431608	2904.594379
526.793815	2905.413567
527.155964	2907.190573
527.518057	2911.573857
527.880093	2914.124680
528.242072	2917.567788
528.603995	2920.143818
528.965860	2921.038623
529.327669	2925.479879
529.689421	2926.742688
530.051117	2928.809562
530.412755	2932.368616
530.774337	2934.952208
531.135862	2935.239553
531.497331	2940.099226
531.858743	2939.227106
532.220098	2943.423867
532.581396	2947.297993
532.942638	2947.986111
533.303824	2954.809313
533.664953	2956.051957
534.026025	2958.146556
534.387040	2964.546301
534.747999	2966.293061
535.108902	2971.409832
535.469748	2969.358082
535.830537	2972.597024
536.191270	2982.137408
536.551947	2982.739825
536.912567	2986.679487
537.273131	2991.150991
537.633638	2991.324910
537.994089	2996.504696
538.354483	2996.146774
538.714821	3008.235461
539.075103	3016.719723
539.435328	3017.042357
539.795497	3020.528315
540.155609	3027.089376
540.515665	3031.452495
540.875665	3034.449461
541.235609	3043.069834
541.595496	3047.203580
541.955328	3060.260169
542.315102	3060.945766
542.674821	3062.352248
543.034483	3070.944894
543.394090	3074.687951
543.753640	3080.863364
544.113134	3100.712908
544.472571	3099.596292
544.831953	3116.786627
545.191278	3117.394086
545.550548	3123.135960
545.909761	3136.757158
546.268918	3147.020947
546.628019	3162.212464
546.987064	3163.530726
547.346053	3165.814368
547.704986	3186.062163
548.063863	3189.401927
548.422684	3202.884493
548.781449	3209.165771
549.140158	3224.695045
549.498811	3236.569483
549.857408	3240.907396
550.215949	3261.208123
550.574434	3271.028290
550.932864	3282.675876
551.291237	3306.094557
551.649555	3316.721309
552.007817	3334.289730
552.366022	3343.862881
552.724173	3364.138402
553.082267	3384.005589
553.440305	3406.138775
553.798288	3414.451638
554.156215	3432.839247
554.514086	3454.029737
554.871902	3463.696149
555.229661	3486.703975
555.587365	3500.088239
555.945014	3523.489275
556.302606	3540.853529
556.660143	3567.639700
557.017625	3591.076025
557.375050	3607.374075
557.732421	3636.111172
558.089735	3657.659585
558.446994	3679.449972
558.804197	3716.225189
559.161345	3734.733786
559.518437	3741.272162
559.875474	3773.422121
560.232455	3805.945125
560.589381	3836.454188
560.946251	3854.027650
561.303065	3901.306112
561.659825	3922.650357
562.016528	3943.210703
562.373177	3965.391780
562.729770	4010.527751
563.086307	4029.429557
563.442789	4075.034356
563.799216	4111.852423
564.155587	4137.534581
564.511904	4176.127134
564.868164	4211.032083
565.224370	4261.073097
565.580520	4291.693066
565.936615	4338.785004
566.292654	4370.602247
566.648638	4423.678035
567.004567	4463.624138
567.360441	4510.297661
567.716260	4551.935071
568.072023	4613.301037
568.427732	4657.819467
568.783385	4689.798026
569.138982	4755.958129
569.494525	4804.494358
569.850013	4850.275597
570.205445	4906.940687
570.560823	4956.346515
570.916145	5010.438096
571.271412	5067.516560
571.626625	5114.691678
571.981782	5175.039331
572.336884	5219.063727
572.691931	5299.235717
573.046923	5339.378425
573.401860	5390.720057
573.756743	5451.065189
574.111570	5522.800808
574.466342	5580.741310
574.821059	5652.655890
575.175722	5688.130490
575.530330	5760.723105
575.884882	5807.847811
576.239380	5874.554879
576.593823	5941.456032
576.948211	6008.266444
577.302544	6046.377567
577.656823	6120.603516
578.011047	6218.908537
578.365216	6274.459532
578.719330	6331.754766
579.073389	6402.220014
579.427394	6489.943653
579.781344	6568.409213
580.135239	6624.061030
580.489080	6711.300718
580.842866	6754.079950
581.196597	6877.913373
581.550273	6970.171530
581.903895	7050.794703
582.257463	7185.282606
582.610975	7213.623973
582.964434	7339.486461
583.317837	7394.805563
583.671186	7468.590411
584.024481	7590.518278
584.377721	7629.425904
584.730906	7754.254955
585.084037	7859.864608
585.437113	7910.427381
585.790135	8013.143411
586.143103	8056.499855
586.496016	8173.164757
586.848874	8280.372456
587.201679	8389.069815
587.554428	8422.354033
587.907124	8557.716576
588.259765	8625.227708
588.612352	8773.367055
588.964884	8788.596381
589.317362	8945.293086
589.669786	9044.170278
590.022155	9113.816339
590.374470	9290.090365
590.726731	9317.070621
591.078937	9336.284979
591.431090	9460.491448
591.783188	9511.797791
592.135232	9559.545080
592.487222	9713.469151
592.839157	9838.580507
593.191038	9889.425584
593.542866	9956.404875
593.894639	9945.742835
594.246358	10112.663000
594.598022	10220.926820
594.949633	10249.915975
595.301190	10353.320123
595.652692	10431.392473
596.004141	10607.817734
596.355535	10521.727429
596.706876	10611.855698
597.058162	10696.579850
597.409395	10895.433205
597.760573	11040.318487
598.111698	11063.207846
598.462768	11178.252018
598.813785	11301.906481
599.164748	11295.723505
599.515657	11496.560554
599.866511	11501.652119
600.217312	11760.177612
600.568060	11642.862400
600.918753	11939.506578
601.269392	12050.422045
601.619978	12090.020308
601.970510	12261.255702
602.320988	12434.184923
602.671412	12657.550888
603.021783	12718.561452
603.372100	12750.381215
603.722363	12899.939647
604.072572	13055.839850
604.422728	13184.739633
604.772830	13267.013785
605.122878	13418.331579
605.472872	13537.504456
605.822813	13741.404006
606.172701	13820.933249
606.522534	14025.601574
606.872314	14243.570984
607.222041	14297.034942
607.571714	14550.922573
607.921333	14516.635165
608.270899	14737.896448
608.620411	15001.576521
608.969870	15058.445777
609.319276	15206.567480
609.668627	15355.059708
610.017926	15663.903478
610.367171	15860.198447
610.716362	16035.736465
611.065500	16160.084086
611.414585	16366.473966
611.763616	16619.953263
612.112594	16742.556646
612.461518	16976.319991
612.810389	17240.557111
613.159207	17342.154005
613.507971	17523.693516
613.856682	17867.588429
614.205340	17977.639338
614.553945	18423.478984
614.902496	18352.290330
615.250994	18690.130817
615.599439	18886.188852
615.947830	19113.426423
616.296169	19307.447832
616.644454	19517.006076
616.992686	19747.631303
617.340864	20138.045983
617.688990	20177.893784
618.037063	20609.391347
618.385082	20747.014847
618.733048	21056.264430
619.080961	21205.616174
619.428821	21370.446782
619.776628	21564.511040
620.124382	21641.242443
620.472083	21845.736849
620.819731	22044.297816
621.167326	22025.511957
621.514868	22151.301348
621.862357	22079.051531
622.209793	22233.686405
622.557176	22205.395449
622.904506	22205.592054
623.251783	22177.117097
623.599007	22197.564017
623.946179	22229.933266
624.293297	22342.053568
624.640363	22180.197242
624.987376	22303.004791
625.334336	22326.052946
625.681243	22263.620776
626.028097	22385.276421
626.374899	22441.381943
626.721647	22564.817116
627.068343	22645.631853
627.414987	22655.996465
627.761577	22670.381398
628.108115	22976.182831
628.454600	22808.700577
628.801032	23042.799159
629.147412	23150.148009
629.493739	23272.849694
629.840014	23192.039998
630.186236	23527.243961
630.532405	23418.037445
630.878521	23679.864894
631.224585	23742.672629
631.570597	23681.997302
631.916556	23900.175920
632.262462	23989.842923
632.608316	24118.437717
632.954117	24167.901518
633.299866	24279.782366
633.645562	24341.095400
633.991206	24178.722355
634.336797	24023.036401
634.682336	24133.364573
635.027823	24094.303192
635.373257	24089.342697
635.718639	24064.827566
636.063968	24078.443723
636.409245	23834.391382
636.754470	23976.070491
637.099642	23926.571401
637.444762	23733.527976
637.789829	23936.303349
638.134845	23820.770185
638.479808	23880.074319
638.824719	23935.378297
639.169577	23799.751094
639.514383	23916.975565
639.859137	23822.852181
640.203839	24092.901752
640.548489	23945.445481
640.893086	24088.107614
641.237632	24014.857128
641.582125	24198.796229
641.926566	24249.608540
642.270955	24322.433048
642.615292	24421.068264
642.959576	24493.635674
643.303809	24584.147071
643.647990	24787.166939
643.992118	24851.103893
644.336195	24928.175574
644.680219	25081.724079
645.024192	25390.487190
645.368112	25834.025549
645.711981	25914.497488
646.055797	26606.690761
646.399562	26644.426318
646.743274	27396.521102
647.086935	27790.782182
647.430544	27797.590261
647.774101	27949.878477
648.117606	28212.265494
648.461059	28513.734055
648.804460	28323.871599
649.147810	27971.762126
649.491108	27858.915897
649.834354	27690.231328
650.177548	27169.427203
650.520690	26948.954860
650.863781	27038.589096
651.206820	27015.936672
651.549807	26778.377338
651.892742	26503.100091
652.235626	26459.395807
652.578458	26428.712825
652.921238	26062.004170
653.263967	26387.592133
653.606644	26221.405455
653.949269	26258.629335
654.291843	26007.267322
654.634365	26378.114763
654.976836	26161.627453
655.319255	26236.090336
655.661622	26304.647508
656.003938	26202.528854
656.346203	26164.556363
656.688416	26406.894711
657.030577	26319.110578
657.372687	26258.813337
657.714746	26539.698868
658.056753	26701.391357
658.398708	26340.716964
658.740612	26449.817615
659.082465	26723.055715
659.424266	26648.716340
659.766016	26811.832955
660.107715	26773.794929
660.449362	26929.148167
660.790958	26976.840003
661.132503	27041.676803
661.473996	27135.805228
661.815438	27288.325337
662.156829	27508.538061
662.498168	27379.071148
662.839456	27452.435060
663.180693	27643.991344
663.521879	27828.437081
663.863013	27855.319034
664.204097	27907.179904
664.545129	28333.785028
664.886110	28359.915849
665.227040	28468.262848
665.567918	28632.811150
665.908746	28721.631240
666.249522	28918.465612
666.590248	28982.926847
666.930922	29118.072620
667.271545	29137.420568
667.612118	29253.357024
667.952639	29109.227915
668.293109	29229.582943
668.633528	29186.647435
668.973896	29178.551342
669.314213	29276.755540
669.654480	29114.473236
669.994695	29177.432206
670.334859	29158.008640
670.674973	29112.252607
671.015035	29289.600400
671.355047	29289.330698
671.695008	29297.487285
672.034918	29255.386089
672.374777	29386.012467
672.714585	29280.138154
673.054342	29519.529947
673.394049	29346.207516
673.733705	29638.226435
674.073310	29392.102181
674.412864	29497.792492
674.752368	29212.248935
675.091820	29520.989361
675.431223	29177.742237
675.770574	28997.619290
676.109875	28914.480580
676.449125	28733.767818
676.788324	28709.671103
677.127473	28277.505586
677.466571	28259.876671
677.805619	27998.520571
678.144616	28036.908957
678.483562	28014.611934
678.822458	27767.749150
679.161303	27738.039110
679.500098	27706.363020
679.838842	27642.161405
680.177535	27813.595924
680.516179	28114.714126
680.854771	28375.056954
681.193314	29186.702888
681.531805	30212.282788
681.870247	30888.740099
682.208638	31569.368965
682.546978	31761.094128
682.885268	31850.254496
683.223508	31429.066092
683.561697	31159.157674
683.899836	31019.928567
684.237925	30600.466758
684.575963	30494.756282
684.913951	30103.298083
685.251889	30258.971435
685.589776	30293.006785
685.927614	30314.345989
686.265401	30451.137699
686.603137	30560.659287
686.940824	31029.221934
687.278460	31383.226880
687.616046	31505.487464
687.953582	32054.637996
688.291068	31932.848761
688.628504	32195.492876
688.965889	32152.544766
689.303224	31832.449141
689.640510	31554.573179
689.977745	30914.011404
690.314930	30226.350128
690.652065	29801.786672
690.989150	29174.606639
691.326185	28369.216777
691.663170	27778.174257
692.000105	27111.267411
692.336990	26530.743258
692.673825	26155.162173
693.010610	25725.363478
693.347345	25217.011004
693.684030	24643.516739
694.020665	24397.871395
694.357251	23803.657988
694.693786	23792.587614
695.030272	23592.363066
695.366707	23098.778652
695.703093	22859.313762
696.039429	22872.866904
696.375716	22642.748313
696.711952	22618.684365
697.048139	22487.395075
697.384276	22334.385973
697.720363	22471.152477
698.056400	22286.868057
698.392388	22096.904777
698.728326	22076.031880
699.064214	21903.942011
699.400053	21859.849559
699.735842	21547.096374
700.071581	21295.676388
700.407270	21043.656504
700.742910	20888.754449
701.078501	20652.079838
701.414042	20409.781820
701.749533	20141.355501
702.084974	19825.590227
702.420366	20032.645539
702.755709	19643.470982
703.091002	19378.079438
703.426246	19402.919724
703.761440	19322.271344
704.096584	19080.202698
704.431679	19051.871414
704.766725	18975.760073
705.101721	18926.747455
705.436668	19025.622126
705.771565	18730.102126
706.106413	19071.310103
706.441212	19077.273788
706.775961	19217.296877
707.110661	19272.091699
707.445311	19629.335587
707.779913	19480.450149
708.114465	19727.640607
708.448967	19999.605816
708.783421	20657.110910
709.117825	20927.485634
709.452180	21138.372223
709.786485	21519.206191
710.120742	22277.131068
710.454949	22278.535030
710.789107	22709.485628
711.123216	23369.627245
711.457275	23470.467966
711.791286	23985.429393
712.125247	24039.647003
712.459159	23747.098763
712.793023	24362.918555
713.126837	23325.471778
713.460602	23589.441717
713.794318	23237.919539
714.127985	22888.212176
714.461602	22051.224362
714.795171	22021.942820
715.128691	21080.961043
715.462162	20581.957388
715.795584	20197.415652
716.128957	19973.832917
716.462281	19598.755948
716.795556	19386.044461
717.128782	18909.289939
717.461960	18397.718688
717.795088	18325.471392
718.128167	17950.603630
718.461198	17520.436931
718.794180	17381.608595
719.127113	17040.463632
719.459997	16870.700256
719.792833	16539.438475
720.125619	16530.016558
720.458357	16225.417440
720.791046	16067.689818
721.123686	15918.340595
721.456278	15688.615214
721.788821	15656.704710
722.121315	15407.555763
722.453761	15495.823847
722.786158	15423.059832
723.118506	15433.353868
723.450805	15300.053158
723.783056	15464.208250
724.115259	15365.338621
724.447412	15308.212265
724.779518	15538.603078
725.111574	15563.614763
725.443582	15768.557832
725.775542	15757.154742
726.107453	16214.863784
726.439315	16099.348265
726.771129	16492.429715
727.102895	16842.061461
727.434612	17033.428702
727.766281	17143.461967
728.097901	17390.617137
728.429473	17420.974966
728.760996	17409.125733
729.092471	17499.261564
729.423897	17396.941265
729.755276	17272.397038
730.086606	17401.843787
730.417887	17922.574814
730.749120	18431.247402
731.080305	18595.604141
731.411442	18924.743596
731.742530	18985.290374
732.073570	19074.423016
732.404562	19366.270535
732.735506	19172.498664
733.066401	18888.837978
733.397249	18361.492956
733.728048	17751.737672
734.058798	16954.229654
734.389501	16303.381405
734.720156	15875.082453
735.050762	15368.549836
735.381320	15032.521644
735.711831	14809.742973
736.042293	14467.814110
736.372707	14489.544004
736.703073	14294.779025
737.033391	14479.885153
737.363661	14446.890801
737.693883	14553.430547
738.024056	14719.443305
738.354182	14899.513320
738.684260	15165.114072
739.014290	15381.321599
739.344272	15559.102930
739.674207	15826.195864
740.004093	15928.680001
740.333931	15916.707261
740.663722	15948.400995
740.993464	15948.771520
741.323159	15767.620177
741.652806	15497.701677
741.982405	15295.516119
742.311956	14969.565194
742.641460	14865.757754
742.970915	14573.433845
743.300323	14245.814298
743.629683	14051.203074
743.958996	13789.652889
744.288260	13520.750181
744.617477	13231.400553
744.946647	13167.090554
745.275768	12898.752455
745.604842	12722.049931
745.933869	12545.798589
746.262847	12510.293743
746.591778	12440.851848
746.920662	12340.517763
747.249498	12345.528670
747.578286	12462.947226
747.907027	12611.688991
748.235720	12822.010970
748.564365	12844.713807
748.892963	12747.197727
749.221514	12805.017241
749.550017	12659.143892
749.878473	12622.978655
750.206881	12399.794171
750.535242	12319.095380
750.863555	12231.079355
751.191821	12139.020324
751.520039	12160.866164
751.848210	12078.644945
752.176334	12113.413783
752.504411	12014.637414
752.832440	11851.442661
753.160421	11916.657548
753.488356	11802.407358
753.816243	11709.942514
754.144082	11569.221225
754.471875	11508.233346
754.799620	11456.914400
755.127318	11429.442632
755.454969	11394.487271
755.782572	11349.033707
756.110129	11358.432939
756.437638	11273.668457
756.765100	11268.097982
757.092515	11278.523088
757.419882	11287.309820
757.747203	11299.834566
758.074477	11367.131450
758.401703	11320.974645
758.728882	11483.181332
759.056014	11526.189936
759.383099	11633.291770
759.710138	11732.736091
760.037129	11816.981334
760.364073	11830.418529
760.690970	11825.268991
761.017820	11823.250008
761.344623	12019.618074
761.671379	12356.919158
761.998088	13022.739634
762.324751	14638.323577
762.651366	17534.093417
762.977935	21087.328020
763.304456	23117.798925
763.630931	23450.653711
763.957359	22237.386612
764.283740	20347.999959
764.610074	18496.038832
764.936362	16434.859738
765.262602	14945.614672
765.588796	13527.780070
765.914943	12524.333356
766.241044	11719.634132
766.567097	11101.732344
766.893104	10572.396066
767.219064	10223.800278
767.544978	9862.591523
767.870845	9554.914780
768.196665	9370.978199
768.522438	9183.202780
768.848165	9024.567751
769.173846	8858.111372
769.499479	8741.484277
769.825066	8587.257737
770.150607	8401.675220
770.476101	8342.950819
770.801548	8239.881908
771.126949	8100.539375
771.452303	8008.797936
771.777611	7846.674429
772.102872	7831.087181
772.428087	7713.225004
772.753256	7586.533246
773.078378	7507.480392
773.403453	7365.181222
773.728482	7267.501304
774.053465	7200.196859
774.378401	7113.983046
774.703291	7025.412494
775.028135	6926.278203
775.352932	6891.569859
775.677683	6809.406613
776.002388	6724.538788
776.327046	6724.208593
776.651658	6638.022506
776.976224	6564.943419
777.300743	6551.912037
777.625216	6486.109855
777.949643	6443.784328
778.274024	6447.028310
778.598359	6380.220419
778.922647	6387.719135
779.246889	6343.281364
779.571086	6354.717222
779.895236	6362.619230
780.219339	6360.247367
780.543397	6357.774681
780.867409	6404.536424
781.191374	6408.602115
781.515294	6367.851948
781.839167	6415.899185
782.162995	6393.723149
782.486776	6344.254307
782.810511	6304.479603
783.134201	6231.140897
783.457844	6219.397529
783.781441	6170.926835
784.104993	6120.442199
784.428498	6097.880515
784.751958	6079.603812
785.075372	6056.553136
785.398739	6018.373958
785.722061	6046.289347
786.045337	6046.523761
786.368568	6152.753475
786.691752	6179.743813
787.014891	6440.109327
787.337983	6717.768519
787.661030	7151.080897
787.984031	7565.330153
788.306987	7798.402860
788.629897	7873.778192
788.952760	7786.662013
789.275579	7604.139476
789.598351	7313.988305
789.921078	7051.389560
790.243759	6776.772704
790.566395	6578.562096
790.888984	6389.997737
791.211529	6256.399598
791.534027	6095.571667
791.856480	5962.704496
792.178888	5905.346247
792.501249	5841.631104
792.823566	5741.866669
793.145836	5738.226956
793.468062	5721.344132
793.790241	5681.491290
794.112375	5722.135593
794.434464	5816.248894
794.756507	5854.324729
795.078505	5978.828626
795.400457	6192.535741
795.722364	6422.225833
796.044226	6605.312979
796.366042	6760.673779
796.687812	6705.465583
797.009538	6725.257153
797.331218	6634.962526
797.652852	6561.734725
797.974442	6439.965654
798.295986	6373.813112
798.617484	6252.253249
798.938938	6141.647813
799.260346	6077.678091
799.581709	5942.151711
799.903026	5890.759668
800.224299	5814.703780
800.545526	5706.596236
800.866708	5644.431247
801.187845	5595.136325
801.508936	5517.588255
801.829983	5493.302496
802.150984	5389.580756
802.471940	5358.413822
802.792851	5348.482749
803.113717	5325.842927
803.434538	5301.453825
803.755314	5265.951499
804.076045	5258.835910
804.396731	5223.683945
804.717372	5240.362602
805.037967	5239.374536
805.358518	5268.618269
805.679024	5321.668852
805.999485	5330.201005
806.319901	5348.938974
806.640272	5364.806005
806.960598	5408.230505
807.280879	5403.816974
807.601115	5441.575217
807.921306	5400.358743
808.241453	5393.248195
808.561554	5403.885030
808.881611	5374.086770
809.201623	5368.523856
809.521590	5319.223892
809.841513	5302.459535
810.161390	5323.778575
810.481223	5236.337241
810.801011	5219.093974
811.120755	5198.584040
811.440453	5141.276203
811.760107	5115.742758
812.079716	5092.253502
812.399281	5040.758116
812.718801	5033.685377
813.038276	4996.499305
813.357707	4966.711127
813.677093	4987.878932
813.996434	4928.955406
814.315731	4951.128921
814.634983	4946.402839
814.954191	4952.855516
815.273354	5015.184342
815.592473	5055.090116
815.911547	5129.043843
816.230577	5177.328014
816.549562	5264.355974
816.868502	5312.360361
817.187399	5372.866810
817.506250	5455.894614
817.825058	5479.285568
818.143821	5633.093692
818.462539	5797.659639
818.781213	6037.963881
819.099843	6396.026957
819.418429	7025.137751
819.736970	7636.912017
820.055466	8330.549581
820.373919	9250.887833
820.692327	10729.206198
821.010691	13545.557699
821.329011	19858.607264
821.647286	29224.932478
821.965517	38981.427877
822.283704	43752.438891
822.601847	44782.833093
822.919945	40201.901305
823.237999	35275.060664
823.556010	30331.380048
823.873976	25852.645051
824.191897	21864.353830
824.509775	18946.465928
824.827609	16340.252404
825.145398	14900.493824
825.463144	14246.421757
825.780845	14621.723058
826.098502	15932.717965
826.416116	18340.652826
826.733685	20450.186668
827.051210	20770.985534
827.368692	19280.028996
827.686129	16777.489321
828.003522	14415.164300
828.320872	12296.198459
828.638177	10726.859541
828.955439	9539.418273
829.272656	8523.232563
829.589830	7713.058646
829.906960	7005.021027
830.224046	6504.134501
830.541088	6113.455160
830.858086	5868.724785
831.175041	5678.257390
831.491952	5631.097396
831.808819	5673.947203
832.125642	5933.790958
832.442421	6509.178175
832.759157	7643.462997
833.075849	9397.091376
833.392497	11156.015488
833.709101	12144.424441
834.025662	11804.597739
834.342179	10738.607950
834.658653	9478.337132
834.975083	8426.011390
835.291469	7561.108187
835.607811	6856.992585
835.924110	6364.373552
836.240366	5889.030553
836.556578	5452.403615
836.872746	5106.893013
837.188871	4853.204507
837.504952	4638.290037
837.820990	4479.503773
838.136984	4368.729458
838.452935	4331.954241
838.768842	4377.140623
839.084706	4678.526006
839.400526	5435.873672
839.716303	6300.507174
840.032037	6799.253729
840.347727	6604.438339
840.663373	6007.298543
840.978977	5455.408143
841.294537	5037.801479
841.610054	4726.658943
841.925527	4494.975074
842.240957	4295.894867
842.556344	4120.014051
842.871687	3962.873724
843.186987	3823.364832
843.502244	3705.618602
843.817458	3628.501551
844.132629	3554.336095
844.447756	3509.482429
844.762840	3463.502065
845.077881	3427.959410
845.392879	3392.983884
845.707833	3369.812221
846.022745	3344.142665
846.337613	3330.980213
846.652438	3308.912562
846.967221	3300.256900
847.281960	3283.873150
847.596656	3271.910492
847.911309	3259.907505
848.225919	3244.801687
848.540485	3240.015112
848.855009	3234.563104
849.169490	3218.827142
849.483928	3215.235320
849.798323	3204.144782
850.112675	3199.960624
850.426984	3200.847867
850.741251	3192.499716
851.055474	3189.288501
851.369654	3190.274047
851.683792	3187.947554
851.997887	3190.465611
852.311938	3191.360416
852.625947	3190.279088
852.939914	3183.990249
853.253837	3188.451670
853.567718	3185.820187
853.881555	3181.883046
854.195350	3187.579550
854.509103	3184.643078
854.822812	3181.754497
855.136479	3174.331398
855.450103	3181.169723
855.763685	3175.742921
856.077224	3176.186542
856.390720	3186.047039
856.704173	3195.395859
857.017584	3199.239739
857.330953	3203.078578
857.644278	3212.142572
857.957561	3212.500494
858.270802	3212.250957
858.584000	3209.395143
858.897155	3205.611757
859.210268	3196.164635
859.523339	3185.346319
859.836367	3179.201152
860.149352	3172.236798
860.462295	3172.420801
860.775195	3161.957886
861.088054	3161.640293
861.400869	3155.895898
861.713642	3155.301042
862.026373	3167.982065
862.339062	3170.966428
862.651708	3179.322140
862.964312	3195.733617
863.276873	3207.224927
863.589392	3233.514544
863.901869	3259.322731
864.214303	3281.143366
864.526696	3297.459060
864.839045	3315.196360
865.151353	3324.961075
865.463619	3325.356805
865.775842	3328.409224
866.088023	3329.445181
866.400162	3320.973522
866.712258	3325.245900
867.024313	3322.198522
867.336325	3323.632731
867.648296	3325.802948
867.960224	3321.923780
868.272110	3325.296312
868.583954	3326.347392
868.895755	3331.456602
869.207515	3328.968792
869.519233	3344.145186
869.830909	3352.599201
870.142542	3364.725696
870.454134	3367.228629
870.765684	3383.093140
871.077191	3401.851274
871.388657	3410.761513
871.700081	3429.297836
872.011463	3447.040177
872.322803	3468.369299
872.634101	3487.687000
872.945357	3509.154754
873.256571	3532.686860
873.567744	3547.144889
873.878874	3549.630178
874.189963	3564.763722
874.501010	3570.112386
874.812015	3563.402611
875.122979	3577.001123
875.433900	3576.280238
875.744780	3577.908531
876.055618	3586.400354
876.366415	3584.837597
876.677169	3591.590222
876.987882	3609.945063
877.298554	3625.885192
877.609183	3664.092097
877.919771	3711.128583
878.230317	3780.641053
878.540822	3883.369686
878.851285	4032.166904
879.161707	4258.265174
879.472087	4635.318276
879.782425	5271.895019
880.092722	6456.525844
880.402977	8353.718724
880.713191	10613.166398
881.023363	12802.297538
881.333494	13974.320437
881.643583	14329.918388
881.953631	13888.774577
882.263637	13087.125251
882.573602	12115.568876
882.883526	11223.249357
883.193408	10324.487244
883.503248	9458.686715
883.813048	8677.254936
884.122806	7954.948331
884.432522	7228.717187
884.742197	6605.300376
885.051831	6075.701959
885.361424	5609.284323
885.670975	5241.759002
885.980485	4938.405048
886.289954	4684.310730
886.599382	4477.111745
886.908768	4310.272238
887.218113	4150.835665
887.527417	4022.722302
887.836680	3913.818256
888.145901	3816.972649
888.455082	3739.154878
888.764221	3676.379909
889.073319	3620.302114
889.382376	3585.533276
889.691392	3564.655337
890.000366	3563.203485
890.309300	3555.387176
890.618193	3560.491344
890.927044	3556.700397
891.235855	3562.114596
891.544625	3578.548757
891.853353	3605.594548
892.162041	3666.625277
892.470687	3760.115995
892.779293	3876.523799
893.087858	4048.124676
893.396381	4326.282943
893.704864	4736.547166
894.013306	5287.802380
894.321707	5825.688455
894.630068	6140.440457
894.938387	6146.484800
895.246665	5963.627027
895.554903	5655.393237
895.863100	5339.055792
896.171256	5080.285803
896.479371	4855.682234
896.787446	4640.011591
897.095480	4460.256647
897.403473	4313.120490
897.711425	4179.015715
898.019336	4062.915422
898.327207	3946.391671
898.635038	3848.699151
898.942827	3747.243409
899.250576	3667.817510
899.558284	3584.182247
899.865952	3531.817261
900.173579	3472.170329
900.481165	3423.369439
900.788711	3385.172616
901.096216	3355.311342
901.403681	3330.768484
901.711105	3320.005621
902.018489	3319.199036
902.325832	3356.528780
902.633135	3416.231165
902.940397	3596.419648
903.247619	4011.092360
903.554800	4752.404116
903.861941	5663.925389
904.169041	6296.242357
904.476101	6437.591270
904.783121	6154.732128
905.090100	5766.737202
905.397039	5387.471033
905.703938	5048.816400
906.010796	4744.577724
906.317614	4511.991489
906.624391	4287.206439
906.931129	4103.842029
907.237826	3931.878189
907.544483	3771.072943
907.851099	3602.998353
908.157675	3451.627627
908.464211	3318.914211
908.770707	3224.339644
909.077163	3151.094199
909.383578	3095.213009
909.689954	3055.062739
909.996289	3025.882020
910.302584	3006.660100
910.608839	2997.654079
910.915054	2985.981287
911.221229	2979.679845
911.527363	2984.479023
911.833458	2992.849859
912.139513	3004.232785
912.445527	3016.064373
912.751502	3048.768858
913.057436	3087.991556
913.363331	3149.730567
913.669186	3235.846078
913.975000	3353.988039
914.280775	3535.603168
914.586510	3807.195331
914.892205	4171.136392
915.197859	4647.417046
915.503475	5197.422054
915.809050	5654.531199
916.114585	5907.960085
916.420081	5950.215037
916.725536	5877.198965
917.030952	5653.175129
917.336328	5458.238751
917.641665	5260.756590
917.946961	5042.852715
918.252218	4852.425649
918.557435	4637.521261
918.862612	4451.386737
919.167750	4290.619300
919.472848	4105.140126
919.777906	3948.125828
920.082925	3803.444713
920.387904	3658.687980
920.692843	3554.194943
920.997743	3462.453505
921.302603	3370.399515
921.607423	3312.983293
921.912204	3247.846544
922.216946	3201.291489
922.521647	3154.688542
922.826310	3115.536421
923.130932	3084.558530
923.435516	3043.077396
923.740059	3017.740557
924.044564	2986.555979
924.349028	2962.560087
924.653454	2936.013370
924.957840	2912.478744
925.262186	2894.411248
925.566493	2872.482229
925.870761	2848.710668
926.174989	2839.077023
926.479178	2823.638489
926.783328	2809.886222
927.087438	2798.856177
927.391509	2789.028448
927.695541	2774.653597
927.999533	2764.634304
928.303486	2760.099786
928.607400	2751.648292
928.911275	2746.312231
929.215110	2742.092785
929.518906	2735.380488
929.822663	2737.492732
930.126381	2738.702609
930.430060	2741.124883
930.733699	2744.381469
931.037299	2745.956829
931.340861	2744.333578
931.644383	2746.866757
931.947866	2746.644947
932.251309	2743.781571
932.554714	2743.156468
932.858080	2740.409039
933.161407	2735.929974
933.464694	2735.756054
933.767943	2733.603482
934.071153	2728.446381
934.374323	2724.869683
934.677455	2725.971175
934.980548	2719.084959
935.283602	2716.932386
935.586617	2714.966336
935.889593	2715.311655
936.192530	2719.047150
936.495428	2723.692573
936.798287	2731.929819
937.101108	2746.554206
937.403890	2768.745365
937.706632	2792.310239
938.009336	2825.428099
938.312002	2852.607480
938.614628	2877.367107
938.917216	2893.897051
939.219765	2900.745458
939.522275	2908.755852
939.824747	2913.234917
940.127179	2901.365520
940.429573	2897.624984
940.731929	2895.399314
941.034246	2887.333468
941.336524	2885.551420
941.638763	2881.034547
941.940964	2874.342415
942.243126	2857.199971
942.545250	2847.024402
942.847335	2834.950839
943.149381	2821.715289
943.451389	2808.625933
943.753359	2797.363996
944.055290	2789.169600
944.357182	2782.598456
944.659036	2777.438835
944.960851	2774.194852
945.262628	2769.027670
945.564367	2772.871550
945.866067	2770.567742
946.167729	2767.182607
946.469352	2768.087495
946.770937	2764.588934
947.072484	2758.645413
947.373992	2757.773294
947.675462	2755.109044
947.976893	2748.865575
948.278286	2745.339288
948.579641	2745.311562
948.880958	2741.354256
949.182236	2741.941550
949.483476	2737.361662
949.784678	2738.163205
950.085841	2737.533061
950.386967	2741.076992
950.688054	2746.118146
950.989103	2753.211050
951.290114	2761.128182
951.591087	2773.514297
951.892021	2785.953344
952.192917	2794.442647
952.493776	2803.040335
952.794596	2807.287507
953.095378	2809.127528
953.396122	2809.883701
953.696828	2805.777681
953.997496	2798.868780
954.298126	2788.693211
954.598718	2782.923610
954.899272	2774.572939
955.199788	2764.505755
955.500266	2751.305493
955.800706	2735.466188
956.101108	2722.802810
956.401472	2712.685214
956.701798	2697.816331
957.002087	2684.449711
957.302337	2677.780265
957.602550	2667.340035
957.902724	2657.537511
958.202861	2652.022489
958.502960	2643.908752
958.803022	2637.100674
959.103045	2629.168418
959.403031	2623.844960
959.702979	2619.469238
960.002889	2617.223404
960.302762	2611.320213
960.602596	2609.361725
960.902393	2605.220417
961.202153	2603.274531
961.501875	2597.235229
961.801559	2598.835795
962.101205	2593.068715
962.400814	2593.005701
962.700385	2591.372367
962.999918	2590.800196
963.299414	2587.283991
963.598873	2586.137129
963.898293	2586.187540
964.197677	2584.677715
964.497022	2586.260637
964.796331	2582.762076
965.095601	2580.808629
965.394835	2581.721078
965.694030	2577.645305
965.993189	2580.259143
966.292309	2579.621437
966.591393	2578.976170
966.890439	2579.177816
967.189447	2577.642785
967.488419	2579.906263
967.787353	2580.465831
968.086249	2577.725964
968.385108	2580.453228
968.683930	2579.969277
968.982714	2583.581264
969.281462	2583.735019
969.580172	2583.586305
969.878844	2584.251737
970.177480	2591.357244
970.476078	2591.107707
970.774639	2598.372009
971.073162	2598.515682
971.371649	2598.530806
971.670098	2599.463419
971.968510	2602.417535
972.266885	2598.624067
972.565223	2603.166147
972.863524	2603.743359
973.161788	2607.168823
973.460014	2608.542537
973.758204	2610.453134
974.056356	2608.356014
974.354471	2609.802826
974.652550	2608.376179
974.950591	2609.928854
975.248595	2606.833586
975.546563	2606.596652
975.844493	2605.389295
976.142386	2605.895931
976.440243	2600.282607
976.738062	2601.255549
977.035845	2598.009046
977.333590	2598.649273
977.631299	2594.671802
977.928971	2592.304981
978.226606	2588.287181
978.524204	2592.680547
978.821765	2589.103848
979.119290	2587.702407
979.416777	2587.956985
979.714228	2590.497727
980.011642	2589.960844
980.309020	2595.826227
980.606360	2599.256732
980.903664	2602.833430
981.200931	2616.923455
981.498162	2636.094963
981.795356	2664.330466
982.092513	2695.787266
982.389633	2737.833010
982.686717	2773.602517
982.983764	2801.724594
983.280775	2819.870227
983.577749	2817.538693
983.874686	2808.905717
984.171587	2793.036165
984.468451	2782.951337
984.765279	2765.680344
985.062070	2747.786768
985.358824	2729.492421
985.655543	2707.971735
985.952224	2689.687470
986.248869	2663.823830
986.545478	2640.914307
986.842050	2622.393107
987.138586	2608.043463
987.435086	2597.416711
987.731549	2584.786100
988.027975	2581.920204
988.324366	2576.261508
988.620719	2573.030129
988.917037	2570.214644
989.213318	2566.925292
989.509563	2565.299519
989.805772	2562.496638
990.101944	2560.979251
990.398080	2562.385732
990.694180	2558.501523
990.990244	2561.395146
991.286271	2558.917419
991.582262	2561.193500
991.878217	2560.359189
992.174136	2564.845816
992.470019	2564.636608
992.765865	2563.731721
993.061676	2568.109963
993.357450	2570.106260
993.653188	2573.680438
993.948890	2574.282856
994.244556	2584.554207
994.540186	2593.335897
994.835780	2605.180087
995.131337	2619.575102
995.426859	2631.184880
995.722345	2645.405975
996.017795	2664.564880
996.313208	2676.918227
996.608586	2686.151101
996.903928	2689.042202
997.199234	2686.932479
997.494504	2684.008610
997.789738	2678.833866
998.084936	2671.756086
998.380099	2659.503561
998.675225	2646.772127
998.970316	2636.468009
999.265371	2623.320680
999.560390	2612.071345
999.855373	2600.559870
1000.150320	2593.958479
1000.445232	2585.010431
1000.740108	2579.689493
1001.034948	2574.426528
1001.329752	2568.241033
1001.624521	2567.157185
1001.919254	2558.970351
1002.213951	2558.236863
1002.508613	2554.274516
1002.803239	2553.883827
1003.097829	2551.693445
1003.392384	2551.562375
1003.686903	2549.792930
1003.981386	2552.678991
1004.275834	2549.316541
1004.570246	2546.511139
1004.864623	2547.940306
1005.158964	2548.237734
1005.453270	2546.584236
1005.747540	2546.506098
1006.041775	2545.422250
1006.335974	2543.882177
1006.630138	2542.684903
1006.924266	2548.489792
1007.218359	2545.586087
1007.512416	2545.699513
1007.806438	2543.264636
1008.100425	2548.484751
1008.394376	2543.095757
1008.688292	2545.190357
1008.982172	2543.516694
1009.276017	2543.625078
1009.569827	2543.201622
1009.863602	2543.584749
1010.157341	2539.624923
1010.451045	2543.355377
1010.744714	2543.874616
1011.038347	2542.132897
1011.331945	2541.255736
1011.625508	2542.838658
1011.919036	2540.900335
1012.212528	2542.347146
1012.505986	2540.683565
1012.799408	2539.521579
1013.092795	2541.467465
1013.386147	2540.769265
1013.679464	2539.894625
1013.972745	2541.175078
1014.265992	2541.263298
1014.559204	2541.235572
1014.852380	2541.278421
1015.145521	2538.110056
1015.438628	2539.030067
1015.731699	2542.571477
1016.024736	2539.302289
1016.317737	2539.357742
1016.610703	2544.761859
1016.903635	2538.077289
1017.196531	2541.061652
1017.489393	2538.601569
1017.782219	2537.210210
1018.075011	2541.596014
1018.367768	2545.215563
1018.660490	2543.330171
1018.953177	2543.330171
1019.245829	2543.330171
