Dividing Wavelength (nm)	Counts (n)	Blue Motor Position (mm): 7.500000	Red Motor Position (mm): 0.000000	
326.493990	2103.071082
326.888308	2103.071082
327.282561	2103.071082
327.676750	2081.101734
328.070874	2080.995869
328.464933	2087.067939
328.858929	2098.985227
329.252859	2108.644078
329.646726	2126.492283
330.040528	2140.746145
330.434265	2160.961172
330.827938	2181.549245
331.221547	2199.936853
331.615091	2220.139277
332.008571	2241.299521
332.401986	2261.756523
332.795338	2281.633793
333.188625	2300.656587
333.581847	2318.295584
333.975006	2338.520693
334.368100	2355.572396
334.761129	2375.885725
335.154095	2390.288302
335.546996	2413.938875
335.939833	2438.327977
336.332606	2453.111161
336.725315	2462.757409
337.117960	2470.669500
337.510540	2479.751139
337.903056	2486.995277
338.295508	2492.595999
338.687896	2500.719818
339.080220	2509.309944
339.472480	2510.703823
339.864676	2513.995697
340.256807	2520.163548
340.648875	2521.592716
341.040879	2523.112623
341.432818	2524.446009
341.824694	2526.225536
342.216506	2519.853517
342.608253	2521.622963
342.999937	2521.214629
343.391557	2520.304701
343.783113	2518.908301
344.174605	2516.075173
344.566033	2515.296314
344.957397	2512.264060
345.348697	2511.729698
345.739934	2509.105778
346.131106	2508.546209
346.522215	2506.996055
346.913260	2508.652074
347.304241	2501.791063
347.695159	2504.432628
348.086012	2501.642349
348.476802	2497.798469
348.867528	2500.094715
349.258191	2497.085146
349.648789	2495.887872
350.039324	2493.296719
350.429796	2495.955928
350.820203	2493.931904
351.210548	2493.087511
351.600828	2492.114568
351.991045	2491.517192
352.381198	2490.887048
352.771288	2491.597850
353.161314	2493.326966
353.551276	2492.568272
353.941175	2488.394197
354.331010	2489.810761
354.720782	2492.560711
355.110490	2493.102635
355.500135	2490.864362
355.889717	2493.591627
356.279235	2492.989209
356.668689	2495.101452
357.058080	2493.178252
357.447408	2492.742192
357.836672	2490.662716
358.225873	2491.267655
358.615010	2489.571306
359.004084	2495.482059
359.393095	2493.954590
359.782043	2498.625219
360.170927	2497.604385
360.559748	2495.865187
360.948505	2497.506083
361.337199	2497.697646
361.725830	2500.180415
362.114398	2497.450630
362.502903	2498.988182
362.891344	2500.193017
363.279722	2500.636639
363.668037	2501.107987
364.056289	2503.129490
364.444478	2502.587566
364.832603	2502.315343
365.220665	2502.138903
365.608665	2503.855416
365.996601	2503.996568
366.384474	2501.745693
366.772284	2507.837927
367.160031	2505.145951
367.547715	2504.500683
367.935336	2503.663852
368.322893	2503.623523
368.710388	2503.336177
369.097820	2507.414470
369.485189	2506.784326
369.872495	2505.960097
370.259738	2506.754079
370.646918	2505.942453
371.034035	2504.898935
371.421090	2506.323061
371.808081	2505.115704
372.195010	2506.948164
372.581875	2506.519666
372.968678	2506.648215
373.355418	2505.450941
373.742096	2510.824811
374.128710	2506.197032
374.515262	2509.312465
374.901751	2509.188957
375.288177	2511.396982
375.674540	2506.819614
376.060841	2511.041581
376.447079	2509.456138
376.833254	2507.858092
377.219367	2505.080416
377.605417	2507.797598
377.991404	2508.820952
378.377329	2508.636950
378.763191	2505.534120
379.148991	2510.429080
379.534727	2509.509070
379.920402	2512.715244
380.306013	2513.635254
380.691563	2517.428722
381.077049	2512.536283
381.462474	2514.315810
381.847835	2512.339678
382.233134	2514.366222
382.618371	2511.132321
383.003545	2512.954698
383.388657	2513.849503
383.773706	2513.133659
384.158693	2511.328926
384.543618	2514.469565
384.928480	2514.814884
385.313280	2514.678773
385.698017	2516.546521
386.082692	2514.865296
386.467305	2513.262209
386.851856	2515.205574
387.236344	2519.573733
387.620770	2515.697086
388.005133	2514.683814
388.389435	2517.968126
388.773674	2519.059536
389.157851	2515.233300
389.541965	2516.163393
389.926018	2516.397807
390.310008	2515.422343
390.693936	2519.135153
391.077802	2518.966274
391.461606	2516.483506
391.845348	2517.171624
392.229027	2518.540297
392.612645	2519.324196
392.996200	2517.658095
393.379694	2518.134484
393.763125	2518.608352
394.146494	2517.083403
394.529801	2520.526512
394.913047	2519.493075
395.296230	2518.142046
395.679351	2519.200688
396.062410	2520.163548
396.445408	2521.481810
396.828343	2519.964423
397.211217	2517.965605
397.594028	2516.659947
397.976778	2515.888650
398.359466	2517.925276
398.742092	2518.285719
399.124656	2521.063394
399.507158	2520.034999
399.889598	2519.001562
400.271977	2523.785617
400.654294	2523.231091
401.036549	2524.299815
401.418742	2522.202695
401.800874	2524.183869
402.182944	2523.631862
402.564952	2521.948117
402.946898	2521.386028
403.328783	2523.604136
403.710606	2522.432068
404.092367	2524.176307
404.474067	2523.369722
404.855705	2522.409383
405.237282	2524.098169
405.618797	2523.188241
406.000250	2527.657224
406.381642	2525.822244
406.762972	2526.681760
407.144240	2523.765453
407.525447	2527.107738
407.906593	2523.407531
408.287677	2527.942049
408.668700	2524.932480
409.049661	2529.993798
409.430560	2526.046575
409.811399	2526.364168
410.192176	2527.004394
410.572891	2527.006915
410.953545	2528.458767
411.334138	2527.639580
411.714669	2525.590351
412.095139	2530.119827
412.475547	2528.594878
412.855894	2527.223684
413.236180	2528.937677
413.616405	2530.535723
413.996568	2528.184024
414.376670	2528.809127
414.756711	2528.536905
415.136691	2527.483304
415.516609	2531.828778
415.896466	2529.298119
416.276262	2529.950949
416.655997	2527.022038
417.035670	2527.379960
417.415283	2524.481297
417.794834	2525.547501
418.174324	2529.847605
418.553753	2528.209230
418.933121	2528.539426
419.312428	2531.060002
419.691674	2528.108407
420.070859	2530.916330
420.449983	2529.598068
420.829045	2530.707122
421.208047	2531.783408
421.586988	2530.792821
421.965867	2532.519417
422.344686	2530.833151
422.723444	2534.069571
423.102141	2527.632018
423.480777	2530.850795
423.859352	2532.776515
424.237866	2531.380116
424.616319	2532.012781
424.994712	2531.075126
425.373044	2533.958666
425.751314	2532.171577
426.129524	2530.959179
426.507673	2531.790970
426.885762	2532.007739
427.263789	2533.237781
427.641756	2531.911957
428.019662	2533.310878
428.397508	2531.780887
428.775292	2531.924560
429.153016	2532.194262
429.530679	2532.695857
429.908282	2533.820034
430.285824	2532.799201
430.663305	2533.383974
431.040726	2532.615198
431.418086	2530.525640
431.795385	2532.773995
432.172624	2532.910106
432.549802	2534.341794
432.926920	2531.901875
433.303977	2535.405477
433.680974	2531.720394
434.057910	2532.446320
434.434786	2534.228368
434.811601	2534.969417
435.188355	2536.322967
435.565050	2532.957997
435.941683	2532.922709
436.318257	2533.031094
436.694770	2528.783922
437.071222	2531.922040
437.447614	2528.751154
437.823946	2531.236443
438.200218	2532.428676
438.576429	2532.579910
438.952580	2535.007226
439.328670	2534.782895
439.704700	2534.309026
440.080670	2532.297606
440.456580	2533.731814
440.832429	2534.354397
441.208218	2536.123842
441.583947	2536.804397
441.959616	2533.825075
442.335224	2536.078471
442.710773	2537.018646
443.086261	2534.855991
443.461689	2537.363965
443.837057	2538.099974
444.212365	2536.753986
444.587612	2537.515200
444.962800	2534.833306
445.337927	2535.304654
445.712995	2533.653676
446.088002	2536.005374
446.462949	2536.958152
446.837837	2537.074099
447.212664	2537.394212
447.587431	2535.649973
447.962139	2538.669624
448.336786	2537.139634
448.711374	2537.956301
449.085901	2537.222813
449.460369	2536.169212
449.834776	2536.212062
450.209124	2535.705426
450.583412	2537.595858
450.957640	2538.258770
451.331808	2537.779861
451.705917	2538.422608
452.079965	2535.234078
452.453954	2538.868750
452.827883	2536.159130
453.201752	2536.295241
453.575562	2539.060314
453.949311	2541.044008
454.323001	2538.026877
454.696632	2536.446475
455.070202	2540.214738
455.443713	2537.679037
455.817164	2536.660724
456.190556	2534.825744
456.563888	2535.561753
456.937160	2535.223996
457.310373	2540.958308
457.683526	2538.062165
458.056619	2537.691640
458.429653	2539.682896
458.802628	2540.156765
459.175542	2538.795653
459.548398	2541.071734
459.921194	2538.407484
460.293930	2540.348328
460.666607	2540.176929
461.039224	2540.489481
461.411782	2540.587783
461.784280	2541.033925
462.156719	2540.348328
462.529099	2541.898483
462.901419	2541.727084
463.273680	2539.665252
463.645882	2541.175078
464.018024	2538.697351
464.390106	2541.477547
464.762130	2540.363452
465.134094	2541.321271
465.505999	2539.811446
465.877845	2542.198432
466.249631	2540.451672
466.621358	2543.252033
466.993026	2540.612989
467.364634	2544.996272
467.736184	2543.254554
468.107674	2543.282280
468.479105	2542.803370
468.850477	2543.083154
469.221790	2544.582898
469.593043	2543.683052
469.964238	2544.824873
470.335373	2542.092568
470.706449	2542.016950
471.077467	2544.015768
471.448425	2542.795809
471.819324	2544.827394
472.190164	2542.964687
472.560945	2543.834286
472.931667	2543.967877
473.302330	2541.908566
473.672934	2543.365459
474.043479	2543.988042
474.413965	2544.076262
474.784393	2541.459903
475.154761	2544.227496
475.525070	2542.563916
475.895321	2538.974614
476.265513	2542.417722
476.635645	2545.455017
477.005719	2542.546272
477.375734	2545.197918
477.745691	2545.008875
478.115588	2545.104657
478.485427	2543.352856
478.855207	2546.032229
479.224928	2545.996941
479.594591	2547.816798
479.964194	2544.872764
480.333739	2547.726057
480.703226	2546.236396
481.072653	2547.589946
481.442022	2545.029040
481.811333	2549.256047
482.180584	2547.456355
482.549777	2550.879299
482.918912	2548.031047
483.287988	2550.201264
483.657005	2547.375697
484.025964	2547.239586
484.394864	2548.252858
484.763706	2547.877292
485.132489	2546.627086
485.501213	2546.531304
485.869879	2548.804864
486.238487	2546.783361
486.607036	2545.092054
486.975527	2545.691952
487.343959	2547.158927
487.712333	2550.765873
488.080648	2546.170861
488.448905	2547.678166
488.817104	2550.060111
489.185244	2551.070863
489.553326	2547.274874
489.921350	2549.412323
490.289315	2550.281922
490.657222	2550.559186
491.025070	2550.566747
491.392861	2552.071532
491.760593	2551.726213
492.128267	2548.908208
492.495883	2552.142108
492.863440	2548.613300
493.230939	2549.026675
493.598380	2548.542724
493.965763	2545.419729
494.333088	2546.236396
494.700354	2544.373690
495.067563	2546.722868
495.434713	2545.220604
495.801805	2549.208156
496.168839	2549.261088
496.535815	2549.140101
496.902733	2546.705223
497.269593	2550.924669
497.636395	2549.210677
498.003139	2547.257230
498.369825	2550.418033
498.736453	2551.174206
499.103023	2549.084648
499.469535	2549.654298
499.835989	2551.854762
500.202385	2549.765204
500.568723	2549.079607
500.935003	2551.038095
501.301226	2549.833259
501.667390	2550.798640
502.033497	2552.409289
502.399546	2551.955585
502.765537	2548.333516
503.131470	2551.431305
503.497345	2551.824515
503.863163	2550.536500
504.228923	2549.203115
504.594625	2551.683363
504.960269	2552.005997
505.325856	2550.511295
505.691385	2550.692776
506.056856	2549.697148
506.422270	2549.566078
506.787625	2550.559186
507.152924	2549.717313
507.518164	2551.290153
507.883347	2553.440205
508.248472	2551.101110
508.613540	2550.738147
508.978550	2552.386604
509.343503	2552.590771
509.708398	2551.469114
510.073236	2551.327962
510.438016	2553.132695
510.802738	2552.295863
511.167403	2551.695966
511.532010	2552.931048
511.896561	2553.324258
512.261053	2556.621173
512.625488	2553.026830
512.989866	2548.482230
513.354186	2550.972560
513.718449	2548.567930
514.082655	2554.549259
514.446803	2555.670916
514.810894	2559.482028
515.174927	2559.802141
515.538904	2558.854404
515.902822	2556.779969
516.266684	2559.043447
516.630488	2561.024621
516.994235	2560.800290
517.357925	2563.262893
517.721558	2561.889179
518.085133	2561.566545
518.448651	2565.919581
518.812112	2563.613253
519.175516	2567.721794
519.538863	2567.767164
519.902152	2567.434448
520.265385	2567.005950
520.628560	2570.696075
520.991678	2574.923082
521.354739	2572.311764
521.717743	2572.014336
522.080690	2572.941909
522.443580	2575.318813
522.806413	2577.915007
523.169189	2574.809656
523.531908	2581.658064
523.894569	2578.746797
524.257174	2582.857858
524.619722	2582.172261
524.982213	2583.351891
525.344647	2586.288363
525.707025	2586.850452
526.069345	2586.041347
526.431608	2589.842377
526.793815	2589.368508
527.155964	2591.798345
527.518057	2592.531832
527.880093	2591.193406
528.242072	2594.727255
528.603995	2597.409149
528.965860	2594.129878
529.327669	2597.467122
529.689421	2600.224633
530.051117	2598.608943
530.412755	2599.181114
530.774337	2602.251177
531.135862	2602.553646
531.497331	2602.387288
531.858743	2602.445262
532.220098	2607.206631
532.581396	2602.288986
532.942638	2608.522372
533.303824	2608.361056
533.664953	2612.280553
534.026025	2614.284411
534.387040	2612.925820
534.747999	2615.217025
535.108902	2616.646192
535.469748	2616.018568
535.830537	2616.948661
536.191270	2617.251130
536.551947	2619.875051
536.912567	2622.012500
537.273131	2621.069804
537.633638	2619.622993
537.994089	2625.571555
538.354483	2622.125926
538.714821	2625.453088
539.075103	2626.388222
539.435328	2627.005763
539.795497	2627.850156
540.155609	2629.990126
540.515665	2630.537091
540.875665	2629.110445
541.235609	2631.608337
541.595496	2633.045065
541.955328	2634.154119
542.315102	2635.094294
542.674821	2632.120014
543.034483	2635.553039
543.394090	2636.536064
543.753640	2638.391209
544.113134	2640.798360
544.472571	2639.815335
544.831953	2639.298617
545.191278	2641.587301
545.550548	2640.833648
545.909761	2640.551343
546.268918	2642.933289
546.628019	2643.412198
546.987064	2644.952271
547.346053	2642.219965
547.704986	2647.177940
548.063863	2646.119298
548.422684	2647.747591
548.781449	2648.687766
549.140158	2646.827580
549.498811	2652.758497
549.857408	2648.125677
550.215949	2646.925882
550.574434	2648.473517
550.932864	2649.300266
551.291237	2650.527787
551.649555	2655.503406
552.007817	2654.406955
552.366022	2654.991729
552.724173	2654.757315
553.082267	2657.996256
553.440305	2658.870897
553.798288	2659.987512
554.156215	2659.112872
554.514086	2658.913746
554.871902	2663.433141
555.229661	2662.896258
555.587365	2661.860301
555.945014	2663.355003
556.302606	2664.121258
556.660143	2665.502534
557.017625	2665.658810
557.375050	2667.818945
557.732421	2668.265087
558.089735	2668.648214
558.446994	2670.808349
558.804197	2670.747855
559.161345	2672.872701
559.518437	2672.701302
559.875474	2673.046621
560.232455	2672.817249
560.589381	2675.466375
560.946251	2675.315140
561.303065	2677.984431
561.659825	2678.730522
562.016528	2677.843279
562.373177	2676.915707
562.729770	2678.715399
563.086307	2681.200687
563.442789	2682.062725
563.799216	2682.355112
564.155587	2682.927283
564.511904	2681.503157
564.868164	2683.839732
565.224370	2686.670339
565.580520	2684.167407
565.936615	2684.530370
566.292654	2685.563806
566.648638	2687.129084
567.004567	2684.152283
567.360441	2686.423323
567.716260	2683.254958
568.072023	2685.563806
568.427732	2679.441325
568.783385	2680.537776
569.138982	2680.527693
569.494525	2680.787313
569.850013	2680.580626
570.205445	2684.041378
570.560823	2680.794875
570.916145	2682.034998
571.271412	2679.751356
571.626625	2678.223886
571.981782	2677.268587
572.336884	2677.538289
572.691931	2676.033505
573.046923	2675.630212
573.401860	2676.144410
573.756743	2672.960922
574.111570	2673.386899
574.466342	2671.486384
574.821059	2669.941270
575.175722	2670.190807
575.530330	2668.007988
575.884882	2665.994047
576.239380	2666.029335
576.593823	2664.643018
576.948211	2663.407935
577.302544	2660.075732
577.656823	2660.219405
578.011047	2660.947852
578.365216	2659.584220
578.719330	2656.851914
579.073389	2654.817809
579.427394	2655.084990
579.781344	2652.435864
580.135239	2655.483241
580.489080	2652.607263
580.842866	2650.058960
581.196597	2653.534835
581.550273	2651.578867
581.903895	2651.420071
582.257463	2648.551655
582.610975	2647.452683
582.964434	2651.551141
583.317837	2648.823877
583.671186	2649.423774
584.024481	2649.033085
584.377721	2646.220121
584.730906	2648.052580
585.084037	2645.748773
585.437113	2644.249030
585.790135	2646.721716
586.143103	2644.359935
586.496016	2643.702065
586.848874	2639.462454
587.201679	2642.172074
587.554428	2639.064203
587.907124	2641.519245
588.259765	2640.639564
588.612352	2643.760038
588.964884	2642.686272
589.317362	2646.630975
589.669786	2644.231386
590.022155	2642.978659
590.374470	2643.336581
590.726731	2643.853299
591.078937	2643.112250
591.431090	2644.100316
591.783188	2641.199132
592.135232	2641.950264
592.487222	2645.355563
592.839157	2643.316416
593.191038	2644.589308
593.542866	2644.438073
593.894639	2646.033598
594.246358	2641.597383
594.598022	2646.394041
594.949633	2645.562250
595.301190	2642.764410
595.652692	2648.329844
596.004141	2647.513177
596.355535	2646.552837
596.706876	2643.613844
597.058162	2644.153248
597.409395	2643.780202
597.760573	2649.005358
598.111698	2649.673311
598.462768	2649.837149
598.813785	2650.384114
599.164748	2652.072901
599.515657	2650.731954
599.866511	2650.172386
600.217312	2652.574495
600.568060	2652.403096
600.918753	2657.860145
601.269392	2656.274702
601.619978	2658.462563
601.970510	2658.485248
602.320988	2659.627070
602.671412	2663.092863
603.021783	2661.388953
603.372100	2662.288799
603.722363	2662.687050
604.072572	2666.223419
604.422728	2669.127124
604.772830	2666.299037
605.122878	2666.533450
605.472872	2667.221568
605.822813	2667.657628
606.172701	2673.654080
606.522534	2676.386386
606.872314	2681.646830
607.222041	2683.020544
607.571714	2685.856193
607.921333	2683.126408
608.270899	2686.050277
608.620411	2687.469362
608.969870	2691.461956
609.319276	2693.065043
609.668627	2697.465970
610.017926	2700.591486
610.367171	2705.342773
610.716362	2707.265973
611.065500	2709.353011
611.414585	2712.319730
611.763616	2716.723178
612.112594	2719.311811
612.461518	2725.663664
612.810389	2732.529716
613.159207	2731.095508
613.507971	2735.246898
613.856682	2741.487846
614.205340	2743.537075
614.553945	2752.328848
614.902496	2750.025040
615.250994	2757.140629
615.599439	2761.823861
615.947830	2772.357352
616.296169	2774.545213
616.644454	2782.532921
616.992686	2791.354940
617.340864	2798.823410
617.688990	2800.577731
618.037063	2814.846717
618.385082	2824.019097
618.733048	2830.844819
619.080961	2835.608709
619.428821	2843.422498
619.776628	2849.066069
620.124382	2853.968592
620.472083	2859.990250
620.819731	2862.036958
621.167326	2862.130220
621.514868	2868.421580
621.862357	2866.662217
622.209793	2868.232536
622.557176	2873.404760
622.904506	2873.651777
623.251783	2868.746734
623.599007	2875.428783
623.946179	2874.191180
624.293297	2878.584546
624.640363	2882.095709
624.987376	2890.461504
625.334336	2891.179869
625.681243	2895.598440
626.028097	2901.985582
626.374899	2907.157806
626.721647	2914.207859
627.068343	2920.184147
627.414987	2926.402411
627.761577	2931.693102
628.108115	2940.331119
628.454600	2944.663990
628.801032	2956.490537
629.147412	2962.335755
629.493739	2972.947384
629.840014	2979.032057
630.186236	2989.623521
630.532405	2999.509224
630.878521	3011.197139
631.224585	3020.213243
631.570597	3025.589633
631.916556	3042.842982
632.262462	3050.742470
632.608316	3064.812331
632.954117	3067.332908
633.299866	3080.707089
633.645562	3087.424426
633.991206	3087.931062
634.336797	3087.381576
634.682336	3091.462390
635.027823	3093.924994
635.373257	3094.802155
635.718639	3095.598657
636.063968	3101.516972
636.409245	3099.966817
636.754470	3110.286059
637.099642	3113.656070
637.444762	3111.679938
637.789829	3122.969602
638.134845	3127.577217
638.479808	3132.202475
638.824719	3142.670431
639.169577	3144.462561
639.514383	3155.815240
639.859137	3158.595436
640.203839	3174.991789
640.548489	3175.448013
640.893086	3187.370342
641.237632	3190.684901
641.582125	3201.732590
641.926566	3207.247612
642.270955	3221.211608
642.615292	3233.713670
642.959576	3241.940833
643.303809	3258.014552
643.647990	3271.119031
643.992118	3280.377110
644.336195	3290.288019
644.680219	3305.424083
645.024192	3328.631035
645.368112	3354.161958
645.711981	3372.015205
646.055797	3413.516504
646.399562	3432.395625
646.743274	3478.978407
647.086935	3509.565608
647.430544	3526.352650
647.774101	3542.454096
648.117606	3563.942014
648.461059	3586.034871
648.804460	3588.615942
649.147810	3575.619847
649.491108	3578.861309
649.834354	3580.829879
650.177548	3564.544432
650.520690	3560.017476
650.863781	3572.360741
651.206820	3578.573963
651.549807	3577.936257
651.892742	3574.561205
652.235626	3582.974890
652.578458	3589.477979
652.921238	3586.511260
653.263967	3609.503962
653.606644	3611.313737
653.949269	3626.278402
654.291843	3627.241262
654.634365	3655.159172
654.976836	3655.789317
655.319255	3671.429496
655.661622	3685.897608
656.003938	3690.003628
656.346203	3697.686346
656.688416	3718.483626
657.030577	3723.844893
657.372687	3730.461408
657.714746	3751.712392
658.056753	3771.730814
658.398708	3762.298815
658.740612	3780.114253
659.082465	3805.680464
659.424266	3818.878205
659.766016	3835.844208
660.107715	3849.457844
660.449362	3868.649517
660.790958	3885.839852
661.132503	3902.510947
661.473996	3921.374945
661.815438	3939.250877
662.156829	3966.286585
662.498168	3969.444868
662.839456	3987.535048
663.180693	4006.182276
663.521879	4034.717728
663.863013	4047.328174
664.204097	4069.516813
664.545129	4106.191207
664.886110	4124.094865
665.227040	4150.318947
665.567918	4173.767874
665.908746	4199.555897
666.249522	4227.425916
666.590248	4243.509717
666.930922	4274.643883
667.271545	4287.692910
667.612118	4311.996313
667.952639	4313.599400
668.293109	4336.655117
668.633528	4344.012681
668.973896	4356.368549
669.314213	4373.876476
669.654480	4381.155902
669.994695	4398.489910
670.334859	4406.890993
670.674973	4420.779372
671.015035	4445.758289
671.355047	4463.256134
671.695008	4480.857322
672.034918	4494.067666
672.374777	4519.354094
672.714585	4536.219274
673.054342	4569.785797
673.394049	4576.435079
673.733705	4616.509731
674.073310	4614.004278
674.412864	4635.809789
674.752368	4625.062049
675.091820	4665.650899
675.431223	4651.767561
675.770574	4649.408301
676.109875	4652.606913
676.449125	4650.051048
676.788324	4658.295856
677.127473	4638.995798
677.466571	4645.587107
677.805619	4643.825223
678.144616	4661.433974
678.483562	4670.455119
678.822458	4665.068646
679.161303	4678.410059
679.500098	4689.971946
679.838842	4702.998287
680.177535	4732.105910
680.516179	4771.215181
680.854771	4822.196370
681.193314	4921.733953
681.531805	5047.760278
681.870247	5144.905833
682.208638	5229.514039
682.546978	5265.212970
682.885268	5291.948729
683.223508	5271.698414
683.561697	5267.867138
683.899836	5269.253455
684.237925	5252.317698
684.575963	5269.639103
684.913951	5259.735756
685.251889	5302.600688
685.589776	5330.248896
685.927614	5360.551272
686.265401	5405.563734
686.603137	5447.448161
686.940824	5533.147776
687.278460	5610.048058
687.616046	5662.856665
687.953582	5754.966107
688.291068	5774.404797
688.628504	5832.216749
688.965889	5850.211148
689.303224	5832.645247
689.640510	5813.037679
689.977745	5750.915540
690.314930	5689.771385
690.652065	5642.755064
690.989150	5577.081432
691.326185	5497.852138
691.663170	5438.696718
692.000105	5372.506368
692.336990	5320.181712
692.673825	5284.235764
693.010610	5245.764198
693.347345	5197.391807
693.684030	5143.360720
694.020665	5129.663905
694.357251	5076.288168
694.693786	5091.877936
695.030272	5085.122790
695.366707	5047.926636
695.703093	5027.875447
696.039429	5046.550401
696.375716	5038.963465
696.711952	5057.683790
697.048139	5057.439294
697.384276	5065.749636
697.720363	5096.503195
698.056400	5093.196198
698.392388	5082.995423
698.728326	5095.192495
699.064214	5092.561013
699.400053	5099.646354
699.735842	5070.059822
700.071581	5051.266401
700.407270	5025.377555
700.742910	5021.964694
701.078501	5001.837887
701.414042	4978.782170
701.749533	4958.373059
702.084974	4927.639664
702.420366	4968.417558
702.755709	4929.653605
703.091002	4904.478083
703.426246	4918.782357
703.761440	4924.919962
704.096584	4903.837857
704.431679	4915.326646
704.766725	4919.820835
705.101721	4928.032874
705.436668	4955.242502
705.771565	4928.867185
706.106413	4990.359180
706.441212	5011.219475
706.775961	5042.444382
707.110661	5072.436726
707.445311	5144.106811
707.779913	5139.443743
708.114465	5199.287281
708.448967	5261.336323
708.783421	5380.846957
709.117825	5441.993632
709.452180	5502.220297
709.786485	5585.432103
710.120742	5731.434001
710.454949	5757.368217
710.789107	5850.410273
711.123216	5981.979347
711.457275	6024.698085
711.791286	6129.959898
712.125247	6164.088509
712.459159	6133.241689
712.793023	6251.867601
713.126837	6102.979643
713.460602	6156.788919
713.794318	6112.348627
714.127985	6068.167955
714.461602	5942.681033
714.795171	5943.134736
715.128691	5799.184588
715.462162	5723.232044
715.795584	5671.240104
716.128957	5641.391432
716.462281	5588.643318
716.795556	5560.753135
717.128782	5499.430019
717.461960	5416.026649
717.795088	5415.973717
718.128167	5366.494792
718.461198	5303.298887
718.794180	5292.483092
719.127113	5241.703549
719.459997	5226.277618
719.792833	5182.051576
720.125619	5188.680693
720.458357	5146.236698
720.791046	5126.021671
721.123686	5112.980206
721.456278	5084.565743
721.788821	5090.980611
722.121315	5061.033636
722.453761	5085.982307
722.786158	5081.500721
723.118506	5102.146767
723.450805	5089.044808
723.783056	5132.756653
724.115259	5127.987721
724.447412	5128.333040
724.779518	5187.198594
725.111574	5207.524526
725.443582	5263.821612
725.775542	5271.511892
726.107453	5382.079519
726.439315	5372.934866
726.771129	5466.297035
727.102895	5550.627977
727.434612	5605.369867
727.766281	5639.102748
728.097901	5702.717068
728.429473	5728.184977
728.760996	5741.614611
729.092471	5771.123005
729.423897	5768.418426
729.755276	5759.195635
730.086606	5801.609383
730.417887	5917.828144
730.749120	6042.737854
731.080305	6099.274394
731.411442	6185.001736
731.742530	6213.259924
732.073570	6255.535040
732.404562	6331.837945
732.735506	6304.535056
733.066401	6259.076451
733.397249	6162.276215
733.728048	6040.071084
734.058798	5881.373040
734.389501	5747.416979
734.720156	5659.499256
735.050762	5558.628288
735.381320	5496.448176
735.711831	5452.348162
736.042293	5388.791815
736.372707	5406.423251
736.703073	5372.075349
737.033391	5423.996713
737.363661	5435.304021
737.693883	5470.700483
738.024056	5520.469274
738.354182	5570.742181
738.684260	5649.346372
739.014290	5707.533891
739.344272	5762.805102
739.674207	5838.344271
740.004093	5875.328697
740.333931	5888.740686
740.663722	5908.406228
740.993464	5921.818217
741.323159	5894.016254
741.652806	5846.087484
741.982405	5808.301515
742.311956	5743.497482
742.641460	5728.283280
742.970915	5667.214742
743.300323	5599.169248
743.629683	5561.859668
743.958996	5508.904867
744.288260	5451.309685
744.617477	5388.489346
744.946647	5381.295620
745.275768	5326.215973
745.604842	5291.515190
745.933869	5261.742136
746.262847	5255.218883
746.591778	5255.347432
746.920662	5237.022838
747.249498	5246.475001
747.578286	5288.727432
747.907027	5334.281819
748.235720	5400.396552
748.564365	5413.823665
748.892963	5400.835132
749.221514	5424.780613
749.550017	5399.000152
749.878473	5398.554010
750.206881	5354.149006
750.535242	5340.467315
750.863555	5326.513401
751.191821	5310.112007
751.520039	5328.890305
751.848210	5311.425227
752.176334	5329.833001
752.504411	5317.220034
752.832440	5278.695536
753.160421	5303.064474
753.488356	5274.188744
753.816243	5262.407568
754.144082	5228.344491
754.471875	5217.995002
754.799620	5209.561152
755.127318	5211.575093
755.454969	5209.084763
755.782572	5205.117375
756.110129	5214.766143
756.437638	5204.073856
756.765100	5202.901788
757.092515	5216.593562
757.419882	5224.631682
757.747203	5228.866251
758.074477	5260.123925
758.401703	5251.624540
758.728882	5308.524043
759.056014	5324.411240
759.383099	5367.533270
759.710138	5407.368467
760.037129	5441.418941
760.364073	5452.653152
760.690970	5459.821673
761.017820	5473.710052
761.344623	5544.694539
761.671379	5656.608155
761.998088	5875.026227
762.324751	6379.068515
762.651366	7248.758294
762.977935	8330.403387
763.304456	8966.533988
763.630931	9119.598542
763.957359	8795.515364
764.283740	8242.037001
764.610074	7691.606016
764.936362	7064.060500
765.262602	6612.935204
765.588796	6171.604870
765.914943	5864.492736
766.241044	5608.422286
766.567097	5414.282410
766.893104	5248.070526
767.219064	5141.954238
767.544978	5028.712278
767.870845	4932.678298
768.196665	4878.826172
768.522438	4820.951205
768.848165	4774.502013
769.173846	4728.400662
769.499479	4696.517884
769.825066	4650.658507
770.150607	4598.200261
770.476101	4583.590997
770.801548	4551.483888
771.126949	4512.084750
771.452303	4488.852592
771.777611	4440.389460
772.102872	4441.049851
772.428087	4401.020569
772.753256	4368.399263
773.078378	4344.925130
773.403453	4301.160353
773.728482	4269.549797
774.053465	4250.595059
774.378401	4223.488775
774.703291	4192.064742
775.028135	4161.888395
775.352932	4152.010254
775.677683	4129.541832
776.002388	4103.171556
776.327046	4105.659365
776.651658	4077.554932
776.976224	4055.756983
777.300743	4052.933937
777.625216	4032.197151
777.949643	4023.541490
778.274024	4027.445863
778.598359	4002.933253
778.922647	4007.583717
779.246889	3998.270185
779.571086	4001.834281
779.895236	4005.431144
780.219339	4006.119262
780.543397	4012.839120
780.867409	4032.199671
781.191374	4036.431720
781.515294	4028.207077
781.839167	4054.446283
782.162995	4047.524779
782.486776	4033.558262
782.810511	4021.401520
783.134201	3995.958816
783.457844	3996.664578
783.781441	3984.096981
784.104993	3968.696256
784.428498	3966.158035
784.751958	3965.132161
785.075372	3955.659832
785.398739	3946.810087
785.722061	3962.689722
786.045337	3963.130822
786.368568	4014.530427
786.691752	4025.608363
787.014891	4124.702324
787.337983	4229.230649
787.661030	4393.819281
787.984031	4550.725194
788.306987	4654.532634
788.629897	4703.262948
788.952760	4682.475750
789.275579	4624.595742
789.598351	4520.576574
789.921078	4427.529477
790.243759	4318.005368
790.566395	4241.649531
790.888984	4171.701001
791.211529	4117.629585
791.534027	4057.405441
791.856480	4003.840660
792.178888	3981.745283
792.501249	3960.542190
792.823566	3914.871857
793.145836	3919.350922
793.468062	3911.801794
793.790241	3903.320053
794.112375	3922.045419
794.434464	3960.554793
794.756507	3978.024912
795.078505	4022.916387
795.400457	4106.443265
795.722364	4201.526988
796.044226	4278.104635
796.366042	4348.446376
796.687812	4334.157225
797.009538	4351.297148
797.331218	4322.328158
797.652852	4299.630362
797.974442	4254.234772
798.295986	4231.408427
798.617484	4186.471582
798.938938	4138.389057
799.260346	4115.487095
799.581709	4060.384762
799.903026	4039.529509
800.224299	4008.241588
800.545526	3961.341213
800.866708	3937.143674
801.187845	3916.167433
801.508936	3887.526118
801.829983	3877.292575
802.150984	3830.629135
802.471940	3818.923576
802.792851	3815.677073
803.113717	3803.212820
803.434538	3794.232004
803.755314	3783.464099
804.076045	3782.392854
804.396731	3763.826285
804.717372	3770.793159
805.037967	3770.495731
805.358518	3782.027371
805.679024	3805.022594
805.999485	3812.165909
806.319901	3819.823422
806.640272	3824.932631
806.960598	3848.061445
807.280879	3847.816949
807.601115	3867.210268
807.921306	3852.167465
808.241453	3850.208976
808.561554	3861.491079
808.881611	3850.783668
809.201623	3852.535469
809.521590	3834.309177
809.841513	3834.500741
810.161390	3842.375023
810.481223	3808.011998
810.801011	3802.002943
811.120755	3797.329793
811.440453	3772.373561
811.760107	3767.932304
812.079716	3755.785644
812.399281	3732.230853
812.718801	3736.946852
813.038276	3723.507136
813.357707	3710.952142
813.677093	3722.551838
813.996434	3698.823126
814.315731	3710.137996
814.634983	3710.442986
814.954191	3721.508319
815.273354	3752.158534
815.592473	3768.335597
815.911547	3809.688182
816.230577	3833.109383
816.549562	3873.647821
816.868502	3900.985998
817.187399	3936.553859
817.506250	3977.523317
817.825058	4001.065505
818.143821	4080.624995
818.462539	4166.516174
818.781213	4283.284421
819.099843	4456.536276
819.418429	4761.072380
819.736970	5053.350918
820.055466	5400.320934
820.373919	5866.496595
820.692327	6590.630619
821.010691	7834.121956
821.329011	10313.784874
821.647286	13723.175193
821.965517	17352.306888
822.283704	19335.176698
822.601847	20168.834830
822.919945	18716.755671
823.237999	16962.681149
823.556010	15044.751483
823.873976	13233.777457
824.191897	11521.471416
824.509775	10290.000710
824.827609	9172.578549
825.145398	8556.481493
825.463144	8276.828525
825.780845	8446.352446
826.098502	9021.101958
826.416116	10040.009891
826.733685	10982.561987
827.051210	11183.512462
827.368692	10592.114540
827.686129	9508.321915
828.003522	8411.238289
828.320872	7410.715444
828.638177	6659.638974
828.955439	6078.061219
829.272656	5577.910702
829.589830	5180.778684
829.906960	4843.086912
830.224046	4591.188016
830.541088	4397.007811
830.858086	4281.605717
831.175041	4190.827139
831.491952	4167.184127
831.808819	4196.120350
832.125642	4339.657124
832.442421	4638.474039
832.759157	5201.661664
833.075849	6045.853287
833.392497	6897.586476
833.709101	7385.607977
834.025662	7259.521158
834.342179	6762.231496
834.658653	6153.585265
834.975083	5624.271673
835.291469	5189.976269
835.607811	4822.425742
835.924110	4564.003593
836.240366	4320.150379
836.556578	4093.535390
836.872746	3915.446548
837.188871	3781.482926
837.504952	3670.612829
837.820990	3583.219386
838.136984	3524.832743
838.452935	3507.329856
838.768842	3527.060933
839.084706	3686.202598
839.400526	4065.995567
839.716303	4505.856404
840.032037	4774.655769
840.347727	4689.251061
840.663373	4394.436822
840.978977	4107.391002
841.294537	3885.383627
841.610054	3716.152093
841.925527	3594.609873
842.240957	3488.831342
842.556344	3395.436406
842.871687	3311.692758
843.186987	3236.052765
843.502244	3174.989268
843.817458	3130.145684
844.132629	3094.018255
844.447756	3069.316602
844.762840	3041.192004
845.077881	3023.623583
845.392879	3003.751355
845.707833	2989.227790
846.022745	2978.306131
846.337613	2970.358752
846.652438	2958.370888
846.967221	2955.696556
847.281960	2943.708692
847.596656	2939.169133
847.911309	2932.688729
848.225919	2926.097421
848.540485	2918.306318
848.855009	2916.388158
849.169490	2911.795667
849.483928	2906.777199
849.798323	2903.611354
850.112675	2899.641445
850.426984	2901.262176
850.741251	2894.484345
851.055474	2896.470560
851.369654	2896.888975
851.683792	2896.039541
851.997887	2896.793193
852.311938	2894.111300
852.625947	2895.568193
852.939914	2891.613408
853.253837	2898.870149
853.567718	2895.134654
853.881555	2892.861093
854.195350	2896.906619
854.509103	2895.381670
854.822812	2893.143398
855.136479	2891.356309
855.450103	2893.483676
855.763685	2892.203223
856.077224	2894.287740
856.390720	2897.604819
856.704173	2901.655386
857.017584	2904.707805
857.330953	2906.941036
857.644278	2914.202818
857.957561	2915.581574
858.270802	2915.730288
858.584000	2912.871954
858.897155	2910.908424
859.210268	2904.788463
859.523339	2900.954666
859.836367	2900.944584
860.149352	2897.418297
860.462295	2892.997205
860.775195	2887.464538
861.088054	2887.741802
861.400869	2885.390103
861.713642	2887.381359
862.026373	2891.867986
862.339062	2895.308574
862.651708	2898.242525
862.964312	2908.839031
863.276873	2915.079979
863.589392	2929.903492
863.901869	2942.163578
864.214303	2957.271916
864.526696	2964.294243
864.839045	2976.372848
865.151353	2986.044302
865.463619	2982.099599
865.775842	2986.102275
866.088023	2989.089159
866.400162	2987.145794
866.712258	2986.533294
867.024313	2988.814416
867.336325	2988.136381
867.648296	2988.254848
867.960224	2986.926504
868.272110	2989.928511
868.583954	2989.946155
868.895755	2993.631238
869.207515	2992.708707
869.519233	3008.255626
869.830909	3009.052128
870.142542	3017.387676
870.454134	3020.233407
870.765684	3026.907895
871.077191	3034.777136
871.388657	3043.642005
871.700081	3053.840259
872.011463	3067.095973
872.322803	3076.585945
872.634101	3082.544589
872.945357	3095.187803
873.256571	3111.788323
873.567744	3117.084055
873.878874	3122.745271
874.189963	3132.883031
874.501010	3135.514513
874.812015	3129.565952
875.122979	3141.185811
875.433900	3144.013899
875.744780	3144.127325
876.055618	3149.866678
876.366415	3147.908190
876.677169	3157.294818
876.987882	3167.752692
877.298554	3183.201308
877.609183	3204.202755
877.919771	3230.555387
878.230317	3279.479785
878.540822	3342.978159
878.851285	3435.521140
879.161707	3565.708938
879.472087	3797.329793
879.782425	4158.939320
880.092722	4800.267351
880.402977	5699.606676
880.713191	6655.308623
881.023363	7551.777011
881.333494	8049.900984
881.643583	8326.262079
881.953631	8276.732743
882.263637	8016.931838
882.573602	7612.785055
882.883526	7203.249278
883.193408	6760.709067
883.503248	6328.644374
883.813048	5923.769144
884.122806	5542.310073
884.432522	5173.075801
884.742197	4842.512220
885.051831	4565.704983
885.361424	4317.110563
885.670975	4115.998772
885.980485	3946.948719
886.289954	3801.516471
886.599382	3685.106147
886.908768	3587.027978
887.218113	3495.019359
887.527417	3422.867844
887.836680	3353.504088
888.145901	3299.936787
888.455082	3253.361567
888.764221	3215.023592
889.073319	3186.125177
889.382376	3167.687157
889.691392	3151.104282
890.000366	3146.438694
890.309300	3145.475833
890.618193	3146.365597
890.927044	3143.766882
891.235855	3147.777120
891.544625	3159.759943
891.853353	3178.298786
892.162041	3210.536965
892.470687	3268.278341
892.779293	3337.581603
893.087858	3435.148095
893.396381	3598.400821
893.704864	3825.789627
894.013306	4142.663955
894.321707	4448.483032
894.630068	4637.022186
894.938387	4656.846524
895.246665	4559.937903
895.554903	4388.647057
895.863100	4206.457236
896.171256	4059.343764
896.479371	3923.275460
896.787446	3803.064106
897.095480	3688.561858
897.403473	3602.695884
897.711425	3522.501209
898.019336	3450.314406
898.327207	3384.156824
898.635038	3327.605160
898.942827	3267.814555
899.250576	3216.631720
899.558284	3166.704132
899.865952	3133.135089
900.173579	3098.315839
900.481165	3073.291551
900.788711	3049.509908
901.096216	3033.441230
901.403681	3013.768127
901.711105	3010.516583
902.018489	3007.643125
902.325832	3032.564069
902.633135	3067.640418
902.940397	3174.603620
903.247619	3416.412647
903.554800	3828.403465
903.861941	4330.441895
904.169041	4686.455741
904.476101	4789.007934
904.783121	4651.016429
905.090100	4441.831230
905.397039	4218.866037
905.703938	4025.023589
906.010796	3848.913400
906.317614	3704.317984
906.624391	3576.799477
906.931129	3467.310657
907.237826	3360.226467
907.544483	3269.982251
907.851099	3170.512724
908.157675	3081.196081
908.464211	3003.584997
908.770707	2948.018878
909.077163	2901.645304
909.383578	2867.395705
909.689954	2843.243537
909.996289	2825.284426
910.302584	2814.640030
910.608839	2808.318423
910.915054	2800.255097
911.221229	2797.409366
911.527363	2802.858853
911.833458	2805.641570
912.139513	2812.472334
912.445527	2824.717296
912.751502	2844.478619
913.057436	2871.655480
913.363331	2906.749472
913.669186	2960.415076
913.975000	3032.710263
914.280775	3143.902993
914.586510	3302.958959
914.892205	3514.745394
915.197859	3795.421716
915.503475	4109.525930
915.809050	4369.460425
916.114585	4526.015979
916.420081	4561.583840
916.725536	4529.287687
917.030952	4398.250455
917.336328	4288.227272
917.641665	4171.534643
917.946961	4046.221641
918.252218	3931.449691
918.557435	3805.554436
918.862612	3693.945810
919.167750	3595.083742
919.472848	3488.543997
919.777906	3395.630490
920.082925	3303.934422
920.387904	3218.504508
920.692843	3155.001093
920.997743	3101.330449
921.302603	3042.676624
921.607423	3008.847961
921.912204	2968.478401
922.216946	2941.455296
922.521647	2911.188208
922.826310	2889.685167
923.130932	2865.868235
923.435516	2842.300841
923.740059	2826.451453
924.044564	2810.029895
924.349028	2792.469035
924.653454	2776.143258
924.957840	2756.311359
925.262186	2746.312231
925.566493	2734.256311
925.870761	2720.962788
926.174989	2711.487940
926.479178	2705.567105
926.783328	2697.634849
927.087438	2689.742923
927.391509	2683.754032
927.695541	2677.150120
927.999533	2669.772392
928.303486	2661.189827
928.607400	2658.969199
928.911275	2658.003818
929.215110	2655.616832
929.518906	2652.130874
929.822663	2654.091883
930.126381	2650.356388
930.430060	2651.130205
930.733699	2653.781852
931.037299	2656.395690
931.340861	2654.749753
931.644383	2657.892913
931.947866	2657.303098
932.251309	2655.740340
932.554714	2654.051553
932.858080	2653.809578
933.161407	2652.453508
933.464694	2652.032571
933.767943	2649.219607
934.071153	2644.916983
934.374323	2638.885242
934.677455	2642.923206
934.980548	2639.961528
935.283602	2638.693678
935.586617	2635.628657
935.889593	2639.757362
936.192530	2642.101498
936.495428	2643.369348
936.798287	2650.646254
937.101108	2659.518685
937.403890	2671.698112
937.706632	2687.187058
938.009336	2708.596838
938.312002	2725.739282
938.614628	2740.799729
938.917216	2753.016965
939.219765	2755.736668
939.522275	2763.409304
939.824747	2764.427617
940.127179	2758.471494
940.429573	2755.396390
940.731929	2755.691297
941.034246	2749.813312
941.336524	2745.992117
941.638763	2745.417426
941.940964	2741.495408
942.243126	2728.655589
942.545250	2723.506051
942.847335	2717.670915
943.149381	2705.947712
943.451389	2698.484283
943.753359	2690.166380
944.055290	2686.927438
944.357182	2682.521470
944.659036	2679.557271
944.960851	2674.831190
945.262628	2673.293638
945.564367	2672.459327
945.866067	2671.345232
946.167729	2673.258350
946.469352	2672.847496
946.770937	2669.500169
947.072484	2666.384736
947.373992	2664.884993
947.675462	2666.006650
947.976893	2661.036072
948.278286	2657.741678
948.579641	2656.239414
948.880958	2657.716472
949.182236	2655.707572
949.483476	2653.365957
949.784678	2654.764877
950.085841	2655.843684
950.386967	2658.593633
950.688054	2657.872748
950.989103	2667.549243
951.290114	2669.540499
951.591087	2678.392765
951.892021	2684.643796
952.192917	2691.789631
952.493776	2698.375899
952.794596	2699.981506
953.095378	2702.759182
953.396122	2702.003009
953.696828	2698.854808
953.997496	2695.658717
954.298126	2686.834177
954.598718	2681.152797
954.899272	2679.247240
955.199788	2671.239367
955.500266	2662.966834
955.800706	2651.044505
956.101108	2640.626961
956.401472	2635.154788
956.701798	2629.717904
957.002087	2621.561317
957.302337	2614.758280
957.602550	2608.383741
957.902724	2600.975765
958.202861	2598.001484
958.502960	2591.253900
958.803022	2589.925556
959.103045	2580.581777
959.403031	2576.798391
959.702979	2576.427867
960.002889	2571.999213
960.302762	2566.227092
960.602596	2564.916392
960.902393	2564.823130
961.202153	2563.278017
961.501875	2561.211144
961.801559	2558.695608
962.101205	2559.164435
962.400814	2556.744681
962.700385	2555.333158
962.999918	2558.017573
963.299414	2555.519681
963.598873	2554.030020
963.898293	2553.304094
964.197677	2552.729402
964.497022	2553.805689
964.796331	2552.573127
965.095601	2550.183620
965.394835	2550.067673
965.694030	2550.569268
965.993189	2548.245296
966.292309	2546.884184
966.591393	2548.804864
966.890439	2548.353681
967.189447	2550.428116
967.488419	2548.346119
967.787353	2549.240924
968.086249	2548.293187
968.385108	2549.757642
968.683930	2550.652447
968.982714	2551.222097
969.281462	2550.919628
969.580172	2553.236038
969.878844	2554.488765
970.177480	2559.078736
970.476078	2557.931873
970.774639	2560.021431
971.073162	2563.424210
971.371649	2563.376319
971.670098	2559.973540
971.968510	2562.133675
972.266885	2563.721638
972.565223	2564.714746
972.863524	2565.138203
973.161788	2568.780436
973.460014	2569.035014
973.758204	2566.033007
974.056356	2568.760272
974.354471	2570.237330
974.652550	2569.897052
974.950591	2568.674572
975.248595	2567.535271
975.546563	2566.491752
975.844493	2567.608368
976.142386	2566.045610
976.440243	2565.927143
976.738062	2565.435631
977.035845	2563.630898
977.333590	2563.404046
977.631299	2560.598643
977.928971	2556.197716
978.226606	2559.073694
978.524204	2560.583520
978.821765	2556.386759
979.119290	2557.052192
979.416777	2553.495658
979.714228	2554.143446
980.011642	2559.242573
980.309020	2561.317008
980.606360	2561.173335
980.903664	2568.596434
981.200931	2577.146231
981.498162	2586.454722
981.795356	2605.863164
982.092513	2630.290075
982.389633	2650.197591
982.686717	2676.467044
982.983764	2694.148891
983.280775	2702.824717
983.577749	2702.764223
983.874686	2694.957996
984.171587	2688.777542
984.468451	2677.505522
984.765279	2669.079233
985.062070	2659.314518
985.358824	2647.177940
985.655543	2633.977679
985.952224	2620.119547
986.248869	2606.216045
986.545478	2587.359609
986.842050	2575.865778
987.138586	2567.230281
987.435086	2559.476987
987.731549	2553.223435
988.027975	2552.668908
988.324366	2547.131201
988.620719	2546.135573
988.917037	2545.709596
989.213318	2540.320602
989.509563	2543.496529
989.805772	2539.776158
990.101944	2538.687268
990.398080	2538.026877
990.694180	2537.885725
990.990244	2538.651980
991.286271	2538.410005
991.582262	2537.401774
991.878217	2539.738349
992.174136	2540.227341
992.470019	2544.633309
992.765865	2542.568957
993.061676	2544.267826
993.357450	2544.262784
993.653188	2547.030378
993.948890	2548.091541
994.244556	2553.972047
994.540186	2561.332131
994.835780	2569.234140
995.131337	2573.992989
995.426859	2584.954978
995.722345	2596.063161
996.017795	2607.236878
996.313208	2616.550410
996.608586	2619.726337
996.903928	2625.216153
997.199234	2623.804630
997.494504	2622.887140
997.789738	2617.745163
998.084936	2610.627054
998.380099	2602.785539
998.675225	2596.605085
998.970316	2588.423292
999.265371	2580.513722
999.560390	2570.970818
999.855373	2567.981413
1000.150320	2560.538150
1000.445232	2557.122768
1000.740108	2549.175389
1001.034948	2549.422405
1001.329752	2546.695141
1001.624521	2543.516694
1001.919254	2538.069727
1002.213951	2535.307175
1002.508613	2535.193749
1002.803239	2533.051258
1003.097829	2531.919519
1003.392384	2535.435724
1003.686903	2533.598223
1003.981386	2535.851619
1004.275834	2530.734848
1004.570246	2535.513862
1004.864623	2531.438089
1005.158964	2529.557739
1005.453270	2528.655372
1005.747540	2531.687626
1006.041775	2530.462626
1006.335974	2531.576721
1006.630138	2528.730989
1006.924266	2527.846267
1007.218359	2530.323994
1007.512416	2531.289375
1007.806438	2528.786442
1008.100425	2530.807945
1008.394376	2528.224353
1008.688292	2531.400280
1008.982172	2529.061185
1009.276017	2525.580268
1009.569827	2528.486493
1009.863602	2528.451205
1010.157341	2530.581093
1010.451045	2531.324663
1010.744714	2528.398273
1011.038347	2529.998840
1011.331945	2527.435413
1011.625508	2526.709487
1011.919036	2528.524302
1012.212528	2527.526154
1012.505986	2528.715866
1012.799408	2528.000022
1013.092795	2523.740247
1013.386147	2526.016328
1013.679464	2524.672861
1013.972745	2525.771832
1014.265992	2526.316277
1014.559204	2530.553367
1014.852380	2525.804600
1015.145521	2530.152595
1015.438628	2525.560104
1015.731699	2528.736031
1016.024736	2527.664785
1016.317737	2524.801410
1016.610703	2527.241328
1016.903635	2526.787625
1017.196531	2524.914836
1017.489393	2524.496420
1017.782219	2526.346524
1018.075011	2528.355423
1018.367768	2527.808458
1018.660490	2529.913140
1018.953177	2529.913140
1019.245829	2529.913140
