Dividing Wavelength (nm)	Counts (n)	Blue Motor Position (mm): 49.100000	Red Motor Position (mm): 0.000000	
326.493990	2130.618467
326.888308	2130.618467
327.282561	2130.618467
327.676750	2099.678386
328.070874	2095.839547
328.464933	2099.930443
328.858929	2105.710126
329.252859	2114.580036
329.646726	2124.818620
330.040528	2140.269756
330.434265	2157.495379
330.827938	2172.492812
331.221547	2191.356809
331.615091	2211.367670
332.008571	2230.360217
332.401986	2250.232445
332.795338	2268.095774
333.188625	2287.824329
333.581847	2305.657411
333.975006	2326.676502
334.368100	2341.129490
334.761129	2360.500124
335.154095	2376.851106
335.546996	2400.345404
335.939833	2424.053950
336.332606	2436.467792
336.725315	2452.140739
337.117960	2461.902933
337.510540	2470.621609
337.903056	2479.952785
338.295508	2488.313538
338.687896	2496.457522
339.080220	2506.985972
339.472480	2511.699451
339.864676	2516.604494
340.256807	2521.023065
340.648875	2523.586492
341.040879	2525.713859
341.432818	2526.217974
341.824694	2528.420958
342.216506	2527.062367
342.608253	2528.110927
342.999937	2530.881042
343.391557	2530.639066
343.783113	2528.637728
344.174605	2528.665454
344.566033	2526.384332
344.957397	2524.206554
345.348697	2518.512571
345.739934	2524.665299
346.131106	2519.669515
346.522215	2519.266223
346.913260	2516.851510
347.304241	2516.004597
347.695159	2514.882940
348.086012	2512.006962
348.476802	2509.443535
348.867528	2506.706188
349.258191	2505.277021
349.648789	2506.774244
350.039324	2501.952380
350.429796	2504.475478
350.820203	2499.946001
351.210548	2501.518841
351.600828	2499.812410
351.991045	2498.226967
352.381198	2501.962463
352.771288	2497.874087
353.161314	2498.975579
353.551276	2498.506752
353.941175	2497.372492
354.331010	2498.395846
354.720782	2497.569097
355.110490	2498.776453
355.500135	2498.799138
355.889717	2498.163953
356.279235	2498.806700
356.668689	2501.612102
357.058080	2499.169663
357.447408	2499.015908
357.836672	2496.323932
358.225873	2498.544560
358.615010	2496.268479
359.004084	2501.082781
359.393095	2500.555981
359.782043	2503.164778
360.170927	2502.494304
360.559748	2502.257370
360.948505	2504.888852
361.337199	2507.074193
361.725830	2507.991683
362.114398	2508.420181
362.502903	2509.221724
362.891344	2508.825993
363.279722	2508.815911
363.668037	2508.692403
364.056289	2508.987310
364.444478	2509.148627
364.832603	2511.548217
365.220665	2512.707682
365.608665	2514.530059
365.996601	2512.967301
366.384474	2513.695748
366.772284	2513.095851
367.160031	2513.216838
367.547715	2517.673218
367.935336	2520.345030
368.322893	2519.266223
368.710388	2521.454084
369.097820	2523.049609
369.485189	2524.095648
369.872495	2531.216278
370.259738	2537.553009
370.646918	2543.269677
371.034035	2545.989380
371.421090	2558.025134
371.808081	2563.388922
372.195010	2573.287228
372.581875	2584.730647
372.968678	2597.373861
373.355418	2605.215376
373.742096	2622.211626
374.128710	2636.793163
374.515262	2650.953764
374.901751	2664.925322
375.288177	2679.194308
375.674540	2699.046372
376.060841	2716.057746
376.447079	2734.342011
376.833254	2754.627614
377.219367	2768.505910
377.605417	2803.126034
377.991404	2814.561892
378.377329	2837.118535
378.763191	2857.134436
379.148991	2893.745816
379.534727	2915.700041
379.920402	2948.192798
380.306013	2959.989098
380.691563	3011.343332
381.077049	3036.082795
381.462474	3051.826318
381.847835	3095.407093
382.233134	3117.232769
382.618371	3120.048253
383.003545	3186.720033
383.388657	3197.311498
383.773706	3233.033114
384.158693	3249.628592
384.543618	3278.126235
384.928480	3314.546051
385.313280	3358.691435
385.698017	3358.678832
386.082692	3416.064807
386.467305	3421.819284
386.851856	3454.125519
387.236344	3476.881287
387.620770	3512.446628
388.005133	3533.647200
388.389435	3561.076118
388.773674	3576.096236
389.157851	3615.598717
389.541965	3633.121768
389.926018	3602.012808
390.310008	3671.968900
390.693936	3690.081766
391.077802	3734.431317
391.461606	3722.556879
391.845348	3784.736991
392.229027	3783.993421
392.612645	3795.010862
392.996200	3872.412738
393.379694	3912.089140
393.763125	3977.644304
394.146494	3943.079633
394.529801	4009.869880
394.913047	4056.588774
395.296230	4022.918907
395.679351	4074.603337
396.062410	4100.174590
396.445408	4083.755552
396.828343	4112.606075
397.211217	4136.599447
397.594028	4058.564906
397.976778	4123.827684
398.359466	4151.707785
398.742092	4183.361190
399.124656	4102.546453
399.507158	4184.129966
399.889598	4203.757698
400.271977	4266.371350
400.654294	4245.183380
401.036549	4249.125563
401.418742	4220.191860
401.800874	4319.663908
402.182944	4341.539995
402.564952	4408.423503
402.946898	4395.737440
403.328783	4389.725864
403.710606	4304.210251
404.092367	4497.813243
404.474067	4461.784117
404.855705	4469.371053
405.237282	4395.510588
405.618797	4504.540663
406.000250	4535.284140
406.381642	4622.309579
406.762972	4585.957818
407.144240	4595.785548
407.525447	4593.995938
407.906593	4653.229496
408.287677	4696.273388
408.668700	4624.520125
409.049661	4673.961241
409.430560	4716.869022
409.811399	4643.545439
410.192176	4800.910098
410.572891	4740.554883
410.953545	4845.521789
411.334138	4726.260692
411.714669	4795.616886
412.095139	4688.976318
412.475547	4834.262372
412.855894	4815.158919
413.236180	4824.346422
413.616405	4775.386736
413.996568	4861.469479
414.376670	4806.533505
414.756711	4761.931896
415.136691	4791.881391
415.516609	4869.409296
415.896466	4907.661572
416.276262	4941.472591
416.655997	4922.154889
417.035670	5099.938741
417.415283	5192.784192
417.794834	5131.892095
418.174324	5093.859110
418.553753	5002.198330
418.933121	5185.308161
419.312428	5253.288121
419.691674	5193.900808
420.070859	5318.248429
420.449983	5225.400458
420.829045	5343.754147
421.208047	5251.115383
421.586988	5322.561136
421.965867	5337.165359
422.344686	5467.390966
422.723444	5322.719933
423.102141	5139.824350
423.480777	5439.692346
423.859352	5208.074012
424.237866	5465.094720
424.616319	5451.896979
424.994712	5567.420061
425.373044	5443.127892
425.751314	5585.759778
426.129524	5388.842227
426.507673	5584.297844
426.885762	5662.975132
427.263789	5596.542807
427.641756	5477.891689
428.019662	5602.624959
428.397508	5605.435402
428.775292	5556.198452
429.153016	5655.569677
429.530679	5579.423048
429.908282	5665.956974
430.285824	5536.265730
430.663305	5815.691847
431.040726	5545.004570
431.418086	5549.281989
431.795385	5656.348535
432.172624	5661.271222
432.549802	5660.454555
432.926920	5670.259599
433.303977	5677.798645
433.680974	5718.773143
434.057910	5736.863324
434.434786	5742.181741
434.811601	5707.571699
435.188355	5947.059275
435.565050	5818.030942
435.941683	5803.313293
436.318257	6015.913874
436.694770	5998.448797
437.071222	6033.709148
437.447614	5969.862934
437.823946	5877.682915
438.200218	6030.931472
438.576429	5900.176544
438.952580	5993.417725
439.328670	6044.005704
439.704700	5947.029028
440.080670	5934.968067
440.456580	6207.119799
440.832429	6088.478763
441.208218	5934.867244
441.583947	6088.113280
441.959616	6094.082006
442.335224	6021.209607
442.710773	6159.420401
443.086261	6180.994019
443.461689	5980.245190
443.837057	6124.638960
444.212365	6287.170801
444.587612	6174.720303
444.962800	6326.678324
445.337927	6312.426982
445.712995	5921.853505
446.088002	6493.681668
446.462949	6328.704868
446.837837	6255.610657
447.212664	6424.753972
447.587431	6570.450880
447.962139	7113.683098
448.336786	8044.832104
448.711374	7782.545911
449.085901	6857.012750
449.460369	6777.775893
449.834776	6712.997067
450.209124	7107.837880
450.583412	7256.052844
450.957640	7399.461068
451.331808	7160.094481
451.705917	6719.061575
452.079965	6641.818495
452.453954	6854.159457
452.827883	6725.476443
453.201752	6818.205947
453.575562	6620.668334
453.949311	6822.690054
454.323001	6710.174020
454.696632	6789.128572
455.070202	6928.725684
455.443713	7080.537511
455.817164	7178.988725
456.190556	7263.226406
456.563888	7339.211718
456.937160	7380.143367
457.310373	7039.840276
457.683526	7060.521610
458.056619	6956.305836
458.429653	6943.304701
458.802628	6878.188116
459.175542	6988.722976
459.548398	7340.509815
459.921194	7505.922676
460.293930	7504.768251
460.666607	8034.805249
461.039224	8350.688990
461.411782	8469.040159
461.784280	8486.217891
462.156719	8376.890387
462.529099	8258.292202
462.901419	7843.581681
463.273680	7743.887822
463.645882	7751.631035
464.018024	7619.020962
464.390106	7784.378370
464.762130	8177.122063
465.134094	8643.116243
465.505999	9662.261110
465.877845	10892.915148
466.249631	11537.746781
466.621358	11154.563636
466.993026	10522.465958
467.364634	10270.143605
467.736184	9903.147605
468.107674	9571.351462
468.479105	9599.453374
468.850477	9369.475936
469.221790	9135.674782
469.593043	8813.998755
469.964238	8667.812855
470.335373	8687.145680
470.706449	8743.747756
471.077467	8721.049960
471.448425	10033.821875
471.819324	11112.800197
472.190164	11127.366611
472.560945	9878.816476
472.931667	9089.303728
473.302330	8957.142318
473.672934	8602.842464
474.043479	8958.768091
474.413965	8898.992609
474.784393	8783.802243
475.154761	8936.987785
475.525070	9031.453967
475.895321	8854.302780
476.265513	9031.544708
476.635645	9200.393115
477.005719	9205.146923
477.375734	9318.482144
477.745691	9559.023320
478.115588	9682.256847
478.485427	9933.036606
478.855207	10470.620211
479.224928	11290.251333
479.594591	11908.841239
479.964194	11722.273176
480.333739	11660.287149
480.703226	11579.787483
481.072653	11672.118737
481.442022	11906.280333
481.811333	12097.617327
482.180584	11903.782441
482.549777	11607.700352
482.918912	11435.749115
483.287988	11452.808380
483.657005	11467.571399
484.025964	11149.761937
484.394864	11277.776998
484.763706	11252.999727
485.132489	11006.547797
485.501213	10973.029165
485.869879	11050.252081
486.238487	10883.473067
486.607036	11003.833136
486.975527	10776.303178
487.343959	10977.583848
487.712333	11017.603048
488.080648	10953.832452
488.448905	10993.481127
488.817104	10935.127250
489.185244	11203.772859
489.553326	11354.992351
489.921350	11892.119732
490.289315	12952.733131
490.657222	13298.077375
491.025070	13205.786451
491.392861	13081.136360
491.760593	12698.752238
492.128267	12344.593536
492.495883	12010.370077
492.863440	11679.148626
493.230939	11346.528254
493.598380	11276.194075
493.965763	11142.928653
494.333088	11042.486183
494.700354	10962.228493
495.067563	11027.672753
495.434713	10851.938129
495.801805	10992.873668
496.168839	10904.792107
496.535815	10847.819507
496.902733	10844.487304
497.269593	10778.254104
497.636395	10876.233970
498.003139	10868.934380
498.369825	10735.452188
498.736453	10885.582790
499.103023	10817.849847
499.469535	10850.014929
499.835989	10835.574544
500.202385	10802.338217
500.568723	10651.534620
500.935003	10874.363702
501.301226	10685.312871
501.667390	10941.458939
502.033497	11037.558455
502.399546	10891.453214
502.765537	10803.265789
503.131470	10879.924095
503.497345	11044.979034
503.863163	10658.657770
504.228923	10971.620163
504.594625	11033.936386
504.960269	10780.593200
505.325856	11003.976809
505.691385	10791.146855
506.056856	10952.035280
506.422270	10971.484052
506.787625	10859.162103
507.152924	10981.949487
507.518164	10968.081273
507.883347	10883.901565
508.248472	10802.154215
508.613540	11042.133302
508.978550	10916.132183
509.343503	10894.886240
509.708398	11017.025836
510.073236	11133.627724
510.438016	11134.862807
510.802738	11083.576628
511.167403	11139.304063
511.532010	11034.427899
511.896561	11259.873340
512.261053	11339.362254
512.625488	11203.538446
512.989866	11185.236537
513.354186	11175.403766
513.718449	11074.550442
514.082655	11272.768611
514.446803	11157.169912
514.810894	11285.489963
515.174927	11153.663790
515.538904	11175.759167
515.902822	11332.586943
516.266684	11212.683099
516.630488	11155.017340
516.994235	11212.032790
517.357925	11269.736357
517.721558	11360.348577
518.085133	11374.315094
518.448651	11387.621219
518.812112	11270.001018
519.175516	11282.369489
519.538863	11407.672409
519.902152	11320.750314
520.265385	11485.588483
520.628560	11388.606765
520.991678	11369.473066
521.354739	11429.137642
521.717743	11362.841428
522.080690	11355.025119
522.443580	11483.405663
522.806413	11439.469487
523.169189	11465.880092
523.531908	11522.648525
523.894569	11347.871721
524.257174	11351.990344
524.619722	11472.816719
524.982213	11409.804817
525.344647	11470.638941
525.707025	11415.551732
526.069345	11513.841629
526.431608	11433.410020
526.793815	11544.030579
527.155964	11335.236069
527.518057	11386.209696
527.880093	11334.686583
528.242072	11397.892570
528.603995	11300.189968
528.965860	11223.146013
529.327669	11271.369691
529.689421	11223.534182
530.051117	11191.628720
530.412755	11301.984618
530.774337	11192.412619
531.135862	11167.229535
531.497331	11195.180213
531.858743	11049.503469
532.220098	11215.170908
532.581396	11082.028994
532.942638	11059.240458
533.303824	11028.829697
533.664953	11040.194979
534.026025	10957.721702
534.387040	11057.100488
534.747999	11053.344828
535.108902	11120.167843
535.469748	10873.763805
535.830537	10974.284413
536.191270	10955.576691
536.551947	10982.655249
536.912567	10978.307253
537.273131	10899.443443
537.633638	10877.821934
537.994089	10869.993022
538.354483	10825.227576
538.714821	10964.582712
539.075103	10977.974537
539.435328	10942.295771
539.795497	10764.711044
540.155609	10919.492112
540.515665	11007.382108
540.875665	10743.024001
541.235609	10813.799280
541.595496	10804.329472
541.955328	10972.267951
542.315102	10852.167502
542.674821	10799.374018
543.034483	10803.480038
543.394090	10803.374174
543.753640	10729.864068
544.113134	10957.515014
544.472571	10804.526078
544.831953	10950.359097
545.191278	10749.000288
545.550548	10784.250557
545.909761	10924.634088
546.268918	10902.397559
546.628019	10982.519138
546.987064	10842.992602
547.346053	10764.675756
547.704986	10863.852897
548.063863	10850.287152
548.422684	10839.831798
548.781449	10765.439491
549.140158	10867.311128
549.498811	10744.039793
549.857408	10596.341547
550.215949	10828.000210
550.574434	10677.098311
550.932864	10773.434761
551.291237	10843.552170
551.649555	10786.715681
552.007817	10795.638523
552.366022	10760.481516
552.724173	10754.137224
553.082267	10733.546631
553.440305	10878.573066
553.798288	10675.646459
554.156215	10828.630355
554.514086	10805.592282
554.871902	10654.392954
555.229661	10688.236741
555.587365	10667.603298
555.945014	10564.433564
556.302606	10687.772954
556.660143	10581.674310
557.017625	10743.515513
557.375050	10630.376897
557.732421	10761.056208
558.089735	10676.584113
558.446994	10683.359424
558.804197	10719.678417
559.161345	10711.690709
559.518437	10566.099665
559.875474	10654.975207
560.232455	10685.217089
560.589381	10637.245469
560.946251	10630.926383
561.303065	10739.379246
561.659825	10674.527323
562.016528	10611.565832
562.373177	10484.561522
562.729770	10602.227094
563.086307	10514.760554
563.442789	10608.435275
563.799216	10490.565537
564.155587	10537.458350
564.511904	10493.648202
564.868164	10485.398354
565.224370	10494.701803
565.580520	10421.816801
565.936615	10427.984653
566.292654	10295.992122
566.648638	10427.011710
567.004567	10388.068797
567.360441	10364.836639
567.716260	10273.231312
568.072023	10370.891065
568.427732	10325.785341
568.783385	10233.459129
569.138982	10295.614035
569.494525	10313.926026
569.850013	10196.290701
570.205445	10270.390622
570.560823	10178.064410
570.916145	10089.390513
571.271412	10160.609414
571.626625	10106.903482
571.981782	10079.663607
572.336884	10049.837620
572.691931	10056.849865
573.046923	10006.062761
573.401860	9956.520822
573.756743	9893.576975
574.111570	9939.771588
574.466342	9920.040512
574.821059	9956.107447
575.175722	9848.980407
575.530330	9854.588691
575.884882	9842.603347
576.239380	9775.364438
576.593823	9754.625131
576.948211	9764.016800
577.302544	9652.012444
577.656823	9657.650975
578.011047	9661.817488
578.365216	9637.801431
578.719330	9561.720337
579.073389	9573.438500
579.427394	9522.563175
579.781344	9500.692129
580.135239	9447.845713
580.489080	9453.857289
580.842866	9354.642340
581.196597	9362.975368
581.550273	9401.651100
581.903895	9366.917550
582.257463	9439.265669
582.610975	9315.422163
582.964434	9344.202111
583.317837	9265.184545
583.671186	9242.655628
584.024481	9239.855267
584.377721	9160.479779
584.730906	9138.301223
585.084037	9159.554728
585.437113	9102.919885
585.790135	9122.482082
586.143103	9016.275053
586.496016	8990.502154
586.848874	9049.408037
587.201679	9039.900421
587.554428	8929.718442
587.907124	8977.828693
588.259765	8942.845606
588.612352	8944.819218
588.964884	8819.435639
589.317362	8831.738575
589.669786	8843.459258
590.022155	8885.136997
590.374470	8902.062672
590.726731	8840.772323
591.078937	8692.335548
591.431090	8805.078433
591.783188	8675.614041
592.135232	8667.961569
592.487222	8669.925099
592.839157	8722.975681
593.191038	8653.125453
593.542866	8601.675437
593.894639	8495.665013
594.246358	8551.405051
594.598022	8570.584121
594.949633	8468.974624
595.301190	8439.740973
595.652692	8467.152247
596.004141	8582.617355
596.355535	8351.989608
596.706876	8337.312288
597.058162	8270.592617
597.409395	8349.816871
597.760573	8412.788444
598.111698	8322.481214
598.462768	8303.415570
598.813785	8273.060262
599.164748	8234.702122
599.515657	8228.776246
599.866511	8134.778892
600.217312	8263.595496
600.568060	8124.106769
600.918753	8230.298675
601.269392	8194.181328
601.619978	8109.951209
601.970510	8176.015530
602.320988	8166.424735
602.671412	8229.328253
603.021783	8161.368457
603.372100	8127.214640
603.722363	8136.820559
604.072572	8112.517156
604.422728	8122.014690
604.772830	8052.620687
605.122878	8061.994712
605.472872	8053.293681
605.822813	8087.518074
606.172701	8023.336624
606.522534	8106.303934
606.872314	8101.550126
607.222041	8071.038542
607.571714	8133.954663
607.921333	8088.428002
608.270899	8088.425482
608.620411	8182.402672
608.969870	8086.829957
609.319276	8078.338133
609.668627	8100.554498
610.017926	8130.624981
610.367171	8177.132146
610.716362	8149.350347
611.065500	8146.030747
611.414585	8175.670211
611.763616	8163.904158
612.112594	8144.893967
612.461518	8152.077611
612.810389	8219.127478
613.159207	8155.810585
613.507971	8108.214531
613.856682	8226.963951
614.205340	8182.546345
614.553945	8259.998632
614.902496	8156.816296
615.250994	8211.958957
615.599439	8192.822737
615.947830	8206.610293
616.296169	8178.437804
616.644454	8198.448665
616.992686	8195.534878
617.340864	8248.930779
617.688990	8149.294894
618.037063	8246.639575
618.385082	8192.689146
618.733048	8277.544368
619.080961	8219.324083
619.428821	8234.190445
619.776628	8241.971466
620.124382	8188.573044
620.472083	8172.090992
620.819731	8202.610137
621.167326	8086.691325
621.514868	8105.709078
621.862357	7992.988878
622.209793	8011.094182
622.557176	7939.570291
622.904506	7913.762104
623.251783	7846.966816
623.599007	7797.190462
623.946179	7800.825134
624.293297	7761.899865
624.640363	7672.651277
624.987376	7658.503279
625.334336	7610.491330
625.681243	7555.673823
626.028097	7541.609004
626.374899	7522.563524
626.721647	7513.610435
627.068343	7444.193747
627.414987	7416.835405
627.761577	7374.527521
628.108115	7408.290649
628.454600	7300.503218
628.801032	7350.123295
629.147412	7315.924108
629.493739	7306.396327
629.840014	7239.273363
630.186236	7296.109852
630.532405	7180.080135
630.878521	7233.660039
631.224585	7188.259407
631.570597	7114.232583
631.916556	7145.308776
632.262462	7138.316696
632.608316	7103.746983
632.954117	7079.057932
633.299866	7068.562250
633.645562	7057.207051
633.991206	6982.461863
634.336797	6920.853922
634.682336	6877.212653
635.027823	6845.014803
635.373257	6833.261353
635.718639	6766.831548
636.063968	6783.001049
636.409245	6677.043557
636.754470	6673.784451
637.099642	6632.767103
637.444762	6576.714513
637.789829	6588.725063
638.134845	6525.597213
638.479808	6510.037692
638.824719	6517.062540
639.169577	6438.249141
639.514383	6464.367359
639.859137	6393.816411
640.203839	6402.416619
640.548489	6387.111676
640.893086	6366.916814
641.237632	6335.863306
641.582125	6357.467171
641.926566	6322.582386
642.270955	6340.753225
642.615292	6340.591908
642.959576	6351.080029
643.303809	6343.097362
643.647990	6349.875193
643.992118	6334.232493
644.336195	6283.659637
644.680219	6304.035981
645.024192	6296.970804
645.368112	6397.526700
645.711981	6415.150574
646.055797	6493.432131
646.399562	6448.802796
646.743274	6579.159473
647.086935	6630.601928
647.430544	6622.387367
647.774101	6647.875441
648.117606	6653.758468
648.461059	6643.040975
648.804460	6610.918742
649.147810	6513.637076
649.491108	6485.688919
649.834354	6458.489373
650.177548	6379.507096
650.520690	6291.899403
650.863781	6267.974087
651.206820	6291.145751
651.549807	6211.084666
651.892742	6148.415562
652.235626	6157.663559
652.578458	6146.520088
652.921238	6052.653804
653.263967	6090.754844
653.606644	6031.062542
653.949269	6033.048756
654.291843	5971.508871
654.634365	6017.292630
654.976836	5974.253779
655.319255	5980.078832
655.661622	5952.536488
656.003938	5948.047341
656.346203	5911.977885
656.688416	5944.803358
657.030577	5897.154372
657.372687	5865.155648
657.714746	5854.720460
658.056753	5896.226800
658.398708	5837.615825
658.740612	5828.798847
659.082465	5873.216453
659.424266	5871.368870
659.766016	5866.549527
660.107715	5840.143963
660.449362	5857.760275
660.790958	5849.530592
661.132503	5837.575495
661.473996	5873.675198
661.815438	5862.597263
662.156829	5854.536458
662.498168	5851.352969
662.839456	5823.500594
663.180693	5855.832034
663.521879	5863.857551
663.863013	5853.218196
664.204097	5871.865424
664.545129	5912.131640
664.886110	5912.451753
665.227040	5945.559531
665.567918	5910.208440
665.908746	5935.590650
666.249522	5937.980157
666.590248	5927.189567
666.930922	5953.040604
667.271545	5964.176512
667.612118	5971.345033
667.952639	5942.625580
668.293109	5967.017203
668.633528	5922.834010
668.973896	5920.346200
669.314213	5915.289923
669.654480	5895.147993
669.994695	5889.514503
670.334859	5882.257763
670.674973	5875.474890
671.015035	5877.660230
671.355047	5874.995980
671.695008	5862.839238
672.034918	5836.829405
672.374777	5848.187124
672.714585	5833.822356
673.054342	5837.764539
673.394049	5829.232386
673.733705	5859.113825
674.073310	5850.100242
674.412864	5806.428726
674.752368	5799.068642
675.091820	5804.238345
675.431223	5737.044805
675.770574	5737.485906
676.109875	5690.525038
676.449125	5694.530234
676.788324	5661.714843
677.127473	5606.126040
677.466571	5599.880050
677.805619	5589.023926
678.144616	5573.865176
678.483562	5553.151075
678.822458	5521.215365
679.161303	5511.667420
679.500098	5506.737171
679.838842	5491.283514
680.177535	5489.599769
680.516179	5510.069374
680.854771	5524.217372
681.193314	5599.139001
681.531805	5707.695208
681.870247	5861.311768
682.208638	5958.220389
682.546978	5977.636393
682.885268	5955.621674
683.223508	5867.227562
683.561697	5811.734541
683.899836	5782.649604
684.237925	5741.357512
684.575963	5704.368046
684.913951	5666.249361
685.251889	5725.190532
685.589776	5697.509556
685.927614	5666.340102
686.265401	5733.253858
686.603137	5716.083688
686.940824	5796.782478
687.278460	5823.215769
687.616046	5832.284804
687.953582	5897.711420
688.291068	5881.307505
688.628504	5939.547955
688.965889	5904.201905
689.303224	5846.258883
689.640510	5802.690711
689.977745	5729.510801
690.314930	5625.408453
690.652065	5572.375515
690.989150	5478.436134
691.326185	5401.646758
691.663170	5347.759344
692.000105	5270.874186
692.336990	5195.312331
692.673825	5169.108413
693.010610	5104.553918
693.347345	5030.214542
693.684030	5016.091750
694.020665	4974.154391
694.357251	4886.579466
694.693786	4896.954161
695.030272	4862.119788
695.366707	4825.316844
695.703093	4793.444149
696.039429	4813.492818
696.375716	4796.373059
696.711952	4772.004122
697.048139	4762.972895
697.384276	4742.127723
697.720363	4756.235392
698.056400	4759.529787
698.392388	4708.659503
698.728326	4692.507646
699.064214	4667.677443
699.400053	4661.471782
699.735842	4631.439108
700.071581	4607.304584
700.407270	4576.240994
700.742910	4559.713572
701.078501	4504.258359
701.414042	4505.349768
701.749533	4475.811128
702.084974	4407.667330
702.420366	4467.238645
702.755709	4407.674892
703.091002	4351.246737
703.426246	4397.327924
703.761440	4359.718396
704.096584	4318.196932
704.431679	4341.524871
704.766725	4325.720854
705.101721	4311.346004
705.436668	4342.737269
705.771565	4288.756593
706.106413	4315.890604
706.441212	4350.992158
706.775961	4357.903580
707.110661	4338.119572
707.445311	4367.781721
707.779913	4389.604876
708.114465	4403.311773
708.448967	4423.133590
708.783421	4485.646419
709.117825	4528.622255
709.452180	4534.717010
709.786485	4573.823761
710.120742	4666.465045
710.454949	4648.211027
710.789107	4713.302406
711.123216	4789.338129
711.457275	4780.233805
711.791286	4854.890773
712.125247	4870.399883
712.459159	4774.522178
712.793023	4848.937171
713.126837	4811.405780
713.460602	4801.691477
713.794318	4721.406061
714.127985	4727.037029
714.461602	4641.281961
714.795171	4618.127942
715.128691	4551.418353
715.462162	4491.844517
715.795584	4445.042445
716.128957	4424.219959
716.462281	4368.938666
716.795556	4342.795242
717.128782	4307.744099
717.461960	4240.777412
717.795088	4252.240996
718.128167	4212.085685
718.461198	4146.394409
718.794180	4145.668483
719.127113	4126.484372
719.459997	4104.804890
719.792833	4059.379052
720.125619	4047.618040
720.458357	4013.905324
720.791046	4020.337836
721.123686	3994.141480
721.456278	3953.424081
721.788821	3969.530567
722.121315	3941.133748
722.453761	3914.687855
722.786158	3929.198816
723.118506	3953.119091
723.450805	3908.487235
723.783056	3926.305194
724.115259	3941.287503
724.447412	3946.598358
724.779518	3938.638377
725.111574	3946.991568
725.443582	3974.513748
725.775542	3960.176706
726.107453	4008.899458
726.439315	4010.058924
726.771129	4026.757746
727.102895	4060.478024
727.434612	4109.838482
727.766281	4119.577991
728.097901	4121.418012
728.429473	4126.184423
728.760996	4134.308243
729.092471	4130.597953
729.423897	4111.998616
729.755276	4119.182260
730.086606	4119.119246
730.417887	4156.292714
730.749120	4224.633117
731.080305	4289.543013
731.411442	4314.395902
731.742530	4281.396509
732.073570	4286.863640
732.404562	4339.079912
732.735506	4334.124458
733.066401	4294.889157
733.397249	4232.570413
733.728048	4154.752642
734.058798	4069.252152
734.389501	3998.575175
734.720156	3936.647121
735.050762	3892.211870
735.381320	3883.525962
735.711831	3835.125844
736.042293	3803.721976
736.372707	3826.921366
736.703073	3799.996563
737.033391	3791.565234
737.363661	3809.045435
737.693883	3832.237263
738.024056	3840.351000
738.354182	3837.328828
738.684260	3901.895927
739.014290	3921.367383
739.344272	3918.844286
739.674207	3959.274340
740.004093	3965.182572
740.333931	3959.347437
740.663722	3961.368939
740.993464	3953.668577
741.323159	3934.383643
741.652806	3902.876431
741.982405	3877.307699
742.311956	3845.669417
742.641460	3838.571473
742.970915	3814.971311
743.300323	3770.699898
743.629683	3736.208323
743.958996	3726.201633
744.288260	3699.922098
744.617477	3668.553518
744.946647	3651.915190
745.275768	3625.620531
745.604842	3627.510964
745.933869	3574.344435
746.262847	3571.380237
746.591778	3605.755865
746.920662	3577.318716
747.249498	3544.694889
747.578286	3593.427723
747.907027	3613.153758
748.235720	3608.745269
748.564365	3630.538177
748.892963	3635.730565
749.221514	3614.711474
749.550017	3595.880244
749.878473	3590.289605
750.206881	3559.989749
750.535242	3555.125036
750.863555	3557.292732
751.191821	3556.947413
751.520039	3534.736089
751.848210	3512.784385
752.176334	3545.377965
752.504411	3552.042370
752.832440	3516.161958
753.160421	3492.176148
753.488356	3502.409690
753.816243	3518.047349
754.144082	3474.403560
754.471875	3458.914615
754.799620	3478.817090
755.127318	3470.252170
755.454969	3474.632933
755.782572	3473.468426
756.110129	3453.414716
756.437638	3444.688479
756.765100	3455.035447
757.092515	3466.403249
757.419882	3472.724856
757.747203	3442.919034
758.074477	3446.498253
758.401703	3464.565748
758.728882	3486.010817
759.056014	3491.966940
759.383099	3495.803258
759.710138	3490.363853
760.037129	3509.101822
760.364073	3538.973179
760.690970	3523.199409
761.017820	3503.632170
761.344623	3518.682535
761.671379	3566.712128
761.998088	3619.377062
762.324751	3741.844333
762.651366	3993.506295
762.977935	4467.702432
763.304456	4918.739507
763.630931	5013.740052
763.957359	4654.434332
764.283740	4306.483811
764.610074	4110.176239
764.936362	3916.293462
765.262602	3754.200201
765.588796	3640.300371
765.914943	3554.774676
766.241044	3463.476859
766.567097	3435.180862
766.893104	3383.302348
767.219064	3354.252699
767.544978	3326.362516
767.870845	3274.478960
768.196665	3252.648243
768.522438	3259.786517
768.848165	3257.460025
769.173846	3221.130950
769.499479	3204.192673
769.825066	3187.193902
770.150607	3171.415090
770.476101	3186.253727
770.801548	3179.853982
771.126949	3134.017291
771.452303	3117.200001
771.777611	3122.558748
772.102872	3130.571662
772.428087	3106.081737
772.753256	3095.601178
773.078378	3084.966864
773.403453	3052.620300
773.728482	3044.650236
774.053465	3062.437947
774.378401	3053.550393
774.703291	3020.074611
775.028135	3019.434384
775.352932	3016.157634
775.677683	3003.426200
776.002388	2999.849502
776.327046	3003.690861
776.651658	2991.763491
776.976224	2978.200266
777.300743	2978.948878
777.625216	2968.405304
777.949643	2966.093935
778.274024	2964.090077
778.598359	2954.186730
778.922647	2961.569500
779.246889	2957.103038
779.571086	2944.963939
779.895236	2938.556633
780.219339	2948.835545
780.543397	2962.630663
780.867409	2965.947742
781.191374	2958.481793
781.515294	2955.429374
781.839167	2956.848459
782.162995	2947.131635
782.486776	2955.676391
782.810511	2951.966102
783.134201	2939.033022
783.457844	2948.550720
783.781441	2936.257866
784.104993	2917.459404
784.428498	2917.189702
784.751958	2931.942639
785.075372	2925.671443
785.398739	2909.943043
785.722061	2929.497679
786.045337	2938.813731
786.368568	2922.734971
786.691752	2912.019999
787.014891	2966.290540
787.337983	2992.449088
787.661030	3024.326824
787.984031	3089.634972
788.306987	3135.423772
788.629897	3129.288688
788.952760	3111.238837
789.275579	3095.598657
789.598351	3037.925337
789.921078	2991.977740
790.243759	2982.797799
790.566395	2963.953966
790.888984	2941.356993
791.211529	2924.451484
791.534027	2913.035791
791.856480	2904.869122
792.178888	2889.871689
792.501249	2877.604041
792.823566	2877.788043
793.145836	2873.815614
793.468062	2870.133051
793.790241	2871.093391
794.112375	2876.000954
794.434464	2883.494630
794.756507	2892.861093
795.078505	2897.738410
795.400457	2910.578229
795.722364	2948.520473
796.044226	2975.961994
796.366042	2975.883856
796.687812	2965.289871
797.009538	2985.676298
797.331218	2972.274390
797.652852	2957.430713
797.974442	2938.475974
798.295986	2937.298865
798.617484	2929.795107
798.938938	2916.584763
799.260346	2899.462484
799.581709	2896.372257
799.903026	2889.302039
800.224299	2880.414485
800.545526	2873.891232
800.866708	2856.554703
801.187845	2847.175637
801.508936	2845.824607
801.829983	2853.247707
802.150984	2842.686489
802.471940	2828.397339
802.792851	2829.629901
803.113717	2827.310970
803.434538	2833.897237
803.755314	2828.961948
804.076045	2822.330310
804.396731	2818.972902
804.717372	2822.824343
805.037967	2814.128353
805.358518	2823.620845
805.679024	2833.703153
805.999485	2829.471104
806.319901	2836.478308
806.640272	2826.509427
806.960598	2831.404387
807.280879	2840.002075
807.601115	2846.994155
807.921306	2833.587207
808.241453	2831.159891
808.561554	2835.757423
808.881611	2840.075172
809.201623	2834.038390
809.521590	2831.958914
809.841513	2829.836588
810.161390	2833.078050
810.481223	2824.114878
810.801011	2817.271512
811.120755	2813.669608
811.440453	2817.427788
811.760107	2815.275215
812.079716	2814.556851
812.399281	2804.202321
812.718801	2796.852318
813.038276	2790.654220
813.357707	2797.500107
813.677093	2804.817342
813.996434	2797.852987
814.315731	2794.760240
814.634983	2792.090949
814.954191	2790.167748
815.273354	2807.065696
815.592473	2812.348825
815.911547	2816.275884
816.230577	2822.289981
816.549562	2830.912874
816.868502	2832.538647
817.187399	2844.382838
817.506250	2860.577544
817.825058	2854.782738
818.143821	2866.168184
818.462539	2883.391286
818.781213	2911.720050
819.099843	2946.110802
819.418429	3005.820748
819.736970	3067.050603
820.055466	3140.273362
820.373919	3245.522572
820.692327	3390.191085
821.010691	3563.652148
821.329011	4011.853574
821.647286	4918.782357
821.965517	6314.521581
822.283704	7073.696665
822.601847	7065.598052
822.919945	6415.689977
823.237999	5903.387759
823.556010	5314.361699
823.873976	4751.090895
824.191897	4337.154191
824.509775	4037.034138
824.827609	3760.874689
825.145398	3638.903972
825.463144	3624.692959
825.780845	3717.969429
826.098502	3826.371880
826.416116	4111.771764
826.733685	4428.041154
827.051210	4499.958254
827.368692	4381.901993
827.686129	4107.262452
828.003522	3778.644756
828.320872	3518.049870
828.638177	3319.088131
828.955439	3181.010927
829.272656	3096.964810
829.589830	3027.197761
829.906960	2974.792446
830.224046	2932.353493
830.541088	2895.280847
830.858086	2878.554299
831.175041	2861.800024
831.491952	2865.442258
831.808819	2876.585728
832.125642	2901.940212
832.442421	2945.223558
832.759157	3027.298584
833.075849	3210.915051
833.392497	3492.564317
833.709101	3700.257335
834.025662	3652.010972
834.342179	3490.005931
834.658653	3311.060093
834.975083	3159.079387
835.291469	3061.094480
835.607811	2971.861015
835.924110	2916.786410
836.240366	2862.813296
836.556578	2820.971719
836.872746	2794.780404
837.188871	2773.720984
837.504952	2756.941503
837.820990	2747.859865
838.136984	2733.623646
838.452935	2728.645507
838.768842	2726.339179
839.084706	2741.684451
839.400526	2822.995742
839.716303	2957.652523
840.032037	3041.466747
840.347727	3025.461084
840.663373	2963.165025
840.978977	2888.802965
841.294537	2812.416881
841.610054	2764.457864
841.925527	2741.931468
842.240957	2719.959599
842.556344	2695.706608
842.871687	2680.900739
843.186987	2672.383709
843.502244	2667.766012
843.817458	2663.670075
844.132629	2650.805050
844.447756	2641.279790
844.762840	2634.837196
845.077881	2639.265849
845.392879	2637.607310
845.707833	2631.709160
846.022745	2622.398148
846.337613	2629.470887
846.652438	2625.659775
846.967221	2627.051133
847.281960	2621.463014
847.596656	2622.592233
847.911309	2622.410751
848.225919	2621.314300
848.540485	2618.718106
848.855009	2615.907663
849.169490	2614.284411
849.483928	2615.133846
849.798323	2615.090996
850.112675	2613.533279
850.426984	2613.034205
850.741251	2611.479009
851.055474	2615.630399
851.369654	2616.565533
851.683792	2616.295832
851.997887	2614.493619
852.311938	2611.607559
852.625947	2615.862292
852.939914	2616.308435
853.253837	2618.103085
853.567718	2614.836418
853.881555	2610.208638
854.195350	2617.016717
854.509103	2615.867334
854.822812	2609.223093
855.136479	2611.794081
855.450103	2610.629575
855.763685	2616.126953
856.077224	2612.121756
856.390720	2610.732918
856.704173	2616.056377
857.017584	2617.407406
857.330953	2620.318672
857.644278	2621.387397
857.957561	2623.522326
858.270802	2613.926489
858.584000	2616.920935
858.897155	2619.915380
859.210268	2621.972171
859.523339	2616.600822
859.836367	2610.561519
860.149352	2611.874740
860.462295	2615.610235
860.775195	2609.195367
861.088054	2608.592949
861.400869	2608.487084
861.713642	2606.889039
862.026373	2606.513473
862.339062	2610.143103
862.651708	2615.595111
862.964312	2616.827673
863.276873	2615.453959
863.589392	2618.773559
863.901869	2624.215484
864.214303	2628.883593
864.526696	2627.653551
864.839045	2635.308543
865.151353	2633.498769
865.463619	2635.268214
865.775842	2631.227729
866.088023	2633.443317
866.400162	2637.095632
866.712258	2634.428862
867.024313	2631.986423
867.336325	2628.213119
867.648296	2634.265025
867.960224	2633.942391
868.272110	2633.287041
868.583954	2629.075157
868.895755	2631.857874
869.207515	2634.635549
869.519233	2640.833648
869.830909	2638.686117
870.142542	2632.750158
870.454134	2635.099336
870.765684	2639.424646
871.077191	2642.194760
871.388657	2645.625265
871.700081	2645.161479
872.011463	2644.798516
872.322803	2644.470841
872.634101	2650.752118
872.945357	2656.804023
873.256571	2664.700991
873.567744	2657.086328
873.878874	2661.099087
874.189963	2661.709066
874.501010	2662.966834
874.812015	2669.558143
875.122979	2667.614778
875.433900	2660.068171
875.744780	2662.109838
876.055618	2665.305929
876.366415	2668.073523
876.677169	2673.265911
876.987882	2665.121927
877.298554	2663.561690
877.609183	2672.731549
877.919771	2681.452745
878.230317	2686.592202
878.540822	2697.854139
878.851285	2709.839482
879.161707	2735.945098
879.472087	2776.218876
879.782425	2826.995898
880.092722	2944.790019
880.402977	3138.070378
880.713191	3402.370513
881.023363	3709.122204
881.333494	3905.107142
881.643583	4075.435127
881.953631	4075.387236
882.263637	3897.608425
882.573602	3669.660051
882.883526	3537.816234
883.193408	3419.359201
883.503248	3313.515135
883.813048	3198.246632
884.122806	3077.155596
884.432522	2992.494458
884.742197	2924.643048
885.051831	2887.061246
885.361424	2847.452900
885.670975	2810.786068
885.980485	2780.236675
886.289954	2763.091711
886.599382	2747.943044
886.908768	2733.616085
887.218113	2714.678990
887.527417	2700.437731
887.836680	2693.244004
888.145901	2686.687983
888.455082	2679.464010
888.764221	2665.247956
889.073319	2661.031031
889.382376	2657.517347
889.691392	2660.153870
890.000366	2658.089518
890.309300	2657.779487
890.618193	2662.397184
890.927044	2664.753923
891.235855	2665.373985
891.544625	2664.446413
891.853353	2663.586896
892.162041	2671.713236
892.470687	2690.431040
892.779293	2702.907896
893.087858	2713.428784
893.396381	2738.884090
893.704864	2781.048301
894.013306	2854.087059
894.321707	2948.659105
894.630068	3001.959224
894.938387	3021.413037
895.246665	3015.434229
895.554903	2969.781539
895.863100	2925.081628
896.171256	2865.888400
896.479371	2804.119142
896.787446	2764.566249
897.095480	2742.669997
897.403473	2737.432238
897.711425	2720.070504
898.019336	2699.021166
898.327207	2684.346367
898.635038	2685.949454
898.942827	2683.575071
899.250576	2671.935047
899.558284	2663.407935
899.865952	2656.798982
900.173579	2653.343271
900.481165	2652.980308
900.788711	2642.991262
901.096216	2636.924233
901.403681	2633.854171
901.711105	2635.248050
902.018489	2631.996505
902.325832	2637.481281
902.633135	2637.970273
902.940397	2652.387973
903.247619	2691.477080
903.554800	2763.106835
903.861941	2892.999725
904.169041	3027.401928
904.476101	3093.405755
904.783121	3087.038778
905.090100	3027.114582
905.397039	2949.102726
905.703938	2870.407794
906.010796	2807.353042
906.317614	2751.751636
906.624391	2714.699155
906.931129	2688.018848
907.237826	2663.027328
907.544483	2646.323465
907.851099	2630.126237
908.157675	2620.497633
908.464211	2613.555965
908.770707	2600.985847
909.077163	2595.823706
909.383578	2597.807400
909.689954	2592.680547
909.996289	2592.413365
910.302584	2590.517892
910.608839	2588.226687
910.915054	2588.549321
911.221229	2592.007553
911.527363	2594.182810
911.833458	2593.774477
912.139513	2589.948241
912.445527	2595.022162
912.751502	2597.542739
913.057436	2603.438369
913.363331	2614.178547
913.669186	2623.204733
913.975000	2636.604120
914.280775	2657.603046
914.586510	2674.236333
914.892205	2711.160265
915.197859	2783.195833
915.503475	2871.398381
915.809050	2938.879266
916.114585	2956.198150
916.420081	2970.260449
916.725536	2977.328147
917.030952	2949.221193
917.336328	2902.235119
917.641665	2849.958354
917.946961	2799.592186
918.252218	2765.503903
918.557435	2736.300499
918.862612	2713.448949
919.167750	2696.067050
919.472848	2678.518794
919.777906	2662.440033
920.082925	2646.010913
920.387904	2634.161681
920.692843	2634.370889
920.997743	2628.255969
921.302603	2620.159876
921.607423	2614.516304
921.912204	2609.218052
922.216946	2601.983996
922.521647	2603.287134
922.826310	2598.301433
923.130932	2594.066864
923.435516	2590.643920
923.740059	2585.385997
924.044564	2584.040009
924.349028	2583.813157
924.653454	2574.464337
924.957840	2569.249263
925.262186	2570.388564
925.566493	2570.302865
925.870761	2565.932184
926.174989	2568.442679
926.479178	2563.036041
926.783328	2560.943962
927.087438	2564.213151
927.391509	2562.887327
927.695541	2558.430947
927.999533	2556.603529
928.303486	2558.332645
928.607400	2557.480690
928.911275	2553.165462
929.215110	2556.507747
929.518906	2557.949517
929.822663	2554.738302
930.126381	2554.801317
930.430060	2556.656461
930.733699	2558.864487
931.037299	2554.962633
931.340861	2556.996739
931.644383	2557.841132
931.947866	2555.330638
932.251309	2557.435319
932.554714	2555.970864
932.858080	2560.376833
933.161407	2557.279044
933.464694	2557.848694
933.767943	2554.100596
934.071153	2553.573796
934.374323	2553.236038
934.677455	2554.899619
934.980548	2555.040771
935.283602	2553.457849
935.586617	2549.674463
935.889593	2555.123950
936.192530	2552.991542
936.495428	2551.882488
936.798287	2553.956923
937.101108	2554.818961
937.403890	2559.809703
937.706632	2562.131154
938.009336	2564.689540
938.312002	2571.568194
938.614628	2571.689182
938.917216	2575.253278
939.219765	2579.260995
939.522275	2577.738567
939.824747	2578.035995
940.127179	2571.928637
940.429573	2569.793708
940.731929	2566.970662
941.034246	2564.666855
941.336524	2566.262380
941.638763	2568.291444
941.940964	2568.014181
942.243126	2565.223902
942.545250	2562.849519
942.847335	2565.249108
943.149381	2560.260886
943.451389	2562.501679
943.753359	2559.623180
944.055290	2559.759291
944.357182	2557.662171
944.659036	2555.698642
944.960851	2558.191492
945.262628	2556.101934
945.564367	2554.874413
945.866067	2557.846173
946.167729	2560.538150
946.469352	2557.952038
946.770937	2556.235525
947.072484	2556.217881
947.373992	2558.350289
947.675462	2555.509599
947.976893	2557.324414
948.278286	2555.139074
948.579641	2555.905329
948.880958	2553.339382
949.182236	2555.943138
949.483476	2554.566903
949.784678	2552.303425
950.085841	2552.840308
950.386967	2552.462221
950.688054	2554.380380
950.989103	2554.685370
951.290114	2553.961964
951.591087	2557.609239
951.892021	2557.954558
952.192917	2557.873900
952.493776	2560.465053
952.794596	2559.706359
953.095378	2560.263407
953.396122	2561.362378
953.696828	2560.059240
953.997496	2557.624363
954.298126	2556.021276
954.598718	2553.195709
954.899272	2554.786193
955.199788	2553.079762
955.500266	2554.894578
955.800706	2547.927703
956.101108	2543.335212
956.401472	2544.983669
956.701798	2542.286652
957.002087	2542.735315
957.302337	2545.102137
957.602550	2546.367466
957.902724	2541.475026
958.202861	2541.369162
958.502960	2540.875129
958.803022	2543.846889
959.103045	2541.101981
959.403031	2541.288504
959.702979	2538.256250
960.002889	2541.840510
960.302762	2541.543082
960.602596	2539.882022
960.902393	2540.723894
961.202153	2540.093750
961.501875	2541.114584
961.801559	2537.210210
962.101205	2538.069727
962.400814	2536.464119
962.700385	2540.111394
962.999918	2538.775488
963.299414	2536.290200
963.598873	2537.868081
963.898293	2536.363296
964.197677	2539.987886
964.497022	2536.789274
964.796331	2535.173584
965.095601	2535.556712
965.394835	2537.144675
965.694030	2537.807587
965.993189	2539.536703
966.292309	2535.922195
966.591393	2538.062165
966.890439	2538.581404
967.189447	2536.292720
967.488419	2534.200641
967.787353	2535.445806
968.086249	2536.736342
968.385108	2537.863040
968.683930	2536.554860
968.982714	2536.126362
969.281462	2536.534696
969.580172	2538.266332
969.878844	2537.588297
970.177480	2538.800694
970.476078	2536.242309
970.774639	2537.921013
971.073162	2535.680220
971.371649	2534.646783
971.670098	2533.169725
971.968510	2535.395395
972.266885	2532.375744
972.565223	2539.236754
972.863524	2538.485622
973.161788	2540.083668
973.460014	2536.368338
973.758204	2539.166178
974.056356	2539.400592
974.354471	2538.835982
974.652550	2537.837834
974.950591	2538.122659
975.248595	2535.917154
975.546563	2539.501415
975.844493	2538.702392
976.142386	2537.815149
976.440243	2536.703574
976.738062	2535.430683
977.035845	2536.877494
977.333590	2537.888245
977.631299	2536.012936
977.928971	2535.375230
978.226606	2537.089222
978.524204	2538.465457
978.821765	2536.438914
979.119290	2533.600744
979.416777	2534.677030
979.714228	2537.051414
980.011642	2537.379089
980.309020	2539.072917
980.606360	2536.791794
980.903664	2535.758358
981.200931	2538.440252
981.498162	2537.981507
981.795356	2538.256250
982.092513	2541.810263
982.389633	2546.422919
982.686717	2550.130687
982.983764	2551.912735
983.280775	2553.606563
983.577749	2552.714279
983.874686	2553.520863
984.171587	2550.478527
984.468451	2548.293187
984.765279	2540.774306
985.062070	2543.189019
985.358824	2540.928061
985.655543	2536.895138
985.952224	2535.365148
986.248869	2537.104346
986.545478	2531.135620
986.842050	2534.490508
987.138586	2533.419262
987.435086	2531.569159
987.731549	2529.749303
988.027975	2536.098636
988.324366	2534.629139
988.620719	2533.237781
988.917037	2531.276772
989.213318	2535.178625
989.509563	2533.794828
989.805772	2530.956659
990.101944	2530.429858
990.398080	2534.364479
990.694180	2530.918850
990.990244	2531.606968
991.286271	2532.466484
991.582262	2534.026722
991.878217	2530.059333
992.174136	2532.214427
992.470019	2532.584952
992.765865	2534.336753
993.061676	2534.125024
993.357450	2533.444468
993.653188	2531.465815
993.948890	2532.211906
994.244556	2534.659386
994.540186	2535.229037
994.835780	2531.980013
995.131337	2535.856660
995.426859	2534.866074
995.722345	2536.335570
996.017795	2535.753317
996.313208	2539.070396
996.608586	2537.605941
996.903928	2535.912113
997.199234	2537.603420
997.494504	2535.823893
997.789738	2537.734490
998.084936	2534.074613
998.380099	2535.155940
998.675225	2533.351207
998.970316	2533.013450
999.265371	2535.143337
999.560390	2535.715508
999.855373	2533.797349
1000.150320	2531.785929
1000.445232	2535.223996
1000.740108	2531.712832
1001.034948	2532.274921
1001.329752	2531.037317
1001.624521	2532.390867
1001.919254	2528.259642
1002.213951	2528.985568
1002.508613	2528.851977
1002.803239	2527.957172
1003.097829	2524.740916
1003.392384	2532.335414
1003.686903	2533.537730
1003.981386	2532.723583
1004.275834	2530.354241
1004.570246	2531.566638
1004.864623	2529.794673
1005.158964	2530.006401
1005.453270	2529.593027
1005.747540	2531.428007
1006.041775	2531.410363
1006.335974	2529.981196
1006.630138	2532.348017
1006.924266	2530.117307
1007.218359	2531.201155
1007.512416	2529.449354
1007.806438	2528.887265
1008.100425	2531.296937
1008.394376	2533.948584
1008.688292	2532.640404
1008.982172	2531.425486
1009.276017	2530.064375
1009.569827	2530.593696
1009.863602	2533.063861
1010.157341	2530.220650
1010.451045	2531.765764
1010.744714	2528.809127
1011.038347	2531.158305
1011.331945	2531.385157
1011.625508	2529.096473
1011.919036	2529.346010
1012.212528	2528.199148
1012.505986	2529.285516
1012.799408	2529.953469
1013.092795	2530.354241
1013.386147	2532.290044
1013.679464	2531.072605
1013.972745	2528.552028
1014.265992	2530.800383
1014.559204	2530.765095
1014.852380	2528.993129
1015.145521	2531.090249
1015.438628	2531.488501
1015.731699	2532.411032
1016.024736	2530.341638
1016.317737	2530.795342
1016.610703	2530.805424
1016.903635	2528.988088
1017.196531	2524.977850
1017.489393	2528.466329
1017.782219	2526.396935
1018.075011	2530.941535
1018.367768	2530.505476
1018.660490	2532.201824
1018.953177	2532.201824
1019.245829	2532.201824
