Dividing Wavelength (nm)	Counts (n)	Blue Motor Position (mm): 16.000000	Red Motor Position (mm): 0.000000	
326.493990	2175.121773
326.888308	2175.121773
327.282561	2175.121773
327.676750	2134.104425
328.070874	2132.277007
328.464933	2130.419342
328.858929	2136.239354
329.252859	2140.378141
329.646726	2148.557413
330.040528	2161.611481
330.434265	2174.317709
330.827938	2191.949145
331.221547	2207.972453
331.615091	2225.913919
332.008571	2244.687176
332.401986	2261.519589
332.795338	2282.984822
333.188625	2300.223047
333.581847	2320.148208
333.975006	2337.152020
334.368100	2352.409072
334.761129	2372.820704
335.154095	2393.277706
335.546996	2412.323185
335.939833	2439.835282
336.332606	2454.671398
336.725315	2468.118676
337.117960	2482.092755
337.510540	2490.942500
337.903056	2502.101094
338.295508	2514.179699
338.687896	2520.551717
339.080220	2528.978006
339.472480	2530.853315
339.864676	2539.151054
340.256807	2549.457693
340.648875	2549.702189
341.040879	2552.381563
341.432818	2555.557490
341.824694	2557.379867
342.216506	2563.341031
342.608253	2560.129816
342.999937	2560.517985
343.391557	2560.127296
343.783113	2560.021431
344.174605	2558.753581
344.566033	2559.688715
344.957397	2557.757953
345.348697	2555.381049
345.739934	2554.980278
346.131106	2551.514484
346.522215	2554.085473
346.913260	2547.295038
347.304241	2549.893753
347.695159	2544.066179
348.086012	2546.001982
348.476802	2540.048380
348.867528	2535.531506
349.258191	2530.608819
349.648789	2532.340456
350.039324	2530.689478
350.429796	2533.588141
350.820203	2534.384643
351.210548	2531.566638
351.600828	2528.040351
351.991045	2529.335928
352.381198	2525.615556
352.771288	2529.787111
353.161314	2526.969106
353.551276	2524.524147
353.941175	2527.740403
354.331010	2525.930628
354.720782	2528.630166
355.110490	2525.350896
355.500135	2525.928108
355.889717	2528.504138
356.279235	2524.057840
356.668689	2524.158663
357.058080	2525.113962
357.447408	2525.451719
357.836672	2526.391894
358.225873	2527.765608
358.615010	2525.615556
359.004084	2525.905423
359.393095	2527.435413
359.782043	2526.142357
360.170927	2528.055475
360.559748	2533.625950
360.948505	2528.151257
361.337199	2531.811134
361.725830	2528.216792
362.114398	2531.579241
362.502903	2533.164684
362.891344	2532.952956
363.279722	2531.569159
363.668037	2533.648635
364.056289	2530.792821
364.444478	2532.206865
364.832603	2535.702905
365.220665	2535.201310
365.608665	2535.954963
365.996601	2537.119469
366.384474	2535.160981
366.772284	2535.937319
367.160031	2535.405477
367.547715	2538.530993
367.935336	2535.914634
368.322893	2535.294572
368.710388	2536.575025
369.097820	2536.985879
369.485189	2533.010929
369.872495	2539.748431
370.259738	2537.767258
370.646918	2540.302958
371.034035	2539.201466
371.421090	2540.169367
371.808081	2541.356559
372.195010	2543.040305
372.581875	2538.767927
372.968678	2539.776158
373.355418	2542.236241
373.742096	2541.787578
374.128710	2544.545089
374.515262	2543.206663
374.901751	2544.310675
375.288177	2542.821014
375.674540	2542.289173
376.060841	2541.772454
376.447079	2544.151879
376.833254	2544.169523
377.219367	2542.435366
377.605417	2542.513504
377.991404	2545.737322
378.377329	2542.120294
378.763191	2544.850079
379.148991	2545.533155
379.534727	2544.655994
379.920402	2547.105995
380.306013	2544.532486
380.691563	2547.070707
381.077049	2543.942671
381.462474	2547.458876
381.847835	2547.887374
382.233134	2547.758825
382.618371	2548.126829
383.003545	2546.732950
383.388657	2545.286139
383.773706	2547.073228
384.158693	2549.069525
384.543618	2546.329657
384.928480	2545.288659
385.313280	2545.707075
385.698017	2550.029864
386.082692	2546.367466
386.467305	2548.903167
386.851856	2547.685728
387.236344	2548.557847
387.620770	2546.818649
388.005133	2545.495347
388.389435	2546.879143
388.773674	2544.040974
389.157851	2549.145142
389.541965	2550.191181
389.926018	2550.160934
390.310008	2551.363250
390.693936	2554.282078
391.077802	2551.779145
391.461606	2551.176727
391.845348	2551.269988
392.229027	2554.796275
392.612645	2550.992725
392.996200	2555.723848
393.379694	2553.682180
393.763125	2552.235369
394.146494	2554.156049
394.529801	2553.435164
394.913047	2554.599670
395.296230	2554.428271
395.679351	2553.795606
396.062410	2556.169990
396.445408	2554.894578
396.828343	2555.502037
397.211217	2553.490617
397.594028	2553.631769
397.976778	2554.710576
398.359466	2555.779300
398.742092	2554.438353
399.124656	2555.620504
399.507158	2555.249979
399.889598	2556.863148
400.271977	2556.134702
400.654294	2557.828529
401.036549	2554.622356
401.418742	2557.102603
401.800874	2558.138560
402.182944	2556.442212
402.564952	2559.096380
402.946898	2559.570248
403.328783	2559.222408
403.710606	2559.086297
404.092367	2558.312480
404.474067	2557.798282
404.855705	2558.352809
405.237282	2557.667212
405.618797	2559.461863
406.000250	2560.046637
406.381642	2560.840619
406.762972	2555.945658
407.144240	2556.525391
407.525447	2558.821637
407.906593	2555.159238
408.287677	2558.194013
408.668700	2560.069322
409.049661	2562.355486
409.430560	2560.631411
409.811399	2561.158212
410.192176	2562.481514
410.572891	2560.704508
410.953545	2561.478325
411.334138	2561.501010
411.714669	2560.984292
412.095139	2559.545042
412.475547	2562.078222
412.855894	2561.735424
413.236180	2559.401369
413.616405	2559.620660
413.996568	2561.581668
414.376670	2563.915723
414.756711	2562.597461
415.136691	2562.153839
415.516609	2560.218036
415.896466	2565.894376
416.276262	2564.903789
416.655997	2562.211813
417.035670	2563.726679
417.415283	2565.702812
417.794834	2562.395815
418.174324	2564.969324
418.553753	2564.939077
418.933121	2565.264231
419.312428	2565.173491
419.691674	2565.612071
420.070859	2565.158367
420.449983	2563.671227
420.829045	2564.427400
421.208047	2565.997719
421.586988	2564.921433
421.965867	2565.173491
422.344686	2569.251784
422.723444	2568.470405
423.102141	2564.467729
423.480777	2563.020918
423.859352	2566.166598
424.237866	2568.437638
424.616319	2569.302196
424.994712	2568.097360
425.373044	2566.592575
425.751314	2564.094684
426.129524	2561.518654
426.507673	2564.271124
426.885762	2560.707028
427.263789	2567.268090
427.641756	2566.524520
428.019662	2568.142730
428.397508	2569.823955
428.775292	2569.647515
429.153016	2566.421176
429.530679	2570.612896
429.908282	2569.193811
430.285824	2567.187432
430.663305	2568.914027
431.040726	2570.948132
431.418086	2570.504511
431.795385	2570.605334
432.172624	2568.346897
432.549802	2569.992834
432.926920	2569.057700
433.303977	2568.790518
433.680974	2568.120045
434.057910	2568.876218
434.434786	2571.931157
434.811601	2570.774212
435.188355	2571.810170
435.565050	2569.826476
435.941683	2569.718091
436.318257	2567.721794
436.694770	2572.899059
437.071222	2569.821434
437.447614	2569.050138
437.823946	2569.821434
438.200218	2570.998544
438.576429	2569.118193
438.952580	2569.551733
439.328670	2572.909141
439.704700	2571.684141
440.080670	2572.654563
440.456580	2571.089285
440.832429	2572.286559
441.208218	2573.776220
441.583947	2572.470561
441.959616	2573.380489
442.335224	2572.147927
442.710773	2572.031980
443.086261	2572.926785
443.461689	2570.333112
443.837057	2574.605489
444.212365	2573.224213
444.587612	2569.491239
444.962800	2570.063410
445.337927	2570.204562
445.712995	2566.474108
446.088002	2572.281517
446.462949	2575.356621
446.837837	2573.728329
447.212664	2572.795715
447.587431	2572.919223
447.962139	2572.803277
448.336786	2578.401478
448.711374	2577.345357
449.085901	2575.044070
449.460369	2574.988617
449.834776	2575.041549
450.209124	2575.122208
450.583412	2574.189594
450.957640	2576.397620
451.331808	2578.071283
451.705917	2576.473237
452.079965	2575.104564
452.453954	2576.332085
452.827883	2578.514904
453.201752	2577.975501
453.575562	2575.112125
453.949311	2577.781416
454.323001	2577.058011
454.696632	2577.229410
455.070202	2576.846282
455.443713	2577.335274
455.817164	2577.020202
456.190556	2579.661767
456.563888	2583.586305
456.937160	2580.808629
457.310373	2577.756211
457.683526	2576.725295
458.056619	2579.392065
458.429653	2577.957857
458.802628	2581.269895
459.175542	2580.702765
459.548398	2580.541448
459.921194	2579.926427
460.293930	2578.502301
460.666607	2580.022209
461.039224	2581.579926
461.411782	2580.145717
461.784280	2581.075810
462.156719	2583.624114
462.529099	2581.161510
462.901419	2581.015317
463.273680	2577.489029
463.645882	2574.860068
464.018024	2577.186560
464.390106	2578.340984
464.762130	2584.115626
465.134094	2583.079669
465.505999	2584.604618
465.877845	2587.956985
466.249631	2586.837849
466.621358	2587.694845
466.993026	2588.166193
467.364634	2590.432192
467.736184	2588.267016
468.107674	2588.176276
468.479105	2586.149732
468.850477	2588.314907
469.221790	2586.399269
469.593043	2586.999166
469.964238	2587.316759
470.335373	2585.106213
470.706449	2585.519587
471.077467	2587.321800
471.448425	2587.488158
471.819324	2589.025710
472.190164	2593.167018
472.560945	2588.904722
472.931667	2587.442788
473.302330	2590.442274
473.672934	2589.391194
474.043479	2588.829105
474.413965	2588.388004
474.784393	2587.261306
475.154761	2588.549321
475.525070	2588.204002
475.895321	2587.082345
476.265513	2590.038982
476.635645	2590.066708
477.005719	2588.977819
477.375734	2587.445308
477.745691	2588.342634
478.115588	2590.769949
478.485427	2592.799014
478.855207	2594.578541
479.224928	2594.641555
479.594591	2593.671133
479.964194	2594.961669
480.333739	2596.801690
480.703226	2594.097111
481.072653	2598.603902
481.442022	2597.073912
481.811333	2596.342945
482.180584	2593.582913
482.549777	2594.346648
482.918912	2591.034610
483.287988	2596.050558
483.657005	2595.813624
484.025964	2598.631629
484.394864	2595.526278
484.763706	2597.603233
485.132489	2593.315732
485.501213	2599.307143
485.869879	2598.412338
486.238487	2596.746237
486.607036	2596.572317
486.975527	2598.109869
487.343959	2598.719849
487.712333	2600.378388
488.080648	2598.180445
488.448905	2597.940991
488.817104	2600.058275
489.185244	2598.631629
489.553326	2601.119438
489.921350	2602.165477
490.289315	2600.993409
490.657222	2605.928699
491.025070	2605.575818
491.392861	2607.050356
491.760593	2607.758638
492.128267	2605.117073
492.495883	2603.952567
492.863440	2603.640015
493.230939	2601.197576
493.598380	2603.503904
493.965763	2601.283276
494.333088	2604.030704
494.700354	2602.120107
495.067563	2601.633636
495.434713	2602.694799
495.801805	2602.394850
496.168839	2603.398040
496.535815	2602.427617
496.902733	2600.980806
497.269593	2601.948708
497.636395	2602.352000
498.003139	2605.550612
498.369825	2603.138420
498.736453	2605.434666
499.103023	2604.176898
499.469535	2606.626899
499.835989	2607.763679
500.202385	2601.905858
500.568723	2604.519696
500.935003	2604.960797
501.301226	2602.639346
501.667390	2607.476333
502.033497	2612.671242
502.399546	2608.378700
502.765537	2608.663525
503.131470	2609.666714
503.497345	2610.228803
503.863163	2609.429780
504.228923	2610.218721
504.594625	2611.312651
504.960269	2610.226282
505.325856	2613.911366
505.691385	2613.787858
506.056856	2615.821963
506.422270	2616.958743
506.787625	2617.359515
507.152924	2617.102416
507.518164	2616.600822
507.883347	2619.222222
508.248472	2616.653754
508.613540	2619.983436
508.978550	2622.932511
509.343503	2622.209105
509.708398	2624.966616
510.073236	2624.386884
510.438016	2625.228756
510.802738	2628.051802
511.167403	2629.233953
511.532010	2629.763274
511.896561	2632.036835
512.261053	2634.922895
512.625488	2632.762761
512.989866	2634.557412
513.354186	2637.186373
513.718449	2639.558236
514.082655	2641.317599
514.446803	2641.652836
514.810894	2641.874646
515.174927	2646.666263
515.538904	2645.335398
515.902822	2646.804895
516.266684	2651.379742
516.630488	2652.135915
516.994235	2652.745895
517.357925	2658.568427
517.721558	2658.611277
518.085133	2661.988850
518.448651	2660.393325
518.812112	2660.211843
519.175516	2667.125786
519.538863	2667.766012
519.902152	2675.277332
520.265385	2680.888136
520.628560	2682.206398
520.991678	2681.651871
521.354739	2688.054136
521.717743	2690.151256
522.080690	2693.901875
522.443580	2699.028728
522.806413	2704.485777
523.169189	2707.971735
523.531908	2712.077755
523.894569	2715.815770
524.257174	2719.621842
524.619722	2726.936556
524.982213	2727.780949
525.344647	2734.044583
525.707025	2742.969946
526.069345	2746.337436
526.431608	2751.229876
526.793815	2760.961824
527.155964	2762.960641
527.518057	2768.508431
527.880093	2777.098557
528.242072	2784.153652
528.603995	2790.346709
528.965860	2799.657721
529.327669	2807.274904
529.689421	2819.109013
530.051117	2822.708397
530.412755	2832.780622
530.774337	2844.166068
531.135862	2851.861389
531.497331	2867.501569
531.858743	2871.605068
532.220098	2890.118706
532.581396	2894.532236
532.942638	2910.512694
533.303824	2924.212029
533.664953	2940.779781
534.026025	2949.322017
534.387040	2966.482104
534.747999	2987.705362
535.108902	2999.539471
535.469748	3008.331243
535.830537	3031.341590
536.191270	3055.922256
536.551947	3072.023701
536.912567	3077.145513
537.273131	3107.828496
537.633638	3121.006072
537.994089	3153.803819
538.354483	3164.183555
538.714821	3202.758464
539.075103	3236.869432
539.435328	3251.148500
539.795497	3268.326232
540.155609	3305.237560
540.515665	3340.762572
540.875665	3346.252388
541.235609	3380.799415
541.595496	3414.943150
541.955328	3462.750933
542.315102	3491.336796
542.674821	3508.317923
543.034483	3532.828012
543.394090	3572.375864
543.753640	3593.455449
544.113134	3651.552227
544.472571	3684.844007
544.831953	3745.894900
545.191278	3761.812344
545.550548	3801.829023
545.909761	3836.013087
546.268918	3901.727048
546.628019	3939.858336
546.987064	3992.626614
547.346053	4020.884802
547.704986	4065.128488
548.063863	4131.215495
548.422684	4157.336233
548.781449	4195.323848
549.140158	4268.052575
549.498811	4314.647960
549.857408	4327.439887
550.215949	4419.393054
550.574434	4450.565029
550.932864	4524.632182
551.291237	4585.597376
551.649555	4652.024660
552.007817	4716.347263
552.366022	4765.896764
552.724173	4813.893590
553.082267	4881.560998
553.440305	4991.155682
553.798288	4985.123942
554.156215	5105.184062
554.514086	5183.800856
554.871902	5175.435061
555.229661	5271.237149
555.587365	5339.703580
555.945014	5383.480960
556.302606	5508.012583
556.660143	5547.212596
557.017625	5667.673487
557.375050	5690.139389
557.732421	5793.483043
558.089735	5870.156473
558.446994	5934.065701
558.804197	6036.375918
559.161345	6121.425224
559.518437	6119.839782
559.875474	6270.807216
560.232455	6346.396797
560.589381	6435.564726
560.946251	6491.710577
561.303065	6648.611450
561.659825	6748.292705
562.016528	6769.526045
562.373177	6815.304763
562.729770	6936.983094
563.086307	7045.055350
563.442789	7159.829820
563.799216	7218.425672
564.155587	7283.098634
564.511904	7404.698827
564.868164	7449.416382
565.224370	7575.765342
565.580520	7613.967205
565.936615	7763.906244
566.292654	7763.230730
566.648638	7969.938202
567.004567	7992.111717
567.360441	8086.512364
567.716260	8105.502391
568.072023	8312.585429
568.427732	8348.017179
568.783385	8377.081951
569.138982	8534.388636
569.494525	8660.646855
569.850013	8711.217190
570.205445	8812.932551
570.560823	8836.038680
570.916145	8906.297241
571.271412	9013.908231
571.626625	9093.984440
571.981782	9184.810908
572.336884	9209.880567
572.691931	9361.851190
573.046923	9334.621398
573.401860	9448.992576
573.756743	9560.369308
574.111570	9613.283780
574.466342	9675.733593
574.821059	9814.947577
575.175722	9795.029979
575.530330	9929.754815
575.884882	10020.233444
576.239380	10104.892062
576.593823	10153.445935
576.948211	10214.504390
577.302544	10246.177960
577.656823	10302.956476
578.011047	10461.064704
578.365216	10488.327264
578.719330	10543.923629
579.073389	10582.375030
579.427394	10775.652869
579.781344	10739.714483
580.135239	10824.897380
580.489080	10885.509693
580.842866	10853.445434
581.196597	11082.210475
581.550273	11094.069790
581.903895	11213.207379
582.257463	11419.594738
582.610975	11316.482977
582.964434	11535.397603
583.317837	11507.807368
583.671186	11641.884417
584.024481	11726.311141
584.377721	11674.772904
584.730906	11806.110085
585.084037	11930.871081
585.437113	11962.350567
585.790135	12134.387503
586.143103	11976.342289
586.496016	12035.457380
586.848874	12299.739870
587.201679	12333.540807
587.554428	12237.922721
587.907124	12509.661078
588.259765	12463.078296
588.612352	12628.067699
588.964884	12461.235754
589.317362	12650.127789
589.669786	12744.208322
590.022155	12866.612579
590.374470	13077.002614
590.726731	13053.992267
591.078937	12977.323879
591.431090	13120.101959
591.783188	13034.921582
592.135232	13095.392743
592.487222	13271.104681
592.839157	13348.345240
593.191038	13384.308832
593.542866	13367.065565
593.894639	13310.818891
594.246358	13499.226975
594.598022	13515.184748
594.949633	13451.444398
595.301190	13484.363133
595.652692	13672.609900
596.004141	13898.592224
596.355535	13544.824212
596.706876	13617.416827
597.058162	13633.747645
597.409395	13826.082788
597.760573	13983.160100
598.111698	13912.536055
598.462768	13928.864353
598.813785	13955.489207
599.164748	13919.500409
599.515657	13991.888858
599.866511	13925.370833
600.217312	14238.335746
600.568060	13975.792454
600.918753	14263.125620
601.269392	14271.957722
601.619978	14158.473787
601.970510	14405.021498
602.320988	14395.095466
602.671412	14615.093941
603.021783	14602.259163
603.372100	14473.349297
603.722363	14634.411642
604.072572	14651.027285
604.422728	14782.651812
604.772830	14700.813721
605.122878	14679.640874
605.472872	14762.411579
605.822813	14807.852540
606.172701	14837.418908
606.522534	15047.496391
606.872314	15122.032371
607.222041	15022.220046
607.571714	15271.764723
607.921333	15182.163254
608.270899	15291.997394
608.620411	15520.807805
608.969870	15349.973184
609.319276	15410.086423
609.668627	15498.924156
610.017926	15650.244471
610.367171	15792.531039
610.716362	15890.072324
611.065500	15757.966367
611.414585	15916.540903
611.763616	15949.933506
612.112594	15961.812985
612.461518	15960.777028
612.810389	16180.465471
613.159207	16067.493213
613.507971	16042.418514
613.856682	16350.685072
614.205340	16322.159703
614.553945	16497.634707
614.902496	16287.506811
615.250994	16568.112558
615.599439	16549.185546
615.947830	16566.451498
616.296169	16615.658200
616.644454	16652.977862
616.992686	16633.347609
617.340864	16856.574943
617.688990	16697.440839
618.037063	16881.828603
618.385082	16767.734688
618.733048	17046.326494
619.080961	16949.294365
619.428821	17030.492230
619.776628	16982.727297
620.124382	16922.079696
620.472083	16989.989079
620.819731	17054.669604
621.167326	16813.296637
621.514868	16888.278759
621.862357	16709.264866
622.209793	16762.386024
622.557176	16647.379661
622.904506	16511.538209
623.251783	16466.223277
623.599007	16305.095397
623.946179	16287.305165
624.293297	16264.350271
624.640363	16061.469035
624.987376	16101.324397
625.334336	15926.219918
625.681243	15813.033411
626.028097	15839.592730
626.374899	15811.344625
626.721647	15701.792790
627.068343	15553.388782
627.414987	15509.644170
627.761577	15522.728485
628.108115	15588.278608
628.454600	15333.612119
628.801032	15423.253917
629.147412	15370.871287
629.493739	15419.972125
629.840014	15256.840387
630.186236	15358.265882
630.532405	15146.718902
630.878521	15347.838255
631.224585	15253.810653
631.570597	15103.979999
631.916556	15137.980062
632.262462	15127.698628
632.608316	15064.900975
632.954117	15015.969015
633.299866	15039.145720
633.645562	14973.462006
633.991206	14742.499022
634.336797	14632.117917
634.682336	14616.606287
635.027823	14521.056257
635.373257	14436.294296
635.718639	14336.870139
636.063968	14297.781032
636.409245	14073.855499
636.754470	14115.581129
637.099642	13973.977638
637.444762	13762.687757
637.789829	13820.396366
638.134845	13678.921424
638.479808	13704.165002
638.824719	13675.206094
639.169577	13525.224205
639.514383	13576.039036
639.859137	13396.238722
640.203839	13486.235922
640.548489	13334.426615
640.893086	13338.449455
641.237632	13202.829814
641.582125	13359.982744
641.926566	13206.240155
642.270955	13213.375908
642.615292	13195.583155
642.959576	13206.688817
643.303809	13242.972522
643.647990	13185.069829
643.992118	13236.638312
644.336195	13018.560517
644.680219	13206.063714
645.024192	13151.208399
645.368112	13384.339079
645.711981	13450.985653
646.055797	13623.516623
646.399562	13593.844392
646.743274	13861.915309
647.086935	14135.692813
647.430544	14102.330457
647.774101	14129.386329
648.117606	14295.280620
648.461059	14250.179937
648.804460	14262.813069
649.147810	14004.126259
649.491108	13898.642635
649.834354	13924.448302
650.177548	13637.699909
650.520690	13449.309470
650.863781	13367.088250
651.206820	13414.407041
651.549807	13244.830187
651.892742	13058.967886
652.235626	12998.143844
652.578458	12997.468330
652.921238	12686.303109
653.263967	12877.246893
653.606644	12710.989639
653.949269	12682.832274
654.291843	12504.899708
654.634365	12649.338848
654.976836	12503.790654
655.319255	12529.150179
655.661622	12469.823360
656.003938	12399.698389
656.346203	12336.003410
656.688416	12398.291907
657.030577	12357.146009
657.372687	12293.819035
657.714746	12262.011875
658.056753	12442.001232
658.398708	12271.932865
658.740612	12271.711055
659.082465	12369.771579
659.424266	12336.681445
659.766016	12356.931760
660.107715	12269.576126
660.449362	12337.586333
660.790958	12303.908904
661.132503	12257.525248
661.473996	12305.096096
661.815438	12326.515959
662.156829	12341.951972
662.498168	12325.449755
662.839456	12323.768530
663.180693	12330.259015
663.521879	12433.700972
663.863013	12417.627253
664.204097	12393.956515
664.545129	12506.114626
664.886110	12471.481899
665.227040	12554.572718
665.567918	12564.841548
665.908746	12607.020882
666.249522	12582.241090
666.590248	12624.788429
666.930922	12736.913773
667.271545	12731.257598
667.612118	12812.760453
667.952639	12724.268038
668.293109	12715.226729
668.633528	12684.473170
668.973896	12654.697595
669.314213	12749.040268
669.654480	12487.671565
669.994695	12544.157694
670.334859	12570.404461
670.674973	12512.383301
671.015035	12558.671176
671.355047	12497.889984
671.695008	12457.308695
672.034918	12473.087507
672.374777	12520.552491
672.714585	12427.260898
673.054342	12462.027215
673.394049	12409.195923
673.733705	12503.979698
674.073310	12425.211669
674.412864	12443.551386
674.752368	12320.045638
675.091820	12319.584372
675.431223	12315.112869
675.770574	12195.211545
676.109875	12113.449071
676.449125	12077.019172
676.788324	12008.247752
677.127473	11856.173784
677.466571	11843.366733
677.805619	11749.550860
678.144616	11666.112202
678.483562	11631.539969
678.822458	11491.665594
679.161303	11473.061215
679.500098	11471.599281
679.838842	11420.378637
680.177535	11434.861872
680.516179	11503.721513
680.854771	11450.640684
681.193314	11663.805874
681.531805	11808.877679
681.870247	12207.421220
682.208638	12609.768311
682.546978	12925.210951
682.885268	13000.324143
683.223508	12685.453674
683.561697	12526.901824
683.899836	12421.720670
684.237925	12240.050088
684.575963	12144.779842
684.913951	12083.907909
685.251889	12023.792150
685.589776	12119.306892
685.927614	12047.351982
686.265401	12010.498627
686.603137	12054.628888
686.940824	12204.472145
687.278460	12313.769401
687.616046	12374.825336
687.953582	12547.709187
688.291068	12471.179430
688.628504	12692.773430
688.965889	12704.973022
689.303224	12675.469669
689.640510	12575.203640
689.977745	12287.101697
690.314930	12046.028679
690.652065	11958.461316
690.989150	11685.240860
691.326185	11450.799480
691.663170	11248.011505
692.000105	10997.929945
692.336990	10909.989537
692.673825	10655.711216
693.010610	10530.476352
693.347345	10328.762142
693.684030	10126.629517
694.020665	10069.750178
694.357251	9877.886383
694.693786	9832.483231
695.030272	9656.741046
695.366707	9543.307523
695.703093	9468.486718
696.039429	9462.621335
696.375716	9396.761181
696.711952	9274.379609
697.048139	9305.269280
697.384276	9263.730172
697.720363	9267.422817
698.056400	9215.261998
698.392388	9171.761882
698.728326	9126.434347
699.064214	9057.335251
699.400053	9113.292059
699.735842	8926.850025
700.071581	8885.089107
700.407270	8813.512284
700.742910	8735.233247
701.078501	8644.275708
701.414042	8528.024180
701.749533	8453.445350
702.084974	8321.609094
702.420366	8427.753109
702.755709	8315.809247
703.091002	8187.191768
703.426246	8207.426960
703.761440	8160.019949
704.096584	8119.662992
704.431679	8049.419554
704.766725	8032.992954
705.101721	7989.165163
705.436668	8027.616564
705.771565	7923.899864
706.106413	8005.793409
706.441212	8050.412661
706.775961	7999.134044
707.110661	8031.309209
707.445311	8179.070469
707.779913	8079.943741
708.114465	8204.389664
708.448967	8245.091941
708.783421	8381.470276
709.117825	8559.680105
709.452180	8598.184438
709.786485	8684.342799
710.120742	8961.233215
710.454949	8959.738513
710.789107	9057.282319
711.123216	9268.431048
711.457275	9421.858565
711.791286	9596.549669
712.125247	9582.058873
712.459159	9571.464888
712.793023	9840.619653
713.126837	9410.082430
713.460602	9563.857787
713.794318	9375.951298
714.127985	9414.072503
714.461602	9110.128735
714.795171	9055.598574
715.128691	8812.894742
715.462162	8560.345537
715.795584	8504.524841
716.128957	8380.273002
716.462281	8201.155764
716.795556	8246.511025
717.128782	8044.965695
717.461960	7774.301103
717.795088	7844.340374
718.128167	7754.479287
718.461198	7588.519461
718.794180	7529.535440
719.127113	7526.225923
719.459997	7383.493213
719.792833	7144.444218
720.125619	7202.208280
720.458357	7070.437559
720.791046	7050.683798
721.123686	7055.195631
721.456278	6902.531848
721.788821	6915.202788
722.121315	6806.623896
722.453761	6867.054728
722.786158	6824.724159
723.118506	6836.197825
723.450805	6802.548123
723.783056	6874.185440
724.115259	6772.197857
724.447412	6762.919613
724.779518	6815.972716
725.111574	6817.895916
725.443582	6895.370889
725.775542	6875.816253
726.107453	7058.099335
726.439315	6977.526573
726.771129	7023.690940
727.102895	7186.318563
727.434612	7305.758621
727.766281	7328.022877
728.097901	7416.595950
728.429473	7403.108343
728.760996	7372.248920
729.092471	7355.638318
729.423897	7315.815723
729.755276	7330.248546
730.086606	7260.915037
730.417887	7352.328800
730.749120	7524.511930
731.080305	7719.561734
731.411442	7856.600461
731.742530	7855.251952
732.073570	7955.563352
732.404562	8042.233389
732.735506	7889.607415
733.066401	8030.205196
733.397249	7968.035166
733.728048	7736.074034
734.058798	7404.998776
734.389501	7191.919285
734.720156	7009.792479
735.050762	6775.005779
735.381320	6668.551734
735.711831	6624.630681
736.042293	6520.414907
736.372707	6541.446601
736.703073	6405.572382
737.033391	6440.288287
737.363661	6453.125586
737.693883	6467.019006
738.024056	6553.804990
738.354182	6602.986487
738.684260	6642.284802
739.014290	6745.240287
739.344272	6855.621391
739.674207	6882.241204
740.004093	6943.670184
740.333931	6969.886705
740.663722	6978.244938
740.993464	7050.144395
741.323159	7043.956378
741.652806	6798.590818
741.982405	6796.425642
742.311956	6863.193204
742.641460	6716.263734
742.970915	6518.038003
743.300323	6509.185737
743.629683	6454.363189
743.958996	6323.240257
744.288260	6238.984932
744.617477	6183.086098
744.946647	6193.869126
745.275768	6031.559095
745.604842	5984.583103
745.933869	5966.331606
746.262847	5912.973513
746.591778	5911.017545
746.920662	5870.083376
747.249498	5855.637950
747.578286	5901.111678
747.907027	5980.078832
748.235720	6038.863727
748.564365	6007.149828
748.892963	6027.886615
749.221514	6188.326377
749.550017	6040.025713
749.878473	5903.715434
750.206881	5950.436848
750.535242	5898.399537
750.863555	5830.394372
751.191821	5853.099729
751.520039	5850.687537
751.848210	5761.900214
752.176334	5775.211381
752.504411	5834.467624
752.832440	5766.114619
753.160421	5680.704870
753.488356	5729.944340
753.816243	5772.262306
754.144082	5621.846878
754.471875	5586.795736
754.799620	5635.057222
755.127318	5642.888654
755.454969	5593.180357
755.782572	5560.153237
756.110129	5602.105720
756.437638	5597.760245
756.765100	5537.301687
757.092515	5525.550757
757.419882	5572.851904
757.747203	5556.707609
758.074477	5621.423421
758.401703	5614.648111
758.728882	5567.634310
759.056014	5609.392708
759.383099	5744.825826
759.710138	5753.461323
760.037129	5736.308797
760.364073	5741.541515
760.690970	5826.928578
761.017820	5812.881403
761.344623	5761.224700
761.671379	5852.411611
761.998088	5965.202387
762.324751	6201.093099
762.651366	6760.603203
762.977935	8022.424175
763.304456	9620.538000
763.630931	10548.833713
763.957359	10213.896931
764.283740	9293.679667
764.610074	8484.246800
764.936362	7511.518356
765.262602	6912.173055
765.588796	6368.731629
765.914943	6026.449886
766.241044	5873.128233
766.567097	5683.230488
766.893104	5428.354791
767.219064	5244.554322
767.544978	5183.740362
767.870845	5109.277479
768.196665	4999.430736
768.522438	4925.119087
768.848165	4900.414913
769.173846	4837.967620
769.499479	4796.867092
769.825066	4737.784769
770.150607	4681.187735
770.476101	4655.384589
770.801548	4650.968538
771.126949	4581.705605
771.452303	4527.944220
771.777611	4483.332529
772.102872	4501.425230
772.428087	4463.891319
772.753256	4426.813633
773.078378	4382.451479
773.403453	4316.576201
773.728482	4300.603305
774.053465	4253.864247
774.378401	4238.982761
774.703291	4246.796549
775.028135	4177.752906
775.352932	4126.958240
775.677683	4108.822689
776.002388	4133.582316
776.327046	4144.710663
776.651658	4070.550249
776.976224	4006.288141
777.300743	4012.899614
777.625216	4031.236811
777.949643	4035.733520
778.274024	3987.648474
778.598359	3937.967903
778.922647	3958.205615
779.246889	3956.423567
779.571086	3952.546920
779.895236	3936.216102
780.219339	3924.187909
780.543397	3912.447062
780.867409	3961.948672
781.191374	3978.042556
781.515294	3922.390738
781.839167	3913.021753
782.162995	3929.377777
782.486776	3915.257505
782.810511	3924.999535
783.134201	3926.433743
783.457844	3888.864544
783.781441	3827.067560
784.104993	3831.483610
784.428498	3852.091847
784.751958	3850.037577
785.075372	3833.379084
785.398739	3793.196047
785.722061	3801.844146
786.045337	3842.508614
786.368568	3880.332391
786.691752	3791.290491
787.014891	3835.355217
787.337983	3956.491623
787.661030	4108.245477
787.984031	4273.489459
788.306987	4444.694605
788.629897	4521.252088
788.952760	4481.200121
789.275579	4414.949277
789.598351	4353.096840
789.921078	4223.236717
790.243759	4028.295298
790.566395	3999.059126
790.888984	3993.866737
791.211529	3891.004514
791.534027	3828.773990
791.856480	3823.768124
792.178888	3765.136985
792.501249	3709.044066
792.823566	3716.399109
793.145836	3752.796240
793.468062	3705.026266
793.790241	3655.958195
794.112375	3683.465251
794.434464	3743.492791
794.756507	3769.212758
795.078505	3754.951333
795.400457	3781.740025
795.722364	3914.738266
796.044226	4016.015047
796.366042	4085.761931
796.687812	4078.522834
797.009538	4081.310592
797.331218	4040.023542
797.652852	4011.500694
797.974442	3995.071573
798.295986	3994.181810
798.617484	3919.325716
798.938938	3826.613856
799.260346	3867.406873
799.581709	3867.711862
799.903026	3796.510606
800.224299	3761.421654
800.545526	3751.556116
800.866708	3714.954819
801.187845	3652.396620
801.508936	3687.152855
801.829983	3694.606201
802.150984	3612.034622
802.471940	3595.804627
802.792851	3610.618057
803.113717	3610.739045
803.434538	3609.042697
803.755314	3556.970098
804.076045	3528.502703
804.396731	3548.916855
804.717372	3574.954415
805.037967	3564.932601
805.358518	3552.362484
805.679024	3575.239240
805.999485	3584.767021
806.319901	3589.745160
806.640272	3603.106738
806.960598	3626.401910
807.280879	3595.668516
807.601115	3607.023715
807.921306	3620.632310
808.241453	3665.901871
808.561554	3642.553767
808.881611	3575.466092
809.201623	3609.458592
809.521590	3622.409316
809.841513	3597.682457
810.161390	3625.935603
810.481223	3603.930967
810.801011	3552.158317
811.120755	3539.530227
811.440453	3574.571287
811.760107	3582.548913
812.079716	3542.350752
812.399281	3506.397243
812.718801	3528.230480
813.038276	3499.667303
813.357707	3498.926253
813.677093	3520.560365
813.996434	3469.337200
814.315731	3473.884321
814.634983	3475.442038
814.954191	3489.201867
815.273354	3519.068183
815.592473	3516.779499
815.911547	3519.398379
816.230577	3555.825756
816.549562	3606.844754
816.868502	3648.474602
817.187399	3675.225485
817.506250	3673.042666
817.825058	3638.551091
818.143821	3726.874627
818.462539	3831.806244
818.781213	3880.793657
819.099843	3929.586985
819.418429	4161.011234
819.736970	4393.148807
820.055466	4629.730157
820.373919	4986.169981
820.692327	5392.282814
821.010691	5789.505573
821.329011	7073.159783
821.647286	9670.541205
821.965517	14055.082242
822.283704	18052.649187
822.601847	20337.083340
822.919945	18611.088045
823.237999	16143.934750
823.556010	13696.557901
823.873976	11667.364929
824.191897	9614.160940
824.509775	8256.726924
824.827609	7145.354147
825.145398	6592.263953
825.463144	6478.883361
825.780845	6588.662048
826.098502	6747.223981
826.416116	7551.908081
826.733685	8835.532044
827.051210	9947.484553
827.368692	10072.847967
827.686129	8885.081545
828.003522	7383.437761
828.320872	6379.522219
828.638177	5692.559143
828.955439	5146.771060
829.272656	4661.502029
829.589830	4371.456722
829.906960	4199.142522
830.224046	4016.430942
830.541088	3891.841345
830.858086	3849.341898
831.175041	3774.420269
831.491952	3753.096189
831.808819	3764.930297
832.125642	3831.445802
832.442421	3970.069971
832.759157	4227.110844
833.075849	4747.657869
833.392497	5581.086629
833.709101	6333.042781
834.025662	6700.525252
834.342179	6379.494493
834.658653	5727.698506
834.975083	5098.935552
835.291469	4537.577865
835.607811	4124.873723
835.924110	3988.840707
836.240366	3799.462201
836.556578	3592.474945
836.872746	3481.882112
837.188871	3447.594704
837.504952	3384.928120
837.820990	3307.415339
838.136984	3259.700818
838.452935	3279.328550
838.768842	3273.450565
839.084706	3299.717497
839.400526	3441.941050
839.716303	3758.717075
840.032037	4255.885750
840.347727	4540.224471
840.663373	4292.597953
840.978977	3919.361004
841.294537	3620.052577
841.610054	3394.206364
841.925527	3283.479940
842.240957	3215.888150
842.556344	3166.021056
842.871687	3107.042076
843.186987	3058.957030
843.502244	3023.187523
843.817458	2990.931700
844.132629	2953.037347
844.447756	2967.220633
844.762840	2953.700259
845.077881	2921.777152
845.392879	2901.549522
845.707833	2902.255284
846.022745	2896.107597
846.337613	2899.112124
846.652438	2886.826832
846.967221	2885.674929
847.281960	2873.923999
847.596656	2870.783360
847.911309	2867.350334
848.225919	2859.569313
848.540485	2854.117306
848.855009	2858.666947
849.169490	2848.105730
849.483928	2835.560818
849.798323	2834.618122
850.112675	2833.556960
850.426984	2843.803105
850.741251	2845.703620
851.055474	2834.076198
851.369654	2825.637307
851.683792	2831.805159
851.997887	2836.566528
852.311938	2842.489884
852.625947	2829.987823
852.939914	2835.764985
853.253837	2838.106601
853.567718	2824.883654
853.881555	2820.875937
854.195350	2836.589214
854.509103	2832.732731
854.822812	2827.880620
855.136479	2824.172852
855.450103	2826.534632
855.763685	2820.029023
856.077224	2813.488126
856.390720	2826.338027
856.704173	2839.921416
857.017584	2827.729386
857.330953	2824.790393
857.644278	2836.919409
857.957561	2843.901407
858.270802	2846.510204
858.584000	2846.880729
858.897155	2834.635767
859.210268	2831.848008
859.523339	2832.092504
859.836367	2832.004284
860.149352	2825.634786
860.462295	2821.213694
860.775195	2828.457832
861.088054	2829.907164
861.400869	2813.316727
861.713642	2808.666262
862.026373	2825.385249
862.339062	2827.908347
862.651708	2831.669047
862.964312	2837.058041
863.276873	2830.088646
863.589392	2839.818073
863.901869	2847.747808
864.214303	2867.005015
864.526696	2888.301370
864.839045	2883.988663
865.151353	2881.591594
865.463619	2881.286604
865.775842	2879.849875
866.088023	2894.189437
866.400162	2904.730490
866.712258	2878.614793
867.024313	2870.138093
867.336325	2875.171685
867.648296	2898.252608
867.960224	2889.153325
868.272110	2873.601365
868.583954	2879.663353
868.895755	2897.559449
869.207515	2881.727705
869.519233	2884.497819
869.830909	2893.508882
870.142542	2904.755696
870.454134	2907.019174
870.765684	2906.142013
871.077191	2908.821387
871.388657	2912.907242
871.700081	2927.811413
872.011463	2940.976386
872.322803	2938.133176
872.634101	2934.571600
872.945357	2953.914508
873.256571	2977.998620
873.567744	2973.630460
873.878874	2964.430355
874.189963	2986.513129
874.501010	2990.485558
874.812015	2981.469455
875.122979	2978.235554
875.433900	2976.708085
875.744780	2982.515494
876.055618	2989.202585
876.366415	2984.418530
876.677169	2998.027124
876.987882	2993.306084
877.298554	2984.799137
877.609183	3005.162878
877.919771	3027.603574
878.230317	3052.902605
878.540822	3102.439503
878.851285	3140.666572
879.161707	3178.634023
879.472087	3276.397119
879.782425	3478.282728
880.092722	3889.204822
880.402977	4396.233993
880.713191	4997.789841
881.023363	6091.200987
881.333494	7338.364804
881.643583	7905.325733
881.953631	7628.253835
882.263637	7041.483692
882.573602	6490.084805
882.883526	5926.655204
883.193408	5367.021592
883.503248	4901.287033
883.813048	4607.085294
884.122806	4327.812933
884.432522	4021.880429
884.742197	3794.030358
885.051831	3602.708487
885.361424	3467.494659
885.670975	3396.699215
885.980485	3318.974705
886.289954	3248.174219
886.599382	3203.507076
886.908768	3162.819923
887.218113	3120.837194
887.527417	3066.591858
887.836680	3017.160824
888.145901	3012.510359
888.455082	3004.371417
888.764221	2954.494240
889.073319	2926.820826
889.382376	2923.967533
889.691392	2927.062802
890.000366	2928.000456
890.309300	2914.666604
890.618193	2924.895106
890.927044	2944.694237
891.235855	2947.358487
891.544625	2927.713111
891.853353	2938.049997
892.162041	2958.743933
892.470687	2994.185765
892.779293	3044.516645
893.087858	3086.138932
893.396381	3152.490599
893.704864	3266.229112
894.013306	3493.325531
894.321707	3781.855971
894.630068	3990.274915
894.938387	3989.904391
895.246665	3946.348821
895.554903	3834.452850
895.863100	3641.674086
896.171256	3478.796926
896.479371	3347.641226
896.787446	3229.257290
897.095480	3132.194913
897.403473	3065.671847
897.711425	3027.648944
898.019336	3017.513705
898.327207	2996.255159
898.635038	2962.045889
898.942827	2946.617438
899.250576	2932.827361
899.558284	2904.785943
899.865952	2884.588560
900.173579	2866.836137
900.481165	2860.292719
900.788711	2848.728312
901.096216	2822.499189
901.403681	2810.639874
901.711105	2820.364260
902.018489	2819.875268
902.325832	2818.216728
902.633135	2823.971206
902.940397	2852.123529
903.247619	2929.094387
903.554800	3107.125255
903.861941	3425.723658
904.169041	3837.570804
904.476101	4137.912668
904.783121	4115.976087
905.090100	3884.274573
905.397039	3619.556023
905.703938	3375.332284
906.010796	3193.767567
906.317614	3089.362750
906.624391	2997.442351
906.931129	2930.788214
907.237826	2870.538864
907.544483	2822.237049
907.851099	2793.368881
908.157675	2771.185284
908.464211	2755.663571
908.770707	2743.973135
909.077163	2729.663820
909.383578	2715.551110
909.689954	2699.890765
909.996289	2703.159954
910.302584	2703.966538
910.608839	2703.512834
910.915054	2700.228523
911.221229	2691.383818
911.527363	2692.961699
911.833458	2702.585262
912.139513	2704.200952
912.445527	2706.013247
912.751502	2714.328630
913.057436	2726.256000
913.363331	2736.040880
913.669186	2754.957809
913.975000	2786.399486
914.280775	2844.410564
914.586510	2909.585121
914.892205	2983.085144
915.197859	3101.489245
915.503475	3285.539252
915.809050	3486.620796
916.114585	3629.066160
916.420081	3655.564985
916.725536	3599.663630
917.030952	3492.057681
917.336328	3367.422714
917.641665	3245.305803
917.946961	3143.804691
918.252218	3080.371852
918.557435	3006.738238
918.862612	2946.592232
919.167750	2898.960890
919.472848	2863.105683
919.777906	2839.994513
920.082925	2812.885708
920.387904	2782.492592
920.692843	2766.885179
920.997743	2758.171545
921.302603	2743.627816
921.607423	2737.381827
921.912204	2722.908674
922.216946	2712.549103
922.521647	2704.009388
922.826310	2699.094263
923.130932	2691.744261
923.435516	2680.441994
923.740059	2677.623989
924.044564	2668.761640
924.349028	2663.498676
924.653454	2659.647234
924.957840	2652.244300
925.262186	2647.871099
925.566493	2643.356746
925.870761	2640.001858
926.174989	2633.080353
926.479178	2630.824437
926.783328	2624.407048
927.087438	2623.850001
927.391509	2623.464352
927.695541	2621.019393
927.999533	2615.151490
928.303486	2616.038733
928.607400	2613.636623
928.911275	2615.970677
929.215110	2611.952878
929.518906	2611.156375
929.822663	2609.003803
930.126381	2612.058742
930.430060	2613.359360
930.733699	2606.644543
931.037299	2610.067486
931.340861	2615.179216
931.644383	2614.304576
931.947866	2614.266767
932.251309	2612.136880
932.554714	2608.466920
932.858080	2609.079420
933.161407	2606.725201
933.464694	2608.920624
933.767943	2604.048348
934.071153	2606.175715
934.374323	2603.135900
934.677455	2603.370313
934.980548	2603.085488
935.283602	2603.133379
935.586617	2601.142123
935.889593	2603.244284
936.192530	2604.154213
936.495428	2603.655138
936.798287	2604.229830
937.101108	2609.739811
937.403890	2613.147631
937.706632	2616.000924
938.009336	2623.134157
938.312002	2631.474746
938.614628	2637.859367
938.917216	2646.996459
939.219765	2645.864720
939.522275	2646.837662
939.824747	2643.271046
940.127179	2640.485808
940.429573	2638.923051
940.731929	2635.389202
941.034246	2632.412401
941.336524	2629.034827
941.638763	2629.002060
941.940964	2624.104579
942.243126	2623.698766
942.545250	2621.311780
942.847335	2621.069804
943.149381	2615.040584
943.451389	2611.839452
943.753359	2610.798453
944.055290	2609.704523
944.357182	2606.392485
944.659036	2606.140427
944.960851	2606.924327
945.262628	2604.779316
945.564367	2606.994903
945.866067	2603.652618
946.167729	2604.900303
946.469352	2604.794439
946.770937	2606.009357
947.072484	2603.327463
947.373992	2604.252515
947.675462	2600.401074
947.976893	2596.705908
948.278286	2597.424272
948.579641	2595.443099
948.880958	2596.781525
949.182236	2594.366812
949.483476	2596.325301
949.784678	2596.569797
950.085841	2597.933429
950.386967	2596.085846
950.688054	2596.005187
950.989103	2598.016608
951.290114	2599.934767
951.591087	2599.866711
951.892021	2600.811928
952.192917	2604.393667
952.493776	2607.899790
952.794596	2610.304420
953.095378	2608.083792
953.396122	2608.628237
953.696828	2608.071189
953.997496	2605.059100
954.298126	2605.064141
954.598718	2601.106835
954.899272	2597.774632
955.199788	2593.938314
955.500266	2594.349168
955.800706	2591.392532
956.101108	2589.857500
956.401472	2586.404310
956.701798	2586.099320
957.002087	2583.125039
957.302337	2583.707293
957.602550	2580.397775
957.902724	2580.352405
958.202861	2580.117991
958.502960	2579.228227
958.803022	2577.352918
959.103045	2576.722774
959.403031	2574.991138
959.702979	2575.268401
960.002889	2573.325036
960.302762	2573.025088
960.602596	2574.769327
960.902393	2575.833010
961.202153	2571.182546
961.501875	2572.954512
961.801559	2569.108111
962.101205	2572.281518
962.400814	2573.967783
962.700385	2571.469892
962.999918	2569.294634
963.299414	2568.674572
963.598873	2570.703636
963.898293	2566.113666
964.197677	2570.857392
964.497022	2568.735066
964.796331	2571.689182
965.095601	2567.913358
965.394835	2571.432083
965.694030	2566.801783
965.993189	2568.762792
966.292309	2568.974521
966.591393	2570.257494
966.890439	2568.896383
967.189447	2571.623647
967.488419	2569.745817
967.787353	2570.204562
968.086249	2568.563667
968.385108	2567.288255
968.683930	2569.682803
968.982714	2569.022412
969.281462	2570.612896
969.580172	2566.267421
969.878844	2570.393605
970.177480	2567.051320
970.476078	2572.168092
970.774639	2569.960066
971.073162	2569.377813
971.371649	2571.260684
971.670098	2570.202042
971.968510	2570.761610
972.266885	2571.671538
972.565223	2570.728842
972.863524	2570.088616
973.161788	2566.826989
973.460014	2568.117524
973.758204	2567.976372
974.056356	2569.513924
974.354471	2570.643143
974.652550	2569.602144
974.950591	2569.448389
975.248595	2571.999213
975.546563	2569.556774
975.844493	2568.823286
976.142386	2570.612896
976.440243	2570.096177
976.738062	2569.337484
977.035845	2569.811352
977.333590	2571.376630
977.631299	2569.140879
977.928971	2567.323543
978.226606	2564.071998
978.524204	2565.667524
978.821765	2563.393963
979.119290	2568.102401
979.416777	2567.310940
979.714228	2568.493090
980.011642	2570.096177
980.309020	2567.172308
980.606360	2566.325394
980.903664	2570.358317
981.200931	2567.184911
981.498162	2567.041238
981.795356	2569.657597
982.092513	2571.366548
982.389633	2573.176322
982.686717	2573.624985
982.983764	2579.835687
983.280775	2584.881882
983.577749	2587.301635
983.874686	2584.140832
984.171587	2582.699062
984.468451	2576.984914
984.765279	2575.162537
985.062070	2575.379307
985.358824	2574.297979
985.655543	2573.738411
985.952224	2573.413257
986.248869	2567.986454
986.545478	2570.875036
986.842050	2571.111970
987.138586	2566.451423
987.435086	2568.377144
987.731549	2569.120714
988.027975	2563.099056
988.324366	2566.118707
988.620719	2565.133161
988.917037	2564.954200
989.213318	2565.957390
989.509563	2568.881259
989.805772	2565.145764
990.101944	2563.562842
990.398080	2564.329097
990.694180	2565.886814
990.990244	2563.167111
991.286271	2563.199879
991.582262	2565.075188
991.878217	2563.764488
992.174136	2566.726166
992.470019	2562.605023
992.765865	2563.194838
993.061676	2560.815413
993.357450	2561.498489
993.653188	2558.418344
993.948890	2564.785322
994.244556	2563.220043
994.540186	2566.088460
994.835780	2567.273131
995.131337	2567.510065
995.426859	2569.985272
995.722345	2567.651218
996.017795	2571.202711
996.313208	2566.194324
996.608586	2567.711712
996.903928	2569.309757
997.199234	2569.914696
997.494504	2571.822773
997.789738	2567.540312
998.084936	2569.183728
998.380099	2564.356824
998.675225	2566.670713
998.970316	2567.177349
999.265371	2566.884962
999.560390	2566.887483
999.855373	2567.346228
1000.150320	2567.557956
1000.445232	2563.313305
1000.740108	2563.550239
1001.034948	2565.964952
1001.329752	2563.696432
1001.624521	2564.117369
1001.919254	2562.660475
1002.213951	2565.569221
1002.508613	2561.604354
1002.803239	2565.821279
1003.097829	2564.273645
1003.392384	2561.881617
1003.686903	2564.011505
1003.981386	2565.576783
1004.275834	2561.551422
1004.570246	2564.414797
1004.864623	2562.761298
1005.158964	2561.443037
1005.453270	2562.201730
1005.747540	2563.489745
1006.041775	2562.579817
1006.335974	2561.669889
1006.630138	2562.904971
1006.924266	2562.605023
1007.218359	2562.902451
1007.512416	2559.096380
1007.806438	2559.252655
1008.100425	2558.821637
1008.394376	2559.476987
1008.688292	2560.575958
1008.982172	2562.582337
1009.276017	2563.250290
1009.569827	2562.564693
1009.863602	2564.354303
1010.157341	2560.175187
1010.451045	2562.133675
1010.744714	2562.985630
1011.038347	2562.257183
1011.331945	2563.751885
1011.625508	2563.237687
1011.919036	2563.436813
1012.212528	2560.570917
1012.505986	2563.837585
1012.799408	2565.430589
1013.092795	2562.100907
1013.386147	2561.687533
1013.679464	2560.339024
1013.972745	2563.434292
1014.265992	2563.361196
1014.559204	2562.204251
1014.852380	2562.012687
1015.145521	2562.844478
1015.438628	2563.083932
1015.731699	2562.627708
1016.024736	2561.443037
1016.317737	2561.100238
1016.610703	2562.428582
1016.903635	2561.548901
1017.196531	2564.689540
1017.489393	2562.302553
1017.782219	2561.495969
1018.075011	2562.373130
1018.367768	2560.593602
1018.660490	2561.788356
1018.953177	2561.788356
1019.245829	2561.788356
