Dividing Wavelength (nm)	Counts (n)	Blue Motor Position (mm): 6.800000	Red Motor Position (mm): 0.000000	
326.493990	2062.033569
326.888308	2062.033569
327.282561	2062.033569
327.676750	2038.335105
328.070874	2039.837369
328.464933	2048.508153
328.858929	2055.711962
329.252859	2066.089178
329.646726	2080.370766
330.040528	2096.782243
330.434265	2111.734305
330.827938	2135.344549
331.221547	2153.626293
331.615091	2175.373831
332.008571	2196.904599
332.401986	2213.585777
332.795338	2238.363048
333.188625	2253.352919
333.581847	2275.362597
333.975006	2291.761471
334.368100	2308.644295
334.761129	2325.539722
335.154095	2341.668894
335.546996	2360.633714
335.939833	2384.364946
336.332606	2397.008160
336.725315	2409.792526
337.117960	2418.823753
337.510540	2429.160639
337.903056	2435.686413
338.295508	2445.728391
338.687896	2452.234000
339.080220	2457.907819
339.472480	2460.884620
339.864676	2462.971658
340.256807	2470.291413
340.648875	2469.583131
341.040879	2473.573205
341.432818	2472.222175
341.824694	2474.649491
342.216506	2473.363997
342.608253	2474.094964
342.999937	2474.001703
343.391557	2467.622123
343.783113	2469.368882
344.174605	2468.829479
344.566033	2464.751185
344.957397	2468.630353
345.348697	2461.204734
345.739934	2460.700618
346.131106	2458.278344
346.522215	2455.205761
346.913260	2451.230811
347.304241	2453.927828
347.695159	2452.879268
348.086012	2450.875409
348.476802	2448.417847
348.867528	2444.463062
349.258191	2441.443411
349.648789	2444.863833
350.039324	2437.367638
350.429796	2443.558175
350.820203	2440.314192
351.210548	2443.091868
351.600828	2441.705551
351.991045	2444.727722
352.381198	2441.881991
352.771288	2439.358893
353.161314	2440.349480
353.551276	2440.641867
353.941175	2439.633636
354.331010	2441.065324
354.720782	2442.663370
355.110490	2441.768565
355.500135	2442.577670
355.889717	2442.595314
356.279235	2439.532813
356.668689	2439.633636
357.058080	2442.368462
357.447408	2440.495674
357.836672	2442.731425
358.225873	2441.264450
358.615010	2445.562033
359.004084	2446.605552
359.393095	2444.009358
359.782043	2445.098247
360.170927	2445.496498
360.559748	2446.126642
360.948505	2447.908690
361.337199	2448.848866
361.725830	2447.976746
362.114398	2448.558999
362.502903	2449.393310
362.891344	2451.422375
363.279722	2452.148301
363.668037	2450.658640
364.056289	2447.384410
364.444478	2454.323559
364.832603	2450.996397
365.220665	2449.834411
365.608665	2450.565378
365.996601	2451.800461
366.384474	2452.322221
366.772284	2452.027313
367.160031	2450.378856
367.547715	2450.608228
367.935336	2454.575616
368.322893	2450.338527
368.710388	2449.204267
369.097820	2450.807354
369.485189	2451.813064
369.872495	2454.588219
370.259738	2451.790379
370.646918	2454.462190
371.034035	2457.607870
371.421090	2454.868003
371.808081	2454.094186
372.195010	2455.898919
372.581875	2454.457149
372.968678	2457.297839
373.355418	2456.352623
373.742096	2455.530915
374.128710	2456.561831
374.515262	2458.225412
374.901751	2457.247428
375.288177	2457.340689
375.674540	2458.721965
376.060841	2457.996039
376.447079	2460.251956
376.833254	2456.776080
377.219367	2458.124589
377.605417	2460.625001
377.991404	2460.912347
378.377329	2459.306739
378.763191	2459.402521
379.148991	2460.176338
379.534727	2457.229784
379.920402	2459.989816
380.306013	2460.980402
380.691563	2459.276492
381.077049	2461.970989
381.462474	2459.142902
381.847835	2462.971658
382.233134	2461.297995
382.618371	2461.479477
383.003545	2461.250104
383.388657	2459.737758
383.773706	2462.011318
384.158693	2462.338993
384.543618	2463.473253
384.928480	2463.644652
385.313280	2462.427213
385.698017	2464.894858
386.082692	2463.868983
386.467305	2465.348562
386.851856	2464.052986
387.236344	2464.814200
387.620770	2463.042234
388.005133	2460.214147
388.389435	2462.429734
388.773674	2460.181379
389.157851	2465.421659
389.541965	2466.455095
389.926018	2464.163891
390.310008	2465.023408
390.693936	2465.615743
391.077802	2469.310909
391.461606	2466.170270
391.845348	2467.511217
392.229027	2467.470888
392.612645	2466.374437
392.996200	2465.401494
393.379694	2470.130097
393.763125	2468.736218
394.146494	2466.858388
394.529801	2466.160188
394.913047	2465.530044
395.296230	2467.967442
395.679351	2468.045579
396.062410	2472.098667
396.445408	2466.114818
396.828343	2469.817545
397.211217	2470.460292
397.594028	2471.007257
397.976778	2471.251753
398.359466	2468.980713
398.742092	2472.796867
399.124656	2470.057000
399.507158	2470.452730
399.889598	2473.152268
400.271977	2470.815693
400.654294	2468.728656
401.036549	2470.762761
401.418742	2474.916672
401.800874	2472.038173
402.182944	2469.966259
402.564952	2471.133286
402.946898	2472.789305
403.328783	2473.190077
403.710606	2471.022381
404.092367	2470.800570
404.474067	2471.707978
404.855705	2471.907103
405.237282	2471.619757
405.618797	2472.907772
406.000250	2474.094964
406.381642	2475.506487
406.762972	2469.371403
407.144240	2469.752010
407.525447	2471.899542
407.906593	2468.441310
408.287677	2472.174284
408.668700	2473.837865
409.049661	2474.203349
409.430560	2473.169912
409.811399	2477.064204
410.192176	2473.444655
410.572891	2475.660242
410.953545	2470.798049
411.334138	2475.655201
411.714669	2477.401961
412.095139	2476.492033
412.475547	2472.300313
412.855894	2474.369707
413.236180	2477.321302
413.616405	2474.377269
413.996568	2473.900880
414.376670	2476.421457
414.756711	2476.290387
415.136691	2477.517908
415.516609	2475.365335
415.896466	2478.233751
416.276262	2477.603607
416.655997	2477.754842
417.035670	2476.373566
417.415283	2478.493371
417.794834	2479.519246
418.174324	2478.810963
418.553753	2476.000520
418.933121	2476.255098
419.312428	2479.587301
419.691674	2478.364821
420.070859	2478.848772
420.449983	2478.274081
420.829045	2480.300624
421.208047	2477.336426
421.586988	2477.790130
421.965867	2481.200470
422.344686	2476.708802
422.723444	2481.243320
423.102141	2479.373052
423.480777	2481.248361
423.859352	2478.284163
424.237866	2481.636530
424.616319	2479.955305
424.994712	2479.592342
425.373044	2476.592856
425.751314	2481.092086
426.129524	2473.769810
426.507673	2477.724595
426.885762	2474.851137
427.263789	2477.739718
427.641756	2482.632158
428.019662	2480.948413
428.397508	2478.994966
428.775292	2483.002683
429.153016	2478.810963
429.530679	2482.904380
429.908282	2478.342136
430.285824	2483.058136
430.663305	2480.356077
431.040726	2484.285657
431.418086	2480.875316
431.795385	2481.923876
432.172624	2480.973618
432.549802	2485.298928
432.926920	2481.389514
433.303977	2479.171406
433.680974	2481.192909
434.057910	2482.614514
434.434786	2478.926910
434.811601	2483.910091
435.188355	2481.326499
435.565050	2483.521922
435.941683	2481.823053
436.318257	2482.614514
436.694770	2482.400265
437.071222	2483.678198
437.447614	2481.286170
437.823946	2486.062663
438.200218	2483.506798
438.576429	2484.172231
438.952580	2480.880357
439.328670	2481.543269
439.704700	2483.640389
440.080670	2480.777013
440.456580	2481.679380
440.832429	2484.625934
441.208218	2483.761377
441.583947	2480.628299
441.959616	2483.254741
442.335224	2485.429998
442.710773	2487.580051
443.086261	2482.400265
443.461689	2485.412354
443.837057	2482.105357
444.212365	2485.147694
444.587612	2482.614514
444.962800	2481.802888
445.337927	2480.303145
445.712995	2480.693834
446.088002	2484.666264
446.462949	2486.463435
446.837837	2482.407827
447.212664	2485.288846
447.587431	2486.012252
447.962139	2485.472848
448.336786	2487.055771
448.711374	2483.852117
449.085901	2486.304639
449.460369	2486.191213
449.834776	2485.004021
450.209124	2486.932262
450.583412	2483.756335
450.957640	2485.818167
451.331808	2489.677171
451.705917	2483.864720
452.079965	2487.375884
452.453954	2482.097796
452.827883	2486.312200
453.201752	2484.184833
453.575562	2487.043168
453.949311	2484.376397
454.323001	2485.107365
454.696632	2489.125164
455.070202	2485.505616
455.443713	2487.075935
455.817164	2485.901346
456.190556	2487.436378
456.563888	2485.941676
456.937160	2485.457725
457.310373	2486.760863
457.683526	2486.677684
458.056619	2487.630462
458.429653	2484.338589
458.802628	2486.745740
459.175542	2486.839001
459.548398	2486.188692
459.921194	2485.775318
460.293930	2487.290184
460.666607	2487.822026
461.039224	2485.256079
461.411782	2488.706748
461.784280	2486.781028
462.156719	2486.584423
462.529099	2488.489979
462.901419	2486.932262
463.273680	2486.231542
463.645882	2485.140132
464.018024	2485.316573
464.390106	2482.939668
464.762130	2485.999649
465.134094	2488.555514
465.505999	2488.021152
465.877845	2485.228352
466.249631	2490.108189
466.621358	2487.050729
466.993026	2489.813282
467.364634	2490.360247
467.736184	2488.358909
468.107674	2488.316059
468.479105	2488.316059
468.850477	2489.402428
469.221790	2489.921667
469.593043	2491.091214
469.964238	2487.262458
470.335373	2486.496203
470.706449	2489.089876
471.077467	2487.325472
471.448425	2488.343785
471.819324	2488.643734
472.190164	2489.072232
472.560945	2487.552324
472.931667	2487.534680
473.302330	2491.260093
473.672934	2487.527118
474.043479	2488.545432
474.413965	2489.604074
474.784393	2487.121306
475.154761	2489.858652
475.525070	2489.871255
475.895321	2489.440236
476.265513	2490.239259
476.635645	2490.564414
477.005719	2488.777325
477.375734	2493.543736
477.745691	2490.594661
478.115588	2490.125833
478.485427	2491.315546
478.855207	2491.242449
479.224928	2489.500730
479.594591	2490.151039
479.964194	2488.729434
480.333739	2490.095586
480.703226	2491.373519
481.072653	2491.247490
481.442022	2489.195740
481.811333	2490.234218
482.180584	2487.670791
482.549777	2490.216574
482.918912	2487.156594
483.287988	2490.811430
483.657005	2490.894609
484.025964	2490.365288
484.394864	2490.645072
484.763706	2491.411327
485.132489	2493.145484
485.501213	2490.246821
485.869879	2491.413848
486.238487	2490.292191
486.607036	2495.230002
486.975527	2493.513489
487.343959	2492.553149
487.712333	2489.825885
488.080648	2489.515854
488.448905	2494.907368
488.817104	2491.144146
489.185244	2491.673468
489.553326	2494.315032
489.921350	2493.274034
490.289315	2492.369147
490.657222	2491.481904
491.025070	2492.676657
491.392861	2493.450474
491.760593	2493.599188
492.128267	2492.505258
492.495883	2492.291009
492.863440	2491.088694
493.230939	2493.795793
493.598380	2492.971565
493.965763	2492.278406
494.333088	2491.338231
494.700354	2492.419558
495.067563	2493.488283
495.434713	2492.001143
495.801805	2491.766729
496.168839	2493.132882
496.535815	2492.860659
496.902733	2494.375526
497.269593	2490.647593
497.636395	2492.001143
498.003139	2491.728920
498.369825	2492.270844
498.736453	2494.110865
499.103023	2492.328818
499.469535	2495.630773
499.835989	2494.196565
500.202385	2491.796976
500.568723	2489.508292
500.935003	2491.212202
501.301226	2486.549135
501.667390	2493.339569
502.033497	2493.395022
502.399546	2493.447954
502.765537	2491.607933
503.131470	2496.001298
503.497345	2492.298571
503.863163	2492.560711
504.228923	2490.145998
504.594625	2491.370998
504.960269	2493.911740
505.325856	2493.117758
505.691385	2492.908550
506.056856	2498.184118
506.422270	2493.405104
506.787625	2491.456698
507.152924	2493.662203
507.518164	2493.332007
507.883347	2494.403252
508.248472	2494.436020
508.613540	2493.664723
508.978550	2495.033397
509.343503	2493.465598
509.708398	2492.255721
510.073236	2497.609426
510.438016	2495.600526
510.802738	2493.604229
511.167403	2493.117758
511.532010	2494.317553
511.896561	2498.214365
512.261053	2493.226143
512.625488	2495.204796
512.989866	2495.950887
513.354186	2494.572131
513.718449	2491.358395
514.082655	2492.056595
514.446803	2493.032058
514.810894	2493.243787
515.174927	2494.599857
515.538904	2493.639517
515.902822	2494.335197
516.266684	2492.399394
516.630488	2493.964672
516.994235	2494.357882
517.357925	2494.037769
517.721558	2493.483242
518.085133	2493.652120
518.448651	2493.805876
518.812112	2489.823364
519.175516	2492.376708
519.538863	2487.247334
519.902152	2495.882831
520.265385	2492.570793
520.628560	2496.167656
520.991678	2495.073726
521.354739	2493.979795
521.717743	2497.090187
522.080690	2494.441061
522.443580	2493.886534
522.806413	2490.198930
523.169189	2494.496514
523.531908	2495.620691
523.894569	2494.158756
524.257174	2494.930053
524.619722	2496.260917
524.982213	2494.254538
525.344647	2494.957779
525.707025	2495.242604
526.069345	2495.149343
526.431608	2495.129178
526.793815	2493.359733
527.155964	2493.223622
527.518057	2494.141112
527.880093	2495.668582
528.242072	2495.005670
528.603995	2496.104642
528.965860	2498.010198
529.327669	2494.854436
529.689421	2497.170846
530.051117	2494.990547
530.412755	2496.084477
530.774337	2495.769405
531.135862	2493.248828
531.497331	2497.256545
531.858743	2497.117914
532.220098	2495.739158
532.581396	2495.179590
532.942638	2499.605723
533.303824	2491.728920
533.664953	2498.088336
534.026025	2496.941473
534.387040	2497.231340
534.747999	2495.756802
535.108902	2495.235043
535.469748	2494.156236
535.830537	2495.905516
536.191270	2495.867708
536.551947	2491.577686
536.912567	2491.965854
537.273131	2492.790083
537.633638	2491.456698
537.994089	2493.258910
538.354483	2496.449961
538.714821	2494.665392
539.075103	2496.376864
539.435328	2496.739827
539.795497	2494.214209
540.155609	2497.962307
540.515665	2493.158087
540.875665	2495.192193
541.235609	2496.447440
541.595496	2496.787718
541.955328	2495.056082
542.315102	2498.080774
542.674821	2497.470794
543.034483	2498.872235
543.394090	2499.212513
543.753640	2494.632625
544.113134	2498.050527
544.472571	2497.042296
544.831953	2500.278717
545.191278	2496.669251
545.550548	2494.942656
545.909761	2496.543222
546.268918	2499.570435
546.628019	2499.572956
546.987064	2497.561535
547.346053	2497.425424
547.704986	2497.218737
548.063863	2498.983141
548.422684	2500.056906
548.781449	2498.204282
549.140158	2500.969355
549.498811	2500.931547
549.857408	2503.230313
550.215949	2501.092863
550.574434	2499.825013
550.932864	2499.565394
551.291237	2502.824500
551.649555	2499.116731
552.007817	2498.400887
552.366022	2501.690240
552.724173	2501.460868
553.082267	2503.401712
553.440305	2502.027997
553.798288	2504.364572
554.156215	2499.280569
554.514086	2500.288799
554.871902	2497.291833
555.229661	2498.892400
555.587365	2498.703357
555.945014	2502.872391
556.302606	2501.017246
556.660143	2499.956083
557.017625	2501.692761
557.375050	2501.367606
557.732421	2503.074037
558.089735	2504.810714
558.446994	2502.325426
558.804197	2504.505725
559.161345	2503.444562
559.518437	2503.903307
559.875474	2504.535972
560.232455	2504.238543
560.589381	2503.270642
560.946251	2504.440190
561.303065	2502.877432
561.659825	2505.650067
562.016528	2505.390447
562.373177	2503.094202
562.729770	2506.204593
563.086307	2505.024963
563.442789	2505.420694
563.799216	2506.340705
564.155587	2502.547236
564.511904	2508.147958
564.868164	2507.893380
565.224370	2506.398678
565.580520	2507.245592
565.936615	2506.857423
566.292654	2506.859943
566.648638	2506.985972
567.004567	2505.735766
567.360441	2509.148627
567.716260	2510.056035
568.072023	2508.047135
568.427732	2509.488905
568.783385	2506.985972
569.138982	2509.809018
569.494525	2511.699451
569.850013	2509.458658
570.205445	2508.120232
570.560823	2508.740294
570.916145	2507.442197
571.271412	2510.013185
571.626625	2509.183915
571.981782	2508.510921
572.336884	2507.868174
572.691931	2508.105108
573.046923	2505.468585
573.401860	2506.113853
573.756743	2511.137363
574.111570	2511.772548
574.466342	2512.679956
574.821059	2511.112157
575.175722	2511.195336
575.530330	2509.738442
575.884882	2510.461848
576.239380	2513.567199
576.593823	2512.637106
576.948211	2512.926972
577.302544	2511.303721
577.656823	2511.661643
578.011047	2510.464368
578.365216	2514.567868
578.719330	2511.180212
579.073389	2510.572753
579.427394	2513.806653
579.781344	2515.016530
580.135239	2513.819256
580.489080	2514.683814
580.842866	2515.074504
581.196597	2513.438649
581.550273	2511.943947
581.903895	2513.501664
582.257463	2514.983763
582.610975	2515.006448
582.964434	2513.577281
583.317837	2514.328413
583.671186	2512.758093
584.024481	2516.037364
584.377721	2512.511077
584.730906	2514.023423
585.084037	2517.229597
585.437113	2515.704648
585.790135	2515.704648
586.143103	2516.304545
586.496016	2516.274298
586.848874	2515.366891
587.201679	2515.833197
587.554428	2516.075173
587.907124	2515.737415
588.259765	2516.876716
588.612352	2514.343536
588.964884	2516.319669
589.317362	2516.657426
589.669786	2520.082890
590.022155	2514.953516
590.374470	2512.342198
590.726731	2512.611900
591.078937	2510.338340
591.431090	2517.204391
591.783188	2514.809843
592.135232	2514.918228
592.487222	2515.868485
592.839157	2519.077180
593.191038	2516.072652
593.542866	2516.919566
593.894639	2516.400327
594.246358	2518.878054
594.598022	2519.230935
594.949633	2515.311438
595.301190	2516.218846
595.652692	2515.538290
596.004141	2514.895543
596.355535	2518.930986
596.706876	2518.119361
597.058162	2514.242713
597.409395	2518.159690
597.760573	2515.999555
598.111698	2518.560462
598.462768	2515.152642
598.813785	2515.744977
599.164748	2516.107940
599.515657	2516.634741
599.866511	2519.329238
600.217312	2515.747498
600.568060	2517.166583
600.918753	2517.673218
601.269392	2516.385204
601.619978	2513.715913
601.970510	2518.028620
602.320988	2516.319669
602.671412	2516.357477
603.021783	2517.741274
603.372100	2517.196829
603.722363	2516.788496
604.072572	2518.041223
604.422728	2518.625997
604.772830	2517.953003
605.122878	2516.932169
605.472872	2517.181706
605.822813	2515.986952
606.172701	2515.598784
606.522534	2516.697755
606.872314	2519.651871
607.222041	2516.992663
607.571714	2516.362518
607.921333	2514.696417
608.270899	2517.373270
608.620411	2514.136849
608.969870	2518.840246
609.319276	2518.154649
609.668627	2520.322345
610.017926	2518.676408
610.367171	2516.644823
610.716362	2518.010976
611.065500	2520.970133
611.414585	2518.603311
611.763616	2517.635410
612.112594	2517.065759
612.461518	2519.251100
612.810389	2520.450894
613.159207	2519.374608
613.507971	2517.779083
613.856682	2520.317304
614.205340	2520.198837
614.553945	2521.030627
614.902496	2520.387880
615.250994	2522.031296
615.599439	2519.523322
615.947830	2521.501975
616.296169	2521.708662
616.644454	2520.118178
616.992686	2520.859228
617.340864	2520.466018
617.688990	2522.192613
618.037063	2523.911646
618.385082	2523.110103
618.733048	2522.966430
619.080961	2524.224198
619.428821	2523.261338
619.776628	2523.941893
620.124382	2524.148581
620.472083	2526.114631
620.819731	2525.940711
621.167326	2521.968282
621.514868	2526.054137
621.862357	2525.449198
622.209793	2524.443488
622.557176	2524.690505
622.904506	2523.271420
623.251783	2527.291740
623.599007	2525.134126
623.946179	2525.013138
624.293297	2525.683612
624.640363	2524.219157
624.987376	2524.582120
625.334336	2520.549197
625.681243	2524.632531
626.028097	2520.539114
626.374899	2525.832326
626.721647	2524.534229
627.068343	2526.676719
627.414987	2526.870804
627.761577	2526.449867
628.108115	2526.490197
628.454600	2526.754857
628.801032	2526.603622
629.147412	2529.550177
629.493739	2530.344159
629.840014	2528.758716
630.186236	2531.498583
630.532405	2529.555218
630.878521	2528.451205
631.224585	2530.467667
631.570597	2531.675023
631.916556	2533.295754
632.262462	2534.296423
632.608316	2535.420601
632.954117	2537.013605
633.299866	2536.779192
633.645562	2537.384130
633.991206	2539.057793
634.336797	2536.025539
634.682336	2537.512679
635.027823	2539.103163
635.373257	2538.165509
635.718639	2537.283307
636.063968	2539.113246
636.409245	2538.183153
636.754470	2539.501415
637.099642	2538.467978
637.444762	2541.404450
637.789829	2539.539223
638.134845	2541.036446
638.479808	2539.314892
638.824719	2542.185829
639.169577	2544.318237
639.514383	2544.013247
639.859137	2543.783875
640.203839	2545.167672
640.548489	2546.067518
640.893086	2546.420398
641.237632	2547.559699
641.582125	2547.105995
641.926566	2549.419885
642.270955	2548.986346
642.615292	2546.674977
642.959576	2552.898281
643.303809	2549.823177
643.647990	2558.264589
643.992118	2558.851884
644.336195	2559.025803
644.680219	2561.208623
645.024192	2561.566545
645.368112	2565.435631
645.711981	2567.084088
646.055797	2572.251271
646.399562	2576.039698
646.743274	2581.973136
647.086935	2583.823239
647.430544	2590.205340
647.774101	2588.756008
648.117606	2594.109714
648.461059	2596.169025
648.804460	2597.840167
649.147810	2596.179107
649.491108	2594.671802
649.834354	2595.145671
650.177548	2595.869076
650.520690	2597.535178
650.863781	2597.197420
651.206820	2600.937957
651.549807	2601.361413
651.892742	2603.834099
652.235626	2604.255036
652.578458	2604.403750
652.921238	2604.212186
653.263967	2608.870212
653.606644	2610.700151
653.949269	2611.995727
654.291843	2613.745008
654.634365	2619.557458
654.976836	2616.021089
655.319255	2619.633076
655.661622	2620.817747
656.003938	2623.774383
656.346203	2626.365537
656.688416	2628.581124
657.030577	2628.568521
657.372687	2629.634725
657.714746	2633.617236
658.056753	2637.345170
658.398708	2637.042700
658.740612	2640.568987
659.082465	2645.683238
659.424266	2645.862199
659.766016	2647.442601
660.107715	2653.116419
660.449362	2650.154742
660.790958	2659.891730
661.132503	2662.792914
661.473996	2668.363389
661.815438	2668.554953
662.156829	2675.194153
662.498168	2676.971159
662.839456	2680.114319
663.180693	2681.021727
663.521879	2686.829136
663.863013	2688.812830
664.204097	2695.923377
664.545129	2700.283975
664.886110	2701.798842
665.227040	2707.891077
665.567918	2712.710420
665.908746	2714.063969
666.249522	2718.603528
666.590248	2727.662482
666.930922	2735.236816
667.271545	2739.058010
667.612118	2744.018506
667.952639	2743.101016
668.293109	2747.229721
668.633528	2750.158631
668.973896	2751.723909
669.314213	2756.323962
669.654480	2759.482245
669.994695	2759.625918
670.334859	2764.830909
670.674973	2766.529778
671.015035	2772.233844
671.355047	2777.653084
671.695008	2780.397992
672.034918	2786.749846
672.374777	2794.351906
672.714585	2796.484314
673.054342	2800.456743
673.394049	2809.757672
673.733705	2816.003662
674.073310	2818.035247
674.412864	2820.444918
674.752368	2823.593119
675.091820	2828.402380
675.431223	2827.779797
675.770574	2829.176197
676.109875	2827.416834
676.449125	2828.362051
676.788324	2831.883297
677.127473	2834.416476
677.466571	2828.568738
677.805619	2838.187259
678.144616	2837.821776
678.483562	2843.019205
678.822458	2842.754545
679.161303	2846.684124
679.500098	2851.647140
679.838842	2853.804754
680.177535	2859.902030
680.516179	2868.749255
680.854771	2879.708723
681.193314	2897.912330
681.531805	2921.918304
681.870247	2944.689196
682.208638	2963.641414
682.546978	2972.544092
682.885268	2981.575319
683.223508	2978.689258
683.561697	2980.836790
683.899836	2987.909529
684.237925	2988.330465
684.575963	2992.204592
684.913951	2988.330465
685.251889	3005.649349
685.589776	3012.570853
685.927614	3025.133409
686.265401	3032.556508
686.603137	3045.033363
686.940824	3067.191755
687.278460	3085.271853
687.616046	3103.339349
687.953582	3126.470683
688.291068	3136.139616
688.628504	3153.776093
688.965889	3156.594098
689.303224	3154.839777
689.640510	3155.210301
689.977745	3146.811739
690.314930	3134.266828
690.652065	3123.816516
690.989150	3111.712705
691.326185	3096.127978
691.663170	3079.915627
692.000105	3067.905078
692.336990	3057.174982
692.673825	3050.555948
693.010610	3042.180070
693.347345	3034.141951
693.684030	3022.587626
694.020665	3022.204498
694.357251	3007.441479
694.693786	3015.396420
695.030272	3016.772655
695.366707	3008.464833
695.703093	3007.499453
696.039429	3013.430370
696.375716	3014.068076
696.711952	3021.569313
697.048139	3019.446987
697.384276	3024.251207
697.720363	3031.250849
698.056400	3034.600696
698.392388	3034.388967
698.728326	3038.326108
699.064214	3039.238557
699.400053	3043.647046
699.735842	3039.104967
700.071581	3036.433155
700.407270	3030.449305
700.742910	3029.657844
701.078501	3023.563089
701.414042	3022.814478
701.749533	3016.855834
702.084974	3012.081861
702.420366	3020.293901
702.755709	3010.561953
703.091002	3009.470544
703.426246	3011.358456
703.761440	3011.920544
704.096584	3010.934999
704.431679	3011.799557
704.766725	3012.563292
705.101721	3016.649147
705.436668	3024.813295
705.771565	3022.317924
706.106413	3032.806045
706.441212	3040.168650
706.775961	3049.577964
707.110661	3058.536094
707.445311	3071.759041
707.779913	3075.391192
708.114465	3091.563213
708.448967	3106.464864
708.783421	3135.726242
709.117825	3156.717606
709.452180	3169.083557
709.786485	3194.674974
710.120742	3230.923391
710.454949	3243.357397
710.789107	3268.520316
711.123216	3301.842343
711.457275	3325.203050
711.791286	3353.040302
712.125247	3367.347096
712.459159	3364.982795
712.793023	3395.663258
713.126837	3361.789224
713.460602	3372.456306
713.794318	3364.934904
714.127985	3358.676312
714.461602	3326.359995
714.795171	3326.181034
715.128691	3291.634007
715.462162	3269.871346
715.795584	3257.661671
716.128957	3248.592635
716.462281	3234.300964
716.795556	3227.596229
717.128782	3209.785833
717.461960	3187.682894
717.795088	3188.053419
718.128167	3182.351874
718.461198	3164.397804
718.794180	3161.748678
719.127113	3154.935558
719.459997	3150.015392
719.792833	3134.967548
720.125619	3139.192035
720.458357	3129.465129
720.791046	3132.464615
721.123686	3123.153604
721.456278	3119.347533
721.788821	3120.484313
722.121315	3113.948457
722.453761	3121.890795
722.786158	3120.552369
723.118506	3128.141826
723.450805	3126.997484
723.783056	3141.198414
724.115259	3140.089360
724.447412	3145.392654
724.779518	3158.552586
725.111574	3167.311591
725.443582	3184.007893
725.775542	3184.456555
726.107453	3213.997717
726.439315	3215.079044
726.771129	3244.799167
727.102895	3266.665172
727.434612	3286.242493
727.766281	3299.276396
728.097901	3323.514264
728.429473	3330.103052
728.760996	3339.461954
729.092471	3348.286494
729.423897	3345.097964
729.755276	3345.428159
730.086606	3353.181454
730.417887	3391.242166
730.749120	3423.276178
731.080305	3438.946604
731.411442	3466.831747
731.742530	3478.562512
732.073570	3490.794872
732.404562	3515.095754
732.735506	3515.151207
733.066401	3506.200638
733.397249	3482.902945
733.728048	3446.125208
734.058798	3399.582755
734.389501	3365.522199
734.720156	3337.165708
735.050762	3312.232161
735.381320	3293.587454
735.711831	3281.889456
736.042293	3263.030500
736.372707	3268.275820
736.703073	3261.896240
737.033391	3275.477109
737.363661	3284.246196
737.693883	3292.717855
738.024056	3314.546051
738.354182	3329.460305
738.684260	3362.663864
739.014290	3383.753532
739.344272	3402.667941
739.674207	3433.424020
740.004093	3449.142338
740.333931	3453.145014
740.663722	3467.673620
740.993464	3474.466574
741.323159	3467.308136
741.652806	3448.403809
741.982405	3443.894497
742.311956	3424.952361
742.641460	3421.892381
742.970915	3403.913106
743.300323	3381.706823
743.629683	3370.717108
743.958996	3354.797144
744.288260	3335.978517
744.617477	3320.043429
744.946647	3323.305056
745.275768	3305.172025
745.604842	3293.259779
745.933869	3286.923048
746.262847	3287.943882
746.591778	3285.854324
746.920662	3284.747791
747.249498	3285.849283
747.578286	3303.810914
747.907027	3318.752894
748.235720	3341.783405
748.564365	3350.071062
748.892963	3350.746577
749.221514	3360.561703
749.550017	3356.445601
749.878473	3354.837473
750.206881	3340.712160
750.535242	3342.801718
750.863555	3338.708301
751.191821	3335.303002
751.520039	3340.318950
751.848210	3342.814321
752.176334	3351.550641
752.504411	3350.618027
752.832440	3339.275431
753.160421	3351.742205
753.488356	3347.434539
753.816243	3344.437573
754.144082	3333.359637
754.471875	3334.100687
754.799620	3335.358455
755.127318	3336.278465
755.454969	3340.744928
755.782572	3341.002026
756.110129	3348.200794
756.437638	3346.922862
756.765100	3351.381762
757.092515	3358.449460
757.419882	3359.790407
757.747203	3365.108824
758.074477	3378.598952
758.401703	3381.364025
758.728882	3400.961510
759.056014	3410.514497
759.383099	3424.551590
759.710138	3438.601285
760.037129	3449.167544
760.364073	3464.694298
760.690970	3467.489618
761.017820	3476.551092
761.344623	3500.746109
761.671379	3538.637942
761.998088	3604.934157
762.324751	3760.312600
762.651366	4053.284297
762.977935	4436.792597
763.304456	4697.231207
763.630931	4795.284170
763.957359	4702.055592
764.283740	4513.834030
764.610074	4324.354701
764.936362	4102.420424
765.262602	3943.251032
765.588796	3785.178092
765.914943	3672.520906
766.241044	3579.375507
766.567097	3508.668283
766.893104	3447.975311
767.219064	3411.951226
767.544978	3374.099722
767.870845	3339.479598
768.196665	3325.528205
768.522438	3301.227323
768.848165	3290.761887
769.173846	3273.422838
769.499479	3262.415479
769.825066	3248.247316
770.150607	3231.235942
770.476101	3226.041033
770.801548	3216.535938
771.126949	3204.139741
771.452303	3192.819830
771.777611	3177.277952
772.102872	3179.097809
772.428087	3170.139678
772.753256	3156.175682
773.078378	3148.271153
773.403453	3132.184831
773.728482	3123.526649
774.053465	3118.793006
774.378401	3112.567181
774.703291	3099.200562
775.028135	3092.354675
775.352932	3089.065322
775.677683	3080.167685
776.002388	3069.372054
776.327046	3071.096129
776.651658	3065.707135
776.976224	3053.121895
777.300743	3060.870148
777.625216	3053.000907
777.949643	3049.189795
778.274024	3052.620300
778.598359	3046.127294
778.922647	3051.574261
779.246889	3047.511091
779.571086	3048.158879
779.895236	3052.307748
780.219339	3057.369067
780.543397	3056.280178
780.867409	3069.006571
781.191374	3071.542271
781.515294	3067.811817
781.839167	3079.114084
782.162995	3081.342274
782.486776	3080.568457
782.810511	3073.835996
783.134201	3065.565983
783.457844	3069.762744
783.781441	3062.372412
784.104993	3055.874365
784.428498	3057.205229
784.751958	3060.597926
785.075372	3055.796227
785.398739	3050.823129
785.722061	3059.125909
786.045337	3061.805282
786.368568	3083.056266
786.691752	3088.412492
787.014891	3127.040334
787.337983	3173.923064
787.661030	3239.188363
787.984031	3315.140907
788.306987	3365.330635
788.629897	3396.358937
788.952760	3393.069584
789.275579	3369.179556
789.598351	3324.749346
789.921078	3286.938172
790.243759	3239.130389
790.566395	3208.974207
790.888984	3178.306348
791.211529	3157.257010
791.534027	3134.554173
791.856480	3107.457972
792.178888	3100.942280
792.501249	3089.677822
792.823566	3074.332550
793.145836	3072.588310
793.468062	3075.078640
793.790241	3071.138979
794.112375	3079.996286
794.434464	3102.981427
794.756507	3112.010133
795.078505	3128.968575
795.400457	3172.670338
795.722364	3218.864951
796.044226	3250.805702
796.366042	3291.306332
796.687812	3288.153090
797.009538	3296.571817
797.331218	3290.151908
797.652852	3280.183026
797.974442	3264.162239
798.295986	3252.209663
798.617484	3231.876169
798.938938	3214.814384
799.260346	3206.335163
799.581709	3178.966739
799.903026	3170.905934
800.224299	3161.128616
800.545526	3140.911068
800.866708	3130.402783
801.187845	3121.404324
801.508936	3107.508383
801.829983	3105.373454
802.150984	3089.665219
802.471940	3082.474013
802.792851	3082.854620
803.113717	3079.920669
803.434538	3076.038980
803.755314	3070.836509
804.076045	3068.441961
804.396731	3063.000036
804.717372	3070.980182
805.037967	3070.430697
805.358518	3077.395051
805.679024	3088.732606
805.999485	3093.221753
806.319901	3099.709718
806.640272	3103.452775
806.960598	3115.322172
807.280879	3116.186729
807.601115	3131.665592
807.921306	3122.629324
808.241453	3129.069398
808.561554	3130.884213
808.881611	3129.744913
809.201623	3130.208699
809.521590	3129.044192
809.841513	3129.724748
810.161390	3136.217754
810.481223	3118.888788
810.801011	3118.266205
811.120755	3116.879888
811.440453	3107.863784
811.760107	3106.401850
812.079716	3103.442692
812.399281	3095.568410
812.718801	3094.051023
813.038276	3088.009200
813.357707	3078.967891
813.677093	3090.509612
813.996434	3077.054773
814.315731	3087.084148
814.634983	3086.413675
814.954191	3088.087338
815.273354	3107.445369
815.592473	3119.128243
815.911547	3139.623054
816.230577	3153.367760
816.549562	3179.435566
816.868502	3197.805531
817.187399	3213.493602
817.506250	3242.613827
817.825058	3243.811101
818.143821	3287.669139
818.462539	3333.745285
818.781213	3389.800396
819.099843	3476.840958
819.418429	3632.201758
819.736970	3777.699540
820.055466	3961.961275
820.373919	4196.029610
820.692327	4555.970515
821.010691	5142.586903
821.329011	6317.205996
821.647286	7932.318591
821.965517	9764.026883
822.283704	10888.478933
822.601847	11547.763554
822.919945	11007.172900
823.237999	10247.130738
823.556010	9322.923400
823.873976	8395.071309
824.191897	7490.272413
824.509775	6822.690054
824.827609	6213.978288
825.145398	5851.378175
825.463144	5671.724054
825.780845	5728.079113
826.098502	5977.767463
826.416116	6504.560478
826.733685	7022.324787
827.051210	7210.876544
827.368692	6993.622978
827.686129	6447.310615
828.003522	5857.011664
828.320872	5309.812058
828.638177	4883.431266
828.955439	4554.518663
829.272656	4274.086836
829.589830	4049.135428
829.906960	3851.680993
830.224046	3703.561811
830.541088	3588.512598
830.858086	3517.341588
831.175041	3457.674491
831.491952	3440.529527
831.808819	3452.290539
832.125642	3524.532794
832.442421	3674.980989
832.759157	3970.006956
833.075849	4425.686935
833.392497	4917.980814
833.709101	5257.011013
834.025662	5253.464561
834.342179	5010.675030
834.658653	4674.036858
834.975083	4366.100496
835.291469	4109.387298
835.607811	3893.164648
835.924110	3736.120103
836.240366	3591.277671
836.556578	3458.135757
836.872746	3350.542410
837.188871	3268.172477
837.504952	3195.322762
837.820990	3140.643887
838.136984	3103.999740
838.452935	3086.143973
838.768842	3095.656630
839.084706	3171.442817
839.400526	3370.250801
839.716303	3637.096718
840.032037	3831.450843
840.347727	3827.468331
840.663373	3669.861697
840.978977	3490.757063
841.294537	3354.915611
841.610054	3246.951740
841.925527	3169.721263
842.240957	3104.518979
842.556344	3045.847510
842.871687	2998.465705
843.186987	2945.566357
843.502244	2906.313413
843.817458	2876.154710
844.132629	2852.307531
844.447756	2834.073678
844.762840	2820.797799
845.077881	2805.439924
845.392879	2796.627987
845.707833	2786.754887
846.022745	2779.503187
846.337613	2774.371293
846.652438	2768.616816
846.967221	2766.262597
847.281960	2756.916298
847.596656	2756.248345
847.911309	2756.339086
848.225919	2747.383476
848.540485	2746.539082
848.855009	2745.165368
849.169490	2740.615727
849.483928	2739.536920
849.798323	2736.542474
850.112675	2733.802607
850.426984	2734.311764
850.741251	2732.565004
851.055474	2734.808317
851.369654	2732.335632
851.683792	2734.120200
851.997887	2736.025756
852.311938	2736.817217
852.625947	2739.302506
852.939914	2734.578945
853.253837	2737.321333
853.567718	2738.369893
853.881555	2734.747824
854.195350	2738.069944
854.509103	2740.403998
854.822812	2739.814183
855.136479	2737.880901
855.450103	2741.298803
855.763685	2736.693709
856.077224	2734.077350
856.390720	2743.078330
856.704173	2743.756366
857.017584	2749.140318
857.330953	2753.687439
857.644278	2755.177100
857.957561	2762.358223
858.270802	2761.660023
858.584000	2759.550301
858.897155	2760.649272
859.210268	2757.092738
859.523339	2755.610639
859.836367	2755.741709
860.149352	2756.926380
860.462295	2753.780700
860.775195	2751.010586
861.088054	2751.570154
861.400869	2750.445977
861.713642	2749.384814
862.026373	2752.855648
862.339062	2754.715834
862.651708	2759.648603
862.964312	2766.517175
863.276873	2767.835437
863.589392	2780.786161
863.901869	2790.228242
864.214303	2798.306691
864.526696	2807.562250
864.839045	2814.818991
865.151353	2824.122440
865.463619	2827.207626
865.775842	2828.067143
866.088023	2831.600992
866.400162	2829.360199
866.712258	2833.307422
867.024313	2832.957062
867.336325	2837.489060
867.648296	2840.097857
867.960224	2839.140038
868.272110	2841.337981
868.583954	2842.527693
868.895755	2849.144207
869.207515	2845.857375
869.519233	2856.121164
869.830909	2858.878675
870.142542	2865.681712
870.454134	2868.839995
870.765684	2875.224617
871.077191	2881.122767
871.388657	2889.768346
871.700081	2897.302350
872.011463	2906.567991
872.322803	2911.215935
872.634101	2919.322110
872.945357	2930.536157
873.256571	2937.681992
873.567744	2944.721964
873.878874	2949.322017
874.189963	2960.097483
874.501010	2962.282823
874.812015	2964.735344
875.122979	2974.026191
875.433900	2972.586942
875.744780	2982.732264
876.055618	2990.031854
876.366415	2990.576299
876.677169	2997.807834
876.987882	3008.089268
877.298554	3024.278933
877.609183	3042.152344
877.919771	3070.123186
878.230317	3106.870677
878.540822	3159.429747
878.851285	3230.656210
879.161707	3334.428362
879.472087	3502.296264
879.782425	3752.521497
880.092722	4166.841329
880.402977	4703.318401
880.713191	5226.045725
881.023363	5693.088464
881.333494	5978.059850
881.643583	6197.465989
881.953631	6304.371218
882.263637	6273.378204
882.573602	6115.393484
882.883526	5914.100211
883.193408	5657.704606
883.503248	5389.616044
883.813048	5133.149863
884.122806	4876.749216
884.432522	4614.825986
884.742197	4384.253691
885.051831	4188.576264
885.361424	4000.518540
885.670975	3842.858974
885.980485	3708.439127
886.289954	3595.297991
886.599382	3497.663444
886.908768	3418.292997
887.218113	3339.519927
887.527417	3282.254940
887.836680	3224.052298
888.145901	3182.092254
888.455082	3142.902324
888.764221	3112.289917
889.073319	3084.412337
889.382376	3066.198648
889.691392	3053.648695
890.000366	3048.700803
890.309300	3044.496481
890.618193	3042.961449
890.927044	3041.212169
891.235855	3046.308775
891.544625	3055.415620
891.853353	3071.060841
892.162041	3093.214191
892.470687	3139.126500
892.779293	3192.776980
893.087858	3276.051800
893.396381	3401.092580
893.704864	3570.394691
894.013306	3798.595123
894.321707	4039.864746
894.630068	4215.488463
894.938387	4270.812606
895.246665	4238.269438
895.554903	4124.712406
895.863100	3986.350377
896.171256	3867.590875
896.479371	3757.108947
896.787446	3654.377793
897.095480	3557.280129
897.403473	3489.325375
897.711425	3417.728388
898.019336	3358.817464
898.327207	3296.004687
898.635038	3244.955443
898.942827	3192.822350
899.250576	3149.473468
899.558284	3105.514607
899.865952	3076.212900
900.173579	3040.972714
900.481165	3016.273581
900.788711	2996.978564
901.096216	2981.688745
901.403681	2965.184007
901.711105	2960.823409
902.018489	2956.929118
902.325832	2974.860502
902.633135	3003.509379
902.940397	3086.761514
903.247619	3254.999942
903.554800	3550.225034
903.861941	3921.006941
904.169041	4220.078434
904.476101	4364.729303
904.783121	4324.717664
905.090100	4202.711659
905.397039	4032.300494
905.703938	3876.733007
906.010796	3727.585430
906.317614	3607.240484
906.624391	3488.480982
906.931129	3391.481620
907.237826	3298.807569
907.544483	3217.498798
907.851099	3135.491828
908.157675	3057.623645
908.464211	2985.663695
908.770707	2930.027000
909.077163	2882.539331
909.383578	2848.980370
909.689954	2821.254024
909.996289	2805.374389
910.302584	2790.618932
910.608839	2784.128446
910.915054	2772.236364
911.221229	2774.454472
911.527363	2775.805501
911.833458	2777.569905
912.139513	2784.027623
912.445527	2794.641772
912.751502	2815.925524
913.057436	2838.341015
913.363331	2875.930378
913.669186	2929.384253
913.975000	2993.109479
914.280775	3089.602205
914.586510	3226.797207
914.892205	3403.353538
915.197859	3615.699541
915.503475	3860.744988
915.809050	4071.175352
916.114585	4204.405487
916.420081	4270.830250
916.725536	4282.077065
917.030952	4207.251218
917.336328	4127.326244
917.641665	4048.094429
917.946961	3945.708595
918.252218	3859.114175
918.557435	3740.919282
918.862612	3651.373266
919.167750	3572.123807
919.472848	3472.253508
919.777906	3388.996332
920.082925	3310.540854
920.387904	3229.335427
920.692843	3170.079185
920.997743	3111.558950
921.302603	3057.792524
921.607423	3020.175434
921.912204	2975.473002
922.216946	2946.733384
922.521647	2919.594332
922.826310	2891.807492
923.130932	2867.925026
923.435516	2843.745132
923.740059	2826.451453
924.044564	2805.303813
924.349028	2792.307718
924.653454	2775.006478
924.957840	2755.855135
925.262186	2742.405336
925.566493	2725.830022
925.870761	2714.527756
926.174989	2703.346476
926.479178	2696.326670
926.783328	2683.590194
927.087438	2675.657939
927.391509	2667.123265
927.695541	2658.323931
927.999533	2653.232366
928.303486	2644.145686
928.607400	2640.606796
928.911275	2638.708802
929.215110	2634.270066
929.518906	2633.345014
929.822663	2630.030455
930.126381	2632.243522
930.430060	2635.003554
930.733699	2634.890128
931.037299	2633.783594
931.340861	2634.875004
931.644383	2639.396919
931.947866	2638.686117
932.251309	2638.237454
932.554714	2636.331898
932.858080	2633.917185
933.161407	2630.234622
933.464694	2632.152781
933.767943	2628.097173
934.071153	2627.913171
934.374323	2623.552573
934.677455	2623.822274
934.980548	2620.054012
935.283602	2621.059722
935.586617	2621.284053
935.889593	2626.834364
936.192530	2623.550052
936.495428	2633.284520
936.798287	2636.609161
937.101108	2646.202477
937.403890	2659.616987
937.706632	2675.373114
938.009336	2695.028572
938.312002	2715.558672
938.614628	2732.368399
938.917216	2747.373393
939.219765	2756.734816
939.522275	2765.950045
939.824747	2767.485077
940.127179	2768.949532
940.429573	2764.556166
940.731929	2767.903492
941.034246	2763.822678
941.336524	2758.005187
941.638763	2754.557038
941.940964	2752.038981
942.243126	2740.867784
942.545250	2733.853019
942.847335	2722.641493
943.149381	2715.914073
943.451389	2705.788915
943.753359	2698.098635
944.055290	2691.444312
944.357182	2686.680422
944.659036	2681.301511
944.960851	2678.193639
945.262628	2675.163906
945.564367	2672.827331
945.866067	2672.870181
946.167729	2670.432783
946.469352	2669.611075
946.770937	2669.371620
947.072484	2666.314160
947.373992	2666.039417
947.675462	2667.138389
947.976893	2658.853252
948.278286	2655.329486
948.579641	2656.569610
948.880958	2651.538538
949.182236	2656.546925
949.483476	2654.376708
949.784678	2655.740340
950.085841	2657.076246
950.386967	2659.685043
950.688054	2663.397853
950.989103	2668.930519
951.290114	2675.289935
951.591087	2681.568692
951.892021	2692.568489
952.192917	2694.350537
952.493776	2703.616178
952.794596	2706.890407
953.095378	2707.134903
953.396122	2703.142310
953.696828	2699.951259
953.997496	2695.966227
954.298126	2691.235104
954.598718	2685.155473
954.899272	2678.513753
955.199788	2670.115190
955.500266	2661.850218
955.800706	2653.066008
956.101108	2642.824904
956.401472	2634.101187
956.701798	2625.931997
957.002087	2611.282404
957.302337	2604.436517
957.602550	2597.648604
957.902724	2587.883889
958.202861	2577.912486
958.502960	2572.470561
958.803022	2567.131979
959.103045	2561.448078
959.403031	2555.865000
959.702979	2551.050698
960.002889	2547.945347
960.302762	2543.748587
960.602596	2540.739018
960.902393	2537.767258
961.202153	2534.162833
961.501875	2534.102339
961.801559	2529.043541
962.101205	2531.843902
962.400814	2528.516740
962.700385	2525.091276
962.999918	2523.130268
963.299414	2518.164731
963.598873	2517.562313
963.898293	2516.551562
964.197677	2519.803106
964.497022	2518.255472
964.796331	2517.196829
965.095601	2517.453928
965.394835	2515.361849
965.694030	2516.982580
965.993189	2516.216325
966.292309	2517.148938
966.591393	2514.036026
966.890439	2513.844462
967.189447	2516.128105
967.488419	2515.480317
967.787353	2514.746829
968.086249	2516.536438
968.385108	2517.534587
968.683930	2515.913856
968.982714	2519.896367
969.281462	2519.120030
969.580172	2524.269568
969.878844	2523.422654
970.177480	2528.947759
970.476078	2527.135464
970.774639	2530.684437
971.073162	2533.590662
971.371649	2534.303985
971.670098	2537.933616
971.968510	2539.365303
972.266885	2537.744573
972.565223	2541.928730
972.863524	2543.204142
973.161788	2544.575336
973.460014	2544.908052
973.758204	2547.075748
974.056356	2544.277908
974.354471	2547.960471
974.652550	2545.505429
974.950591	2545.301262
975.248595	2543.859492
975.546563	2546.536345
975.844493	2543.022661
976.142386	2542.135418
976.440243	2540.930582
976.738062	2538.672145
977.035845	2535.118131
977.333590	2535.113090
977.631299	2532.423635
977.928971	2528.678057
978.226606	2525.592871
978.524204	2528.146216
978.821765	2522.646317
979.119290	2530.722245
979.416777	2528.761236
979.714228	2530.805424
980.011642	2531.748120
980.309020	2533.003367
980.606360	2538.805735
980.903664	2546.324616
981.200931	2555.928014
981.498162	2570.766651
981.795356	2593.938314
982.092513	2613.966819
982.389633	2637.572022
982.686717	2661.220074
982.983764	2675.436128
983.280775	2688.749815
983.577749	2691.351051
983.874686	2691.386339
984.171587	2681.482992
984.468451	2673.190294
984.765279	2661.414159
985.062070	2650.968888
985.358824	2637.841723
985.655543	2621.352109
985.952224	2609.533124
986.248869	2592.128540
986.545478	2575.568350
986.842050	2562.123592
987.138586	2546.639688
987.435086	2539.387989
987.731549	2528.100845
988.027975	2522.215298
988.324366	2516.443177
988.620719	2514.819925
988.917037	2510.897908
989.213318	2508.455469
989.509563	2505.087978
989.805772	2506.411281
990.101944	2500.124962
990.398080	2501.349962
990.694180	2503.736949
990.990244	2502.118738
991.286271	2504.488081
991.582262	2502.968173
991.878217	2502.857267
992.174136	2504.737618
992.470019	2505.561846
992.765865	2508.120232
993.061676	2504.667042
993.357450	2508.042094
993.653188	2511.333967
993.948890	2520.501306
994.244556	2523.006759
994.540186	2531.002029
994.835780	2538.682227
995.131337	2550.024823
995.426859	2561.934549
995.722345	2574.933164
996.017795	2588.065370
996.313208	2597.988882
996.608586	2604.912906
996.903928	2609.187805
997.199234	2609.570932
997.494504	2609.636467
997.789738	2605.220417
998.084936	2598.440065
998.380099	2588.766091
998.675225	2581.894998
998.970316	2575.669173
999.265371	2564.283727
999.560390	2551.459032
999.855373	2544.184647
1000.150320	2538.954449
1000.445232	2526.374250
1000.740108	2524.869466
1001.034948	2516.092817
1001.329752	2513.612569
1001.624521	2510.890346
1001.919254	2504.752741
1002.213951	2505.438338
1002.508613	2499.973727
1002.803239	2499.958604
1003.097829	2495.880310
1003.392384	2498.032883
1003.686903	2494.970382
1003.981386	2495.230002
1004.275834	2491.136585
1004.570246	2493.178252
1004.864623	2492.598519
1005.158964	2491.580206
1005.453270	2491.030720
1005.747540	2490.277068
1006.041775	2489.904022
1006.335974	2487.766573
1006.630138	2488.613487
1006.924266	2490.203971
1007.218359	2485.442601
1007.512416	2483.408496
1007.806438	2483.148876
1008.100425	2486.987715
1008.394376	2484.948568
1008.688292	2488.154742
1008.982172	2485.487972
1009.276017	2484.426809
1009.569827	2483.988228
1009.863602	2487.632983
1010.157341	2484.600729
1010.451045	2486.982674
1010.744714	2483.100985
1011.038347	2486.279433
1011.331945	2485.777838
1011.625508	2484.648620
1011.919036	2484.129381
1012.212528	2481.505460
1012.505986	2484.333547
1012.799408	2484.877992
1013.092795	2481.044195
1013.386147	2482.407827
1013.679464	2483.060656
1013.972745	2484.908239
1014.265992	2480.088896
1014.559204	2484.696511
1014.852380	2483.189206
1015.145521	2483.126191
1015.438628	2481.747436
1015.731699	2483.400934
1016.024736	2483.789103
1016.317737	2484.222642
1016.610703	2485.215749
1016.903635	2487.708600
1017.196531	2486.070225
1017.489393	2486.261789
1017.782219	2485.606439
1018.075011	2489.392345
1018.367768	2487.716162
1018.660490	2489.273878
1018.953177	2489.273878
1019.245829	2489.273878
