Dividing Wavelength (nm)	Counts (n)	Blue Motor Position (mm): 1.000000	Red Motor Position (mm): 0.000000	
326.493990	2127.366923
326.888308	2127.366923
327.282561	2127.366923
327.676750	2097.120000
328.070874	2031.585000
328.464933	2036.626154
328.858929	2041.667308
329.252859	2097.120000
329.646726	2051.749615
330.040528	2134.928654
330.434265	2157.613846
330.827938	2145.010962
331.221547	2122.325769
331.615091	2175.257885
332.008571	2210.545962
332.401986	2218.107692
332.795338	2230.710577
333.188625	2265.998654
333.581847	2235.751731
333.975006	2213.066538
334.368100	2253.395769
334.761129	2354.218846
335.154095	2316.410192
335.546996	2336.574808
335.939833	2447.480192
336.332606	2316.410192
336.725315	2412.192115
337.117960	2376.904038
337.510540	2371.862885
337.903056	2462.603654
338.295508	2381.945192
338.687896	2414.712692
339.080220	2487.809423
339.472480	2374.383462
339.864676	2444.959615
340.256807	2480.247692
340.648875	2452.521346
341.040879	2492.850577
341.432818	2402.109808
341.824694	2462.603654
342.216506	2439.918462
342.608253	2470.165385
342.999937	2485.288846
343.391557	2384.465769
343.783113	2455.041923
344.174605	2475.206538
344.566033	2555.865000
344.957397	2548.303269
345.348697	2462.603654
345.739934	2487.809423
346.131106	2482.768269
346.522215	2417.233269
346.913260	2513.015192
347.304241	2419.753846
347.695159	2502.932885
348.086012	2470.165385
348.476802	2407.150962
348.867528	2439.918462
349.258191	2460.083077
349.648789	2520.576923
350.039324	2434.877308
350.429796	2487.809423
350.820203	2384.465769
351.210548	2364.301154
351.600828	2530.659231
351.991045	2462.603654
352.381198	2422.274423
352.771288	2457.562500
353.161314	2507.974038
353.551276	2515.535769
353.941175	2470.165385
354.331010	2515.535769
354.720782	2361.780577
355.110490	2442.439038
355.500135	2492.850577
355.889717	2444.959615
356.279235	2402.109808
356.668689	2444.959615
357.058080	2379.424615
357.447408	2465.124231
357.836672	2407.150962
358.225873	2429.836154
358.615010	2442.439038
359.004084	2439.918462
359.393095	2523.097500
359.782043	2417.233269
360.170927	2540.741538
360.559748	2450.000769
360.948505	2450.000769
361.337199	2389.506923
361.725830	2472.685962
362.114398	2439.918462
362.502903	2389.506923
362.891344	2455.041923
363.279722	2429.836154
363.668037	2434.877308
364.056289	2419.753846
364.444478	2490.330000
364.832603	2447.480192
365.220665	2581.070769
365.608665	2422.274423
365.996601	2520.576923
366.384474	2535.700385
366.772284	2397.068654
367.160031	2369.342308
367.547715	2490.330000
367.935336	2455.041923
368.322893	2523.097500
368.710388	2386.986346
369.097820	2414.712692
369.485189	2389.506923
369.872495	2457.562500
370.259738	2465.124231
370.646918	2447.480192
371.034035	2437.397885
371.421090	2439.918462
371.808081	2386.986346
372.195010	2502.932885
372.581875	2543.262115
372.968678	2457.562500
373.355418	2465.124231
373.742096	2538.220962
374.128710	2465.124231
374.515262	2520.576923
374.901751	2432.356731
375.288177	2412.192115
375.674540	2417.233269
376.060841	2513.015192
376.447079	2465.124231
376.833254	2424.795000
377.219367	2450.000769
377.605417	2538.220962
377.991404	2465.124231
378.377329	2427.315577
378.763191	2477.727115
379.148991	2389.506923
379.534727	2447.480192
379.920402	2412.192115
380.306013	2427.315577
380.691563	2442.439038
381.077049	2444.959615
381.462474	2477.727115
381.847835	2460.083077
382.233134	2452.521346
382.618371	2414.712692
383.003545	2472.685962
383.388657	2513.015192
383.773706	2429.836154
384.158693	2470.165385
384.543618	2417.233269
384.928480	2500.412308
385.313280	2455.041923
385.698017	2455.041923
386.082692	2444.959615
386.467305	2518.056346
386.851856	2460.083077
387.236344	2507.974038
387.620770	2432.356731
388.005133	2447.480192
388.389435	2432.356731
388.773674	2490.330000
389.157851	2392.027500
389.541965	2520.576923
389.926018	2417.233269
390.310008	2525.618077
390.693936	2601.235385
391.077802	2465.124231
391.461606	2555.865000
391.845348	2447.480192
392.229027	2502.932885
392.612645	2485.288846
392.996200	2432.356731
393.379694	2568.467885
393.763125	2492.850577
394.146494	2505.453462
394.529801	2472.685962
394.913047	2545.782692
395.296230	2523.097500
395.679351	2525.618077
396.062410	2502.932885
396.445408	2550.823846
396.828343	2502.932885
397.211217	2515.535769
397.594028	2462.603654
397.976778	2434.877308
398.359466	2460.083077
398.742092	2439.918462
399.124656	2518.056346
399.507158	2424.795000
399.889598	2477.727115
400.271977	2520.576923
400.654294	2460.083077
401.036549	2487.809423
401.418742	2472.685962
401.800874	2472.685962
402.182944	2439.918462
402.564952	2470.165385
402.946898	2422.274423
403.328783	2419.753846
403.710606	2581.070769
404.092367	2439.918462
404.474067	2500.412308
404.855705	2465.124231
405.237282	2550.823846
405.618797	2429.836154
406.000250	2434.877308
406.381642	2480.247692
406.762972	2462.603654
407.144240	2414.712692
407.525447	2404.630385
407.906593	2412.192115
408.287677	2429.836154
408.668700	2570.988462
409.049661	2482.768269
409.430560	2538.220962
409.811399	2434.877308
410.192176	2434.877308
410.572891	2409.671538
410.953545	2505.453462
411.334138	2386.986346
411.714669	2538.220962
412.095139	2507.974038
412.475547	2505.453462
412.855894	2447.480192
413.236180	2462.603654
413.616405	2457.562500
413.996568	2417.233269
414.376670	2477.727115
414.756711	2457.562500
415.136691	2444.959615
415.516609	2447.480192
415.896466	2462.603654
416.276262	2497.891731
416.655997	2452.521346
417.035670	2392.027500
417.415283	2518.056346
417.794834	2560.906154
418.174324	2523.097500
418.553753	2480.247692
418.933121	2490.330000
419.312428	2457.562500
419.691674	2444.959615
420.070859	2419.753846
420.449983	2555.865000
420.829045	2525.618077
421.208047	2528.138654
421.586988	2452.521346
421.965867	2535.700385
422.344686	2497.891731
422.723444	2563.426731
423.102141	2457.562500
423.480777	2485.288846
423.859352	2477.727115
424.237866	2523.097500
424.616319	2475.206538
424.994712	2523.097500
425.373044	2487.809423
425.751314	2528.138654
426.129524	2505.453462
426.507673	2538.220962
426.885762	2500.412308
427.263789	2507.974038
427.641756	2422.274423
428.019662	2513.015192
428.397508	2538.220962
428.775292	2515.535769
429.153016	2487.809423
429.530679	2419.753846
429.908282	2480.247692
430.285824	2518.056346
430.663305	2507.974038
431.040726	2487.809423
431.418086	2505.453462
431.795385	2495.371154
432.172624	2472.685962
432.549802	2603.755962
432.926920	2487.809423
433.303977	2492.850577
433.680974	2523.097500
434.057910	2495.371154
434.434786	2550.823846
434.811601	2477.727115
435.188355	2520.576923
435.565050	2485.288846
435.941683	2553.344423
436.318257	2444.959615
436.694770	2467.644808
437.071222	2450.000769
437.447614	2442.439038
437.823946	2510.494615
438.200218	2452.521346
438.576429	2437.397885
438.952580	2550.823846
439.328670	2490.330000
439.704700	2434.877308
440.080670	2535.700385
440.456580	2482.768269
440.832429	2500.412308
441.208218	2525.618077
441.583947	2568.467885
441.959616	2477.727115
442.335224	2505.453462
442.710773	2475.206538
443.086261	2523.097500
443.461689	2513.015192
443.837057	2452.521346
444.212365	2573.509038
444.587612	2523.097500
444.962800	2495.371154
445.337927	2384.465769
445.712995	2429.836154
446.088002	2460.083077
446.462949	2424.795000
446.837837	2533.179808
447.212664	2427.315577
447.587431	2586.111923
447.962139	2505.453462
448.336786	2492.850577
448.711374	2525.618077
449.085901	2583.591346
449.460369	2528.138654
449.834776	2482.768269
450.209124	2520.576923
450.583412	2477.727115
450.957640	2555.865000
451.331808	2502.932885
451.705917	2520.576923
452.079965	2450.000769
452.453954	2477.727115
452.827883	2467.644808
453.201752	2460.083077
453.575562	2480.247692
453.949311	2565.947308
454.323001	2502.932885
454.696632	2528.138654
455.070202	2465.124231
455.443713	2550.823846
455.817164	2467.644808
456.190556	2500.412308
456.563888	2492.850577
456.937160	2447.480192
457.310373	2550.823846
457.683526	2392.027500
458.056619	2530.659231
458.429653	2455.041923
458.802628	2568.467885
459.175542	2490.330000
459.548398	2535.700385
459.921194	2480.247692
460.293930	2472.685962
460.666607	2482.768269
461.039224	2510.494615
461.411782	2578.550192
461.784280	2510.494615
462.156719	2596.194231
462.529099	2495.371154
462.901419	2510.494615
463.273680	2497.891731
463.645882	2535.700385
464.018024	2386.986346
464.390106	2543.262115
464.762130	2414.712692
465.134094	2528.138654
465.505999	2497.891731
465.877845	2548.303269
466.249631	2460.083077
466.621358	2523.097500
466.993026	2482.768269
467.364634	2548.303269
467.736184	2548.303269
468.107674	2530.659231
468.479105	2475.206538
468.850477	2490.330000
469.221790	2497.891731
469.593043	2402.109808
469.964238	2555.865000
470.335373	2502.932885
470.706449	2444.959615
471.077467	2457.562500
471.448425	2485.288846
471.819324	2467.644808
472.190164	2530.659231
472.560945	2583.591346
472.931667	2558.385577
473.302330	2497.891731
473.672934	2583.591346
474.043479	2444.959615
474.413965	2480.247692
474.784393	2502.932885
475.154761	2482.768269
475.525070	2510.494615
475.895321	2492.850577
476.265513	2515.535769
476.635645	2535.700385
477.005719	2540.741538
477.375734	2500.412308
477.745691	2490.330000
478.115588	2432.356731
478.485427	2462.603654
478.855207	2510.494615
479.224928	2485.288846
479.594591	2530.659231
479.964194	2475.206538
480.333739	2520.576923
480.703226	2450.000769
481.072653	2538.220962
481.442022	2369.342308
481.811333	2417.233269
482.180584	2505.453462
482.549777	2500.412308
482.918912	2447.480192
483.287988	2460.083077
483.657005	2538.220962
484.025964	2447.480192
484.394864	2520.576923
484.763706	2492.850577
485.132489	2465.124231
485.501213	2523.097500
485.869879	2543.262115
486.238487	2525.618077
486.607036	2485.288846
486.975527	2477.727115
487.343959	2510.494615
487.712333	2555.865000
488.080648	2472.685962
488.448905	2573.509038
488.817104	2497.891731
489.185244	2424.795000
489.553326	2467.644808
489.921350	2460.083077
490.289315	2525.618077
490.657222	2477.727115
491.025070	2447.480192
491.392861	2533.179808
491.760593	2490.330000
492.128267	2467.644808
492.495883	2528.138654
492.863440	2573.509038
493.230939	2515.535769
493.598380	2535.700385
493.965763	2558.385577
494.333088	2528.138654
494.700354	2530.659231
495.067563	2472.685962
495.434713	2502.932885
495.801805	2528.138654
496.168839	2452.521346
496.535815	2535.700385
496.902733	2475.206538
497.269593	2520.576923
497.636395	2502.932885
498.003139	2570.988462
498.369825	2497.891731
498.736453	2548.303269
499.103023	2480.247692
499.469535	2480.247692
499.835989	2419.753846
500.202385	2477.727115
500.568723	2523.097500
500.935003	2485.288846
501.301226	2424.795000
501.667390	2495.371154
502.033497	2472.685962
502.399546	2576.029615
502.765537	2513.015192
503.131470	2523.097500
503.497345	2533.179808
503.863163	2540.741538
504.228923	2477.727115
504.594625	2510.494615
504.960269	2465.124231
505.325856	2545.782692
505.691385	2460.083077
506.056856	2523.097500
506.422270	2520.576923
506.787625	2513.015192
507.152924	2568.467885
507.518164	2510.494615
507.883347	2510.494615
508.248472	2470.165385
508.613540	2495.371154
508.978550	2462.603654
509.343503	2404.630385
509.708398	2530.659231
510.073236	2439.918462
510.438016	2558.385577
510.802738	2510.494615
511.167403	2558.385577
511.532010	2480.247692
511.896561	2495.371154
512.261053	2472.685962
512.625488	2495.371154
512.989866	2513.015192
513.354186	2465.124231
513.718449	2518.056346
514.082655	2530.659231
514.446803	2482.768269
514.810894	2495.371154
515.174927	2482.768269
515.538904	2588.632500
515.902822	2475.206538
516.266684	2510.494615
516.630488	2513.015192
516.994235	2475.206538
517.357925	2492.850577
517.721558	2502.932885
518.085133	2505.453462
518.448651	2505.453462
518.812112	2467.644808
519.175516	2550.823846
519.538863	2480.247692
519.902152	2492.850577
520.265385	2452.521346
520.628560	2502.932885
520.991678	2450.000769
521.354739	2601.235385
521.717743	2576.029615
522.080690	2535.700385
522.443580	2450.000769
522.806413	2394.548077
523.169189	2535.700385
523.531908	2472.685962
523.894569	2477.727115
524.257174	2475.206538
524.619722	2442.439038
524.982213	2477.727115
525.344647	2535.700385
525.707025	2467.644808
526.069345	2467.644808
526.431608	2530.659231
526.793815	2502.932885
527.155964	2513.015192
527.518057	2523.097500
527.880093	2533.179808
528.242072	2394.548077
528.603995	2424.795000
528.965860	2515.535769
529.327669	2555.865000
529.689421	2520.576923
530.051117	2442.439038
530.412755	2528.138654
530.774337	2477.727115
531.135862	2477.727115
531.497331	2515.535769
531.858743	2495.371154
532.220098	2507.974038
532.581396	2497.891731
532.942638	2417.233269
533.303824	2487.809423
533.664953	2502.932885
534.026025	2578.550192
534.387040	2563.426731
534.747999	2472.685962
535.108902	2563.426731
535.469748	2535.700385
535.830537	2538.220962
536.191270	2480.247692
536.551947	2460.083077
536.912567	2500.412308
537.273131	2447.480192
537.633638	2613.838269
537.994089	2500.412308
538.354483	2505.453462
538.714821	2429.836154
539.075103	2513.015192
539.435328	2505.453462
539.795497	2515.535769
540.155609	2548.303269
540.515665	2394.548077
540.875665	2616.358846
541.235609	2497.891731
541.595496	2513.015192
541.955328	2487.809423
542.315102	2543.262115
542.674821	2497.891731
543.034483	2563.426731
543.394090	2530.659231
543.753640	2543.262115
544.113134	2495.371154
544.472571	2533.179808
544.831953	2389.506923
545.191278	2480.247692
545.550548	2515.535769
545.909761	2518.056346
546.268918	2485.288846
546.628019	2495.371154
546.987064	2545.782692
547.346053	2487.809423
547.704986	2442.439038
548.063863	2553.344423
548.422684	2487.809423
548.781449	2417.233269
549.140158	2477.727115
549.498811	2520.576923
549.857408	2455.041923
550.215949	2452.521346
550.574434	2482.768269
550.932864	2482.768269
551.291237	2565.947308
551.649555	2472.685962
552.007817	2550.823846
552.366022	2555.865000
552.724173	2505.453462
553.082267	2492.850577
553.440305	2560.906154
553.798288	2490.330000
554.156215	2492.850577
554.514086	2487.809423
554.871902	2475.206538
555.229661	2545.782692
555.587365	2500.412308
555.945014	2490.330000
556.302606	2568.467885
556.660143	2452.521346
557.017625	2553.344423
557.375050	2510.494615
557.732421	2515.535769
558.089735	2573.509038
558.446994	2535.700385
558.804197	2490.330000
559.161345	2510.494615
559.518437	2467.644808
559.875474	2535.700385
560.232455	2568.467885
560.589381	2540.741538
560.946251	2485.288846
561.303065	2502.932885
561.659825	2442.439038
562.016528	2528.138654
562.373177	2480.247692
562.729770	2482.768269
563.086307	2510.494615
563.442789	2520.576923
563.799216	2502.932885
564.155587	2505.453462
564.511904	2505.453462
564.868164	2565.947308
565.224370	2439.918462
565.580520	2520.576923
565.936615	2538.220962
566.292654	2492.850577
566.648638	2563.426731
567.004567	2495.371154
567.360441	2505.453462
567.716260	2472.685962
568.072023	2429.836154
568.427732	2540.741538
568.783385	2447.480192
569.138982	2492.850577
569.494525	2545.782692
569.850013	2485.288846
570.205445	2444.959615
570.560823	2518.056346
570.916145	2429.836154
571.271412	2457.562500
571.626625	2538.220962
571.981782	2482.768269
572.336884	2543.262115
572.691931	2470.165385
573.046923	2513.015192
573.401860	2492.850577
573.756743	2515.535769
574.111570	2465.124231
574.466342	2455.041923
574.821059	2465.124231
575.175722	2439.918462
575.530330	2427.315577
575.884882	2583.591346
576.239380	2392.027500
576.593823	2412.192115
576.948211	2535.700385
577.302544	2452.521346
577.656823	2455.041923
578.011047	2530.659231
578.365216	2495.371154
578.719330	2482.768269
579.073389	2495.371154
579.427394	2447.480192
579.781344	2545.782692
580.135239	2523.097500
580.489080	2470.165385
580.842866	2548.303269
581.196597	2497.891731
581.550273	2432.356731
581.903895	2439.918462
582.257463	2480.247692
582.610975	2477.727115
582.964434	2442.439038
583.317837	2565.947308
583.671186	2439.918462
584.024481	2505.453462
584.377721	2513.015192
584.730906	2480.247692
585.084037	2507.974038
585.437113	2450.000769
585.790135	2472.685962
586.143103	2540.741538
586.496016	2450.000769
586.848874	2502.932885
587.201679	2424.795000
587.554428	2460.083077
587.907124	2510.494615
588.259765	2490.330000
588.612352	2495.371154
588.964884	2583.591346
589.317362	2455.041923
589.669786	2550.823846
590.022155	2560.906154
590.374470	2523.097500
590.726731	2475.206538
591.078937	2543.262115
591.431090	2460.083077
591.783188	2490.330000
592.135232	2470.165385
592.487222	2457.562500
592.839157	2515.535769
593.191038	2515.535769
593.542866	2434.877308
593.894639	2591.153077
594.246358	2507.974038
594.598022	2568.467885
594.949633	2492.850577
595.301190	2578.550192
595.652692	2576.029615
596.004141	2412.192115
596.355535	2502.932885
596.706876	2475.206538
597.058162	2502.932885
597.409395	2472.685962
597.760573	2495.371154
598.111698	2419.753846
598.462768	2502.932885
598.813785	2525.618077
599.164748	2465.124231
599.515657	2381.945192
599.866511	2465.124231
600.217312	2439.918462
600.568060	2432.356731
600.918753	2492.850577
601.269392	2495.371154
601.619978	2533.179808
601.970510	2535.700385
602.320988	2576.029615
602.671412	2455.041923
603.021783	2538.220962
603.372100	2475.206538
603.722363	2518.056346
604.072572	2513.015192
604.422728	2507.974038
604.772830	2467.644808
605.122878	2437.397885
605.472872	2558.385577
605.822813	2505.453462
606.172701	2578.550192
606.522534	2568.467885
606.872314	2583.591346
607.222041	2548.303269
607.571714	2578.550192
607.921333	2492.850577
608.270899	2376.904038
608.620411	2530.659231
608.969870	2563.426731
609.319276	2386.986346
609.668627	2510.494615
610.017926	2538.220962
610.367171	2550.823846
610.716362	2525.618077
611.065500	2437.397885
611.414585	2555.865000
611.763616	2533.179808
612.112594	2374.383462
612.461518	2467.644808
612.810389	2482.768269
613.159207	2518.056346
613.507971	2465.124231
613.856682	2528.138654
614.205340	2558.385577
614.553945	2500.412308
614.902496	2477.727115
615.250994	2528.138654
615.599439	2558.385577
615.947830	2477.727115
616.296169	2480.247692
616.644454	2507.974038
616.992686	2497.891731
617.340864	2507.974038
617.688990	2492.850577
618.037063	2550.823846
618.385082	2492.850577
618.733048	2437.397885
619.080961	2573.509038
619.428821	2480.247692
619.776628	2545.782692
620.124382	2505.453462
620.472083	2528.138654
620.819731	2525.618077
621.167326	2505.453462
621.514868	2563.426731
621.862357	2487.809423
622.209793	2523.097500
622.557176	2548.303269
622.904506	2447.480192
623.251783	2520.576923
623.599007	2558.385577
623.946179	2480.247692
624.293297	2487.809423
624.640363	2528.138654
624.987376	2540.741538
625.334336	2432.356731
625.681243	2490.330000
626.028097	2492.850577
626.374899	2502.932885
626.721647	2495.371154
627.068343	2475.206538
627.414987	2475.206538
627.761577	2570.988462
628.108115	2591.153077
628.454600	2558.385577
628.801032	2507.974038
629.147412	2513.015192
629.493739	2495.371154
629.840014	2460.083077
630.186236	2482.768269
630.532405	2538.220962
630.878521	2505.453462
631.224585	2467.644808
631.570597	2450.000769
631.916556	2460.083077
632.262462	2538.220962
632.608316	2447.480192
632.954117	2442.439038
633.299866	2450.000769
633.645562	2465.124231
633.991206	2528.138654
634.336797	2492.850577
634.682336	2500.412308
635.027823	2500.412308
635.373257	2422.274423
635.718639	2533.179808
636.063968	2505.453462
636.409245	2520.576923
636.754470	2475.206538
637.099642	2434.877308
637.444762	2460.083077
637.789829	2548.303269
638.134845	2545.782692
638.479808	2482.768269
638.824719	2523.097500
639.169577	2470.165385
639.514383	2523.097500
639.859137	2538.220962
640.203839	2470.165385
640.548489	2465.124231
640.893086	2439.918462
641.237632	2475.206538
641.582125	2533.179808
641.926566	2535.700385
642.270955	2513.015192
642.615292	2460.083077
642.959576	2467.644808
643.303809	2434.877308
643.647990	2573.509038
643.992118	2505.453462
644.336195	2470.165385
644.680219	2558.385577
645.024192	2427.315577
645.368112	2455.041923
645.711981	2568.467885
646.055797	2576.029615
646.399562	2482.768269
646.743274	2583.591346
647.086935	2548.303269
647.430544	2513.015192
647.774101	2578.550192
648.117606	2480.247692
648.461059	2470.165385
648.804460	2543.262115
649.147810	2399.589231
649.491108	2492.850577
649.834354	2439.918462
650.177548	2485.288846
650.520690	2495.371154
650.863781	2530.659231
651.206820	2525.618077
651.549807	2535.700385
651.892742	2502.932885
652.235626	2543.262115
652.578458	2555.865000
652.921238	2502.932885
653.263967	2477.727115
653.606644	2465.124231
653.949269	2439.918462
654.291843	2553.344423
654.634365	2475.206538
654.976836	2528.138654
655.319255	2492.850577
655.661622	2500.412308
656.003938	2444.959615
656.346203	2513.015192
656.688416	2457.562500
657.030577	2434.877308
657.372687	2515.535769
657.714746	2462.603654
658.056753	2500.412308
658.398708	2477.727115
658.740612	2548.303269
659.082465	2518.056346
659.424266	2455.041923
659.766016	2540.741538
660.107715	2578.550192
660.449362	2407.150962
660.790958	2533.179808
661.132503	2497.891731
661.473996	2505.453462
661.815438	2462.603654
662.156829	2538.220962
662.498168	2470.165385
662.839456	2457.562500
663.180693	2432.356731
663.521879	2505.453462
663.863013	2558.385577
664.204097	2530.659231
664.545129	2518.056346
664.886110	2500.412308
665.227040	2502.932885
665.567918	2492.850577
665.908746	2465.124231
666.249522	2462.603654
666.590248	2429.836154
666.930922	2495.371154
667.271545	2500.412308
667.612118	2467.644808
667.952639	2545.782692
668.293109	2565.947308
668.633528	2588.632500
668.973896	2434.877308
669.314213	2568.467885
669.654480	2407.150962
669.994695	2502.932885
670.334859	2452.521346
670.674973	2603.755962
671.015035	2523.097500
671.355047	2497.891731
671.695008	2475.206538
672.034918	2414.712692
672.374777	2540.741538
672.714585	2535.700385
673.054342	2583.591346
673.394049	2502.932885
673.733705	2487.809423
674.073310	2485.288846
674.412864	2477.727115
674.752368	2586.111923
675.091820	2460.083077
675.431223	2518.056346
675.770574	2513.015192
676.109875	2507.974038
676.449125	2437.397885
676.788324	2515.535769
677.127473	2588.632500
677.466571	2409.671538
677.805619	2432.356731
678.144616	2462.603654
678.483562	2497.891731
678.822458	2492.850577
679.161303	2530.659231
679.500098	2490.330000
679.838842	2581.070769
680.177535	2528.138654
680.516179	2470.165385
680.854771	2424.795000
681.193314	2505.453462
681.531805	2409.671538
681.870247	2381.945192
682.208638	2485.288846
682.546978	2432.356731
682.885268	2487.809423
683.223508	2530.659231
683.561697	2429.836154
683.899836	2437.397885
684.237925	2530.659231
684.575963	2528.138654
684.913951	2510.494615
685.251889	2520.576923
685.589776	2513.015192
685.927614	2500.412308
686.265401	2507.974038
686.603137	2535.700385
686.940824	2500.412308
687.278460	2515.535769
687.616046	2419.753846
687.953582	2507.974038
688.291068	2482.768269
688.628504	2576.029615
688.965889	2518.056346
689.303224	2490.330000
689.640510	2507.974038
689.977745	2545.782692
690.314930	2502.932885
690.652065	2523.097500
690.989150	2485.288846
691.326185	2497.891731
691.663170	2407.150962
692.000105	2480.247692
692.336990	2611.317692
692.673825	2568.467885
693.010610	2492.850577
693.347345	2467.644808
693.684030	2450.000769
694.020665	2490.330000
694.357251	2417.233269
694.693786	2545.782692
695.030272	2452.521346
695.366707	2510.494615
695.703093	2581.070769
696.039429	2492.850577
696.375716	2548.303269
696.711952	2555.865000
697.048139	2576.029615
697.384276	2505.453462
697.720363	2475.206538
698.056400	2603.755962
698.392388	2477.727115
698.728326	2502.932885
699.064214	2472.685962
699.400053	2502.932885
699.735842	2490.330000
700.071581	2578.550192
700.407270	2535.700385
700.742910	2500.412308
701.078501	2500.412308
701.414042	2495.371154
701.749533	2538.220962
702.084974	2613.838269
702.420366	2475.206538
702.755709	2510.494615
703.091002	2523.097500
703.426246	2487.809423
703.761440	2520.576923
704.096584	2553.344423
704.431679	2570.988462
704.766725	2455.041923
705.101721	2447.480192
705.436668	2520.576923
705.771565	2555.865000
706.106413	2520.576923
706.441212	2497.891731
706.775961	2523.097500
707.110661	2465.124231
707.445311	2523.097500
707.779913	2439.918462
708.114465	2457.562500
708.448967	2490.330000
708.783421	2497.891731
709.117825	2439.918462
709.452180	2434.877308
709.786485	2538.220962
710.120742	2399.589231
710.454949	2578.550192
710.789107	2565.947308
711.123216	2558.385577
711.457275	2487.809423
711.791286	2460.083077
712.125247	2523.097500
712.459159	2513.015192
712.793023	2477.727115
713.126837	2507.974038
713.460602	2490.330000
713.794318	2560.906154
714.127985	2470.165385
714.461602	2442.439038
714.795171	2553.344423
715.128691	2475.206538
715.462162	2455.041923
715.795584	2505.453462
716.128957	2470.165385
716.462281	2470.165385
716.795556	2442.439038
717.128782	2417.233269
717.461960	2457.562500
717.795088	2545.782692
718.128167	2555.865000
718.461198	2520.576923
718.794180	2548.303269
719.127113	2442.439038
719.459997	2553.344423
719.792833	2452.521346
720.125619	2591.153077
720.458357	2543.262115
720.791046	2596.194231
721.123686	2480.247692
721.456278	2540.741538
721.788821	2545.782692
722.121315	2475.206538
722.453761	2482.768269
722.786158	2490.330000
723.118506	2550.823846
723.450805	2442.439038
723.783056	2543.262115
724.115259	2490.330000
724.447412	2490.330000
724.779518	2490.330000
725.111574	2520.576923
725.443582	2525.618077
725.775542	2450.000769
726.107453	2455.041923
726.439315	2520.576923
726.771129	2495.371154
727.102895	2573.509038
727.434612	2394.548077
727.766281	2548.303269
728.097901	2500.412308
728.429473	2497.891731
728.760996	2495.371154
729.092471	2457.562500
729.423897	2533.179808
729.755276	2465.124231
730.086606	2523.097500
730.417887	2543.262115
730.749120	2598.714808
731.080305	2485.288846
731.411442	2497.891731
731.742530	2485.288846
732.073570	2444.959615
732.404562	2477.727115
732.735506	2482.768269
733.066401	2518.056346
733.397249	2502.932885
733.728048	2583.591346
734.058798	2553.344423
734.389501	2490.330000
734.720156	2392.027500
735.050762	2485.288846
735.381320	2485.288846
735.711831	2555.865000
736.042293	2475.206538
736.372707	2581.070769
736.703073	2432.356731
737.033391	2507.974038
737.363661	2452.521346
737.693883	2548.303269
738.024056	2444.959615
738.354182	2439.918462
738.684260	2502.932885
739.014290	2465.124231
739.344272	2507.974038
739.674207	2507.974038
740.004093	2540.741538
740.333931	2485.288846
740.663722	2543.262115
740.993464	2477.727115
741.323159	2371.862885
741.652806	2525.618077
741.982405	2507.974038
742.311956	2470.165385
742.641460	2513.015192
742.970915	2520.576923
743.300323	2507.974038
743.629683	2442.439038
743.958996	2500.412308
744.288260	2465.124231
744.617477	2565.947308
744.946647	2462.603654
745.275768	2505.453462
745.604842	2475.206538
745.933869	2472.685962
746.262847	2467.644808
746.591778	2550.823846
746.920662	2563.426731
747.249498	2553.344423
747.578286	2455.041923
747.907027	2502.932885
748.235720	2530.659231
748.564365	2460.083077
748.892963	2500.412308
749.221514	2457.562500
749.550017	2424.795000
749.878473	2560.906154
750.206881	2490.330000
750.535242	2510.494615
750.863555	2588.632500
751.191821	2518.056346
751.520039	2525.618077
751.848210	2550.823846
752.176334	2444.959615
752.504411	2558.385577
752.832440	2397.068654
753.160421	2467.644808
753.488356	2444.959615
753.816243	2432.356731
754.144082	2528.138654
754.471875	2543.262115
754.799620	2513.015192
755.127318	2417.233269
755.454969	2545.782692
755.782572	2513.015192
756.110129	2495.371154
756.437638	2490.330000
756.765100	2553.344423
757.092515	2467.644808
757.419882	2520.576923
757.747203	2523.097500
758.074477	2510.494615
758.401703	2460.083077
758.728882	2492.850577
759.056014	2470.165385
759.383099	2495.371154
759.710138	2424.795000
760.037129	2460.083077
760.364073	2495.371154
760.690970	2414.712692
761.017820	2492.850577
761.344623	2568.467885
761.671379	2510.494615
761.998088	2437.397885
762.324751	2427.315577
762.651366	2429.836154
762.977935	2467.644808
763.304456	2485.288846
763.630931	2422.274423
763.957359	2477.727115
764.283740	2525.618077
764.610074	2507.974038
764.936362	2548.303269
765.262602	2510.494615
765.588796	2497.891731
765.914943	2497.891731
766.241044	2487.809423
766.567097	2563.426731
766.893104	2510.494615
767.219064	2417.233269
767.544978	2497.891731
767.870845	2487.809423
768.196665	2434.877308
768.522438	2485.288846
768.848165	2482.768269
769.173846	2593.673654
769.499479	2497.891731
769.825066	2427.315577
770.150607	2507.974038
770.476101	2485.288846
770.801548	2505.453462
771.126949	2467.644808
771.452303	2518.056346
771.777611	2432.356731
772.102872	2568.467885
772.428087	2533.179808
772.753256	2518.056346
773.078378	2497.891731
773.403453	2419.753846
773.728482	2523.097500
774.053465	2530.659231
774.378401	2538.220962
774.703291	2452.521346
775.028135	2520.576923
775.352932	2475.206538
775.677683	2495.371154
776.002388	2482.768269
776.327046	2480.247692
776.651658	2545.782692
776.976224	2533.179808
777.300743	2432.356731
777.625216	2555.865000
777.949643	2475.206538
778.274024	2538.220962
778.598359	2475.206538
778.922647	2540.741538
779.246889	2487.809423
779.571086	2482.768269
779.895236	2513.015192
780.219339	2538.220962
780.543397	2444.959615
780.867409	2523.097500
781.191374	2439.918462
781.515294	2530.659231
781.839167	2497.891731
782.162995	2467.644808
782.486776	2434.877308
782.810511	2490.330000
783.134201	2555.865000
783.457844	2583.591346
783.781441	2407.150962
784.104993	2507.974038
784.428498	2495.371154
784.751958	2507.974038
785.075372	2460.083077
785.398739	2482.768269
785.722061	2497.891731
786.045337	2523.097500
786.368568	2548.303269
786.691752	2530.659231
787.014891	2404.630385
787.337983	2386.986346
787.661030	2520.576923
787.984031	2487.809423
788.306987	2530.659231
788.629897	2482.768269
788.952760	2502.932885
789.275579	2540.741538
789.598351	2482.768269
789.921078	2530.659231
790.243759	2475.206538
790.566395	2520.576923
790.888984	2470.165385
791.211529	2505.453462
791.534027	2480.247692
791.856480	2427.315577
792.178888	2601.235385
792.501249	2540.741538
792.823566	2437.397885
793.145836	2505.453462
793.468062	2573.509038
793.790241	2510.494615
794.112375	2530.659231
794.434464	2528.138654
794.756507	2407.150962
795.078505	2465.124231
795.400457	2550.823846
795.722364	2525.618077
796.044226	2402.109808
796.366042	2467.644808
796.687812	2487.809423
797.009538	2444.959615
797.331218	2583.591346
797.652852	2535.700385
797.974442	2507.974038
798.295986	2447.480192
798.617484	2497.891731
798.938938	2570.988462
799.260346	2492.850577
799.581709	2548.303269
799.903026	2518.056346
800.224299	2553.344423
800.545526	2485.288846
800.866708	2500.412308
801.187845	2482.768269
801.508936	2523.097500
801.829983	2450.000769
802.150984	2462.603654
802.471940	2581.070769
802.792851	2475.206538
803.113717	2570.988462
803.434538	2450.000769
803.755314	2555.865000
804.076045	2460.083077
804.396731	2452.521346
804.717372	2505.453462
805.037967	2475.206538
805.358518	2492.850577
805.679024	2515.535769
805.999485	2550.823846
806.319901	2462.603654
806.640272	2558.385577
806.960598	2570.988462
807.280879	2568.467885
807.601115	2515.535769
807.921306	2550.823846
808.241453	2467.644808
808.561554	2470.165385
808.881611	2487.809423
809.201623	2477.727115
809.521590	2525.618077
809.841513	2472.685962
810.161390	2515.535769
810.481223	2588.632500
810.801011	2558.385577
811.120755	2467.644808
811.440453	2485.288846
811.760107	2528.138654
812.079716	2482.768269
812.399281	2538.220962
812.718801	2397.068654
813.038276	2492.850577
813.357707	2497.891731
813.677093	2475.206538
813.996434	2538.220962
814.315731	2523.097500
814.634983	2565.947308
814.954191	2477.727115
815.273354	2528.138654
815.592473	2492.850577
815.911547	2560.906154
816.230577	2487.809423
816.549562	2523.097500
816.868502	2492.850577
817.187399	2475.206538
817.506250	2475.206538
817.825058	2472.685962
818.143821	2465.124231
818.462539	2434.877308
818.781213	2507.974038
819.099843	2543.262115
819.418429	2545.782692
819.736970	2487.809423
820.055466	2538.220962
820.373919	2497.891731
820.692327	2495.371154
821.010691	2543.262115
821.329011	2462.603654
821.647286	2457.562500
821.965517	2487.809423
822.283704	2553.344423
822.601847	2470.165385
822.919945	2450.000769
823.237999	2366.821731
823.556010	2386.986346
823.873976	2424.795000
824.191897	2495.371154
824.509775	2520.576923
824.827609	2507.974038
825.145398	2447.480192
825.463144	2467.644808
825.780845	2462.603654
826.098502	2470.165385
826.416116	2467.644808
826.733685	2457.562500
827.051210	2523.097500
827.368692	2424.795000
827.686129	2525.618077
828.003522	2432.356731
828.320872	2502.932885
828.638177	2505.453462
828.955439	2492.850577
829.272656	2477.727115
829.589830	2550.823846
829.906960	2540.741538
830.224046	2432.356731
830.541088	2460.083077
830.858086	2482.768269
831.175041	2434.877308
831.491952	2450.000769
831.808819	2525.618077
832.125642	2485.288846
832.442421	2530.659231
832.759157	2412.192115
833.075849	2591.153077
833.392497	2427.315577
833.709101	2523.097500
834.025662	2495.371154
834.342179	2515.535769
834.658653	2505.453462
834.975083	2467.644808
835.291469	2470.165385
835.607811	2497.891731
835.924110	2578.550192
836.240366	2472.685962
836.556578	2523.097500
836.872746	2505.453462
837.188871	2351.698269
837.504952	2507.974038
837.820990	2515.535769
838.136984	2460.083077
838.452935	2447.480192
838.768842	2520.576923
839.084706	2487.809423
839.400526	2447.480192
839.716303	2480.247692
840.032037	2462.603654
840.347727	2490.330000
840.663373	2427.315577
840.978977	2502.932885
841.294537	2465.124231
841.610054	2480.247692
841.925527	2414.712692
842.240957	2502.932885
842.556344	2505.453462
842.871687	2497.891731
843.186987	2545.782692
843.502244	2492.850577
843.817458	2515.535769
844.132629	2477.727115
844.447756	2502.932885
844.762840	2487.809423
845.077881	2525.618077
845.392879	2457.562500
845.707833	2432.356731
846.022745	2570.988462
846.337613	2507.974038
846.652438	2427.315577
846.967221	2482.768269
847.281960	2480.247692
847.596656	2520.576923
847.911309	2397.068654
848.225919	2482.768269
848.540485	2530.659231
848.855009	2500.412308
849.169490	2500.412308
849.483928	2563.426731
849.798323	2455.041923
850.112675	2500.412308
850.426984	2510.494615
850.741251	2495.371154
851.055474	2404.630385
851.369654	2477.727115
851.683792	2495.371154
851.997887	2444.959615
852.311938	2502.932885
852.625947	2482.768269
852.939914	2492.850577
853.253837	2507.974038
853.567718	2442.439038
853.881555	2495.371154
854.195350	2460.083077
854.509103	2490.330000
854.822812	2563.426731
855.136479	2515.535769
855.450103	2518.056346
855.763685	2470.165385
856.077224	2505.453462
856.390720	2525.618077
856.704173	2442.439038
857.017584	2578.550192
857.330953	2434.877308
857.644278	2447.480192
857.957561	2472.685962
858.270802	2520.576923
858.584000	2507.974038
858.897155	2457.562500
859.210268	2523.097500
859.523339	2470.165385
859.836367	2419.753846
860.149352	2523.097500
860.462295	2487.809423
860.775195	2500.412308
861.088054	2389.506923
861.400869	2515.535769
861.713642	2470.165385
862.026373	2452.521346
862.339062	2349.177692
862.651708	2424.795000
862.964312	2578.550192
863.276873	2434.877308
863.589392	2485.288846
863.901869	2455.041923
864.214303	2528.138654
864.526696	2452.521346
864.839045	2412.192115
865.151353	2543.262115
865.463619	2487.809423
865.775842	2523.097500
866.088023	2555.865000
866.400162	2490.330000
866.712258	2520.576923
867.024313	2457.562500
867.336325	2490.330000
867.648296	2457.562500
867.960224	2565.947308
868.272110	2465.124231
868.583954	2497.891731
868.895755	2434.877308
869.207515	2583.591346
869.519233	2563.426731
869.830909	2533.179808
870.142542	2553.344423
870.454134	2507.974038
870.765684	2465.124231
871.077191	2475.206538
871.388657	2500.412308
871.700081	2399.589231
872.011463	2492.850577
872.322803	2482.768269
872.634101	2518.056346
872.945357	2550.823846
873.256571	2570.988462
873.567744	2495.371154
873.878874	2525.618077
874.189963	2568.467885
874.501010	2439.918462
874.812015	2505.453462
875.122979	2482.768269
875.433900	2507.974038
875.744780	2397.068654
876.055618	2490.330000
876.366415	2533.179808
876.677169	2490.330000
876.987882	2568.467885
877.298554	2523.097500
877.609183	2560.906154
877.919771	2450.000769
878.230317	2500.412308
878.540822	2523.097500
878.851285	2550.823846
879.161707	2455.041923
879.472087	2450.000769
879.782425	2495.371154
880.092722	2475.206538
880.402977	2444.959615
880.713191	2482.768269
881.023363	2470.165385
881.333494	2432.356731
881.643583	2467.644808
881.953631	2462.603654
882.263637	2510.494615
882.573602	2515.535769
882.883526	2455.041923
883.193408	2533.179808
883.503248	2490.330000
883.813048	2460.083077
884.122806	2457.562500
884.432522	2457.562500
884.742197	2439.918462
885.051831	2475.206538
885.361424	2565.947308
885.670975	2538.220962
885.980485	2492.850577
886.289954	2485.288846
886.599382	2523.097500
886.908768	2497.891731
887.218113	2523.097500
887.527417	2470.165385
887.836680	2523.097500
888.145901	2480.247692
888.455082	2462.603654
888.764221	2505.453462
889.073319	2434.877308
889.382376	2515.535769
889.691392	2450.000769
890.000366	2505.453462
890.309300	2452.521346
890.618193	2523.097500
890.927044	2533.179808
891.235855	2550.823846
891.544625	2477.727115
891.853353	2525.618077
892.162041	2465.124231
892.470687	2550.823846
892.779293	2500.412308
893.087858	2477.727115
893.396381	2573.509038
893.704864	2502.932885
894.013306	2530.659231
894.321707	2555.865000
894.630068	2553.344423
894.938387	2485.288846
895.246665	2505.453462
895.554903	2439.918462
895.863100	2492.850577
896.171256	2570.988462
896.479371	2422.274423
896.787446	2477.727115
897.095480	2480.247692
897.403473	2475.206538
897.711425	2439.918462
898.019336	2565.947308
898.327207	2573.509038
898.635038	2490.330000
898.942827	2482.768269
899.250576	2510.494615
899.558284	2462.603654
899.865952	2495.371154
900.173579	2434.877308
900.481165	2535.700385
900.788711	2480.247692
901.096216	2490.330000
901.403681	2548.303269
901.711105	2533.179808
902.018489	2447.480192
902.325832	2515.535769
902.633135	2510.494615
902.940397	2523.097500
903.247619	2455.041923
903.554800	2472.685962
903.861941	2487.809423
904.169041	2500.412308
904.476101	2560.906154
904.783121	2543.262115
905.090100	2530.659231
905.397039	2497.891731
905.703938	2480.247692
906.010796	2565.947308
906.317614	2515.535769
906.624391	2419.753846
906.931129	2442.439038
907.237826	2510.494615
907.544483	2533.179808
907.851099	2482.768269
908.157675	2515.535769
908.464211	2495.371154
908.770707	2450.000769
909.077163	2545.782692
909.383578	2525.618077
909.689954	2472.685962
909.996289	2518.056346
910.302584	2525.618077
910.608839	2513.015192
910.915054	2523.097500
911.221229	2465.124231
911.527363	2513.015192
911.833458	2477.727115
912.139513	2510.494615
912.445527	2525.618077
912.751502	2412.192115
913.057436	2565.947308
913.363331	2417.233269
913.669186	2500.412308
913.975000	2553.344423
914.280775	2535.700385
914.586510	2528.138654
914.892205	2482.768269
915.197859	2540.741538
915.503475	2586.111923
915.809050	2457.562500
916.114585	2497.891731
916.420081	2495.371154
916.725536	2455.041923
917.030952	2548.303269
917.336328	2507.974038
917.641665	2422.274423
917.946961	2538.220962
918.252218	2518.056346
918.557435	2543.262115
918.862612	2412.192115
919.167750	2470.165385
919.472848	2492.850577
919.777906	2523.097500
920.082925	2555.865000
920.387904	2525.618077
920.692843	2460.083077
920.997743	2515.535769
921.302603	2540.741538
921.607423	2507.974038
921.912204	2563.426731
922.216946	2495.371154
922.521647	2533.179808
922.826310	2450.000769
923.130932	2487.809423
923.435516	2465.124231
923.740059	2487.809423
924.044564	2525.618077
924.349028	2389.506923
924.653454	2497.891731
924.957840	2497.891731
925.262186	2507.974038
925.566493	2452.521346
925.870761	2581.070769
926.174989	2457.562500
926.479178	2528.138654
926.783328	2452.521346
927.087438	2470.165385
927.391509	2545.782692
927.695541	2477.727115
927.999533	2523.097500
928.303486	2409.671538
928.607400	2500.412308
928.911275	2462.603654
929.215110	2482.768269
929.518906	2555.865000
929.822663	2465.124231
930.126381	2540.741538
930.430060	2429.836154
930.733699	2495.371154
931.037299	2442.439038
931.340861	2548.303269
931.644383	2424.795000
931.947866	2520.576923
932.251309	2553.344423
932.554714	2490.330000
932.858080	2538.220962
933.161407	2412.192115
933.464694	2535.700385
933.767943	2419.753846
934.071153	2485.288846
934.374323	2472.685962
934.677455	2384.465769
934.980548	2462.603654
935.283602	2460.083077
935.586617	2487.809423
935.889593	2495.371154
936.192530	2563.426731
936.495428	2399.589231
936.798287	2576.029615
937.101108	2452.521346
937.403890	2467.644808
937.706632	2485.288846
938.009336	2560.906154
938.312002	2578.550192
938.614628	2535.700385
938.917216	2563.426731
939.219765	2492.850577
939.522275	2500.412308
939.824747	2538.220962
940.127179	2492.850577
940.429573	2470.165385
940.731929	2530.659231
941.034246	2480.247692
941.336524	2533.179808
941.638763	2530.659231
941.940964	2495.371154
942.243126	2434.877308
942.545250	2530.659231
942.847335	2414.712692
943.149381	2510.494615
943.451389	2487.809423
943.753359	2477.727115
944.055290	2560.906154
944.357182	2497.891731
944.659036	2465.124231
944.960851	2568.467885
945.262628	2518.056346
945.564367	2495.371154
945.866067	2502.932885
946.167729	2452.521346
946.469352	2523.097500
946.770937	2487.809423
947.072484	2578.550192
947.373992	2530.659231
947.675462	2434.877308
947.976893	2505.453462
948.278286	2427.315577
948.579641	2513.015192
948.880958	2570.988462
949.182236	2467.644808
949.483476	2598.714808
949.784678	2513.015192
950.085841	2550.823846
950.386967	2465.124231
950.688054	2477.727115
950.989103	2518.056346
951.290114	2404.630385
951.591087	2460.083077
951.892021	2518.056346
952.192917	2548.303269
952.493776	2533.179808
952.794596	2543.262115
953.095378	2470.165385
953.396122	2523.097500
953.696828	2472.685962
953.997496	2475.206538
954.298126	2515.535769
954.598718	2455.041923
954.899272	2419.753846
955.199788	2480.247692
955.500266	2432.356731
955.800706	2437.397885
956.101108	2553.344423
956.401472	2455.041923
956.701798	2389.506923
957.002087	2414.712692
957.302337	2472.685962
957.602550	2470.165385
957.902724	2497.891731
958.202861	2450.000769
958.502960	2578.550192
958.803022	2505.453462
959.103045	2485.288846
959.403031	2462.603654
959.702979	2520.576923
960.002889	2507.974038
960.302762	2497.891731
960.602596	2482.768269
960.902393	2480.247692
961.202153	2490.330000
961.501875	2482.768269
961.801559	2553.344423
962.101205	2510.494615
962.400814	2470.165385
962.700385	2465.124231
962.999918	2530.659231
963.299414	2450.000769
963.598873	2520.576923
963.898293	2450.000769
964.197677	2538.220962
964.497022	2495.371154
964.796331	2414.712692
965.095601	2510.494615
965.394835	2495.371154
965.694030	2523.097500
965.993189	2502.932885
966.292309	2523.097500
966.591393	2485.288846
966.890439	2422.274423
967.189447	2465.124231
967.488419	2439.918462
967.787353	2490.330000
968.086249	2518.056346
968.385108	2495.371154
968.683930	2487.809423
968.982714	2424.795000
969.281462	2510.494615
969.580172	2548.303269
969.878844	2477.727115
970.177480	2513.015192
970.476078	2518.056346
970.774639	2429.836154
971.073162	2412.192115
971.371649	2533.179808
971.670098	2500.412308
971.968510	2457.562500
972.266885	2480.247692
972.565223	2404.630385
972.863524	2429.836154
973.161788	2500.412308
973.460014	2497.891731
973.758204	2520.576923
974.056356	2502.932885
974.354471	2475.206538
974.652550	2475.206538
974.950591	2603.755962
975.248595	2560.906154
975.546563	2565.947308
975.844493	2422.274423
976.142386	2477.727115
976.440243	2444.959615
976.738062	2505.453462
977.035845	2518.056346
977.333590	2520.576923
977.631299	2397.068654
977.928971	2533.179808
978.226606	2447.480192
978.524204	2543.262115
978.821765	2535.700385
979.119290	2432.356731
979.416777	2439.918462
979.714228	2518.056346
980.011642	2485.288846
980.309020	2538.220962
980.606360	2555.865000
980.903664	2535.700385
981.200931	2402.109808
981.498162	2497.891731
981.795356	2472.685962
982.092513	2518.056346
982.389633	2507.974038
982.686717	2470.165385
982.983764	2497.891731
983.280775	2490.330000
983.577749	2507.974038
983.874686	2553.344423
984.171587	2465.124231
984.468451	2492.850577
984.765279	2460.083077
985.062070	2563.426731
985.358824	2399.589231
985.655543	2563.426731
985.952224	2475.206538
986.248869	2444.959615
986.545478	2540.741538
986.842050	2530.659231
987.138586	2465.124231
987.435086	2538.220962
987.731549	2442.439038
988.027975	2424.795000
988.324366	2439.918462
988.620719	2452.521346
988.917037	2457.562500
989.213318	2384.465769
989.509563	2538.220962
989.805772	2550.823846
990.101944	2490.330000
990.398080	2422.274423
990.694180	2432.356731
990.990244	2452.521346
991.286271	2495.371154
991.582262	2560.906154
991.878217	2485.288846
992.174136	2465.124231
992.470019	2490.330000
992.765865	2523.097500
993.061676	2505.453462
993.357450	2513.015192
993.653188	2437.397885
993.948890	2510.494615
994.244556	2485.288846
994.540186	2518.056346
994.835780	2581.070769
995.131337	2507.974038
995.426859	2495.371154
995.722345	2482.768269
996.017795	2492.850577
996.313208	2520.576923
996.608586	2432.356731
996.903928	2452.521346
997.199234	2505.453462
997.494504	2545.782692
997.789738	2460.083077
998.084936	2414.712692
998.380099	2409.671538
998.675225	2417.233269
998.970316	2457.562500
999.265371	2500.412308
999.560390	2467.644808
999.855373	2495.371154
1000.150320	2462.603654
1000.445232	2613.838269
1000.740108	2530.659231
1001.034948	2538.220962
1001.329752	2467.644808
1001.624521	2475.206538
1001.919254	2505.453462
1002.213951	2424.795000
1002.508613	2452.521346
1002.803239	2502.932885
1003.097829	2548.303269
1003.392384	2427.315577
1003.686903	2482.768269
1003.981386	2439.918462
1004.275834	2465.124231
1004.570246	2497.891731
1004.864623	2462.603654
1005.158964	2510.494615
1005.453270	2444.959615
1005.747540	2558.385577
1006.041775	2538.220962
1006.335974	2444.959615
1006.630138	2475.206538
1006.924266	2452.521346
1007.218359	2492.850577
1007.512416	2513.015192
1007.806438	2472.685962
1008.100425	2543.262115
1008.394376	2455.041923
1008.688292	2555.865000
1008.982172	2490.330000
1009.276017	2540.741538
1009.569827	2495.371154
1009.863602	2452.521346
1010.157341	2497.891731
1010.451045	2399.589231
1010.744714	2545.782692
1011.038347	2462.603654
1011.331945	2495.371154
1011.625508	2543.262115
1011.919036	2505.453462
1012.212528	2452.521346
1012.505986	2500.412308
1012.799408	2477.727115
1013.092795	2555.865000
1013.386147	2472.685962
1013.679464	2490.330000
1013.972745	2601.235385
1014.265992	2487.809423
1014.559204	2518.056346
1014.852380	2379.424615
1015.145521	2450.000769
1015.438628	2535.700385
1015.731699	2482.768269
1016.024736	2457.562500
1016.317737	2505.453462
1016.610703	2369.342308
1016.903635	2583.591346
1017.196531	2560.906154
1017.489393	2452.521346
1017.782219	2492.850577
1018.075011	2530.659231
1018.367768	2500.412308
1018.660490	2560.906154
1018.953177	2560.906154
1019.245829	2560.906154
