Dividing Wavelength (nm)	Counts (n)	Blue Motor Position (mm): 29.900000	Red Motor Position (mm): 0.000000	
326.493990	2131.291461
326.888308	2131.291461
327.282561	2131.291461
327.676750	2098.846595
328.070874	2098.322315
328.464933	2099.141503
328.858929	2106.171392
329.252859	2117.544235
329.646726	2128.604526
330.040528	2138.674231
330.434265	2157.238280
330.827938	2175.900632
331.221547	2194.046265
331.615091	2210.898842
332.008571	2230.760988
332.401986	2250.865110
332.795338	2269.892945
333.188625	2289.182920
333.581847	2306.259829
333.975006	2324.881851
334.368100	2346.952023
334.761129	2363.068592
335.154095	2381.373021
335.546996	2399.354817
335.939833	2425.160484
336.332606	2439.212700
336.725315	2452.032354
337.117960	2458.984105
337.510540	2467.599437
337.903056	2481.402117
338.295508	2487.867396
338.687896	2496.321411
339.080220	2504.046980
339.472480	2513.146262
339.864676	2516.549041
340.256807	2518.996521
340.648875	2521.093641
341.040879	2526.006246
341.432818	2524.929959
341.824694	2527.437933
342.216506	2528.690660
342.608253	2529.792152
342.999937	2529.804755
343.391557	2526.308715
343.783113	2526.197810
344.174605	2526.701925
344.566033	2526.258303
344.957397	2522.797551
345.348697	2523.064732
345.739934	2519.349402
346.131106	2520.178672
346.522215	2515.515605
346.913260	2512.362363
347.304241	2511.868330
347.695159	2510.071158
348.086012	2507.427073
348.476802	2508.042094
348.867528	2506.328102
349.258191	2505.264418
349.648789	2504.873729
350.039324	2501.334839
350.429796	2501.327277
350.820203	2497.823675
351.210548	2496.865856
351.600828	2497.727893
351.991045	2497.425424
352.381198	2497.009529
352.771288	2493.972234
353.161314	2496.233191
353.551276	2497.243942
353.941175	2496.472646
354.331010	2496.286123
354.720782	2495.010711
355.110490	2496.437358
355.500135	2492.971565
355.889717	2494.511637
356.279235	2494.877121
356.668689	2495.734117
357.058080	2495.320742
357.447408	2494.380567
357.836672	2493.263952
358.225873	2493.316884
358.615010	2493.110196
359.004084	2498.168994
359.393095	2497.556494
359.782043	2498.917606
360.170927	2497.533809
360.559748	2498.768892
360.948505	2500.177894
361.337199	2502.811897
361.725830	2499.325939
362.114398	2503.807525
362.502903	2503.189983
362.891344	2505.294665
363.279722	2503.593276
363.668037	2503.623523
364.056289	2505.975221
364.444478	2503.421877
364.832603	2506.081085
365.220665	2505.458503
365.608665	2504.538492
365.996601	2507.452279
366.384474	2508.321878
366.772284	2506.680983
367.160031	2506.738956
367.547715	2505.695437
367.935336	2506.345746
368.322893	2508.412619
368.710388	2510.787002
369.097820	2509.866992
369.485189	2509.688031
369.872495	2509.032681
370.259738	2508.606703
370.646918	2509.809018
371.034035	2510.156858
371.421090	2511.926303
371.808081	2511.344050
372.195010	2512.022085
372.581875	2509.572084
372.968678	2513.967970
373.355418	2512.775737
373.742096	2511.596107
374.128710	2511.046622
374.515262	2512.455624
374.901751	2513.317662
375.288177	2513.131139
375.674540	2511.807836
376.060841	2512.339678
376.447079	2513.915038
376.833254	2512.909328
377.219367	2509.390603
377.605417	2511.137362
377.991404	2508.447907
378.377329	2511.926303
378.763191	2508.165602
379.148991	2516.291942
379.534727	2512.753052
379.920402	2516.077693
380.306013	2515.286232
380.691563	2514.124246
381.077049	2517.557272
381.462474	2516.380163
381.847835	2517.403517
382.233134	2516.208763
382.618371	2517.216994
383.003545	2516.385204
383.388657	2519.016686
383.773706	2517.766480
384.158693	2517.771521
384.543618	2515.923938
384.928480	2519.908970
385.313280	2519.273785
385.698017	2520.355112
386.082692	2519.820750
386.467305	2518.499968
386.851856	2521.151615
387.236344	2516.566685
387.620770	2521.781759
388.005133	2520.239166
388.389435	2523.074815
388.773674	2521.133971
389.157851	2518.550379
389.541965	2519.873682
389.926018	2522.174969
390.310008	2522.379136
390.693936	2522.671522
391.077802	2518.827643
391.461606	2523.974661
391.845348	2523.163035
392.229027	2522.603467
392.612645	2521.075997
392.996200	2525.257634
393.379694	2522.870648
393.763125	2527.034641
394.146494	2523.818385
394.529801	2527.309384
394.913047	2526.785104
395.296230	2527.669827
395.679351	2525.081194
396.062410	2525.199661
396.445408	2527.281658
396.828343	2524.377953
397.211217	2520.710514
397.594028	2525.330731
397.976778	2522.487520
398.359466	2527.606812
398.742092	2524.027593
399.124656	2526.409538
399.507158	2528.057995
399.889598	2526.785104
400.271977	2529.043541
400.654294	2531.319622
401.036549	2526.984230
401.418742	2530.681916
401.800874	2529.530012
402.182944	2528.894827
402.564952	2529.996319
402.946898	2529.361134
403.328783	2527.591689
403.710606	2531.349869
404.092367	2533.744417
404.474067	2530.686957
404.855705	2531.894313
405.237282	2531.518748
405.618797	2530.107224
406.000250	2535.523944
406.381642	2531.586803
406.762972	2533.043697
407.144240	2532.179139
407.525447	2535.130734
407.906593	2531.982534
408.287677	2534.006557
408.668700	2535.471012
409.049661	2536.133924
409.430560	2533.212575
409.811399	2534.944212
410.192176	2535.508821
410.572891	2535.176105
410.953545	2533.562935
411.334138	2533.010929
411.714669	2535.667617
412.095139	2535.869263
412.475547	2537.875643
412.855894	2536.310364
413.236180	2537.116949
413.616405	2539.241795
413.996568	2536.295241
414.376670	2537.454706
414.756711	2537.285828
415.136691	2540.623071
415.516609	2536.272556
415.896466	2538.316743
416.276262	2539.282124
416.655997	2536.060827
417.035670	2536.711136
417.415283	2538.450334
417.794834	2536.917823
418.174324	2538.909079
418.553753	2540.741538
418.933121	2543.743546
419.312428	2541.306148
419.691674	2542.493339
420.070859	2543.052908
420.449983	2545.538196
420.829045	2545.308824
421.208047	2546.692621
421.586988	2545.336550
421.965867	2548.343598
422.344686	2548.832590
422.723444	2547.219421
423.102141	2548.772097
423.480777	2551.249824
423.859352	2553.447767
424.237866	2557.440361
424.616319	2557.674774
424.994712	2562.796587
425.373044	2565.203737
425.751314	2571.976528
426.129524	2570.650704
426.507673	2583.147725
426.885762	2589.764239
427.263789	2596.138778
427.641756	2597.336052
428.019662	2610.574122
428.397508	2616.595780
428.775292	2626.731020
429.153016	2640.029584
429.530679	2647.069555
429.908282	2659.092707
430.285824	2665.242915
430.663305	2686.352747
431.040726	2693.496062
431.418086	2702.174408
431.795385	2726.404714
432.172624	2738.286714
432.549802	2756.616349
432.926920	2771.986827
433.303977	2791.854014
433.680974	2809.576191
434.057910	2834.756754
434.434786	2854.996987
434.811601	2873.137579
435.188355	2917.217428
435.565050	2928.597833
435.941683	2953.100361
436.318257	3004.809997
436.694770	3027.837988
437.071222	3066.281827
437.447614	3082.166503
437.823946	3100.314657
438.200218	3154.267606
438.576429	3167.677075
438.952580	3223.825446
439.328670	3267.940584
439.704700	3285.012451
440.080670	3312.905155
440.456580	3418.356012
440.832429	3432.473763
441.208218	3436.463836
441.583947	3512.948222
441.959616	3556.723082
442.335224	3580.290476
442.710773	3663.746778
443.086261	3721.906570
443.461689	3697.593085
443.837057	3794.088331
444.212365	3899.266965
444.587612	3908.136875
444.962800	4013.348277
445.337927	4060.117581
445.712995	3955.974905
446.088002	4241.238677
446.462949	4221.852920
446.837837	4250.582456
447.212664	4369.241135
447.587431	4504.548225
447.962139	4829.382535
448.336786	5348.802863
448.711374	5280.959014
449.085901	4869.847877
449.460369	4892.772524
449.834776	4913.153909
450.209124	5191.425601
450.583412	5351.802349
450.957640	5476.762471
451.331808	5412.147481
451.705917	5186.817987
452.079965	5190.702196
452.453954	5387.377772
452.827883	5354.325447
453.201752	5473.236183
453.575562	5384.635384
453.949311	5580.504376
454.323001	5541.609353
454.696632	5644.680785
455.070202	5795.842303
455.443713	5953.075892
455.817164	6080.027269
456.190556	6190.642787
456.563888	6298.432739
456.937160	6375.196909
457.310373	6152.466129
457.683526	6216.703032
458.056619	6169.321227
458.429653	6201.408171
458.802628	6187.550039
459.175542	6305.598739
459.548398	6647.366285
459.921194	6815.254352
460.293930	6841.370049
460.666607	7329.366344
461.039224	7631.202910
461.411782	7784.159080
461.784280	7845.517484
462.156719	7787.203937
462.529099	7720.169193
462.901419	7376.375104
463.273680	7308.629558
463.645882	7353.503389
464.018024	7265.817559
464.390106	7433.153620
464.762130	7819.174934
465.134094	8275.502701
465.505999	9245.355166
465.877845	10412.949411
466.249631	11063.780017
466.621358	10739.711963
466.993026	10181.835193
467.364634	9959.086769
467.736184	9632.094845
468.107674	9331.306839
468.479105	9376.321822
468.850477	9156.915684
469.221790	8955.536711
469.593043	8647.224783
469.964238	8521.281636
470.335373	8541.007671
470.706449	8607.949153
471.077467	8603.286086
471.448425	9899.613756
471.819324	10954.283635
472.190164	10979.622995
472.560945	9752.094471
472.931667	8986.698603
473.302330	8859.023821
473.672934	8518.604784
474.043479	8875.682313
474.413965	8822.392276
474.784393	8704.572949
475.154761	8867.820634
475.525070	8956.376063
475.895321	8780.626317
476.265513	8965.404770
476.635645	9132.743351
477.005719	9133.134040
477.375734	9250.787009
477.745691	9481.876022
478.115588	9621.016910
478.485427	9861.111944
478.855207	10392.651205
479.224928	11204.559279
479.594591	11825.079947
479.964194	11639.333593
480.333739	11583.908627
480.703226	11497.606593
481.072653	11595.835997
481.442022	11831.933396
481.811333	12020.822910
482.180584	11822.206490
482.549777	11538.734847
482.918912	11359.005110
483.287988	11382.897658
483.657005	11400.927345
484.025964	11079.783160
484.394864	11210.051616
484.763706	11181.725373
485.132489	10940.170925
485.501213	10907.557180
485.869879	10975.920267
486.238487	10825.701444
486.607036	10934.330748
486.975527	10723.139169
487.343959	10911.834599
487.712333	10956.181629
488.080648	10889.567822
488.448905	10935.717065
488.817104	10873.279854
489.185244	11135.659309
489.553326	11295.128649
489.921350	11833.559168
490.289315	12887.369530
490.657222	13222.699522
491.025070	13124.371816
491.392861	13000.321623
491.760593	12631.399902
492.128267	12278.836726
492.495883	11949.142743
492.863440	11621.142589
493.230939	11279.483428
493.598380	11222.183153
493.965763	11089.777247
494.333088	10987.406536
494.700354	10901.606098
495.067563	10967.118413
495.434713	10802.638165
495.801805	10933.589698
496.168839	10851.733963
496.535815	10789.115270
496.902733	10791.739191
497.269593	10728.838194
497.636395	10821.691206
498.003139	10805.677981
498.369825	10679.765082
498.736453	10832.204533
499.103023	10767.007290
499.469535	10796.689604
499.835989	10777.752509
500.202385	10746.457026
500.568723	10596.865827
500.935003	10828.635396
501.301226	10628.461259
501.667390	10882.127079
502.033497	10982.337656
502.399546	10843.418579
502.765537	10751.929199
503.131470	10819.210959
503.497345	10998.446663
503.863163	10609.498959
504.228923	10913.722511
504.594625	10985.090126
504.960269	10729.488503
505.325856	10953.295569
505.691385	10744.322098
506.056856	10898.818340
506.422270	10927.247927
506.787625	10814.563015
507.152924	10932.861252
507.518164	10906.294371
507.883347	10831.723103
508.248472	10752.521534
508.613540	10993.201342
508.978550	10869.733403
509.343503	10845.465288
509.708398	10967.365429
510.073236	11077.897768
510.438016	11090.157854
510.802738	11030.054698
511.167403	11077.829713
511.532010	10986.940229
511.896561	11216.065713
512.261053	11280.499221
512.625488	11158.077320
512.989866	11129.042795
513.354186	11125.443411
513.718449	11016.350321
514.082655	11214.180321
514.446803	11109.029414
514.810894	11233.523229
515.174927	11103.408527
515.538904	11123.076589
515.902822	11279.490990
516.266684	11162.886581
516.630488	11101.888619
516.994235	11157.807618
517.357925	11222.566281
517.721558	11308.437295
518.085133	11327.689462
518.448651	11336.415699
518.812112	11220.007895
519.175516	11236.492468
519.538863	11351.045128
519.902152	11270.641244
520.265385	11431.209556
520.628560	11341.890392
520.991678	11317.428193
521.354739	11389.635160
521.717743	11314.733697
522.080690	11293.260902
522.443580	11434.844228
522.806413	11390.759338
523.169189	11419.904769
523.531908	11471.768159
523.894569	11296.204936
524.257174	11303.136522
524.619722	11417.195148
524.982213	11367.670853
525.344647	11418.740262
525.707025	11364.225224
526.069345	11463.573764
526.431608	11378.988243
526.793815	11485.580921
527.155964	11271.891451
527.518057	11329.579895
527.880093	11277.706422
528.242072	11346.278717
528.603995	11244.550753
528.965860	11173.606595
529.327669	11222.021836
529.689421	11176.626246
530.051117	11134.996397
530.412755	11249.239026
530.774337	11132.858948
531.135862	11120.976948
531.497331	11140.125771
531.858743	10999.149904
532.220098	11165.812971
532.581396	11034.624504
532.942638	11017.111535
533.303824	10979.103756
533.664953	10985.866464
534.026025	10911.748899
534.387040	11010.996616
534.747999	11008.544094
535.108902	11062.991076
535.469748	10824.143728
535.830537	10930.181878
536.191270	10906.395194
536.551947	10925.753225
536.912567	10924.402195
537.273131	10854.927534
537.633638	10836.902888
537.994089	10820.292286
538.354483	10771.544328
538.714821	10916.225444
539.075103	10924.195508
539.435328	10886.601103
539.795497	10718.897038
540.155609	10870.734072
540.515665	10954.981835
540.875665	10700.786693
541.235609	10769.240521
541.595496	10759.001938
541.955328	10917.095043
542.315102	10797.654985
542.674821	10753.796946
543.034483	10750.580690
543.394090	10755.470609
543.753640	10683.598879
544.113134	10911.595144
544.472571	10758.034036
544.831953	10904.224977
545.191278	10707.282220
545.550548	10733.967568
545.909761	10872.564010
546.268918	10846.528971
546.628019	10923.257853
546.987064	10791.587956
547.346053	10710.755575
547.704986	10817.577625
548.063863	10796.397217
548.422684	10794.151383
548.781449	10717.193128
549.140158	10814.807511
549.498811	10689.151710
549.857408	10550.875381
550.215949	10773.170101
550.574434	10629.411516
550.932864	10728.961702
551.291237	10787.146700
551.649555	10737.380429
552.007817	10742.411500
552.366022	10704.242404
552.724173	10698.795437
553.082267	10687.568788
553.440305	10818.048973
553.798288	10624.183840
554.156215	10776.837540
554.514086	10750.578170
554.871902	10606.723803
555.229661	10638.997270
555.587365	10614.303178
555.945014	10511.874494
556.302606	10635.407969
556.660143	10524.275732
557.017625	10683.596358
557.375050	10577.462426
557.732421	10712.628363
558.089735	10628.267174
558.446994	10627.349684
558.804197	10661.296814
559.161345	10669.523977
559.518437	10513.172591
559.875474	10608.679771
560.232455	10639.493824
560.589381	10583.393343
560.946251	10579.909906
561.303065	10685.126349
561.659825	10621.728798
562.016528	10552.168437
562.373177	10435.768194
562.729770	10552.710361
563.086307	10468.273554
563.442789	10555.321678
563.799216	10434.170148
564.155587	10484.289300
564.511904	10433.592936
564.868164	10432.526732
565.224370	10447.380492
565.580520	10367.944510
565.936615	10376.990861
566.292654	10244.859698
566.648638	10374.979441
567.004567	10334.728348
567.360441	10317.820318
567.716260	10229.708510
568.072023	10325.956740
568.427732	10273.546384
568.783385	10179.077682
569.138982	10256.671122
569.494525	10264.734447
569.850013	10147.807404
570.205445	10229.481658
570.560823	10120.620462
570.916145	10035.863542
571.271412	10109.124110
571.626625	10050.545903
571.981782	10035.309015
572.336884	10001.871042
572.691931	10008.419500
573.046923	9959.800092
573.401860	9910.154809
573.756743	9846.454789
574.111570	9891.779803
574.466342	9873.949242
574.821059	9904.105424
575.175722	9797.391759
575.530330	9805.331577
575.884882	9796.716245
576.239380	9720.284791
576.593823	9706.371206
576.948211	9724.804185
577.302544	9599.854146
577.656823	9615.441393
578.011047	9614.082802
578.365216	9590.328886
578.719330	9516.160910
579.073389	9528.859576
579.427394	9473.419487
579.781344	9454.028688
580.135239	9403.181090
580.489080	9414.543851
580.842866	9311.220362
581.196597	9319.215632
581.550273	9360.669040
581.903895	9321.779058
582.257463	9390.283298
582.610975	9268.841902
582.964434	9295.013052
583.317837	9220.439263
583.671186	9194.991519
584.024481	9194.966313
584.377721	9117.030074
584.730906	9098.531560
585.084037	9120.543759
585.437113	9060.977485
585.790135	9075.606913
586.143103	8977.264084
586.496016	8948.118653
586.848874	9004.743414
587.201679	9001.932970
587.554428	8887.438284
587.907124	8931.419831
588.259765	8899.748782
588.612352	8904.888238
588.964884	8782.431050
589.317362	8798.507289
589.669786	8788.795506
590.022155	8850.504271
590.374470	8859.931228
590.726731	8797.294892
591.078937	8647.401223
591.431090	8759.017411
591.783188	8626.866083
592.135232	8630.435220
592.487222	8625.930949
592.839157	8684.738529
593.191038	8612.987787
593.542866	8564.035662
593.894639	8460.392060
594.246358	8509.727312
594.598022	8527.782204
594.949633	8423.846215
595.301190	8398.128768
595.652692	8427.327132
596.004141	8538.550109
596.355535	8320.709248
596.706876	8297.686299
597.058162	8232.657935
597.409395	8305.976476
597.760573	8372.265129
598.111698	8281.383207
598.462768	8265.243953
598.813785	8232.652893
599.164748	8198.564611
599.515657	8187.194289
599.866511	8101.671114
600.217312	8228.987975
600.568060	8082.728978
600.918753	8183.935183
601.269392	8159.621698
601.619978	8066.814055
601.970510	8130.793859
602.320988	8127.552397
602.671412	8184.895522
603.021783	8121.129967
603.372100	8095.321780
603.722363	8097.381092
604.072572	8076.914007
604.422728	8080.170592
604.772830	8014.950665
605.122878	8023.119854
605.472872	8017.309925
605.822813	8046.379738
606.172701	7991.262283
606.522534	8071.565343
606.872314	8065.198366
607.222041	8038.031587
607.571714	8093.272551
607.921333	8046.427629
608.270899	8055.393321
608.620411	8146.008062
608.969870	8051.630100
609.319276	8037.706433
609.668627	8056.638486
610.017926	8092.103004
610.367171	8137.468347
610.716362	8112.169317
611.065500	8112.922969
611.414585	8132.273438
611.763616	8120.270451
612.112594	8103.974921
612.461518	8119.557127
612.810389	8183.431067
613.159207	8124.865462
613.507971	8069.553922
613.856682	8195.895320
614.205340	8141.269377
614.553945	8223.442705
614.902496	8123.776573
615.250994	8173.126949
615.599439	8157.804362
615.947830	8168.549581
616.296169	8141.770972
616.644454	8151.500399
616.992686	8155.808065
617.340864	8205.274387
617.688990	8111.904656
618.037063	8207.721867
618.385082	8155.263620
618.733048	8239.443328
619.080961	8171.612082
619.428821	8191.582613
619.776628	8203.429325
620.124382	8151.886047
620.472083	8135.081361
620.819731	8159.747727
621.167326	8056.000780
621.514868	8069.241371
621.862357	7953.357847
622.209793	7969.124056
622.557176	7905.260198
622.904506	7875.988738
623.251783	7809.440466
623.599007	7764.231399
623.946179	7768.019826
624.293297	7726.553815
624.640363	7638.056359
624.987376	7630.421532
625.334336	7574.885660
625.681243	7522.550922
626.028097	7510.101792
626.374899	7490.920202
626.721647	7475.048129
627.068343	7412.580671
627.414987	7385.865076
627.761577	7341.946544
628.108115	7380.944910
628.454600	7266.364524
628.801032	7320.826630
629.147412	7281.329189
629.493739	7276.930783
629.840014	7209.018879
630.186236	7268.232272
630.532405	7150.586864
630.878521	7199.629730
631.224585	7158.072978
631.570597	7081.830567
631.916556	7114.635876
632.262462	7107.865606
632.608316	7072.471665
632.954117	7047.281019
633.299866	7035.925820
633.645562	7027.774274
633.991206	6953.848274
634.336797	6893.167905
634.682336	6847.923549
635.027823	6815.002294
635.373257	6804.272198
635.718639	6739.445480
636.063968	6752.081132
636.409245	6649.198744
636.754470	6646.385780
637.099642	6605.549913
637.444762	6548.610081
637.789829	6559.831689
638.134845	6504.946127
638.479808	6486.213199
638.824719	6486.734958
639.169577	6416.799031
639.514383	6441.727537
639.859137	6367.166351
640.203839	6374.193719
640.548489	6363.105702
640.893086	6342.172310
641.237632	6314.456046
641.582125	6333.766186
641.926566	6301.777544
642.270955	6312.938659
642.615292	6313.180634
642.959576	6325.866698
643.303809	6313.941849
643.647990	6322.950391
643.992118	6310.876827
644.336195	6261.183653
644.680219	6286.086953
645.024192	6276.208812
645.368112	6375.075921
645.711981	6390.557305
646.055797	6469.753832
646.399562	6427.824035
646.743274	6554.127624
647.086935	6606.948834
647.430544	6600.869202
647.774101	6619.960052
648.117606	6627.988089
648.461059	6616.232118
648.804460	6583.883034
649.147810	6485.283106
649.491108	6461.009950
649.834354	6436.368790
650.177548	6349.890317
650.520690	6264.659529
650.863781	6246.498772
651.206820	6262.554847
651.549807	6185.674730
651.892742	6132.162882
652.235626	6130.947964
652.578458	6123.227437
652.921238	6026.112129
653.263967	6067.444549
653.606644	6008.102607
653.949269	6008.936918
654.291843	5955.891376
654.634365	6001.357543
654.976836	5953.443896
655.319255	5956.708043
655.661622	5935.880516
656.003938	5931.766934
656.346203	5890.358897
656.688416	5921.848464
657.030577	5873.206371
657.372687	5843.624880
657.714746	5830.359084
658.056753	5875.769798
658.398708	5814.487011
658.740612	5807.240352
659.082465	5854.604513
659.424266	5846.889027
659.766016	5846.405076
660.107715	5818.945911
660.449362	5836.209343
660.790958	5825.522097
661.132503	5815.575900
661.473996	5858.576942
661.815438	5839.917111
662.156829	5841.905847
662.498168	5834.767573
662.839456	5810.348223
663.180693	5840.431309
663.521879	5843.110682
663.863013	5829.275236
664.204097	5849.344069
664.545129	5889.925358
664.886110	5885.917640
665.227040	5923.348208
665.567918	5884.894286
665.908746	5912.416465
666.249522	5913.434778
666.590248	5904.060753
666.930922	5932.361791
667.271545	5946.756805
667.612118	5951.311488
667.952639	5917.465181
668.293109	5936.384631
668.633528	5901.938427
668.973896	5901.542697
669.314213	5896.685545
669.654480	5878.171907
669.994695	5869.284353
670.334859	5862.148600
670.674973	5847.408266
671.015035	5853.984451
671.355047	5856.709195
671.695008	5839.627245
672.034918	5815.205375
672.374777	5827.588970
672.714585	5810.822092
673.054342	5816.700077
673.394049	5809.276978
673.733705	5842.180589
674.073310	5827.200801
674.412864	5784.897958
674.752368	5781.059120
675.091820	5779.556856
675.431223	5720.156940
675.770574	5718.596703
676.109875	5670.461245
676.449125	5674.683212
676.788324	5645.270600
677.127473	5586.382361
677.466571	5580.481690
677.805619	5567.536007
678.144616	5554.607968
678.483562	5532.217683
678.822458	5501.950596
679.161303	5499.593856
679.500098	5486.431404
679.838842	5470.425740
680.177535	5475.378674
680.516179	5490.615561
680.854771	5506.439743
681.193314	5582.712401
681.531805	5691.477816
681.870247	5844.668399
682.208638	5940.629283
682.546978	5957.489422
682.885268	5934.917656
683.223508	5845.653944
683.561697	5796.132170
683.899836	5765.161841
684.237925	5721.243309
684.575963	5684.160581
684.913951	5647.652545
685.251889	5706.747471
685.589776	5672.563407
685.927614	5643.783459
686.265401	5714.893975
686.603137	5697.018044
686.940824	5776.015445
687.278460	5798.836749
687.616046	5812.251259
687.953582	5871.230238
688.291068	5861.198342
688.628504	5925.067241
688.965889	5882.519903
689.303224	5828.836655
689.640510	5782.016939
689.977745	5707.443150
690.314930	5603.532366
690.652065	5550.980858
690.989150	5458.042146
691.326185	5387.516403
691.663170	5327.622455
692.000105	5252.854581
692.336990	5177.199465
692.673825	5151.164426
693.010610	5085.155558
693.347345	5015.627964
693.684030	5001.822764
694.020665	4958.403306
694.357251	4869.187486
694.693786	4883.806832
695.030272	4846.562787
695.366707	4812.731604
695.703093	4779.863281
696.039429	4799.964882
696.375716	4782.797232
696.711952	4755.731277
697.048139	4744.872632
697.384276	4724.445876
697.720363	4737.283175
698.056400	4748.444289
698.392388	4694.277091
698.728326	4676.469215
699.064214	4652.193539
699.400053	4653.224455
699.735842	4615.136017
700.071581	4588.884208
700.407270	4567.723965
700.742910	4549.361562
701.078501	4492.482223
701.414042	4490.223786
701.749533	4461.774035
702.084974	4395.661823
702.420366	4454.093837
702.755709	4397.005290
703.091002	4339.702494
703.426246	4391.341554
703.761440	4345.661138
704.096584	4306.914830
704.431679	4329.869724
704.766725	4311.633350
705.101721	4298.770846
705.436668	4330.031041
705.771565	4277.718987
706.106413	4303.247390
706.441212	4342.192824
706.775961	4349.797405
707.110661	4327.137418
707.445311	4354.742777
707.779913	4378.063154
708.114465	4392.793406
708.448967	4414.457765
708.783421	4476.506807
709.117825	4516.165564
709.452180	4519.066748
709.786485	4566.488882
710.120742	4653.347963
710.454949	4636.034120
710.789107	4700.583575
711.123216	4779.654073
711.457275	4771.648720
711.791286	4845.461295
712.125247	4856.390517
712.459159	4762.365436
712.793023	4832.777752
713.126837	4794.195281
713.460602	4791.374755
713.794318	4708.576324
714.127985	4714.739135
714.461602	4632.356598
714.795171	4601.774439
715.128691	4533.797000
715.462162	4477.951097
715.795584	4430.496196
716.128957	4413.792332
716.462281	4359.468858
716.795556	4335.044468
717.128782	4291.642654
717.461960	4227.715782
717.795088	4239.244901
718.128167	4199.659240
718.461198	4139.911485
718.794180	4132.861431
719.127113	4115.648412
719.459997	4093.089248
719.792833	4048.487639
720.125619	4039.935322
720.458357	4006.146988
720.791046	4011.984644
721.123686	3984.263339
721.456278	3943.445117
721.788821	3955.284267
722.121315	3934.393725
722.453761	3904.635794
722.786158	3919.723967
723.118506	3943.583748
723.450805	3891.528794
723.783056	3916.890839
724.115259	3934.320628
724.447412	3936.851287
724.779518	3927.202519
725.111574	3936.740382
725.443582	3964.582675
725.775542	3953.950881
726.107453	4002.161956
726.439315	4001.299919
726.771129	4014.190149
727.102895	4052.563412
727.434612	4101.200465
727.766281	4109.737659
728.097901	4110.642546
728.429473	4117.344760
728.760996	4123.341212
729.092471	4119.386427
729.423897	4104.696505
729.755276	4108.008543
730.086606	4107.426290
730.417887	4146.712002
730.749120	4211.889080
731.080305	4279.581693
731.411442	4301.629180
731.742530	4274.860653
732.073570	4276.972896
732.404562	4333.380887
732.735506	4322.350843
733.066401	4282.646715
733.397249	4219.791088
733.728048	4138.895693
734.058798	4058.695976
734.389501	3988.485306
734.720156	3925.818722
735.050762	3878.983882
735.381320	3878.179818
735.711831	3823.339626
736.042293	3797.473466
736.372707	3816.176147
736.703073	3790.070532
737.033391	3782.833955
737.363661	3800.518323
737.693883	3825.240141
738.024056	3833.517716
738.354182	3828.448836
738.684260	3892.877303
739.014290	3912.406732
739.344272	3908.086464
739.674207	3948.284624
740.004093	3954.802836
740.333931	3950.089357
740.663722	3955.049853
740.993464	3948.662711
741.323159	3922.867127
741.652806	3891.879154
741.982405	3866.023076
742.311956	3835.864373
742.641460	3826.331551
742.970915	3801.455978
743.300323	3763.922067
743.629683	3726.307497
743.958996	3716.245354
744.288260	3690.124615
744.617477	3660.003721
744.946647	3644.489570
745.275768	3617.673152
745.604842	3619.026702
745.933869	3569.394022
746.262847	3561.413875
746.591778	3601.105400
746.920662	3571.637335
747.249498	3538.819424
747.578286	3586.917073
747.907027	3601.874176
748.235720	3598.990636
748.564365	3626.333855
748.892963	3625.688587
749.221514	3608.846092
749.550017	3586.102926
749.878473	3582.644695
750.206881	3552.390210
750.535242	3549.058007
750.863555	3549.347874
751.191821	3545.756052
751.520039	3529.175697
751.848210	3505.525123
752.176334	3539.131975
752.504411	3545.030125
752.832440	3505.656193
753.160421	3487.689521
753.488356	3498.006242
753.816243	3509.893283
754.144082	3467.487097
754.471875	3453.366825
754.799620	3472.883652
755.127318	3461.029379
755.454969	3462.022486
755.782572	3468.308805
756.110129	3444.464147
756.437638	3435.183383
756.765100	3447.108233
757.092515	3459.020479
757.419882	3465.788228
757.747203	3436.935184
758.074477	3439.922068
758.401703	3455.821867
758.728882	3477.035042
759.056014	3482.555106
759.383099	3485.831856
759.710138	3483.916217
760.037129	3500.078157
760.364073	3535.368754
760.690970	3515.811598
761.017820	3492.745798
761.344623	3513.772451
761.671379	3562.976633
761.998088	3608.324332
762.324751	3738.318046
762.651366	3984.301148
762.977935	4455.480154
763.304456	4899.436929
763.630931	4988.645188
763.957359	4631.083707
764.283740	4290.079896
764.610074	4097.807768
764.936362	3899.972727
765.262602	3745.352976
765.588796	3631.173362
765.914943	3543.318654
766.241044	3454.617031
766.567097	3423.739964
766.893104	3381.621123
767.219064	3346.499405
767.544978	3319.501505
767.870845	3268.986623
768.196665	3247.206318
768.522438	3254.997421
768.848165	3250.359560
769.173846	3211.608210
769.499479	3197.429965
769.825066	3181.850279
770.150607	3165.607681
770.476101	3181.225176
770.801548	3176.945236
771.126949	3128.419089
771.452303	3112.607510
771.777611	3118.987090
772.102872	3124.025724
772.428087	3102.109307
772.753256	3090.050867
773.078378	3081.619537
773.403453	3046.835576
773.728482	3036.927188
774.053465	3057.336299
774.378401	3047.130483
774.703291	3014.496574
775.028135	3015.199815
775.352932	3007.877539
775.677683	2997.618791
776.002388	2996.683657
776.327046	2998.662310
776.651658	2982.853251
776.976224	2972.168526
777.300743	2974.648773
777.625216	2963.928760
777.949643	2961.083028
778.274024	2963.316260
778.598359	2953.402831
778.922647	2956.107410
779.246889	2954.501802
779.571086	2941.414967
779.895236	2931.809048
780.219339	2946.423353
780.543397	2957.097996
780.867409	2958.723768
781.191374	2953.047429
781.515294	2948.502829
781.839167	2950.993159
782.162995	2941.591407
782.486776	2951.119188
782.810511	2947.507201
783.134201	2935.589913
783.457844	2941.886315
783.781441	2933.759975
784.104993	2912.204001
784.428498	2912.745925
784.751958	2927.887030
785.075372	2922.518202
785.398739	2905.937847
785.722061	2923.854107
786.045337	2932.635797
786.368568	2917.197264
786.691752	2910.505132
787.014891	2959.001032
787.337983	2988.287615
787.661030	3015.819877
787.984031	3085.402923
788.306987	3129.855818
788.629897	3121.467338
788.952760	3104.783639
789.275579	3089.634972
789.598351	3032.737989
789.921078	2987.304590
790.243759	2976.022488
790.566395	2959.623614
790.888984	2936.976231
791.211529	2919.801020
791.534027	2911.974628
791.856480	2899.530540
792.178888	2884.795247
792.501249	2875.103629
792.823566	2875.201932
793.145836	2870.982486
793.468062	2865.464943
793.790241	2867.514172
794.112375	2873.140100
794.434464	2884.880947
794.756507	2886.393293
795.078505	2894.615415
795.400457	2907.815676
795.722364	2944.880760
796.044226	2967.739872
796.366042	2970.835141
796.687812	2961.496403
797.009538	2979.266470
797.331218	2969.098463
797.652852	2953.478448
797.974442	2934.629574
798.295986	2933.046651
798.617484	2927.685384
798.938938	2911.125194
799.260346	2896.031979
799.581709	2890.073335
799.903026	2883.358518
800.224299	2875.852240
800.545526	2868.320757
800.866708	2852.239476
801.187845	2841.804287
801.508936	2847.160513
801.829983	2849.905422
802.150984	2838.638443
802.471940	2824.485403
802.792851	2826.716114
803.113717	2823.900629
803.434538	2829.629901
803.755314	2823.489775
804.076045	2816.071717
804.396731	2817.019454
804.717372	2818.083138
805.037967	2814.181285
805.358518	2821.667398
805.679024	2829.496310
805.999485	2828.200734
806.319901	2832.384891
806.640272	2823.000783
806.960598	2826.690908
807.280879	2838.099039
807.601115	2842.121880
807.921306	2832.296671
808.241453	2827.280723
808.561554	2835.097032
808.881611	2838.033504
809.201623	2829.251814
809.521590	2829.816423
809.841513	2827.043789
810.161390	2830.655776
810.481223	2824.006494
810.801011	2813.256233
811.120755	2810.191212
811.440453	2814.256902
811.760107	2811.181798
812.079716	2812.217755
812.399281	2801.979172
812.718801	2797.497586
813.038276	2789.890485
813.357707	2794.740075
813.677093	2803.534368
813.996434	2796.184366
814.315731	2792.146401
814.634983	2789.038530
814.954191	2789.860238
815.273354	2804.066210
815.592473	2812.179947
815.911547	2813.780513
816.230577	2821.947182
816.549562	2831.880776
816.868502	2830.300374
817.187399	2840.042404
817.506250	2856.491689
817.825058	2848.317458
818.143821	2862.379757
818.462539	2877.949360
818.781213	2904.281828
819.099843	2940.031170
819.418429	2997.008811
819.736970	3058.132802
820.055466	3131.363123
820.373919	3237.635687
820.692327	3377.973849
821.010691	3544.246226
821.329011	3992.460256
821.647286	4891.918048
821.965517	6266.353356
822.283704	7010.437746
822.601847	6975.885678
822.919945	6353.507345
823.237999	5847.284758
823.556010	5264.426550
823.873976	4711.830389
824.191897	4305.142864
824.509775	4013.479347
824.827609	3743.162595
825.145398	3615.969242
825.463144	3608.536061
825.780845	3699.009649
826.098502	3801.778611
826.416116	4089.058846
826.733685	4403.432761
827.051210	4465.852328
827.368692	4351.440821
827.686129	4083.526179
828.003522	3757.008124
828.320872	3500.070595
828.638177	3305.751758
828.955439	3170.502642
829.272656	3084.354363
829.589830	3018.758870
829.906960	2970.124338
830.224046	2923.710434
830.541088	2889.289436
830.858086	2874.314688
831.175041	2857.333562
831.491952	2857.799868
831.808819	2870.019625
832.125642	2895.419479
832.442421	2937.845830
832.759157	3019.552851
833.075849	3199.950542
833.392497	3483.507884
833.709101	3685.015406
834.025662	3631.145636
834.342179	3474.206955
834.658653	3297.701035
834.975083	3147.562871
835.291469	3048.194167
835.607811	2963.931280
835.924110	2907.311561
836.240366	2855.221318
836.556578	2813.190698
836.872746	2791.344858
837.188871	2770.030859
837.504952	2754.267171
837.820990	2743.257291
838.136984	2730.440158
838.452935	2725.441854
838.768842	2720.660319
839.084706	2738.274111
839.400526	2821.470793
839.716303	2951.532563
840.032037	3029.461239
840.347727	3017.375073
840.663373	2955.119343
840.978977	2880.434649
841.294537	2808.588125
841.610054	2761.929725
841.925527	2737.805283
842.240957	2718.532952
842.556344	2694.789118
842.871687	2680.436953
843.186987	2670.684841
843.502244	2664.259890
843.817458	2658.119765
844.132629	2646.867909
844.447756	2640.165695
844.762840	2634.214613
845.077881	2638.139151
845.392879	2635.434572
845.707833	2631.484828
846.022745	2624.142388
846.337613	2624.424692
846.652438	2623.797069
846.967221	2625.009466
847.281960	2623.834877
847.596656	2619.401182
847.911309	2619.590226
848.225919	2620.424537
848.540485	2614.158382
848.855009	2616.142077
849.169490	2613.046808
849.483928	2613.135028
849.798323	2614.745677
850.112675	2613.689555
850.426984	2613.036726
850.741251	2608.766868
851.055474	2610.407764
851.369654	2617.722478
851.683792	2613.187960
851.997887	2611.017744
852.311938	2612.731736
852.625947	2610.967332
852.939914	2617.989659
853.253837	2616.943620
853.567718	2613.445059
853.881555	2613.066973
854.195350	2615.295163
854.509103	2614.715430
854.822812	2611.720985
855.136479	2608.850047
855.450103	2614.302055
855.763685	2612.951026
856.077224	2612.494802
856.390720	2608.802157
856.704173	2609.034050
857.017584	2614.279370
857.330953	2616.240379
857.644278	2618.597118
857.957561	2619.444032
858.270802	2614.113012
858.584000	2619.312962
858.897155	2619.005452
859.210268	2619.680967
859.523339	2615.448918
859.836367	2609.800305
860.149352	2611.017744
860.462295	2610.170830
860.775195	2609.565891
861.088054	2607.975407
861.400869	2607.209152
861.713642	2603.483739
862.026373	2606.052207
862.339062	2607.652773
862.651708	2615.643002
862.964312	2616.913373
863.276873	2613.697117
863.589392	2616.868003
863.901869	2621.460494
864.214303	2626.766308
864.526696	2629.546505
864.839045	2630.290075
865.151353	2631.230250
865.463619	2632.445168
865.775842	2631.371402
866.088023	2630.864766
866.400162	2637.292237
866.712258	2634.234778
867.024313	2632.225878
867.336325	2625.453088
867.648296	2630.511886
867.960224	2634.776702
868.272110	2632.432565
868.583954	2625.314456
868.895755	2628.813017
869.207515	2634.693523
869.519233	2639.417084
869.830909	2638.003040
870.142542	2630.499283
870.454134	2632.298975
870.765684	2640.551343
871.077191	2639.490181
871.388657	2645.486633
871.700081	2642.872795
872.011463	2640.604276
872.322803	2646.852786
872.634101	2646.764566
872.945357	2654.437202
873.256571	2662.427431
873.567744	2653.623055
873.878874	2654.535504
874.189963	2656.468787
874.501010	2660.491627
874.812015	2665.525220
875.122979	2666.742658
875.433900	2656.970382
875.744780	2657.867707
876.055618	2659.811072
876.366415	2665.507576
876.677169	2665.197545
876.987882	2661.532626
877.298554	2659.889210
877.609183	2669.338852
877.919771	2676.880419
878.230317	2682.070287
878.540822	2694.685774
878.851285	2707.568443
879.161707	2729.502503
879.472087	2771.197887
879.782425	2817.818477
880.092722	2930.747885
880.402977	3122.614201
880.713191	3380.196998
881.023363	3670.953107
881.333494	3863.820092
881.643583	4034.127913
881.953631	4036.068757
882.263637	3854.962784
882.573602	3634.177890
882.883526	3505.477232
883.193408	3390.067577
883.503248	3291.631486
883.813048	3176.186542
884.122806	3061.948955
884.432522	2976.571974
884.742197	2912.665266
885.051831	2873.598845
885.361424	2837.589883
885.670975	2804.003195
885.980485	2773.693258
886.289954	2756.616349
886.599382	2739.645305
886.908768	2729.505024
887.218113	2710.993907
887.527417	2697.876824
887.836680	2690.844415
888.145901	2684.812674
888.455082	2673.906138
888.764221	2662.611433
889.073319	2657.429127
889.382376	2657.237563
889.691392	2657.701349
890.000366	2658.518016
890.309300	2656.234373
890.618193	2654.880823
890.927044	2657.595485
891.235855	2661.318377
891.544625	2659.163283
891.853353	2662.760147
892.162041	2667.932371
892.470687	2689.349713
892.779293	2697.854139
893.087858	2709.088351
893.396381	2730.488049
893.704864	2770.867691
894.013306	2843.039370
894.321707	2935.209306
894.630068	2987.614621
894.938387	3005.377127
895.246665	3000.025942
895.554903	2956.195630
895.863100	2912.728281
896.171256	2853.114116
896.479371	2791.554066
896.787446	2750.866913
897.095480	2735.657752
897.403473	2727.518809
897.711425	2713.058259
898.019336	2696.314067
898.327207	2681.195646
898.635038	2682.924762
898.942827	2679.156500
899.250576	2670.284069
899.558284	2657.381236
899.865952	2653.234887
900.173579	2651.029382
900.481165	2647.878661
900.788711	2639.722074
901.096216	2634.970786
901.403681	2630.925260
901.711105	2629.549025
902.018489	2629.422996
902.325832	2631.126906
902.633135	2630.708491
902.940397	2649.723723
903.247619	2684.593384
903.554800	2758.327821
903.861941	2881.722664
904.169041	3009.515914
904.476101	3070.234092
904.783121	3064.575396
905.090100	3006.987775
905.397039	2932.325766
905.703938	2857.988912
906.010796	2797.757206
906.317614	2742.493557
906.624391	2707.487784
906.931129	2682.657581
907.237826	2658.462563
907.544483	2641.405819
907.851099	2626.146246
908.157675	2616.928497
908.464211	2608.691251
908.770707	2598.409818
909.077163	2595.407811
909.383578	2591.294229
909.689954	2593.981164
909.996289	2592.115937
910.302584	2589.769280
910.608839	2584.322313
910.915054	2586.454722
911.221229	2586.787438
911.527363	2591.989908
911.833458	2584.929772
912.139513	2590.666606
912.445527	2592.620053
912.751502	2598.848398
913.057436	2602.714963
913.363331	2610.397682
913.669186	2619.741460
913.975000	2632.848460
914.280775	2650.394196
914.586510	2668.383554
914.892205	2704.432845
915.197859	2771.860798
915.503475	2857.976309
915.809050	2920.678180
916.114585	2934.208637
916.420081	2948.775051
916.725536	2959.560600
917.030952	2931.942639
917.336328	2887.835063
917.641665	2840.291941
917.946961	2788.173972
918.252218	2755.414034
918.557435	2729.167266
918.862612	2708.206149
919.167750	2689.208560
919.472848	2674.543844
919.777906	2656.511637
920.082925	2645.600059
920.387904	2630.562297
920.692843	2627.280506
920.997743	2626.118520
921.302603	2614.952364
921.607423	2607.919955
921.912204	2604.421394
922.216946	2601.240426
922.521647	2599.118100
922.826310	2597.199941
923.130932	2592.299939
923.435516	2585.819536
923.740059	2584.778538
924.044564	2582.832652
924.349028	2582.159658
924.653454	2572.465520
924.957840	2570.282700
925.262186	2566.489232
925.566493	2569.385375
925.870761	2564.465208
926.174989	2565.032338
926.479178	2565.758264
926.783328	2563.787173
927.087438	2559.461863
927.391509	2562.748696
927.695541	2558.897254
927.999533	2557.722665
928.303486	2557.238714
928.607400	2556.293498
928.911275	2556.117058
929.215110	2553.369629
929.518906	2554.496327
929.822663	2558.347768
930.126381	2554.624876
930.430060	2555.754095
930.733699	2554.176213
931.037299	2557.165618
931.340861	2558.660320
931.644383	2556.568241
931.947866	2557.127809
932.251309	2554.559341
932.554714	2555.154197
932.858080	2556.969013
933.161407	2553.679660
933.464694	2553.099927
933.767943	2553.752757
934.071153	2555.073539
934.374323	2554.135884
934.677455	2553.667057
934.980548	2552.719320
935.283602	2554.667726
935.586617	2554.773590
935.889593	2552.056408
936.192530	2553.019269
936.495428	2552.520194
936.798287	2555.083621
937.101108	2553.795606
937.403890	2558.483879
937.706632	2564.182904
938.009336	2562.017728
938.312002	2566.680796
938.614628	2571.565674
938.917216	2574.393761
939.219765	2577.257136
939.522275	2576.682445
939.824747	2576.274111
940.127179	2569.413101
940.429573	2568.588872
940.731929	2567.331104
941.034246	2563.449416
941.336524	2567.126938
941.638763	2567.172308
941.940964	2567.804973
942.243126	2563.565362
942.545250	2562.148798
942.847335	2564.122410
943.149381	2560.371792
943.451389	2561.649724
943.753359	2557.024465
944.055290	2554.307283
944.357182	2555.381049
944.659036	2558.960268
944.960851	2555.915412
945.262628	2556.326266
945.564367	2558.168807
945.866067	2556.202757
946.167729	2557.846173
946.469352	2557.755433
946.770937	2556.106975
947.072484	2556.331307
947.373992	2554.357695
947.675462	2554.992880
947.976893	2554.196378
948.278286	2549.797971
948.579641	2552.396686
948.880958	2553.730071
949.182236	2552.227807
949.483476	2554.582026
949.784678	2553.145298
950.085841	2553.193188
950.386967	2554.024979
950.688054	2554.942469
950.989103	2553.291491
951.290114	2553.808209
951.591087	2558.526729
951.892021	2558.443550
952.192917	2559.484548
952.493776	2557.952038
952.794596	2560.999415
953.095378	2559.328273
953.396122	2562.524364
953.696828	2560.732234
953.997496	2559.222408
954.298126	2554.967675
954.598718	2554.834084
954.899272	2554.561862
955.199788	2552.739485
955.500266	2552.202602
955.800706	2548.262940
956.101108	2543.123484
956.401472	2547.289997
956.701798	2542.921837
957.002087	2544.509801
957.302337	2543.678011
957.602550	2545.749925
957.902724	2542.556354
958.202861	2542.294214
958.502960	2541.124666
958.803022	2542.969728
959.103045	2541.931251
959.403031	2542.384955
959.702979	2538.624254
960.002889	2541.164995
960.302762	2538.740200
960.602596	2539.541744
960.902393	2537.913451
961.202153	2540.761703
961.501875	2537.633667
961.801559	2539.103163
962.101205	2540.040818
962.400814	2537.845396
962.700385	2538.208359
962.999918	2537.673996
963.299414	2538.914120
963.598873	2539.642567
963.898293	2538.520910
964.197677	2538.261291
964.497022	2536.786753
964.796331	2538.772968
965.095601	2537.124511
965.394835	2538.165509
965.694030	2535.942360
965.993189	2537.111908
966.292309	2537.348842
966.591393	2540.887732
966.890439	2535.045035
967.189447	2533.245343
967.488419	2534.298944
967.787353	2536.098636
968.086249	2538.601569
968.385108	2538.105015
968.683930	2537.288348
968.982714	2536.945550
969.281462	2538.788091
969.580172	2537.951260
969.878844	2536.607792
970.177480	2536.837165
970.476078	2536.552340
970.774639	2539.927392
971.073162	2537.769778
971.371649	2536.350693
971.670098	2533.318439
971.968510	2536.247350
972.266885	2534.578728
972.565223	2539.357742
972.863524	2536.970755
973.161788	2539.244316
973.460014	2537.958822
973.758204	2538.251208
974.056356	2536.643080
974.354471	2539.592155
974.652550	2537.724408
974.950591	2539.456044
975.248595	2537.384130
975.546563	2536.413708
975.844493	2534.412370
976.142386	2538.500746
976.440243	2540.171888
976.738062	2539.294727
977.035845	2537.890766
977.333590	2537.653832
977.631299	2538.190715
977.928971	2538.689789
978.226606	2536.799356
978.524204	2539.330015
978.821765	2536.806918
979.119290	2538.447813
979.416777	2537.931095
979.714228	2535.279448
980.011642	2538.843544
980.309020	2539.163657
980.606360	2537.076620
980.903664	2535.256763
981.200931	2537.255581
981.498162	2538.770447
981.795356	2541.538041
982.092513	2544.340922
982.389633	2545.039122
982.686717	2545.744884
982.983764	2551.128836
983.280775	2551.138918
983.577749	2549.845862
983.874686	2550.196222
984.171587	2547.234545
984.468451	2550.024823
984.765279	2543.451159
985.062070	2540.791950
985.358824	2539.060314
985.655543	2538.563760
985.952224	2538.319264
986.248869	2538.437731
986.545478	2532.809283
986.842050	2533.726773
987.138586	2530.197965
987.435086	2531.251566
987.731549	2532.350538
988.027975	2532.791639
988.324366	2534.167874
988.620719	2533.262987
988.917037	2533.520086
989.213318	2536.010416
989.509563	2533.086546
989.805772	2533.260466
990.101944	2534.987061
990.398080	2533.613347
990.694180	2531.861546
990.990244	2532.854653
991.286271	2534.354397
991.582262	2534.354397
991.878217	2532.085877
992.174136	2534.140148
992.470019	2532.905065
992.765865	2533.091587
993.061676	2531.574200
993.357450	2534.334232
993.653188	2533.489839
993.948890	2534.424973
994.244556	2533.124355
994.540186	2535.702905
994.835780	2537.573173
995.131337	2536.708615
995.426859	2534.926568
995.722345	2535.854140
996.017795	2536.738862
996.313208	2538.853626
996.608586	2535.947401
996.903928	2537.986548
997.199234	2536.736342
997.494504	2534.798018
997.789738	2537.923533
998.084936	2535.430683
998.380099	2537.971424
998.675225	2536.267514
998.970316	2536.000333
999.265371	2533.520086
999.560390	2533.073943
999.855373	2536.267514
1000.150320	2534.581248
1000.445232	2533.625950
1000.740108	2535.166022
1001.034948	2534.127545
1001.329752	2528.867101
1001.624521	2533.739376
1001.919254	2527.508510
1002.213951	2529.388860
1002.508613	2529.635877
1002.803239	2533.134437
1003.097829	2526.522964
1003.392384	2531.029756
1003.686903	2533.018491
1003.981386	2532.589993
1004.275834	2531.075126
1004.570246	2532.353058
1004.864623	2532.426155
1005.158964	2532.325332
1005.453270	2532.373223
1005.747540	2532.418593
1006.041775	2532.133768
1006.335974	2532.897503
1006.630138	2531.579241
1006.924266	2531.554036
1007.218359	2532.768954
1007.512416	2530.795342
1007.806438	2531.566638
1008.100425	2531.894313
1008.394376	2530.891124
1008.688292	2532.723583
1008.982172	2528.925074
1009.276017	2534.162833
1009.569827	2531.659900
1009.863602	2532.773995
1010.157341	2532.050589
1010.451045	2531.453212
1010.744714	2529.524971
1011.038347	2533.673841
1011.331945	2530.500434
1011.625508	2530.124868
1011.919036	2531.415404
1012.212528	2531.483459
1012.505986	2532.998326
1012.799408	2533.341125
1013.092795	2531.664941
1013.386147	2532.171577
1013.679464	2530.666793
1013.972745	2528.080681
1014.265992	2533.308357
1014.559204	2531.972451
1014.852380	2531.339787
1015.145521	2532.884900
1015.438628	2529.530012
1015.731699	2533.683923
1016.024736	2531.606968
1016.317737	2529.209899
1016.610703	2534.016639
1016.903635	2525.910464
1017.196531	2530.142513
1017.489393	2528.052954
1017.782219	2528.652852
1018.075011	2528.683098
1018.367768	2531.344828
1018.660490	2532.680733
1018.953177	2532.680733
1019.245829	2532.680733
