Dividing Wavelength (nm)	Counts (n)	Blue Motor Position (mm): 25.500000	Red Motor Position (mm): 0.000000	
326.493990	2133.154168
326.888308	2133.154168
327.282561	2133.154168
327.676750	2099.922882
328.070874	2096.724269
328.464933	2100.300968
328.858929	2107.517380
329.252859	2117.342589
329.646726	2129.660648
330.040528	2141.499798
330.434265	2158.546460
330.827938	2178.791733
331.221547	2192.730524
331.615091	2213.096785
332.008571	2232.764847
332.401986	2253.645306
332.795338	2270.717174
333.188625	2291.229629
333.581847	2308.203194
333.975006	2326.447130
334.368100	2348.277846
334.761129	2365.758047
335.154095	2382.141797
335.546996	2401.835065
335.939833	2421.094793
336.332606	2439.288317
336.725315	2452.387756
337.117960	2461.718931
337.510540	2469.220168
337.903056	2480.383803
338.295508	2487.315390
338.687896	2499.439365
339.080220	2505.909686
339.472480	2514.209946
339.864676	2515.840759
340.256807	2518.162210
340.648875	2521.648168
341.040879	2526.069260
341.432818	2524.009949
341.824694	2526.689322
342.216506	2528.332738
342.608253	2528.214271
342.999937	2529.149405
343.391557	2528.446164
343.783113	2527.221164
344.174605	2525.234949
344.566033	2525.108920
344.957397	2524.055319
345.348697	2519.795544
345.739934	2517.927797
346.131106	2517.464011
346.522215	2516.929648
346.913260	2514.338495
347.304241	2513.511746
347.695159	2510.139214
348.086012	2510.766838
348.476802	2507.255674
348.867528	2506.378513
349.258191	2503.540344
349.648789	2503.547905
350.039324	2499.141937
350.429796	2500.800477
350.820203	2501.027328
351.210548	2499.197390
351.600828	2500.175373
351.991045	2496.639004
352.381198	2498.431134
352.771288	2499.215034
353.161314	2495.386277
353.551276	2496.152533
353.941175	2497.080105
354.331010	2497.173366
354.720782	2493.478201
355.110490	2494.430979
355.500135	2495.744199
355.889717	2492.674137
356.279235	2495.290495
356.668689	2496.316370
357.058080	2495.199755
357.447408	2493.243787
357.836672	2494.078098
358.225873	2496.180259
358.615010	2492.031389
359.004084	2498.156391
359.393095	2495.971051
359.782043	2502.222082
360.170927	2498.854591
360.559748	2498.741165
360.948505	2499.590600
361.337199	2503.389109
361.725830	2504.583863
362.114398	2504.762823
362.502903	2502.350631
362.891344	2503.721825
363.279722	2501.791063
363.668037	2502.698471
364.056289	2505.702999
364.444478	2504.054541
364.832603	2502.955570
365.220665	2506.333143
365.608665	2506.028153
365.996601	2504.964470
366.384474	2508.629388
366.772284	2506.247443
367.160031	2505.687875
367.547715	2507.096878
367.935336	2508.193329
368.322893	2508.929337
368.710388	2509.519152
369.097820	2512.160717
369.485189	2507.182577
369.872495	2512.639626
370.259738	2510.096364
370.646918	2513.070645
371.034035	2509.693072
371.421090	2509.446055
371.808081	2508.636950
372.195010	2512.047291
372.581875	2512.450583
372.968678	2510.837414
373.355418	2508.886487
373.742096	2512.490912
374.128710	2510.865140
374.515262	2510.890346
374.901751	2511.540655
375.288177	2513.718433
375.674540	2512.261540
376.060841	2511.754904
376.447079	2515.747498
376.833254	2512.314472
377.219367	2509.957732
377.605417	2511.149965
377.991404	2511.394461
378.377329	2514.048629
378.763191	2509.589728
379.148991	2514.104082
379.534727	2515.830677
379.920402	2516.498630
380.306013	2516.662467
380.691563	2516.962416
381.077049	2516.332272
381.462474	2518.154649
381.847835	2515.097189
382.233134	2516.261695
382.618371	2516.954854
383.003545	2515.402179
383.388657	2515.195491
383.773706	2517.784124
384.158693	2515.974350
384.543618	2518.820081
384.928480	2517.695904
385.313280	2520.503826
385.698017	2519.470390
386.082692	2518.288239
386.467305	2518.643641
386.851856	2521.864938
387.236344	2519.914011
387.620770	2520.564320
388.005133	2520.695390
388.389435	2521.204547
388.773674	2520.932324
389.157851	2517.262364
389.541965	2520.077849
389.926018	2521.328055
390.310008	2520.854187
390.693936	2519.583816
391.077802	2521.524660
391.461606	2523.508354
391.845348	2517.887468
392.229027	2523.730165
392.612645	2523.069774
392.996200	2522.169928
393.379694	2521.355781
393.763125	2525.161853
394.146494	2524.665299
394.529801	2526.356606
394.913047	2524.771163
395.296230	2525.880217
395.679351	2524.380474
396.062410	2524.468694
396.445408	2525.965917
396.828343	2524.115813
397.211217	2517.234638
397.594028	2520.445853
397.976778	2521.310411
398.359466	2522.822757
398.742092	2519.288908
399.124656	2525.194620
399.507158	2524.206554
399.889598	2526.230577
400.271977	2523.851153
400.654294	2527.712676
401.036549	2525.723941
401.418742	2527.264014
401.800874	2526.621267
402.182944	2528.647810
402.564952	2526.923736
402.946898	2528.758716
403.328783	2528.201668
403.710606	2528.688140
404.092367	2530.124868
404.474067	2528.950280
404.855705	2528.859539
405.237282	2529.577903
405.618797	2530.800383
406.000250	2531.117976
406.381642	2529.557739
406.762972	2529.144364
407.144240	2526.507841
407.525447	2532.189221
407.906593	2532.123686
408.287677	2529.867770
408.668700	2528.368026
409.049661	2529.915661
409.430560	2529.804755
409.811399	2531.390198
410.192176	2532.708460
410.572891	2532.025383
410.953545	2531.049920
411.334138	2532.252235
411.714669	2532.819365
412.095139	2532.771474
412.475547	2532.080836
412.855894	2532.436238
413.236180	2533.008408
413.616405	2534.155271
413.996568	2534.379602
414.376670	2534.258615
414.756711	2535.135775
415.136691	2536.529654
415.516609	2535.410518
415.896466	2534.798018
416.276262	2535.634850
416.655997	2531.019673
417.035670	2532.514375
417.415283	2533.366330
417.794834	2532.002698
418.174324	2534.200641
418.553753	2535.534027
418.933121	2536.716177
419.312428	2535.289531
419.691674	2537.285827
420.070859	2535.778522
420.449983	2536.252391
420.829045	2537.716846
421.208047	2534.969417
421.586988	2539.209028
421.965867	2537.789943
422.344686	2538.712474
422.723444	2538.019315
423.102141	2537.623585
423.480777	2537.704243
423.859352	2536.307844
424.237866	2541.069213
424.616319	2538.848585
424.994712	2537.192566
425.373044	2537.842875
425.751314	2540.388658
426.129524	2541.709440
426.507673	2539.806404
426.885762	2539.047711
427.263789	2538.921682
427.641756	2540.892773
428.019662	2541.601055
428.397508	2539.980324
428.775292	2542.410160
429.153016	2541.031405
429.530679	2541.409491
429.908282	2540.471837
430.285824	2543.320089
430.663305	2540.965870
431.040726	2541.084337
431.418086	2543.534338
431.795385	2541.018802
432.172624	2541.727084
432.549802	2540.920499
432.926920	2544.839997
433.303977	2542.700027
433.680974	2542.435366
434.057910	2545.588608
434.434786	2543.952753
434.811601	2545.281097
435.188355	2541.003678
435.565050	2541.855633
435.941683	2547.806716
436.318257	2543.667928
436.694770	2541.003678
437.071222	2543.176416
437.447614	2542.173226
437.823946	2543.158772
438.200218	2546.017106
438.576429	2548.212528
438.952580	2544.552651
439.328670	2551.012889
439.704700	2547.670604
440.080670	2546.919473
440.456580	2548.290666
440.832429	2548.956099
441.208218	2551.237221
441.583947	2548.540203
441.959616	2548.653629
442.335224	2549.147662
442.710773	2549.722354
443.086261	2552.459701
443.461689	2551.310317
443.837057	2552.840308
444.212365	2552.865513
444.587612	2553.306614
444.962800	2555.728889
445.337927	2557.258879
445.712995	2557.919270
446.088002	2560.233160
446.462949	2559.366081
446.837837	2562.625187
447.212664	2564.805486
447.587431	2567.631053
447.962139	2573.496436
448.336786	2581.093454
448.711374	2584.201326
449.085901	2581.383321
449.460369	2584.047571
449.834776	2586.593353
450.209124	2594.530650
450.583412	2602.553646
450.957640	2608.144286
451.331808	2613.853393
451.705917	2613.525718
452.079965	2619.779269
452.453954	2626.645321
452.827883	2632.979530
453.201752	2638.827269
453.575562	2645.186684
453.949311	2659.561535
454.323001	2663.198727
454.696632	2675.536951
455.070202	2691.247707
455.443713	2703.858153
455.817164	2719.074876
456.190556	2732.005436
456.563888	2750.987901
456.937160	2762.708583
457.310373	2763.618512
457.683526	2779.067128
458.056619	2790.881072
458.429653	2804.782053
458.802628	2818.791420
459.175542	2841.935357
459.548398	2882.904815
459.921194	2916.299938
460.293930	2941.135183
460.666607	3015.887933
461.039224	3076.222982
461.411782	3111.377469
461.784280	3139.539875
462.156719	3151.799961
462.529099	3165.620284
462.901419	3146.221924
463.273680	3163.956703
463.645882	3188.255065
464.018024	3213.561657
464.390106	3266.561828
464.762130	3352.205991
465.134094	3474.718632
465.505999	3710.193449
465.877845	3979.169253
466.249631	4132.362357
466.621358	4103.758850
466.993026	4044.119480
467.364634	4041.959345
467.736184	4027.468548
468.107674	4019.581663
468.479105	4094.888940
468.850477	4088.484154
469.221790	4097.880865
469.593043	4073.794232
469.964238	4104.605764
470.335373	4165.530629
470.706449	4237.367071
471.077467	4293.316317
471.448425	4739.912136
471.819324	5139.436182
472.190164	5205.671902
472.560945	4897.528852
472.931667	4720.957398
473.302330	4731.596753
473.672934	4684.572870
474.043479	4873.666551
474.413965	4918.502573
474.784393	4951.020536
475.154761	5074.828754
475.525070	5176.473539
475.895321	5173.804248
476.265513	5314.311288
476.635645	5447.755671
477.005719	5535.456625
477.375734	5656.456920
477.745691	5835.102809
478.115588	5978.561445
478.485427	6179.297671
478.855207	6515.492221
479.224928	7009.179978
479.594591	7410.564209
479.964194	7427.096673
480.333739	7480.726989
480.703226	7559.043834
481.072653	7698.514917
481.442022	7928.676358
481.811333	8119.375646
482.180584	8112.892722
482.549777	8047.808905
482.918912	8022.585492
483.287988	8136.588666
483.657005	8220.609577
484.025964	8117.860779
484.394864	8295.085063
484.763706	8360.751133
485.132489	8279.964122
485.501213	8335.807504
485.869879	8467.610992
486.238487	8447.373280
486.607036	8582.743384
486.975527	8525.160804
487.343959	8723.686484
487.712333	8833.200510
488.080648	8849.254064
488.448905	8966.032393
488.817104	8980.802974
489.185244	9252.501002
489.553326	9446.570301
489.921350	9915.871478
490.289315	10794.950406
490.657222	11134.310800
491.025070	11143.379836
491.392861	11105.513209
491.760593	10900.431509
492.128267	10697.265447
492.495883	10498.376804
492.863440	10281.299679
493.230939	10049.036077
493.598380	10049.298217
493.965763	9984.637857
494.333088	9941.702350
494.700354	9928.073590
495.067563	10020.770327
495.434713	9919.642261
495.801805	10067.947966
496.168839	10036.793635
496.535815	10029.771307
496.902733	10061.192819
497.269593	10036.594509
497.636395	10160.460700
498.003139	10186.321820
498.369825	10097.625238
498.736453	10276.828175
499.103023	10238.913657
499.469535	10295.107399
499.835989	10316.544906
500.202385	10306.903699
500.568723	10184.668321
500.935003	10419.452500
501.301226	10262.864179
501.667390	10523.143993
502.033497	10639.879472
502.399546	10522.639878
502.765537	10452.035998
503.131470	10547.094515
503.497345	10725.059849
503.863163	10366.964006
504.228923	10682.736842
504.594625	10755.150496
504.960269	10524.628613
505.325856	10758.530590
505.691385	10570.989584
506.056856	10726.428522
506.422270	10762.326579
506.787625	10662.804119
507.152924	10786.756010
507.518164	10773.026428
507.883347	10712.928312
508.248472	10631.833791
508.613540	10873.231963
508.978550	10768.517116
509.343503	10745.834444
509.708398	10874.789680
510.073236	10983.718932
510.438016	10996.808288
510.802738	10952.322626
511.167403	11005.869762
511.532010	10904.623228
511.896561	11141.139043
512.261053	11218.281300
512.625488	11093.064080
512.989866	11074.565566
513.354186	11063.916128
513.718449	10966.886519
514.082655	11167.010245
514.446803	11066.456870
514.810894	11185.992710
515.174927	11059.631147
515.538904	11083.120404
515.902822	11235.960627
516.266684	11122.844696
516.630488	11066.681201
516.994235	11122.045673
517.357925	11186.325426
517.721558	11274.948910
518.085133	11298.249123
518.448651	11306.153653
518.812112	11190.958246
519.175516	11204.952489
519.538863	11325.247023
519.902152	11247.600651
520.265385	11409.328428
520.628560	11316.309057
520.991678	11297.815584
521.354739	11358.460665
521.717743	11292.378700
522.080690	11275.725248
522.443580	11409.134343
522.806413	11366.826460
523.169189	11397.753939
523.531908	11458.363731
523.894569	11275.206009
524.257174	11285.522731
524.619722	11400.352653
524.982213	11345.252842
525.344647	11402.648899
525.707025	11358.362362
526.069345	11444.825713
526.431608	11360.446880
526.793815	11466.442180
527.155964	11262.159503
527.518057	11317.145889
527.880093	11266.646130
528.242072	11336.256903
528.603995	11240.270813
528.965860	11161.926241
529.327669	11212.879704
529.689421	11159.496405
530.051117	11134.905657
530.412755	11242.655279
530.774337	11133.060594
531.135862	11110.105700
531.497331	11131.681839
531.858743	10988.129942
532.220098	11149.812348
532.581396	11024.627896
532.942638	11010.520227
533.303824	10975.816923
533.664953	10989.778399
534.026025	10899.660212
534.387040	11000.752991
534.747999	11002.522436
535.108902	11056.157792
535.469748	10823.405199
535.830537	10917.299210
536.191270	10895.755839
536.551947	10924.016547
536.912567	10922.002606
537.273131	10850.821514
537.633638	10823.770682
537.994089	10817.282717
538.354483	10770.846129
538.714821	10907.852087
539.075103	10922.756259
539.435328	10880.022397
539.795497	10710.906809
540.155609	10867.011179
540.515665	10956.131218
540.875665	10696.327792
541.235609	10762.122412
541.595496	10760.514284
541.955328	10909.979454
542.315102	10797.665067
542.674821	10745.068188
543.034483	10746.212530
543.394090	10746.550288
543.753640	10679.964207
544.113134	10901.447301
544.472571	10750.880639
544.831953	10898.500747
545.191278	10705.371622
545.550548	10734.267516
545.909761	10865.340037
546.268918	10840.514875
546.628019	10921.392627
546.987064	10789.483274
547.346053	10714.070133
547.704986	10813.297685
548.063863	10799.668926
548.422684	10788.197780
548.781449	10709.034021
549.140158	10809.355503
549.498811	10685.133910
549.857408	10551.107274
550.215949	10765.870510
550.574434	10621.005392
550.932864	10725.674870
551.291237	10786.206524
551.649555	10729.377597
552.007817	10742.928219
552.366022	10709.356655
552.724173	10700.491786
553.082267	10686.605927
553.440305	10819.851185
553.798288	10617.547161
554.156215	10774.241346
554.514086	10747.354352
554.871902	10598.761301
555.229661	10634.084666
555.587365	10614.101532
555.945014	10514.826089
556.302606	10630.651640
556.660143	10525.679694
557.017625	10676.233753
557.375050	10578.692468
557.732421	10712.777078
558.089735	10626.812802
558.446994	10628.849428
558.804197	10666.272433
559.161345	10666.521970
559.518437	10513.006233
559.875474	10600.177865
560.232455	10628.680549
560.589381	10580.489639
560.946251	10579.599875
561.303065	10683.593838
561.659825	10620.040011
562.016528	10556.624817
562.373177	10438.329100
562.729770	10546.035873
563.086307	10461.667122
563.442789	10553.393437
563.799216	10429.819633
564.155587	10488.115536
564.511904	10435.430437
564.868164	10427.858624
565.224370	10438.838257
565.580520	10367.082473
565.936615	10370.906188
566.292654	10249.706767
566.648638	10370.233194
567.004567	10326.344909
567.360441	10317.273352
567.716260	10227.613911
568.072023	10314.581376
568.427732	10266.861814
568.783385	10177.202372
569.138982	10250.808260
569.494525	10266.826526
569.850013	10137.626794
570.205445	10216.404905
570.560823	10117.953691
570.916145	10033.471514
571.271412	10112.519327
571.626625	10054.674608
571.981782	10032.226349
572.336884	10002.042441
572.691931	10014.988124
573.046923	9954.554772
573.401860	9912.108256
573.756743	9847.508390
574.111570	9889.460872
574.466342	9874.637360
574.821059	9902.789683
575.175722	9792.582498
575.530330	9805.724787
575.884882	9798.972161
576.239380	9727.339885
576.593823	9704.765598
576.948211	9721.071211
577.302544	9599.148384
577.656823	9617.470458
578.011047	9616.028688
578.365216	9582.661291
578.719330	9515.001444
579.073389	9523.851190
579.427394	9471.876894
579.781344	9452.954923
580.135239	9396.125995
580.489080	9403.256708
580.842866	9306.022932
581.196597	9313.370414
581.550273	9350.133028
581.903895	9321.085900
582.257463	9386.598215
582.610975	9263.291592
582.964434	9297.190831
583.317837	9219.201660
583.671186	9199.601654
584.024481	9190.502371
584.377721	9108.729815
584.730906	9094.992670
585.084037	9124.574161
585.437113	9053.461124
585.790135	9072.125997
586.143103	8973.397519
586.496016	8950.898849
586.848874	9006.172581
587.201679	8995.923915
587.554428	8887.105568
587.907124	8924.059746
588.259765	8901.553515
588.612352	8905.074761
588.964884	8776.169937
589.317362	8795.391856
589.669786	8794.998646
590.022155	8842.314916
590.374470	8858.736475
590.726731	8798.557701
591.078937	8649.536152
591.431090	8759.216536
591.783188	8632.842371
592.135232	8629.467318
592.487222	8625.459601
592.839157	8676.612189
593.191038	8612.087941
593.542866	8558.639107
593.894639	8452.031306
594.246358	8507.955346
594.598022	8529.168522
594.949633	8421.623066
595.301190	8397.425528
595.652692	8430.676978
596.004141	8538.590438
596.355535	8319.499371
596.706876	8291.072305
597.058162	8227.546205
597.409395	8305.253071
597.760573	8364.085857
598.111698	8274.118904
598.462768	8266.428624
598.813785	8227.531081
599.164748	8192.729476
599.515657	8184.194802
599.866511	8093.007891
600.217312	8222.338693
600.568060	8081.052794
600.918753	8183.705810
601.269392	8151.223135
601.619978	8066.458654
601.970510	8134.907441
602.320988	8126.783622
602.671412	8182.125408
603.021783	8118.135522
603.372100	8090.202489
603.722363	8091.891275
604.072572	8073.881753
604.422728	8081.055315
604.772830	8014.224738
605.122878	8017.874534
605.472872	8015.805140
605.822813	8045.658853
606.172701	7986.102662
606.522534	8072.868481
606.872314	8063.587717
607.222041	8029.980865
607.571714	8084.185872
607.921333	8044.514511
608.270899	8052.401397
608.620411	8141.007237
608.969870	8049.134729
609.319276	8037.555198
609.668627	8054.468270
610.017926	8087.543280
610.367171	8133.808469
610.716362	8115.879606
611.065500	8105.643543
611.414585	8132.578428
611.763616	8116.214842
612.112594	8103.047349
612.461518	8117.681818
612.810389	8179.156169
613.159207	8121.316490
613.507971	8067.391267
613.856682	8185.248403
614.205340	8137.634705
614.553945	8219.099751
614.902496	8115.425902
615.250994	8173.106784
615.599439	8154.023496
615.947830	8168.708377
616.296169	8136.218141
616.644454	8157.683374
616.992686	8146.131570
617.340864	8205.201290
617.688990	8111.962629
618.037063	8201.112914
618.385082	8150.018300
618.733048	8234.944098
619.080961	8173.600817
619.428821	8190.375257
619.776628	8194.178807
620.124382	8147.618710
620.472083	8131.313098
620.819731	8157.615318
621.167326	8048.227321
621.514868	8064.008653
621.862357	7945.513812
622.209793	7971.127914
622.557176	7902.152327
622.904506	7870.226699
623.251783	7809.937020
623.599007	7759.129751
623.946179	7765.511852
624.293297	7722.775470
624.640363	7639.971998
624.987376	7622.264945
625.334336	7567.712098
625.681243	7516.347782
626.028097	7509.648088
626.374899	7489.468349
626.721647	7475.050649
627.068343	7408.603201
627.414987	7381.471711
627.761577	7336.618044
628.108115	7375.394600
628.454600	7266.989627
628.801032	7322.835530
629.147412	7276.819877
629.493739	7265.149606
629.840014	7207.589712
630.186236	7260.002588
630.532405	7142.410113
630.878521	7197.063782
631.224585	7159.774367
631.570597	7080.527429
631.916556	7111.762418
632.262462	7105.617252
632.608316	7070.825728
632.954117	7046.113992
633.299866	7028.079264
633.645562	7025.097422
633.991206	6949.704445
634.336797	6886.654734
634.682336	6843.462128
635.027823	6815.755947
635.373257	6805.711448
635.718639	6742.651654
636.063968	6749.033755
636.409245	6647.436861
636.754470	6640.747250
637.099642	6601.022957
637.444762	6544.042795
637.789829	6551.513785
638.134845	6493.911041
638.479808	6480.947714
638.824719	6489.063972
639.169577	6411.165542
639.514383	6437.568585
639.859137	6363.730805
640.203839	6373.755139
640.548489	6355.359969
640.893086	6335.712072
641.237632	6304.845087
641.582125	6329.655125
641.926566	6300.111443
642.270955	6307.433719
642.615292	6306.009593
642.959576	6320.550801
643.303809	6310.034954
643.647990	6317.364792
643.992118	6312.147198
644.336195	6250.740903
644.680219	6277.206961
645.024192	6265.700527
645.368112	6366.241299
645.711981	6384.754937
646.055797	6467.225693
646.399562	6418.366830
646.743274	6545.731582
647.086935	6598.648574
647.430544	6590.537357
647.774101	6612.778928
648.117606	6621.336287
648.461059	6614.064422
648.804460	6577.221149
649.147810	6486.876111
649.491108	6449.798424
649.834354	6429.747235
650.177548	6348.267065
650.520690	6264.503253
650.863781	6239.632720
651.206820	6259.996461
651.549807	6177.097207
651.892742	6124.931347
652.235626	6131.041225
652.578458	6113.692094
652.921238	6021.116345
653.263967	6060.838117
653.606644	5998.842007
653.949269	6006.131515
654.291843	5949.617660
654.634365	5993.795812
654.976836	5948.238905
655.319255	5945.733451
655.661622	5928.626296
656.003938	5926.012457
656.346203	5884.319594
656.688416	5916.260345
657.030577	5868.709662
657.372687	5839.158418
657.714746	5828.488816
658.056753	5871.963726
658.398708	5804.452594
658.740612	5799.444208
659.082465	5847.998081
659.424266	5838.876113
659.766016	5840.290157
660.107715	5819.550850
660.449362	5827.193239
660.790958	5826.812632
661.132503	5808.656916
661.473996	5843.264438
661.815438	5834.518036
662.156829	5835.407799
662.498168	5825.416232
662.839456	5796.613600
663.180693	5834.981822
663.521879	5833.759342
663.863013	5825.756510
664.204097	5843.690415
664.545129	5886.141972
664.886110	5878.819696
665.227040	5914.216157
665.567918	5881.279779
665.908746	5909.071660
666.249522	5911.677936
666.590248	5900.136215
666.930922	5924.109422
667.271545	5938.854797
667.612118	5942.048368
667.952639	5910.831023
668.293109	5936.046874
668.633528	5893.305451
668.973896	5893.129011
669.314213	5884.249018
669.654480	5873.455908
669.994695	5861.896542
670.334859	5851.806673
670.674973	5844.978430
671.015035	5843.312328
671.355047	5842.435168
671.695008	5835.133056
672.034918	5806.521988
672.374777	5815.953987
672.714585	5803.083921
673.054342	5811.812679
673.394049	5799.499660
673.733705	5830.197767
674.073310	5817.347866
674.412864	5777.399242
674.752368	5768.047902
675.091820	5775.473521
675.431223	5711.435744
675.770574	5710.563624
676.109875	5660.600748
676.449125	5667.711296
676.788324	5634.815247
677.127473	5578.276186
677.466571	5571.510957
677.805619	5557.607455
678.144616	5548.203182
678.483562	5524.850037
678.822458	5495.059338
679.161303	5489.816538
679.500098	5480.601309
679.838842	5465.760152
680.177535	5467.300225
680.516179	5486.063399
680.854771	5496.420450
681.193314	5573.179579
681.531805	5680.886352
681.870247	5832.655329
682.208638	5933.405309
682.546978	5942.055929
682.885268	5922.992806
683.223508	5838.140105
683.561697	5789.316530
683.899836	5757.559781
684.237925	5712.706115
684.575963	5672.646586
684.913951	5635.697448
685.251889	5695.140214
685.589776	5664.374052
685.927614	5636.216687
686.265401	5701.088776
686.603137	5688.261560
686.940824	5765.605463
687.278460	5790.843999
687.616046	5797.268950
687.953582	5866.433581
688.291068	5845.666547
688.628504	5911.534263
688.965889	5872.427513
689.303224	5814.890303
689.640510	5770.533190
689.977745	5697.217169
690.314930	5594.410398
690.652065	5544.838212
690.989150	5448.224499
691.326185	5374.663982
691.663170	5323.977700
692.000105	5245.338221
692.336990	5173.310215
692.673825	5143.890041
693.010610	5075.993260
693.347345	5004.640769
693.684030	4994.225745
694.020665	4948.560453
694.357251	4864.055591
694.693786	4871.662692
695.030272	4839.485007
695.366707	4803.866735
695.703093	4769.637300
696.039429	4793.479437
696.375716	4776.982261
696.711952	4746.926902
697.048139	4737.187393
697.384276	4718.025967
697.720363	4726.353953
698.056400	4739.438268
698.392388	4686.196122
698.728326	4668.010159
699.064214	4644.094925
699.400053	4641.344976
699.735842	4609.626036
700.071581	4586.469496
700.407270	4557.891194
700.742910	4541.058782
701.078501	4485.228003
701.414042	4485.343949
701.749533	4455.187767
702.084974	4395.092172
702.420366	4445.949853
702.755709	4388.916759
703.091002	4332.944828
703.426246	4379.451992
703.761440	4332.332327
704.096584	4301.677071
704.431679	4320.951923
704.766725	4305.074808
705.101721	4295.436122
705.436668	4323.159948
705.771565	4270.200106
706.106413	4295.196668
706.441212	4330.361236
706.775961	4339.112679
707.110661	4316.324143
707.445311	4349.658773
707.779913	4369.704921
708.114465	4381.425604
708.448967	4410.162702
708.783421	4466.789983
709.117825	4509.412938
709.452180	4507.129296
709.786485	4557.724836
710.120742	4641.924708
710.454949	4625.530876
710.789107	4694.060322
711.123216	4766.347947
711.457275	4760.031381
711.791286	4832.145087
712.125247	4848.995144
712.459159	4748.595524
712.793023	4826.793902
713.126837	4784.700268
713.460602	4777.307416
713.794318	4697.258934
714.127985	4704.046847
714.461602	4616.789515
714.795171	4591.684569
715.128691	4521.962891
715.462162	4470.913647
715.795584	4419.085544
716.128957	4402.729520
716.462281	4350.160368
716.795556	4325.042819
717.128782	4287.932365
717.461960	4221.684042
717.795088	4229.845670
718.128167	4190.280174
718.461198	4131.626349
718.794180	4130.376143
719.127113	4106.470991
719.459997	4082.500304
719.792833	4043.784243
720.125619	4033.908622
720.458357	3999.772449
720.791046	4007.634129
721.123686	3974.670024
721.456278	3935.906071
721.788821	3953.386272
722.121315	3927.711676
722.453761	3900.504568
722.786158	3912.802463
723.118506	3935.265845
723.450805	3889.966036
723.783056	3909.956732
724.115259	3923.973660
724.447412	3928.934155
724.779518	3921.732867
725.111574	3925.012138
725.443582	3956.191674
725.775542	3947.084830
726.107453	3992.354391
726.439315	3992.145183
726.771129	4008.579345
727.102895	4042.103018
727.434612	4090.372066
727.766281	4102.836319
728.097901	4104.759519
728.429473	4110.718163
728.760996	4116.349132
729.092471	4112.391826
729.423897	4094.344495
729.755276	4104.958645
730.086606	4101.555866
730.417887	4139.661948
730.749120	4203.588820
731.080305	4264.753139
731.411442	4289.356491
731.742530	4263.122326
732.073570	4266.308335
732.404562	4318.655677
732.735506	4311.466992
733.066401	4274.041465
733.397249	4207.702401
733.728048	4136.191113
734.058798	4051.618196
734.389501	3981.536075
734.720156	3918.564502
735.050762	3873.186556
735.381320	3869.599775
735.711831	3817.408709
736.042293	3789.120274
736.372707	3807.729693
736.703073	3782.750776
737.033391	3771.017491
737.363661	3789.977270
737.693883	3816.554233
738.024056	3827.163342
738.354182	3820.937517
738.684260	3882.225344
739.014290	3901.386770
739.344272	3898.548601
739.674207	3943.240950
740.004093	3947.525931
740.333931	3938.507307
740.663722	3942.391516
740.993464	3940.322122
741.323159	3913.445210
741.652806	3884.254409
741.982405	3857.420347
742.311956	3827.884227
742.641460	3819.160510
742.970915	3797.002118
743.300323	3755.624327
743.629683	3721.531004
743.958996	3711.670507
744.288260	3684.907021
744.617477	3655.176816
744.946647	3638.571256
745.275768	3612.911782
745.604842	3612.221144
745.933869	3564.262127
746.262847	3553.244686
746.591778	3594.269596
746.920662	3564.899833
747.249498	3532.429761
747.578286	3579.579673
747.907027	3594.677929
748.235720	3592.820264
748.564365	3620.670118
748.892963	3618.946044
749.221514	3600.770163
749.550017	3576.882656
749.878473	3575.647573
750.206881	3544.430228
750.535242	3545.463665
750.863555	3547.190260
751.191821	3539.414280
751.520039	3522.365098
751.848210	3500.544463
752.176334	3531.865152
752.504411	3537.183569
752.832440	3497.502127
753.160421	3483.656598
753.488356	3489.043071
753.816243	3505.497397
754.144082	3461.662044
754.471875	3444.761575
754.799620	3468.545739
755.127318	3458.281950
755.454969	3458.102989
755.782572	3463.111375
756.110129	3436.917540
756.437638	3427.979574
756.765100	3440.279990
757.092515	3450.891618
757.419882	3458.922177
757.747203	3436.173970
758.074477	3437.144392
758.401703	3450.367338
758.728882	3471.071357
759.056014	3480.276504
759.383099	3479.190136
759.710138	3475.132007
760.037129	3496.052795
760.364073	3523.484234
760.690970	3512.517204
761.017820	3485.640292
761.344623	3504.403467
761.671379	3551.492885
761.998088	3603.386522
762.324751	3726.483937
762.651366	3975.879901
762.977935	4448.873722
763.304456	4884.242892
763.630931	4974.729083
763.957359	4619.027788
764.283740	4276.083133
764.610074	4088.784103
764.936362	3890.074421
765.262602	3736.130185
765.588796	3626.152373
765.914943	3537.148281
766.241044	3449.142338
766.567097	3422.441867
766.893104	3374.465206
767.219064	3343.724249
767.544978	3313.684014
767.870845	3258.460694
768.196665	3241.464444
768.522438	3252.340733
768.848165	3246.732449
769.173846	3212.525700
769.499479	3191.814119
769.825066	3179.231399
770.150607	3160.264058
770.476101	3176.604958
770.801548	3171.747807
771.126949	3124.008080
771.452303	3110.442335
771.777611	3116.746297
772.102872	3121.469859
772.428087	3097.184100
772.753256	3087.323603
773.078378	3080.376893
773.403453	3045.068652
773.728482	3034.837630
774.053465	3054.213305
774.378401	3044.057900
774.703291	3010.108250
775.028135	3013.826101
775.352932	3006.155985
775.677683	2995.803976
776.002388	2993.232987
776.327046	2994.589058
776.651658	2984.012717
776.976224	2970.046200
777.300743	2971.109883
777.625216	2962.923050
777.949643	2953.962399
778.274024	2959.858028
778.598359	2949.672377
778.922647	2955.016000
779.246889	2953.004579
779.571086	2936.265428
779.895236	2931.650252
780.219339	2944.530400
780.543397	2954.131277
780.867409	2956.493058
781.191374	2953.329734
781.515294	2945.901594
781.839167	2949.511060
782.162995	2943.033177
782.486776	2948.437294
782.810511	2945.205914
783.134201	2934.748041
783.457844	2941.767848
783.781441	2928.401228
784.104993	2912.705596
784.428498	2910.563105
784.751958	2925.076587
785.075372	2921.542738
785.398739	2903.392064
785.722061	2920.383273
786.045337	2935.806683
786.368568	2917.726585
786.691752	2908.617220
787.014891	2955.341154
787.337983	2987.065135
787.661030	3011.963394
787.984031	3080.381934
788.306987	3126.808441
788.629897	3117.416771
788.952760	3102.830192
789.275579	3087.467276
789.598351	3029.299922
789.921078	2983.995073
790.243759	2974.343784
790.566395	2958.068418
790.888984	2935.400870
791.211529	2916.778848
791.534027	2906.537744
791.856480	2897.188924
792.178888	2884.800288
792.501249	2874.236551
792.823566	2873.830738
793.145836	2868.963504
793.468062	2864.118955
793.790241	2863.279603
794.112375	2870.266642
794.434464	2883.078734
794.756507	2888.402193
795.078505	2891.242883
795.400457	2905.340470
795.722364	2941.712395
796.044226	2968.019656
796.366042	2967.132413
796.687812	2955.212605
797.009538	2977.844865
797.331218	2965.161322
797.652852	2949.629527
797.974442	2932.466919
798.295986	2929.762340
798.617484	2924.252358
798.938938	2908.115625
799.260346	2891.749519
799.581709	2887.504868
799.903026	2882.221738
800.224299	2876.888198
800.545526	2864.933101
800.866708	2850.676718
801.187845	2841.035511
801.508936	2840.392764
801.829983	2851.173272
802.150984	2837.846982
802.471940	2824.911381
802.792851	2824.452636
803.113717	2822.874755
803.434538	2827.106803
803.755314	2822.446257
804.076045	2815.665905
804.396731	2813.997283
804.717372	2817.694969
805.037967	2809.901345
805.358518	2819.517346
805.679024	2831.928667
805.999485	2826.154025
806.319901	2826.758964
806.640272	2820.417192
806.960598	2827.106803
807.280879	2833.012515
807.601115	2842.431911
807.921306	2829.466063
808.241453	2825.949858
808.561554	2832.790704
808.881611	2833.322546
809.201623	2827.132009
809.521590	2827.663851
809.841513	2824.359374
810.161390	2826.635455
810.481223	2823.431802
810.801011	2812.026192
811.120755	2812.031233
811.440453	2811.292704
811.760107	2812.290852
812.079716	2808.812456
812.399281	2799.493883
812.718801	2791.022224
813.038276	2789.088942
813.357707	2793.487348
813.677093	2800.691157
813.996434	2795.410548
814.315731	2793.336114
814.634983	2786.185237
814.954191	2788.448715
815.273354	2799.952628
815.592473	2813.097437
815.911547	2813.110040
816.230577	2821.022131
816.549562	2829.932370
816.868502	2827.285764
817.187399	2836.392609
817.506250	2851.027078
817.825058	2847.891481
818.143821	2862.251207
818.462539	2876.013557
818.781213	2902.870304
819.099843	2937.881118
819.418429	2994.578975
819.736970	3055.130795
820.055466	3128.547639
820.373919	3233.650655
820.692327	3372.713405
821.010691	3538.098539
821.329011	3974.365034
821.647286	4868.229666
821.965517	6234.284056
822.283704	6959.814479
822.601847	6935.581653
822.919945	6313.944369
823.237999	5814.025745
823.556010	5238.008383
823.873976	4692.668963
824.191897	4286.977066
824.509775	3998.323117
824.827609	3731.666244
825.145398	3609.468674
825.463144	3599.169597
825.780845	3687.866178
826.098502	3793.203609
826.416116	4071.969334
826.733685	4385.090523
827.051210	4444.250984
827.368692	4333.481710
827.686129	4069.960434
828.003522	3746.048656
828.320872	3488.773369
828.638177	3300.007363
828.955439	3164.342352
829.272656	3080.893611
829.589830	3011.539937
829.906960	2962.187041
830.224046	2920.834456
830.541088	2887.613252
830.858086	2871.814276
831.175041	2854.152594
831.491952	2857.557893
831.808819	2865.207844
832.125642	2891.895713
832.442421	2938.745676
832.759157	3018.282481
833.075849	3194.054912
833.392497	3473.254177
833.709101	3674.166843
834.025662	3621.164151
834.342179	3464.570789
834.658653	3288.740384
834.975083	3142.914927
835.291469	3043.468085
835.607811	2964.281641
835.924110	2906.701581
836.240366	2853.736698
836.556578	2812.270687
836.872746	2789.724127
837.188871	2769.451127
837.504952	2750.508991
837.820990	2741.631519
838.136984	2730.629201
838.452935	2722.263406
838.768842	2721.459342
839.084706	2739.544482
839.400526	2817.364773
839.716303	2950.426029
840.032037	3025.824047
840.347727	3012.477592
840.663373	2951.741770
840.978977	2878.168651
841.294537	2808.383958
841.610054	2760.515682
841.925527	2737.013822
842.240957	2716.319886
842.556344	2692.898685
842.871687	2678.491067
843.186987	2670.180725
843.502244	2665.812565
843.817458	2662.457677
844.132629	2650.978970
844.447756	2638.718884
844.762840	2635.021198
845.077881	2639.230561
845.392879	2637.879532
845.707833	2630.032976
846.022745	2622.335134
846.337613	2626.294960
846.652438	2625.017028
846.967221	2624.109620
847.281960	2622.105762
847.596656	2623.542490
847.911309	2620.376646
848.225919	2618.897067
848.540485	2616.449587
848.855009	2614.662498
849.169490	2614.970008
849.483928	2613.934051
849.798323	2614.317179
850.112675	2611.058073
850.426984	2611.887343
850.741251	2611.234513
851.055474	2613.041767
851.369654	2616.598301
851.683792	2613.729884
851.997887	2610.317023
852.311938	2610.866509
852.625947	2613.230810
852.939914	2616.174844
853.253837	2617.704834
853.567718	2613.530759
853.881555	2612.154524
854.195350	2615.809360
854.509103	2614.087806
854.822812	2610.377517
855.136479	2610.463217
855.450103	2614.019751
855.763685	2616.058897
856.077224	2609.346601
856.390720	2608.671087
856.704173	2612.449431
857.017584	2616.419340
857.330953	2618.874382
857.644278	2620.308590
857.957561	2616.678959
858.270802	2614.904473
858.584000	2617.190637
858.897155	2617.636779
859.210268	2620.477469
859.523339	2615.774072
859.836367	2610.904318
860.149352	2609.611262
860.462295	2611.673094
860.775195	2608.310644
861.088054	2607.199070
861.400869	2609.223093
861.713642	2604.297886
862.026373	2606.188318
862.339062	2609.308792
862.651708	2616.066459
862.964312	2614.591922
863.276873	2614.801130
863.589392	2616.182406
863.901869	2621.243724
864.214303	2623.910495
864.526696	2629.294447
864.839045	2631.469705
865.151353	2636.399953
865.463619	2634.030611
865.775842	2631.346197
866.088023	2630.925260
866.400162	2632.132617
866.712258	2632.140178
867.024313	2629.211268
867.336325	2625.430402
867.648296	2628.238325
867.960224	2635.099336
868.272110	2631.174797
868.583954	2627.041051
868.895755	2627.436782
869.207515	2633.413070
869.519233	2639.459934
869.830909	2635.394243
870.142542	2632.150261
870.454134	2633.307205
870.765684	2636.374747
871.077191	2639.487660
871.388657	2644.559061
871.700081	2640.437917
872.011463	2641.652836
872.322803	2643.754997
872.634101	2646.557878
872.945357	2651.858652
873.256571	2660.965496
873.567744	2655.843684
873.878874	2654.716986
874.189963	2655.284116
874.501010	2663.856598
874.812015	2665.666372
875.122979	2666.293996
875.433900	2654.830412
875.744780	2656.415855
876.055618	2662.026659
876.366415	2668.466733
876.677169	2666.833399
876.987882	2656.499034
877.298554	2659.659837
877.609183	2670.442865
877.919771	2675.670542
878.230317	2681.505677
878.540822	2692.112265
878.851285	2708.130531
879.161707	2728.053171
879.472087	2770.764347
879.782425	2813.974597
880.092722	2924.443922
880.402977	3112.121039
880.713191	3369.829865
881.023363	3652.240344
881.333494	3843.181608
881.643583	4014.759800
881.953631	4014.311137
882.263637	3833.300946
882.573602	3619.251033
882.883526	3492.292094
883.193408	3378.057028
883.503248	3280.745114
883.813048	3169.028104
884.122806	3054.974519
884.432522	2967.898668
884.742197	2907.611510
885.051831	2868.635829
885.361424	2836.095181
885.670975	2799.927422
885.980485	2767.969027
886.289954	2751.960843
886.599382	2739.972980
886.908768	2725.512430
887.218113	2711.868547
887.527417	2698.547298
887.836680	2686.783765
888.145901	2681.099864
888.455082	2675.693227
888.764221	2666.059582
889.073319	2657.000628
889.382376	2657.282933
889.691392	2656.297387
890.000366	2655.006852
890.309300	2656.700680
890.618193	2657.267810
890.927044	2661.704025
891.235855	2660.219405
891.544625	2659.256545
891.853353	2659.382574
892.162041	2664.030517
892.470687	2685.624300
892.779293	2696.966896
893.087858	2708.347301
893.396381	2731.080384
893.704864	2769.236878
894.013306	2841.456448
894.321707	2931.398194
894.630068	2979.868888
894.938387	2998.949656
895.246665	2992.134016
895.554903	2949.175823
895.863100	2907.528331
896.171256	2849.149248
896.479371	2787.871503
896.787446	2750.556882
897.095480	2733.870663
897.403473	2728.169118
897.711425	2712.546582
898.019336	2694.658048
898.327207	2677.717250
898.635038	2679.648012
898.942827	2675.592404
899.250576	2667.987823
899.558284	2656.398211
899.865952	2650.139618
900.173579	2652.468631
900.481165	2647.709782
900.788711	2642.494708
901.096216	2632.326701
901.403681	2632.654376
901.711105	2632.634211
902.018489	2628.623973
902.325832	2632.351907
902.633135	2635.868112
902.940397	2651.689773
903.247619	2684.522808
903.554800	2752.575864
903.861941	2879.499515
904.169041	2999.128617
904.476101	3058.231104
904.783121	3055.370249
905.090100	3002.178515
905.397039	2926.460384
905.703938	2854.462625
906.010796	2792.738737
906.317614	2742.175964
906.624391	2706.751776
906.931129	2678.861592
907.237826	2655.405103
907.544483	2640.967239
907.851099	2626.857049
908.157675	2617.243569
908.464211	2611.438680
908.770707	2601.479881
909.077163	2592.257090
909.383578	2592.849425
909.689954	2590.490165
909.996289	2591.334558
910.302584	2588.198961
910.608839	2583.490523
910.915054	2586.860534
911.221229	2589.635690
911.527363	2589.670978
911.833458	2589.938159
912.139513	2590.205340
912.445527	2593.454364
912.751502	2597.182297
913.057436	2602.440220
913.363331	2609.074379
913.669186	2618.639968
913.975000	2632.795528
914.280775	2647.908907
914.586510	2665.777277
914.892205	2701.645087
915.197859	2770.388781
915.503475	2851.286698
915.809050	2916.723395
916.114585	2928.363419
916.420081	2939.501849
916.725536	2947.708847
917.030952	2930.541198
917.336328	2882.776265
917.641665	2833.922443
917.946961	2782.479989
918.252218	2750.140987
918.557435	2728.859756
918.862612	2701.559387
919.167750	2686.297294
919.472848	2671.015036
919.777906	2652.932417
920.082925	2641.536889
920.387904	2632.528347
920.692843	2626.201699
920.997743	2621.846142
921.302603	2614.062601
921.607423	2608.492126
921.912204	2604.915427
922.216946	2604.129007
922.521647	2599.443254
922.826310	2595.937132
923.130932	2592.367995
923.435516	2586.053950
923.740059	2586.752150
924.044564	2581.511870
924.349028	2581.794175
924.653454	2571.253122
924.957840	2571.142217
925.262186	2570.262535
925.566493	2571.225396
925.870761	2565.707853
926.174989	2565.874211
926.479178	2564.142575
926.783328	2562.161401
927.087438	2564.573593
927.391509	2563.504869
927.695541	2560.351627
927.999533	2557.649568
928.303486	2558.758622
928.607400	2557.717624
928.911275	2556.603529
929.215110	2555.149156
929.518906	2556.348951
929.822663	2558.466235
930.126381	2555.834753
930.430060	2557.326935
930.733699	2555.232335
931.037299	2560.265927
931.340861	2557.974723
931.644383	2556.066646
931.947866	2554.289639
932.251309	2561.382543
932.554714	2554.065308
932.858080	2557.873900
933.161407	2557.528581
933.464694	2557.132850
933.767943	2555.819630
934.071153	2555.998591
934.374323	2554.398024
934.677455	2554.965154
934.980548	2552.535318
935.283602	2554.143446
935.586617	2554.203940
935.889593	2552.084135
936.192530	2554.834084
936.495428	2552.353836
936.798287	2555.396173
937.101108	2554.145967
937.403890	2560.681822
937.706632	2562.302553
938.009336	2562.889848
938.312002	2567.653738
938.614628	2570.940571
938.917216	2573.841755
939.219765	2576.211097
939.522275	2576.306879
939.824747	2575.361662
940.127179	2570.401167
940.429573	2566.106104
940.731929	2570.527196
941.034246	2563.898079
941.336524	2566.348079
941.638763	2564.339180
941.940964	2568.092319
942.243126	2561.107800
942.545250	2564.664334
942.847335	2563.421690
943.149381	2561.153170
943.451389	2558.713252
943.753359	2558.665361
944.055290	2558.360371
944.357182	2561.006977
944.659036	2559.708880
944.960851	2558.914898
945.262628	2555.343241
945.564367	2558.625032
945.866067	2561.755588
946.167729	2558.846843
946.469352	2556.739640
946.770937	2557.697459
947.072484	2556.467418
947.373992	2555.350802
947.675462	2556.273333
947.976893	2558.496482
948.278286	2555.686039
948.579641	2553.546069
948.880958	2555.091183
949.182236	2554.990360
949.483476	2554.602191
949.784678	2553.631769
950.085841	2555.358364
950.386967	2554.919784
950.688054	2553.359547
950.989103	2554.902140
951.290114	2555.038251
951.591087	2558.476318
951.892021	2558.085628
952.192917	2560.139898
952.493776	2560.954045
952.794596	2559.303067
953.095378	2561.848850
953.396122	2562.040413
953.696828	2560.759960
953.997496	2559.335834
954.298126	2557.440361
954.598718	2556.618652
954.899272	2555.050854
955.199788	2554.952551
955.500266	2552.308466
955.800706	2547.365615
956.101108	2542.886549
956.401472	2548.905687
956.701798	2543.231868
957.002087	2547.153886
957.302337	2546.725388
957.602550	2543.864533
957.902724	2543.940151
958.202861	2545.298742
958.502960	2544.464431
958.803022	2544.527445
959.103045	2542.831097
959.403031	2540.517207
959.702979	2542.788247
960.002889	2540.073586
960.302762	2541.452341
960.602596	2542.241282
960.902393	2542.140459
961.202153	2541.238092
961.501875	2539.798843
961.801559	2544.751776
962.101205	2538.493184
962.400814	2540.376055
962.700385	2541.485109
962.999918	2540.544933
963.299414	2539.113246
963.598873	2540.028215
963.898293	2537.946219
964.197677	2540.310520
964.497022	2539.186342
964.796331	2541.265818
965.095601	2537.570653
965.394835	2539.065355
965.694030	2537.794984
965.993189	2538.573842
966.292309	2537.938657
966.591393	2537.525282
966.890439	2536.151568
967.189447	2538.974614
967.488419	2539.516538
967.787353	2539.140972
968.086249	2541.631302
968.385108	2542.032074
968.683930	2542.468134
968.982714	2538.672145
969.281462	2535.725590
969.580172	2540.343287
969.878844	2538.324305
970.177480	2540.096271
970.476078	2538.646939
970.774639	2542.639533
971.073162	2537.560570
971.371649	2536.272556
971.670098	2536.877494
971.968510	2538.452855
972.266885	2536.035621
972.565223	2540.696168
972.863524	2539.453524
973.161788	2541.273380
973.460014	2539.927392
973.758204	2541.222969
974.056356	2540.691127
974.354471	2539.405633
974.652550	2538.014274
974.950591	2540.998637
975.248595	2540.247505
975.546563	2537.585776
975.844493	2539.511497
976.142386	2539.206507
976.440243	2538.931764
976.738062	2541.890922
977.035845	2537.931095
977.333590	2537.242978
977.631299	2537.212731
977.928971	2540.423946
978.226606	2539.995448
978.524204	2537.953780
978.821765	2538.125180
979.119290	2538.914120
979.416777	2537.905889
979.714228	2538.725077
980.011642	2538.112577
980.309020	2538.120138
980.606360	2537.905889
980.903664	2537.749614
981.200931	2538.036959
981.498162	2540.665921
981.795356	2540.575180
982.092513	2545.182795
982.389633	2545.999462
982.686717	2550.564227
982.983764	2551.348126
983.280775	2552.643703
983.577749	2555.234856
983.874686	2552.063970
984.171587	2549.245965
984.468451	2548.643547
984.765279	2544.280428
985.062070	2542.909235
985.358824	2544.250182
985.655543	2537.346321
985.952224	2538.314223
986.248869	2540.181970
986.545478	2534.243491
986.842050	2536.242309
987.138586	2535.818852
987.435086	2532.726104
987.731549	2531.624612
988.027975	2536.660724
988.324366	2536.075951
988.620719	2538.410005
988.917037	2533.643594
989.213318	2536.817000
989.509563	2535.730632
989.805772	2534.132586
990.101944	2536.181815
990.398080	2535.387833
990.694180	2537.802546
990.990244	2532.461443
991.286271	2535.297092
991.582262	2536.567463
991.878217	2534.982020
992.174136	2535.350024
992.470019	2533.847761
992.765865	2537.978986
993.061676	2535.052596
993.357450	2533.225178
993.653188	2535.304654
993.948890	2535.100487
994.244556	2533.179808
994.540186	2537.585776
994.835780	2536.096115
995.131337	2537.752134
995.426859	2536.917823
995.722345	2537.111908
996.017795	2535.062679
996.313208	2542.853782
996.608586	2540.081147
996.903928	2538.442772
997.199234	2539.602238
997.494504	2536.506969
997.789738	2540.388658
998.084936	2538.962011
998.380099	2535.458409
998.675225	2535.859181
998.970316	2537.124511
999.265371	2536.615354
999.560390	2534.495549
999.855373	2538.147865
1000.150320	2535.133255
1000.445232	2537.003523
1000.740108	2534.702236
1001.034948	2534.719880
1001.329752	2533.071423
1001.624521	2536.028060
1001.919254	2530.006401
1002.213951	2530.923891
1002.508613	2532.894983
1002.803239	2532.264838
1003.097829	2526.550690
1003.392384	2533.489839
1003.686903	2533.184849
1003.981386	2534.606454
1004.275834	2534.193080
1004.570246	2535.902031
1004.864623	2535.796167
1005.158964	2533.106711
1005.453270	2533.383974
1005.747540	2533.958666
1006.041775	2533.358769
1006.335974	2533.925898
1006.630138	2532.564787
1006.924266	2533.353728
1007.218359	2532.617719
1007.512416	2531.763243
1007.806438	2533.724252
1008.100425	2532.237112
1008.394376	2531.561597
1008.688292	2535.518903
1008.982172	2532.874818
1009.276017	2534.354397
1009.569827	2533.998995
1009.863602	2537.353883
1010.157341	2534.729963
1010.451045	2532.126207
1010.744714	2535.284489
1011.038347	2530.714683
1011.331945	2534.450178
1011.625508	2534.437576
1011.919036	2531.952287
1012.212528	2533.651156
1012.505986	2532.559746
1012.799408	2533.988913
1013.092795	2531.760723
1013.386147	2532.549663
1013.679464	2532.743748
1013.972745	2534.228368
1014.265992	2533.147040
1014.559204	2534.563604
1014.852380	2532.000178
1015.145521	2534.097298
1015.438628	2531.745599
1015.731699	2531.738038
1016.024736	2533.620909
1016.317737	2534.200641
1016.610703	2531.957328
1016.903635	2531.367513
1017.196531	2529.572862
1017.489393	2531.085208
1017.782219	2527.493386
1018.075011	2531.682585
1018.367768	2532.461443
1018.660490	2533.444468
1018.953177	2533.444468
1019.245829	2533.444468
