Dividing Wavelength (nm)	Counts (n)	Blue Motor Position (mm): 26.400000	Red Motor Position (mm): 0.000000	
326.493990	2203.377441
326.888308	2203.377441
327.282561	2203.377441
327.676750	2163.385967
328.070874	2157.192910
328.464933	2159.012766
328.858929	2162.690288
329.252859	2169.677327
329.646726	2176.550941
330.040528	2190.552745
330.434265	2201.219827
330.827938	2220.817313
331.221547	2239.421691
331.615091	2253.410893
332.008571	2272.335384
332.401986	2290.362550
332.795338	2309.690334
333.188625	2327.679692
333.581847	2348.643330
333.975006	2367.035980
334.368100	2385.857128
334.761129	2404.650549
335.154095	2419.088414
335.546996	2446.981118
335.939833	2479.688124
336.332606	2499.827534
336.725315	2510.895387
337.117960	2522.316121
337.510540	2533.522606
337.903056	2546.112888
338.295508	2553.057077
338.687896	2563.497307
339.080220	2569.491239
339.472480	2577.783937
339.864676	2579.437435
340.256807	2589.368508
340.648875	2592.557038
341.040879	2594.646597
341.432818	2597.847729
341.824694	2600.874942
342.216506	2599.143306
342.608253	2602.357041
342.999937	2603.456013
343.391557	2604.723863
343.783113	2602.750251
344.174605	2600.126331
344.566033	2600.706063
344.957397	2600.761516
345.348697	2597.653645
345.739934	2596.169025
346.131106	2595.972420
346.522215	2593.860177
346.913260	2591.818509
347.304241	2589.514702
347.695159	2585.489341
348.086012	2585.703590
348.476802	2583.041860
348.867528	2579.805440
349.258191	2576.112794
349.648789	2573.115828
350.039324	2570.423852
350.429796	2577.844431
350.820203	2574.103895
351.210548	2573.965263
351.600828	2572.717577
351.991045	2570.519634
352.381198	2574.179512
352.771288	2568.535940
353.161314	2569.057700
353.551276	2567.134499
353.941175	2566.161557
354.331010	2567.525189
354.720782	2569.213975
355.110490	2566.569890
355.500135	2566.698440
355.889717	2568.694737
356.279235	2568.036866
356.668689	2567.424366
357.058080	2567.631053
357.447408	2568.777916
357.836672	2567.658779
358.225873	2567.449572
358.615010	2568.296485
359.004084	2570.023081
359.393095	2571.961404
359.782043	2569.650035
360.170927	2570.297823
360.559748	2572.460478
360.948505	2572.417629
361.337199	2573.476271
361.725830	2573.635067
362.114398	2572.397464
362.502903	2573.887125
362.891344	2572.243709
363.279722	2573.088102
363.668037	2574.517269
364.056289	2576.881570
364.444478	2572.914182
364.832603	2578.393917
365.220665	2577.899883
365.608665	2577.380645
365.996601	2579.548341
366.384474	2577.756211
366.772284	2581.786613
367.160031	2580.886767
367.547715	2580.319637
367.935336	2580.294432
368.322893	2578.104050
368.710388	2577.544482
369.097820	2577.688155
369.485189	2575.706982
369.872495	2582.651171
370.259738	2581.146387
370.646918	2582.759556
371.034035	2584.818867
371.421090	2585.421285
371.808081	2583.011613
372.195010	2583.651840
372.581875	2583.969433
372.968678	2584.294587
373.355418	2582.709144
373.742096	2585.527149
374.128710	2583.525811
374.515262	2586.802561
374.901751	2585.736357
375.288177	2587.634352
375.674540	2586.966399
376.060841	2585.408682
376.447079	2583.359453
376.833254	2586.227870
377.219367	2589.875144
377.605417	2588.370360
377.991404	2588.977819
378.377329	2586.792479
378.763191	2591.016966
379.148991	2589.423961
379.534727	2592.378077
379.920402	2589.252562
380.306013	2588.919846
380.691563	2593.353541
381.077049	2588.456060
381.462474	2590.061667
381.847835	2588.309866
382.233134	2590.548138
382.618371	2590.994281
383.003545	2590.946390
383.388657	2592.400762
383.773706	2590.296081
384.158693	2591.730289
384.543618	2593.759353
384.928480	2592.584765
385.313280	2590.343972
385.698017	2591.541246
386.082692	2590.921184
386.467305	2591.533684
386.851856	2593.494693
387.236344	2597.177256
387.620770	2591.437902
388.005133	2590.285998
388.389435	2593.240115
388.773674	2592.741040
389.157851	2597.048706
389.541965	2597.182297
389.926018	2596.922677
390.310008	2597.618357
390.693936	2598.220775
391.077802	2594.132399
391.461606	2598.649273
391.845348	2597.285641
392.229027	2596.630291
392.612645	2596.952924
392.996200	2597.089036
393.379694	2598.981989
393.763125	2600.181783
394.146494	2599.329828
394.529801	2598.578697
394.913047	2598.533326
395.296230	2599.423090
395.679351	2600.383430
396.062410	2601.452154
396.445408	2600.950559
396.828343	2600.106166
397.211217	2601.994078
397.594028	2604.726384
397.976778	2601.729418
398.359466	2602.084819
398.742092	2603.876949
399.124656	2603.211517
399.507158	2603.103132
399.889598	2603.894593
400.271977	2606.480705
400.654294	2604.338215
401.036549	2603.813935
401.418742	2602.530961
401.800874	2607.660335
402.182944	2605.921137
402.564952	2606.521034
402.946898	2608.474482
403.328783	2604.265118
403.710606	2605.013729
404.092367	2605.863164
404.474067	2607.052876
404.855705	2608.761827
405.237282	2609.180243
405.618797	2606.672269
406.000250	2609.144955
406.381642	2608.635798
406.762972	2602.344438
407.144240	2606.032043
407.525447	2606.221086
407.906593	2603.448451
408.287677	2609.984307
408.668700	2606.531117
409.049661	2611.589915
409.430560	2611.962960
409.811399	2612.020933
410.192176	2613.404730
410.572891	2610.894235
410.953545	2609.349122
411.334138	2608.179574
411.714669	2610.664863
412.095139	2612.068824
412.475547	2612.315841
412.855894	2611.942795
413.236180	2613.447580
413.616405	2611.831890
413.996568	2613.150152
414.376670	2614.922117
414.756711	2613.147631
415.136691	2614.798609
415.516609	2615.403547
415.896466	2615.491768
416.276262	2616.071500
416.655997	2616.520163
417.035670	2616.739453
417.415283	2618.420678
417.794834	2617.823301
418.174324	2619.186933
418.553753	2615.970677
418.933121	2619.363374
419.312428	2619.413785
419.691674	2616.411778
420.070859	2620.101903
420.449983	2620.812706
420.829045	2620.384207
421.208047	2618.014865
421.586988	2618.181223
421.965867	2620.865638
422.344686	2623.101389
422.723444	2620.963940
423.102141	2621.152983
423.480777	2622.413272
423.859352	2621.266409
424.237866	2623.608025
424.616319	2626.176493
424.994712	2625.944600
425.373044	2624.225567
425.751314	2621.626852
426.129524	2621.584002
426.507673	2623.020731
426.885762	2623.441667
427.263789	2624.714559
427.641756	2629.334776
428.019662	2627.729169
428.397508	2627.537605
428.775292	2630.103552
429.153016	2631.507513
429.530679	2629.869138
429.908282	2631.305867
430.285824	2629.034827
430.663305	2629.707822
431.040726	2630.494242
431.418086	2633.574387
431.795385	2633.491207
432.172624	2632.742596
432.549802	2634.622947
432.926920	2634.267545
433.303977	2634.456588
433.680974	2636.183184
434.057910	2638.048411
434.434786	2636.861219
434.811601	2638.308030
435.188355	2638.842392
435.565050	2639.134779
435.941683	2639.898514
436.318257	2641.279790
436.694770	2644.690131
437.071222	2642.671149
437.447614	2645.746252
437.823946	2647.556027
438.200218	2647.939154
438.576429	2651.457880
438.952580	2650.714310
439.328670	2654.843015
439.704700	2655.586585
440.080670	2660.012718
440.456580	2663.579334
440.832429	2667.471105
441.208218	2668.948163
441.583947	2672.708864
441.959616	2676.416632
442.335224	2682.261850
442.710773	2687.207222
443.086261	2696.152750
443.461689	2698.259952
443.837057	2711.157744
444.212365	2724.579816
444.587612	2728.486711
444.962800	2740.406519
445.337927	2755.610639
445.712995	2758.882348
446.088002	2796.930456
446.462949	2810.851603
446.837837	2828.016732
447.212664	2849.923066
447.587431	2891.936042
447.962139	2938.896910
448.336786	3054.835887
448.711374	3126.735344
449.085901	3074.602251
449.460369	3092.760487
449.834776	3110.628857
450.209124	3202.496324
450.583412	3289.786424
450.957640	3411.202614
451.331808	3414.827204
451.705917	3397.558731
452.079965	3403.071233
452.453954	3548.579098
452.827883	3584.129315
453.201752	3687.054553
453.575562	3711.315106
453.949311	3832.837160
454.323001	3905.581010
454.696632	4020.940254
455.070202	4152.519411
455.443713	4278.563380
455.817164	4458.615752
456.190556	4556.709044
456.563888	4731.712700
456.937160	4878.634608
457.310373	4850.247871
457.683526	4957.097647
458.056619	4980.044979
458.429653	5113.902737
458.802628	5116.234271
459.175542	5311.405063
459.548398	5659.710985
459.921194	5890.555502
460.293930	6041.596033
460.666607	6446.995543
461.039224	6907.799854
461.411782	7308.387583
461.784280	7432.997344
462.156719	7622.181766
462.529099	7644.413254
462.901419	7439.006399
463.273680	7511.805702
463.645882	7609.125177
464.018024	7643.309241
464.390106	7897.441368
464.762130	8373.069193
465.134094	8820.274992
465.505999	9827.782355
465.877845	11476.020373
466.249631	13070.418867
466.621358	13212.166031
466.993026	12787.131227
467.364634	12736.676838
467.736184	12272.867999
468.107674	12047.233515
468.479105	12307.709934
468.850477	12245.096283
469.221790	12199.945188
469.593043	12007.237000
469.964238	11917.128896
470.335373	11883.653114
470.706449	12303.709779
471.077467	12174.159687
471.448425	13474.938696
471.819324	16186.363621
472.190164	17845.377105
472.560945	15824.895246
472.931667	14395.032452
473.302330	14128.199137
473.672934	13913.904729
474.043479	14372.208628
474.413965	14400.063523
474.784393	14295.759530
475.154761	14936.623774
475.525070	15109.404281
475.895321	14978.200690
476.265513	15572.903089
476.635645	16146.901469
477.005719	16159.242213
477.375734	16456.745908
477.745691	16996.063670
478.115588	17532.003858
478.485427	18132.369993
478.855207	19137.266039
479.224928	20662.068884
479.594591	22685.852699
479.964194	22940.892234
480.333739	23390.535430
480.703226	23146.067195
481.072653	23032.787427
481.442022	23625.758189
481.811333	24535.366345
482.180584	24653.720035
482.549777	23938.236631
482.918912	23746.700511
483.287988	23955.691626
483.657005	23797.230517
484.025964	23620.659062
484.394864	23700.566392
484.763706	23540.083780
485.132489	23086.987393
485.501213	23318.953566
485.869879	23356.870605
486.238487	23193.133928
486.607036	23450.222692
486.975527	23188.135624
487.343959	23569.619900
487.712333	23614.650007
488.080648	23340.234797
488.448905	23843.178114
488.817104	23648.065295
489.185244	24330.821528
489.553326	24360.264387
489.921350	25316.909029
490.289315	27532.387760
490.657222	29362.122439
491.025070	29876.824247
491.392861	29730.719005
491.760593	28954.255284
492.128267	28130.387073
492.495883	27159.158373
492.863440	26317.946072
493.230939	25466.971576
493.598380	25337.819735
493.965763	24960.968279
494.333088	24557.421393
494.700354	24481.020186
495.067563	24397.684872
495.434713	24170.480068
495.801805	24306.901253
496.168839	24149.755885
496.535815	23987.513910
496.902733	24199.023081
497.269593	23880.701942
497.636395	24076.943979
498.003139	24086.653242
498.369825	23827.764786
498.736453	24023.956411
499.103023	23915.954731
499.469535	23938.856693
499.835989	24154.509693
500.202385	24175.029710
500.568723	23672.731661
500.935003	23959.316216
501.301226	23530.591287
501.667390	24358.749520
502.033497	24627.992506
502.399546	24349.287275
502.765537	23956.556184
503.131470	24327.423790
503.497345	24458.738286
503.863163	23674.672505
504.228923	24317.154960
504.594625	24482.124199
504.960269	23992.149251
505.325856	24507.113199
505.691385	23922.886318
506.056856	24516.172152
506.422270	24483.155115
506.787625	24094.814870
507.152924	24484.712832
507.518164	24501.822508
507.883347	24319.758716
508.248472	24017.216388
508.613540	24793.662466
508.978550	24569.328599
509.343503	24553.315374
509.708398	24829.479864
510.073236	24976.555527
510.438016	25202.389137
510.802738	24880.322421
511.167403	25120.422496
511.532010	24815.273892
511.896561	25608.237310
512.261053	25577.549286
512.625488	25423.163949
512.989866	25323.863301
513.354186	25173.180692
513.718449	25246.942855
514.082655	25632.139941
514.446803	25388.579113
514.810894	25827.842574
515.174927	25316.646889
515.538904	25358.516192
515.902822	25850.706728
516.266684	25590.938590
516.630488	25491.509393
516.994235	25491.373281
517.357925	25782.394052
517.721558	25975.482847
518.085133	26053.537552
518.448651	25981.975853
518.812112	25700.228285
519.175516	25884.210236
519.538863	26064.338225
519.902152	25829.785939
520.265385	26132.000592
520.628560	25922.386894
520.991678	25942.425481
521.354739	25999.758523
521.717743	26064.915437
522.080690	25859.596802
522.443580	26185.497316
522.806413	26195.083070
523.169189	26282.652954
523.531908	26335.711098
523.894569	25943.363135
524.257174	26009.608938
524.619722	26209.919186
524.982213	25893.710290
525.344647	25964.283924
525.707025	26074.312147
526.069345	26084.356647
526.431608	26029.541660
526.793815	26220.515691
527.155964	25673.331209
527.518057	25849.882499
527.880093	25766.617761
528.242072	26000.464285
528.603995	25704.936723
528.965860	25496.507697
529.327669	25554.917026
529.689421	25540.713575
530.051117	25372.079417
530.412755	25553.041716
530.774337	25357.366809
531.135862	25231.279990
531.497331	25442.085920
531.858743	24966.082530
532.220098	25456.869104
532.581396	25142.412009
532.942638	25081.058646
533.303824	25171.096175
533.664953	25193.897313
534.026025	24869.735998
534.387040	25100.540185
534.747999	25160.459340
535.108902	25323.918753
535.469748	24811.997142
535.830537	25007.074672
536.191270	25115.177176
536.551947	25007.387224
536.912567	24669.571943
537.273131	24978.997966
537.633638	24703.188878
537.994089	24907.547172
538.354483	24461.286590
538.714821	24958.873680
539.075103	25005.922769
539.435328	24787.061075
539.795497	24338.705893
540.155609	24745.826957
540.515665	25032.320771
540.875665	24278.138950
541.235609	24565.572939
541.595496	24529.569018
541.955328	24883.757967
542.315102	24791.557784
542.674821	24365.534913
543.034483	24230.805036
543.394090	24405.075204
543.753640	24182.977089
544.113134	24829.762168
544.472571	24433.560243
544.831953	24720.676640
545.191278	24321.815507
545.550548	24261.782926
545.909761	24455.678306
546.268918	24694.792836
546.628019	24662.431149
546.987064	24363.465520
547.346053	24114.838333
547.704986	24249.981585
548.063863	24401.259050
548.422684	24393.959459
548.781449	23954.774136
549.140158	24366.898546
549.498811	23920.307767
549.857408	23676.777187
550.215949	24107.871458
550.574434	23775.225880
550.932864	24013.271686
551.291237	24143.096521
551.649555	24008.704400
552.007817	24068.941148
552.366022	23936.671353
552.724173	23985.936029
553.082267	23903.089707
553.440305	24393.407453
553.798288	23664.718747
554.156215	24185.064126
554.514086	24270.587301
554.871902	23637.748574
555.229661	23930.221197
555.587365	23798.226145
555.945014	23626.950422
556.302606	23900.173399
556.660143	23829.667821
557.017625	24106.858186
557.375050	23633.730774
557.732421	24025.597307
558.089735	23823.820083
558.446994	23897.304982
558.804197	23912.151181
559.161345	23873.838411
559.518437	23606.853862
559.875474	23815.756757
560.232455	23990.911648
560.589381	23818.108456
560.946251	23781.635707
561.303065	24128.083964
561.659825	24205.881571
562.016528	23806.120592
562.373177	23555.262694
562.729770	23905.514502
563.086307	23776.140850
563.442789	23937.500623
563.799216	23764.589046
564.155587	23776.488689
564.511904	23752.742334
564.868164	23688.089536
565.224370	23682.289689
565.580520	23588.758641
565.936615	23714.442168
566.292654	23384.831365
566.648638	23703.278533
567.004567	23527.226317
567.360441	23471.692966
567.716260	23195.626779
568.072023	23516.334904
568.427732	23288.593217
568.783385	23071.009456
569.138982	23300.079486
569.494525	23348.585469
569.850013	23083.503955
570.205445	23173.705321
570.560823	22983.860508
570.916145	22757.411878
571.271412	22927.971756
571.626625	22682.520496
571.981782	22795.326396
572.336884	22609.015432
572.691931	22734.419175
573.046923	22477.380823
573.401860	22340.069874
573.756743	22351.510773
574.111570	22262.788986
574.466342	22199.920756
574.821059	22296.859624
575.175722	21994.415599
575.530330	21979.750883
575.884882	22001.014469
576.239380	21902.038975
576.593823	21796.260444
576.948211	21789.737191
577.302544	21624.581429
577.656823	21495.573261
578.011047	21596.008169
578.365216	21478.100622
578.719330	21339.829334
579.073389	21242.114128
579.427394	21384.635109
579.781344	21168.757778
580.135239	21051.049356
580.489080	21016.918224
580.842866	20793.484203
581.196597	20973.821400
581.550273	20962.914864
581.903895	20839.262922
582.257463	21163.338538
582.610975	20682.679642
582.964434	20994.875779
583.317837	20711.154599
583.671186	20793.010335
584.024481	20755.557082
584.377721	20541.751666
584.730906	20589.435940
585.084037	20621.159921
585.437113	20518.264930
585.790135	20721.065508
586.143103	20185.379897
586.496016	20198.801969
586.848874	20443.028229
587.201679	20385.364991
587.554428	20050.065246
587.907124	20379.877695
588.259765	20161.157153
588.612352	20234.561394
588.964884	19814.121602
589.317362	19978.972374
589.669786	20028.463902
590.022155	20086.694270
590.374470	20256.422358
590.726731	20071.734646
591.078937	19821.627880
591.431090	19925.710063
591.783188	19671.419139
592.135232	19638.147524
592.487222	19737.833821
592.839157	19768.335322
593.191038	19642.361928
593.542866	19525.886069
593.894639	19258.934287
594.246358	19471.497060
594.598022	19380.804182
594.949633	19132.174474
595.301190	19094.753989
595.652692	19259.415718
596.004141	19503.420167
596.355535	18832.485440
596.706876	18841.778807
597.058162	18736.509432
597.409395	18962.269945
597.760573	19037.088230
598.111698	18816.036155
598.462768	18750.130630
598.813785	18724.597186
599.164748	18538.235810
599.515657	18573.725533
599.866511	18362.123101
600.217312	18726.462413
600.568060	18254.900279
600.918753	18564.235561
601.269392	18463.384758
601.619978	18249.791069
601.970510	18449.367830
602.320988	18398.812618
602.671412	18605.643599
603.021783	18506.773969
603.372100	18240.893433
603.722363	18384.730155
604.072572	18317.150967
604.422728	18460.274366
604.772830	18226.931957
605.122878	18168.565478
605.472872	18160.751690
605.822813	18148.927663
606.172701	18117.485987
606.522534	18316.457808
606.872314	18331.261157
607.222041	18169.709820
607.571714	18378.645482
607.921333	18219.345021
608.270899	18294.606927
608.620411	18474.616449
608.969870	18228.953460
609.319276	18242.526767
609.668627	18277.449360
610.017926	18409.693949
610.367171	18516.291668
610.716362	18559.403615
611.065500	18389.025218
611.414585	18519.848202
611.763616	18497.878853
612.112594	18442.320297
612.461518	18420.033355
612.810389	18609.946224
613.159207	18461.035580
613.507971	18370.501498
613.856682	18645.309918
614.205340	18578.113858
614.553945	18724.761023
614.902496	18465.522207
615.250994	18701.148258
615.599439	18638.781624
615.947830	18626.718142
616.296169	18679.882151
616.644454	18647.137336
616.992686	18613.159959
617.340864	18823.751641
617.688990	18586.835054
618.037063	18759.086240
618.385082	18604.521942
618.733048	18887.807062
619.080961	18758.382999
619.428821	18792.194018
619.776628	18686.322225
620.124382	18611.118292
620.472083	18644.825967
620.819731	18672.869906
621.167326	18366.266929
621.514868	18405.887878
621.862357	18160.003078
622.209793	18170.478596
622.557176	18010.520264
622.904506	17843.849635
623.251783	17745.166528
623.599007	17519.426180
623.946179	17460.643805
624.293297	17408.387204
624.640363	17154.887742
624.987376	17173.229980
625.334336	16968.649875
625.681243	16814.672872
626.028097	16819.300651
626.374899	16749.203407
626.721647	16614.108046
627.068343	16445.660410
627.414987	16380.599279
627.761577	16346.498394
628.108115	16395.425312
628.454600	16116.641943
628.801032	16216.366048
629.147412	16145.371479
629.493739	16161.757749
629.840014	15980.049359
630.186236	16072.685602
630.532405	15834.987636
630.878521	16036.827875
631.224585	15920.825883
631.570597	15751.531334
631.916556	15785.889318
632.262462	15766.564055
632.608316	15683.838721
632.954117	15621.978722
633.299866	15624.660616
633.645562	15542.547781
633.991206	15290.676612
634.336797	15169.842674
634.682336	15128.931190
635.027823	15015.979097
635.373257	14901.605399
635.718639	14799.602692
636.063968	14750.428757
636.409245	14514.107026
636.754470	14526.208316
637.099642	14382.989135
637.444762	14152.835256
637.789829	14197.792266
638.134845	14037.977607
638.479808	14067.359972
638.824719	14005.626002
639.169577	13861.338097
639.514383	13901.379982
639.859137	13718.776787
640.203839	13806.066886
640.548489	13650.711127
640.893086	13642.516732
641.237632	13509.614273
641.582125	13663.298889
641.926566	13480.337772
642.270955	13500.809897
642.615292	13462.517293
642.959576	13470.620947
643.303809	13511.350950
643.647990	13436.073920
643.992118	13497.144978
644.336195	13272.896811
644.680219	13468.390237
645.024192	13397.055389
645.368112	13640.636382
645.711981	13697.727449
646.055797	13877.457186
646.399562	13832.560670
646.743274	14109.965284
647.086935	14382.699269
647.430544	14346.148383
647.774101	14380.052663
648.117606	14538.644843
648.461059	14497.660262
648.804460	14493.314787
649.147810	14219.809506
649.491108	14122.802582
649.834354	14137.540396
650.177548	13835.237523
650.520690	13647.787258
650.863781	13565.427407
651.206820	13602.442079
651.549807	13439.698510
651.892742	13238.984969
652.235626	13176.958612
652.578458	13184.903471
652.921238	12867.638454
653.263967	13065.859143
653.606644	12897.706416
653.949269	12873.198846
654.291843	12668.931293
654.634365	12831.795850
654.976836	12679.389166
655.319255	12693.501876
655.661622	12651.438489
656.003938	12565.126373
656.346203	12497.032988
656.688416	12564.216445
657.030577	12523.831761
657.372687	12447.032303
657.714746	12412.059298
658.056753	12595.290117
658.398708	12425.453644
658.740612	12424.851226
659.082465	12527.610106
659.424266	12493.670538
659.766016	12517.774815
660.107715	12427.346597
660.449362	12501.229748
660.790958	12459.657873
661.132503	12406.161148
661.473996	12462.019653
661.815438	12479.414155
662.156829	12500.193791
662.498168	12477.175882
662.839456	12476.185296
663.180693	12503.231086
663.521879	12585.820310
663.863013	12563.165364
664.204097	12538.972867
664.545129	12658.813697
664.886110	12628.965025
665.227040	12725.893810
665.567918	12719.340310
665.908746	12761.038214
666.249522	12741.332344
666.590248	12792.066516
666.930922	12906.125143
667.271545	12890.265673
667.612118	12967.859113
667.952639	12868.545861
668.293109	12884.249056
668.633528	12844.252541
668.973896	12823.470384
669.314213	12901.547775
669.654480	12633.307979
669.994695	12703.246427
670.334859	12732.061662
670.674973	12675.948579
671.015035	12712.854866
671.355047	12652.494610
671.695008	12625.716001
672.034918	12631.309161
672.374777	12668.764934
672.714585	12586.465577
673.054342	12616.750309
673.394049	12569.703741
673.733705	12663.325529
674.073310	12580.121285
674.412864	12593.747524
674.752368	12453.280813
675.091820	12475.325779
675.431223	12467.340591
675.770574	12330.392606
676.109875	12253.872932
676.449125	12206.919625
676.788324	12153.261583
677.127473	12000.756597
677.466571	11979.815644
677.805619	11877.404604
678.144616	11799.493571
678.483562	11769.783531
678.822458	11641.433233
679.161303	11620.114194
679.500098	11611.113213
679.838842	11567.469424
680.177535	11582.988616
680.516179	11644.994808
680.854771	11594.671490
681.193314	11811.274747
681.531805	11957.011985
681.870247	12369.975746
682.208638	12784.915640
682.546978	13098.687137
682.885268	13155.642093
683.223508	12842.581398
683.561697	12684.072398
683.899836	12586.032038
684.237925	12388.388560
684.575963	12307.346971
684.913951	12230.000548
685.251889	12174.361333
685.589776	12264.890373
685.927614	12193.726925
686.265401	12163.850527
686.603137	12209.568751
686.940824	12360.021988
687.278460	12482.295174
687.616046	12538.677959
687.953582	12695.868698
688.291068	12625.917647
688.628504	12856.260569
688.965889	12867.706509
689.303224	12834.969256
689.640510	12723.940363
689.977745	12421.766040
690.314930	12194.291534
690.652065	12114.104421
690.989150	11817.679533
691.326185	11594.416912
691.663170	11394.328475
692.000105	11147.266566
692.336990	11028.315500
692.673825	10783.799373
693.010610	10662.846969
693.347345	10460.290887
693.684030	10255.491492
694.020665	10202.463594
694.357251	10006.178708
694.693786	9947.915572
695.030272	9778.832751
695.366707	9659.112909
695.703093	9599.329866
696.039429	9598.533363
696.375716	9518.615952
696.711952	9385.831959
697.048139	9422.713041
697.384276	9375.255618
697.720363	9394.026355
698.056400	9336.375719
698.392388	9280.134087
698.728326	9242.151513
699.064214	9182.602883
699.400053	9230.876972
699.735842	9045.291935
700.071581	9000.541612
700.407270	8932.203730
700.742910	8840.855502
701.078501	8761.323738
701.414042	8632.502093
701.749533	8565.056496
702.084974	8430.029190
702.420366	8543.140079
702.755709	8426.427286
703.091002	8290.777397
703.426246	8317.598856
703.761440	8271.197556
704.096584	8223.513282
704.431679	8159.384763
704.766725	8147.165007
705.101721	8098.943849
705.436668	8141.410529
705.771565	8030.931122
706.106413	8113.217877
706.441212	8154.935945
706.775961	8114.145449
707.110661	8150.298084
707.445311	8292.299826
707.779913	8187.877365
708.114465	8313.868403
708.448967	8360.073098
708.783421	8494.823140
709.117825	8686.001338
709.452180	8720.036688
709.786485	8809.837282
710.120742	9087.428419
710.454949	9085.611083
710.789107	9185.904839
711.123216	9399.657324
711.457275	9565.473477
711.791286	9724.045491
712.125247	9722.097085
712.459159	9708.997647
712.793023	9962.739085
713.126837	9532.141367
713.460602	9688.137353
713.794318	9509.511628
714.127985	9542.632008
714.461602	9223.307680
714.795171	9167.607971
715.128691	8925.977905
715.462162	8675.810646
715.795584	8619.657233
716.128957	8475.041653
716.462281	8301.142010
716.795556	8349.799227
717.128782	8150.091396
717.461960	7878.970581
717.795088	7951.835418
718.128167	7860.966100
718.461198	7692.861263
718.794180	7634.530072
719.127113	7630.998744
719.459997	7474.223900
719.792833	7243.943992
720.125619	7308.594270
720.458357	7166.085892
720.791046	7156.936198
721.123686	7158.083060
721.456278	6991.979562
721.788821	7009.835328
722.121315	6908.097282
722.453761	6968.744883
722.786158	6919.001298
723.118506	6928.030004
723.450805	6893.198152
723.783056	6960.250539
724.115259	6870.054215
724.447412	6865.650767
724.779518	6916.896616
725.111574	6916.876452
725.443582	6995.473081
725.775542	6974.718651
726.107453	7167.850296
726.439315	7078.102634
726.771129	7130.195397
727.102895	7305.985473
727.434612	7417.183244
727.766281	7446.094262
728.097901	7531.546861
728.429473	7523.975048
728.760996	7497.783733
729.092471	7469.487736
729.423897	7421.531240
729.755276	7431.255625
730.086606	7358.166456
730.417887	7459.622198
730.749120	7647.591702
731.080305	7845.227617
731.411442	7961.587531
731.742530	7958.260369
732.073570	8068.850682
732.404562	8153.899988
732.735506	7997.178077
733.066401	8146.192064
733.397249	8075.701610
733.728048	7843.385076
734.058798	7505.665577
734.389501	7284.167359
734.720156	7100.361849
735.050762	6869.771910
735.381320	6775.895543
735.711831	6722.015691
736.042293	6617.323528
736.372707	6633.626620
736.703073	6501.729871
737.033391	6536.612135
737.363661	6551.188631
737.693883	6574.803916
738.024056	6662.585528
738.354182	6702.733277
738.684260	6735.548668
739.014290	6846.610329
739.344272	6959.890097
739.674207	6986.719117
740.004093	7060.670324
740.333931	7074.493168
740.663722	7080.628252
740.993464	7161.193452
741.323159	7150.914539
741.652806	6899.633185
741.982405	6912.135246
742.311956	6965.747918
742.641460	6810.616490
742.970915	6612.685667
743.300323	6603.132680
743.629683	6553.114352
743.958996	6420.627787
744.288260	6328.097409
744.617477	6277.985819
744.946647	6286.825482
745.275768	6114.264265
745.604842	6071.306073
745.933869	6057.054731
746.262847	6007.429613
746.591778	5998.244630
746.920662	5957.212158
747.249498	5948.125479
747.578286	6000.916442
747.907027	6080.158339
748.235720	6133.508870
748.564365	6104.219766
748.892963	6129.642305
749.221514	6283.294154
749.550017	6121.936902
749.878473	5993.841182
750.206881	6048.436878
750.535242	5993.044680
750.863555	5923.254946
751.191821	5942.607936
751.520039	5940.843532
751.848210	5848.038410
752.176334	5870.579930
752.504411	5921.004071
752.832440	5846.642011
753.160421	5774.243480
753.488356	5824.339946
753.816243	5856.172312
754.144082	5710.349375
754.471875	5677.392832
754.799620	5721.573504
755.127318	5738.221915
755.454969	5685.206620
755.782572	5647.448378
756.110129	5695.868661
756.437638	5681.166136
756.765100	5623.565912
757.092515	5619.714470
757.419882	5666.413199
757.747203	5649.464840
758.074477	5713.921033
758.401703	5703.430392
758.728882	5648.446527
759.056014	5707.727975
759.383099	5837.762018
759.710138	5846.213513
760.037129	5833.280432
760.364073	5837.273026
760.690970	5916.207413
761.017820	5900.864661
761.344623	5856.366396
761.671379	5959.463034
761.998088	6075.341517
762.324751	6311.580068
762.651366	6908.382107
762.977935	8204.583749
763.304456	9836.705198
763.630931	10738.854966
763.957359	10360.556699
764.283740	9426.652703
764.610074	8598.123944
764.936362	7598.947088
765.262602	7003.218814
765.588796	6465.204190
765.914943	6129.428056
766.241044	5962.311286
766.567097	5759.477940
766.893104	5504.483776
767.219064	5327.458617
767.544978	5260.549903
767.870845	5190.162792
768.196665	5079.181790
768.522438	5008.847612
768.848165	4973.862004
769.173846	4909.496552
769.499479	4866.500551
769.825066	4811.390657
770.150607	4751.887397
770.476101	4728.574581
770.801548	4728.423347
771.126949	4647.381757
771.452303	4595.102472
771.777611	4555.443714
772.102872	4571.424172
772.428087	4533.045868
772.753256	4492.794775
773.078378	4448.281386
773.403453	4378.378227
773.728482	4364.656206
774.053465	4321.899659
774.378401	4305.745282
774.703291	4305.594047
775.028135	4238.375302
775.352932	4188.911500
775.677683	4174.612268
776.002388	4195.449877
776.327046	4205.144016
776.651658	4131.739775
776.976224	4070.439344
777.300743	4075.407401
777.625216	4098.392542
777.949643	4090.024227
778.274024	4046.662742
778.598359	3997.975278
778.922647	4025.706665
779.246889	4019.818597
779.571086	4011.019263
779.895236	3993.619721
780.219339	3981.082371
780.543397	3974.864108
780.867409	4026.830842
781.191374	4041.246022
781.515294	3980.243019
781.839167	3971.410918
782.162995	3992.898836
782.486776	3977.883759
782.810511	3987.832476
783.134201	3986.826766
783.457844	3942.585600
783.781441	3886.298597
784.104993	3891.664905
784.428498	3911.322884
784.751958	3906.889190
785.075372	3883.861199
785.398739	3846.637319
785.722061	3860.140049
786.045337	3901.870721
786.368568	3937.625105
786.691752	3847.678317
787.014891	3898.072212
787.337983	4023.158362
787.661030	4181.682486
787.984031	4342.197865
788.306987	4510.685830
788.629897	4595.173048
788.952760	4552.597983
789.275579	4487.486440
789.598351	4422.750463
789.921078	4285.477323
790.243759	4082.863268
790.566395	4063.094383
790.888984	4059.626069
791.211529	3953.600521
791.534027	3889.857651
791.856480	3880.108060
792.178888	3819.132783
792.501249	3771.531688
792.823566	3782.476033
793.145836	3810.419149
793.468062	3758.018875
793.790241	3710.632029
794.112375	3742.827358
794.434464	3803.691729
794.756507	3830.306501
795.078505	3811.379489
795.400457	3841.437369
795.722364	3981.115139
796.044226	4084.370572
796.366042	4156.970750
796.687812	4136.312101
797.009538	4144.841733
797.331218	4102.974951
797.652852	4075.919078
797.974442	4055.005851
798.295986	4055.590625
798.617484	3975.456444
798.938938	3888.703227
799.260346	3927.058846
799.581709	3923.545162
799.903026	3853.972198
800.224299	3817.058349
800.545526	3808.987461
800.866708	3772.539919
801.187845	3711.932647
801.508936	3748.516300
801.829983	3744.652256
802.150984	3666.282478
802.471940	3655.862413
802.792851	3667.053775
803.113717	3663.872807
803.434538	3666.353054
803.755314	3613.317595
804.076045	3585.765169
804.396731	3604.188066
804.717372	3631.012045
805.037967	3615.891104
805.358518	3606.005402
805.679024	3630.752426
805.999485	3644.471926
806.319901	3649.077020
806.640272	3660.540604
806.960598	3675.638860
807.280879	3651.960560
807.601115	3663.842560
807.921306	3679.369314
808.241453	3720.293401
808.561554	3699.221378
808.881611	3629.978609
809.201623	3665.712828
809.521590	3678.083819
809.841513	3649.301352
810.161390	3680.415353
810.481223	3660.795182
810.801011	3605.939867
811.120755	3595.718927
811.440453	3630.823002
811.760107	3634.056902
812.079716	3592.961416
812.399281	3558.553021
812.718801	3585.281218
813.038276	3558.774831
813.357707	3552.349881
813.677093	3574.445258
813.996434	3518.914428
814.315731	3526.755943
814.634983	3532.553270
814.954191	3546.446690
815.273354	3572.837130
815.592473	3571.400401
815.911547	3576.570104
816.230577	3617.073255
816.549562	3667.041172
816.868502	3710.445507
817.187399	3730.733630
817.506250	3732.553487
817.825058	3705.144733
818.143821	3796.724855
818.462539	3898.155391
818.781213	3940.223819
819.099843	3997.796317
819.418429	4237.180548
819.736970	4482.793126
820.055466	4726.628696
820.373919	5089.057411
820.692327	5498.076469
821.010691	5934.814312
821.329011	7295.204965
821.647286	10017.725470
821.965517	14546.745977
822.283704	18576.974557
822.601847	20769.604258
822.919945	18974.996338
823.237999	16411.224288
823.556010	13938.160240
823.873976	11844.576610
824.191897	9751.035829
824.509775	8395.212461
824.827609	7274.427850
825.145398	6723.071813
825.463144	6603.220900
825.780845	6718.774229
826.098502	6903.048567
826.416116	7769.080989
826.733685	9085.681659
827.051210	10210.118586
827.368692	10260.136915
827.686129	9010.165175
828.003522	7503.467634
828.320872	6482.699515
828.638177	5781.843019
828.955439	5225.934820
829.272656	4729.464345
829.589830	4442.612609
829.906960	4273.149181
830.224046	4086.636571
830.541088	3962.624187
830.858086	3907.917585
831.175041	3836.229857
831.491952	3817.360818
831.808819	3828.801717
832.125642	3901.742172
832.442421	4045.478071
832.759157	4317.594514
833.075849	4863.339747
833.392497	5724.777157
833.709101	6499.131156
834.025662	6836.412074
834.342179	6488.065823
834.658653	5823.188042
834.975083	5182.563253
835.291469	4602.981795
835.607811	4193.970298
835.924110	4054.690779
836.240366	3857.075028
836.556578	3649.959222
836.872746	3541.216492
837.188871	3502.079495
837.504952	3437.235133
837.820990	3353.667925
838.136984	3305.582879
838.452935	3333.077333
838.768842	3328.028617
839.084706	3350.741536
839.400526	3505.578055
839.716303	3839.320084
840.032037	4364.199981
840.347727	4631.555055
840.663373	4353.684134
840.978977	3975.862257
841.294537	3670.058303
841.610054	3442.493056
841.925527	3333.808300
842.240957	3264.888165
842.556344	3212.331616
842.871687	3152.747698
843.186987	3103.256170
843.502244	3066.186045
843.817458	3030.673637
844.132629	2998.823627
844.447756	3009.742766
844.762840	2994.089983
845.077881	2962.890282
845.392879	2943.683486
845.707833	2939.582507
846.022745	2941.442693
846.337613	2940.850358
846.652438	2929.689243
846.967221	2927.110693
847.281960	2911.412540
847.596656	2907.898855
847.911309	2907.573701
848.225919	2902.819893
848.540485	2897.708163
848.855009	2898.469377
849.169490	2886.773900
849.483928	2876.852909
849.798323	2875.703526
850.112675	2874.513814
850.426984	2884.959085
850.741251	2881.944475
851.055474	2872.731766
851.369654	2866.417721
851.683792	2872.227651
851.997887	2879.113867
852.311938	2880.404402
852.625947	2870.516179
852.939914	2872.784698
853.253837	2879.779299
853.567718	2862.571321
853.881555	2860.073429
854.195350	2877.961963
854.509103	2875.648074
854.822812	2866.664737
855.136479	2862.606609
855.450103	2864.794469
855.763685	2858.112420
856.077224	2854.805423
856.390720	2867.867053
856.704173	2875.519524
857.017584	2868.739172
857.330953	2865.895962
857.644278	2879.577653
857.957561	2886.365567
858.270802	2886.055536
858.584000	2888.195506
858.897155	2876.512632
859.210268	2873.394678
859.523339	2869.633977
859.836367	2871.216899
860.149352	2865.563245
860.462295	2861.051413
860.775195	2869.649101
861.088054	2870.062475
861.400869	2852.925073
861.713642	2849.383662
862.026373	2864.555015
862.339062	2865.497710
862.651708	2873.404760
862.964312	2874.886859
863.276873	2869.013915
863.589392	2879.330637
863.901869	2890.249776
864.214303	2911.548651
864.526696	2930.095056
864.839045	2923.090373
865.151353	2923.990218
865.463619	2921.341092
865.775842	2923.619694
866.088023	2940.769699
866.400162	2950.179013
866.712258	2916.325144
867.024313	2906.777199
867.336325	2917.504774
867.648296	2937.576128
867.960224	2929.598502
868.272110	2920.133736
868.583954	2924.650610
868.895755	2935.269800
869.207515	2920.552152
869.519233	2926.536001
869.830909	2937.790377
870.142542	2948.966615
870.454134	2946.541820
870.765684	2950.398303
871.077191	2951.189764
871.388657	2956.046916
871.700081	2970.457054
872.011463	2982.230669
872.322803	2985.298211
872.634101	2981.817294
872.945357	2999.105931
873.256571	3027.149870
873.567744	3018.219466
873.878874	3010.713188
874.189963	3034.726724
874.501010	3033.189172
874.812015	3023.411855
875.122979	3025.924870
875.433900	3019.807430
875.744780	3028.558873
876.055618	3035.303937
876.366415	3028.442926
876.677169	3042.870708
876.987882	3039.914072
877.298554	3038.290820
877.609183	3055.241700
877.919771	3076.671645
878.230317	3105.509566
878.540822	3154.396155
878.851285	3195.438709
879.161707	3233.388515
879.472087	3335.567663
879.782425	3563.851273
880.092722	3994.368332
880.402977	4520.649670
880.713191	5143.965658
881.023363	6292.191790
881.333494	7574.477327
881.643583	8135.434242
881.953631	7839.185795
882.263637	7218.153449
882.573602	6633.669470
882.883526	6052.462240
883.193408	5480.787832
883.503248	5018.806411
883.813048	4718.935895
884.122806	4416.386006
884.432522	4100.378757
884.742197	3867.721945
885.051831	3669.849095
885.361424	3533.616953
885.670975	3463.134061
885.980485	3377.149620
886.289954	3304.902324
886.599382	3258.445570
886.908768	3218.789334
887.218113	3174.487674
887.527417	3117.520115
887.836680	3068.827610
888.145901	3062.347206
888.455082	3052.718602
888.764221	3002.702795
889.073319	2973.222127
889.382376	2972.521407
889.691392	2976.057776
890.000366	2975.210862
890.309300	2963.230560
890.618193	2973.983341
890.927044	2991.695435
891.235855	2990.699807
891.544625	2975.596510
891.853353	2988.448932
892.162041	3006.045080
892.470687	3044.246943
892.779293	3096.634614
893.087858	3144.981800
893.396381	3215.275649
893.704864	3332.300995
894.013306	3570.931574
894.321707	3869.735886
894.630068	4075.689706
894.938387	4075.520827
895.246665	4034.301832
895.554903	3912.968821
895.863100	3711.017678
896.171256	3547.432235
896.479371	3410.141451
896.787446	3283.830301
897.095480	3182.878674
897.403473	3115.642285
897.711425	3081.188519
898.019336	3071.746438
898.327207	3041.776778
898.635038	3007.476767
898.942827	2991.657627
899.250576	2981.892912
899.558284	2952.898715
899.865952	2931.357865
900.173579	2908.289545
900.481165	2904.564132
900.788711	2889.990156
901.096216	2866.085005
901.403681	2852.930114
901.711105	2860.512009
902.018489	2857.978829
902.325832	2859.319776
902.633135	2868.454347
902.940397	2901.788977
903.247619	2982.515494
903.554800	3175.609330
903.861941	3515.385620
904.169041	3939.323973
904.476101	4242.390581
904.783121	4203.979509
905.090100	3960.136377
905.397039	3681.877288
905.703938	3436.352931
906.010796	3252.532297
906.317614	3140.409474
906.624391	3045.187119
906.931129	2975.523414
907.237826	2912.052766
907.544483	2865.583410
907.851099	2835.386898
908.157675	2811.514514
908.464211	2794.818213
908.770707	2780.639968
909.077163	2767.863163
909.383578	2751.081162
909.689954	2741.598752
909.996289	2739.075654
910.302584	2740.484657
910.608839	2741.437435
910.915054	2735.826631
911.221229	2727.775908
911.527363	2731.808831
911.833458	2738.246384
912.139513	2743.171592
912.445527	2745.205697
912.751502	2751.610483
913.057436	2763.184972
913.363331	2775.787857
913.669186	2795.014818
913.975000	2830.418841
914.280775	2888.387069
914.586510	2960.515899
914.892205	3035.966848
915.197859	3166.845284
915.503475	3356.889223
915.809050	3571.118097
916.114585	3715.673183
916.420081	3738.118921
916.725536	3678.754293
917.030952	3563.339596
917.336328	3433.292950
917.641665	3305.073723
917.946961	3205.881459
918.252218	3136.101808
918.557435	3056.880075
918.862612	2996.013183
919.167750	2946.365380
919.472848	2907.873650
919.777906	2880.222921
920.082925	2855.604446
920.387904	2825.314673
920.692843	2809.717343
920.997743	2799.080508
921.302603	2785.555093
921.607423	2774.444390
921.912204	2762.627925
922.216946	2749.488157
922.521647	2740.035994
922.826310	2733.180025
923.130932	2728.572410
923.435516	2717.451625
923.740059	2711.954247
924.044564	2704.319419
924.349028	2698.822041
924.653454	2692.697039
924.957840	2684.721933
925.262186	2683.776717
925.566493	2677.286232
925.870761	2671.849347
926.174989	2671.050324
926.479178	2664.154026
926.783328	2657.474497
927.087438	2658.326452
927.391509	2658.502892
927.695541	2653.277736
927.999533	2648.677683
928.303486	2643.999493
928.607400	2647.009062
928.911275	2646.769607
929.215110	2642.237609
929.518906	2644.002013
929.822663	2643.560912
930.126381	2644.790954
930.430060	2645.186684
930.733699	2643.974287
931.037299	2643.976807
931.340861	2646.590646
931.644383	2651.084834
931.947866	2646.547796
932.251309	2645.804226
932.554714	2646.527631
932.858080	2643.593680
933.161407	2641.131076
933.464694	2639.974131
933.767943	2635.449696
934.071153	2639.623771
934.374323	2638.023205
934.677455	2637.753503
934.980548	2634.748975
935.283602	2634.257463
935.586617	2635.240488
935.889593	2637.902217
936.192530	2635.699233
936.495428	2633.803759
936.798287	2637.655201
937.101108	2642.552682
937.403890	2645.007723
937.706632	2649.668270
938.009336	2652.904691
938.312002	2666.102432
938.614628	2672.814728
938.917216	2679.741273
939.219765	2682.362673
939.522275	2678.002075
939.824747	2677.815553
940.127179	2676.560305
940.429573	2673.109636
940.731929	2670.682320
941.034246	2666.906496
941.336524	2664.456495
941.638763	2661.825013
941.940964	2658.538180
942.243126	2658.959117
942.545250	2654.719506
942.847335	2655.604229
943.149381	2652.115750
943.451389	2648.128198
943.753359	2645.867240
944.055290	2643.840696
944.357182	2641.675521
944.659036	2637.317443
944.960851	2639.550674
945.262628	2638.340797
945.564367	2639.343987
945.866067	2636.586476
946.167729	2641.080665
946.469352	2640.344656
946.770937	2641.085706
947.072484	2637.629995
947.373992	2637.400622
947.675462	2634.859881
947.976893	2629.619601
948.278286	2629.541463
948.579641	2628.805455
948.880958	2626.357975
949.182236	2633.365179
949.483476	2628.936525
949.784678	2630.012811
950.085841	2630.390898
950.386967	2629.685136
950.688054	2630.481639
950.989103	2631.699077
951.290114	2632.798049
951.591087	2633.513893
951.892021	2637.161168
952.192917	2640.490850
952.493776	2641.045377
952.794596	2643.175264
953.095378	2641.713329
953.396122	2640.725263
953.696828	2640.367341
953.997496	2638.207207
954.298126	2637.541775
954.598718	2636.931795
954.899272	2632.944242
955.199788	2628.548356
955.500266	2626.446195
955.800706	2625.415279
956.101108	2619.045781
956.401472	2618.798765
956.701798	2618.763477
957.002087	2613.971860
957.302337	2615.138887
957.602550	2614.788527
957.902724	2612.646036
958.202861	2611.809205
958.502960	2607.988010
958.803022	2612.779627
959.103045	2609.018926
959.403031	2607.708226
959.702979	2606.077413
960.002889	2607.085644
960.302762	2605.157402
960.602596	2607.332660
960.902393	2603.854264
961.202153	2604.590272
961.501875	2607.279728
961.801559	2604.295365
962.101205	2602.656990
962.400814	2604.943153
962.700385	2606.261415
962.999918	2600.978286
963.299414	2598.530806
963.598873	2598.656834
963.898293	2597.187338
964.197677	2603.017432
964.497022	2602.868718
964.796331	2602.578852
965.095601	2602.294027
965.394835	2604.499532
965.694030	2601.489963
965.993189	2601.550457
966.292309	2600.264962
966.591393	2601.399222
966.890439	2599.274376
967.189447	2600.736310
967.488419	2602.687237
967.787353	2601.379057
968.086249	2600.290168
968.385108	2601.636156
968.683930	2601.036259
968.982714	2603.592124
969.281462	2602.011722
969.580172	2601.326125
969.878844	2600.327977
970.177480	2601.656321
970.476078	2602.399891
970.774639	2600.978286
971.073162	2601.495004
971.371649	2600.199427
971.670098	2601.106835
971.968510	2602.049531
972.266885	2600.186825
972.565223	2602.553646
972.863524	2599.380240
973.161788	2600.726228
973.460014	2600.779160
973.758204	2599.851588
974.056356	2601.036259
974.354471	2601.726897
974.652550	2601.757144
974.950591	2602.800663
975.248595	2603.907196
975.546563	2601.744541
975.844493	2600.375868
976.142386	2599.806217
976.440243	2600.864860
976.738062	2599.901999
977.035845	2599.586927
977.333590	2603.559357
977.631299	2600.413677
977.928971	2595.122986
978.226606	2595.768253
978.524204	2596.511823
978.821765	2593.771956
979.119290	2597.081474
979.416777	2597.835126
979.714228	2599.405446
980.011642	2599.012236
980.309020	2597.618357
980.606360	2596.020311
980.903664	2598.981989
981.200931	2599.864191
981.498162	2600.781681
981.795356	2601.343769
982.092513	2602.175560
982.389633	2605.565736
982.686717	2611.894904
982.983764	2612.126797
983.280775	2616.988990
983.577749	2617.223404
983.874686	2616.966305
984.171587	2610.054883
984.468451	2610.311982
984.765279	2606.263936
985.062070	2607.627568
985.358824	2605.137238
985.655543	2601.646239
985.952224	2603.461054
986.248869	2601.736979
986.545478	2600.448965
986.842050	2596.945363
987.138586	2594.558376
987.435086	2597.782194
987.731549	2597.719180
988.027975	2595.717842
988.324366	2595.526278
988.620719	2594.507965
988.917037	2593.663572
989.213318	2596.728593
989.509563	2596.753799
989.805772	2595.790938
990.101944	2596.204313
990.398080	2595.735486
990.694180	2597.578027
990.990244	2595.700198
991.286271	2599.168512
991.582262	2595.687595
991.878217	2592.622573
992.174136	2597.535178
992.470019	2593.101483
992.765865	2591.821030
993.061676	2593.222471
993.357450	2592.799014
993.653188	2591.647110
993.948890	2595.715321
994.244556	2597.189859
994.540186	2596.940322
994.835780	2595.995105
995.131337	2595.049889
995.426859	2596.957966
995.722345	2597.512493
996.017795	2597.457040
996.313208	2602.016763
996.608586	2597.933429
996.903928	2599.118100
997.199234	2601.615992
997.494504	2599.717997
997.789738	2599.339911
998.084936	2597.394025
998.380099	2597.285641
998.675225	2596.970568
998.970316	2598.351845
999.265371	2597.661207
999.560390	2595.627101
999.855373	2596.683223
1000.150320	2595.289344
1000.445232	2598.792946
1000.740108	2594.066864
1001.034948	2593.456884
1001.329752	2594.588623
1001.624521	2593.721545
1001.919254	2595.959817
1002.213951	2594.470156
1002.508613	2594.044179
1002.803239	2592.299939
1003.097829	2593.318252
1003.392384	2593.650969
1003.686903	2594.860846
1003.981386	2595.700198
1004.275834	2590.800196
1004.570246	2593.262800
1004.864623	2591.997470
1005.158964	2594.127358
1005.453270	2594.298757
1005.747540	2591.568972
1006.041775	2592.748602
1006.335974	2594.293716
1006.630138	2591.316914
1006.924266	2593.678695
1007.218359	2591.006883
1007.512416	2590.187696
1007.806438	2588.551842
1008.100425	2588.771132
1008.394376	2586.517736
1008.688292	2593.136771
1008.982172	2593.310691
1009.276017	2594.848243
1009.569827	2590.737182
1009.863602	2592.156267
1010.157341	2594.656679
1010.451045	2594.926381
1010.744714	2590.717017
1011.038347	2591.606781
1011.331945	2591.619384
1011.625508	2593.603078
1011.919036	2592.914960
1012.212528	2593.759353
1012.505986	2592.168869
1012.799408	2594.288675
1013.092795	2593.184662
1013.386147	2591.195927
1013.679464	2594.722214
1013.972745	2591.758015
1014.265992	2592.594847
1014.559204	2593.691298
1014.852380	2590.089393
1015.145521	2594.361771
1015.438628	2591.392532
1015.731699	2592.143664
1016.024736	2590.638879
1016.317737	2592.549477
1016.610703	2589.282809
1016.903635	2593.224991
1017.196531	2593.504775
1017.489393	2593.472008
1017.782219	2593.260279
1018.075011	2591.337079
1018.367768	2588.140987
1018.660490	2592.133581
1018.953177	2592.133581
1019.245829	2592.133581
