Dividing Wavelength (nm)	Counts (n)	Blue Motor Position (mm): 20.800000	Red Motor Position (mm): 0.000000	
326.493990	2135.629374
326.888308	2135.629374
327.282561	2135.629374
327.676750	2099.491863
328.070874	2100.921030
328.464933	2101.760382
328.858929	2107.267843
329.252859	2120.952055
329.646726	2129.096039
330.040528	2143.480971
330.434265	2160.003353
330.827938	2177.901970
331.221547	2195.888807
331.615091	2217.817826
332.008571	2234.448593
332.401986	2254.628331
332.795338	2272.516866
333.188625	2295.214661
333.581847	2311.883236
333.975006	2329.184476
334.368100	2349.011334
334.761129	2368.691999
335.154095	2382.940820
335.546996	2402.853378
335.939833	2426.042686
336.332606	2440.379727
336.725315	2450.396500
337.117960	2460.085597
337.510540	2469.941053
337.903056	2478.314410
338.295508	2487.151553
338.687896	2494.345279
339.080220	2504.135200
339.472480	2507.734584
339.864676	2516.140708
340.256807	2519.450225
340.648875	2522.820237
341.040879	2520.350071
341.432818	2524.546832
341.824694	2525.386184
342.216506	2527.460619
342.608253	2527.669827
342.999937	2530.893644
343.391557	2531.128058
343.783113	2529.194776
344.174605	2528.468849
344.566033	2525.867614
344.957397	2519.674557
345.348697	2520.435771
345.739934	2520.244207
346.131106	2518.162210
346.522215	2515.989473
346.913260	2511.865809
347.304241	2512.904287
347.695159	2511.054183
348.086012	2507.137207
348.476802	2505.445900
348.867528	2504.485560
349.258191	2502.884994
349.648789	2504.712412
350.039324	2500.659324
350.429796	2500.669407
350.820203	2499.683861
351.210548	2498.841988
351.600828	2497.813593
351.991045	2495.756802
352.381198	2495.519868
352.771288	2498.300064
353.161314	2492.570793
353.551276	2496.744868
353.941175	2495.585403
354.331010	2492.762357
354.720782	2494.751092
355.110490	2492.089363
355.500135	2494.483911
355.889717	2494.856956
356.279235	2495.713952
356.668689	2494.060454
357.058080	2497.017091
357.447408	2491.882675
357.836672	2493.014414
358.225873	2493.362254
358.615010	2493.838643
359.004084	2496.230671
359.393095	2496.916267
359.782043	2499.648573
360.170927	2499.381392
360.559748	2500.961793
360.948505	2498.794097
361.337199	2502.940446
361.725830	2499.686382
362.114398	2503.265601
362.502903	2501.377689
362.891344	2502.060765
363.279722	2502.668224
363.668037	2504.382216
364.056289	2505.990344
364.444478	2502.287617
364.832603	2504.248626
365.220665	2504.394819
365.608665	2502.849706
365.996601	2507.016219
366.384474	2503.565549
366.772284	2506.260046
367.160031	2505.564367
367.547715	2506.733915
367.935336	2508.170643
368.322893	2508.122753
368.710388	2504.314161
369.097820	2512.029647
369.485189	2507.890859
369.872495	2509.254492
370.259738	2504.999758
370.646918	2507.540499
371.034035	2512.485871
371.421090	2509.027640
371.808081	2509.347753
372.195010	2510.943278
372.581875	2513.531911
372.968678	2509.468741
373.355418	2511.177692
373.742096	2512.256499
374.128710	2511.903618
374.515262	2511.447393
374.901751	2514.777076
375.288177	2514.030985
375.674540	2513.584843
376.060841	2514.817405
376.447079	2512.647188
376.833254	2514.958557
377.219367	2508.473113
377.605417	2510.345901
377.991404	2511.770027
378.377329	2510.640809
378.763191	2509.604852
379.148991	2514.756911
379.534727	2515.192971
379.920402	2515.540810
380.306013	2512.750532
380.691563	2516.276819
381.077049	2515.709689
381.462474	2516.105420
381.847835	2516.314627
382.233134	2514.406551
382.618371	2514.225069
383.003545	2516.672549
383.388657	2517.053157
383.773706	2520.128260
384.158693	2516.967457
384.543618	2517.653054
384.928480	2518.739422
385.313280	2518.290760
385.698017	2517.615245
386.082692	2519.223373
386.467305	2517.811850
386.851856	2522.719413
387.236344	2519.760256
387.620770	2520.382839
388.005133	2520.672705
388.389435	2520.715555
388.773674	2520.602129
389.157851	2517.748836
389.541965	2517.630369
389.926018	2522.464835
390.310008	2519.712365
390.693936	2522.535411
391.077802	2518.106758
391.461606	2522.648837
391.845348	2522.109434
392.229027	2520.163548
392.612645	2521.698580
392.996200	2524.014990
393.379694	2520.670184
393.763125	2521.824609
394.146494	2524.224198
394.529801	2524.251924
394.913047	2523.546163
395.296230	2524.027593
395.679351	2522.656399
396.062410	2525.960875
396.445408	2524.483817
396.828343	2524.007428
397.211217	2519.445184
397.594028	2523.551204
397.976778	2519.689680
398.359466	2518.946110
398.742092	2520.166069
399.124656	2524.014990
399.507158	2525.544980
399.889598	2524.627490
400.271977	2525.388704
400.654294	2526.641431
401.036549	2525.388704
401.418742	2525.073632
401.800874	2529.895496
402.182944	2528.627646
402.564952	2525.418951
402.946898	2525.882737
403.328783	2525.655886
403.710606	2525.996163
404.092367	2526.961544
404.474067	2528.728469
404.855705	2524.793848
405.237282	2529.429189
405.618797	2527.546318
406.000250	2528.214271
406.381642	2526.039013
406.762972	2531.339787
407.144240	2530.576052
407.525447	2528.602440
407.906593	2531.092770
408.287677	2530.876000
408.668700	2527.102697
409.049661	2531.755682
409.430560	2529.262831
409.811399	2530.046731
410.192176	2531.554036
410.572891	2529.426669
410.953545	2531.493542
411.334138	2531.501103
411.714669	2531.135620
412.095139	2533.585621
412.475547	2531.929602
412.855894	2530.475229
413.236180	2532.814324
413.616405	2529.799714
413.996568	2530.172759
414.376670	2533.010929
414.756711	2532.133768
415.136691	2533.701567
415.516609	2531.367513
415.896466	2531.901875
416.276262	2532.726104
416.655997	2530.903727
417.035670	2530.026566
417.415283	2532.345497
417.794834	2529.167049
418.174324	2530.432379
418.553753	2532.101001
418.933121	2533.247863
419.312428	2532.751310
419.691674	2536.106197
420.070859	2534.319108
420.449983	2533.830117
420.829045	2534.430014
421.208047	2532.625281
421.586988	2535.342463
421.965867	2537.104346
422.344686	2536.799356
422.723444	2535.256763
423.102141	2534.102339
423.480777	2533.759540
423.859352	2535.443286
424.237866	2535.579397
424.616319	2536.459078
424.994712	2535.745755
425.373044	2534.979500
425.751314	2534.548481
426.129524	2534.382123
426.507673	2537.371527
426.885762	2535.939839
427.263789	2535.839016
427.641756	2536.522093
428.019662	2538.001671
428.397508	2537.542926
428.775292	2539.047711
429.153016	2537.850437
429.530679	2536.380940
429.908282	2539.158616
430.285824	2541.243133
430.663305	2537.091743
431.040726	2537.495035
431.418086	2540.552495
431.795385	2539.108205
432.172624	2539.813966
432.549802	2538.538554
432.926920	2539.771116
433.303977	2538.417567
433.680974	2537.091743
434.057910	2537.923533
434.434786	2538.939326
434.811601	2539.025026
435.188355	2541.442259
435.565050	2540.030736
435.941683	2540.875129
436.318257	2540.005530
436.694770	2535.347504
437.071222	2536.819521
437.447614	2533.794828
437.823946	2537.396733
438.200218	2539.743390
438.576429	2542.758000
438.952580	2539.748431
439.328670	2543.463762
439.704700	2541.971580
440.080670	2544.466951
440.456580	2539.819007
440.832429	2541.278421
441.208218	2540.537372
441.583947	2541.865716
441.959616	2543.705737
442.335224	2542.962167
442.710773	2544.610624
443.086261	2542.604245
443.461689	2543.998124
443.837057	2540.492001
444.212365	2541.220448
444.587612	2542.717671
444.962800	2543.216745
445.337927	2543.925027
445.712995	2543.438556
446.088002	2545.346632
446.462949	2540.771785
446.837837	2542.042156
447.212664	2540.355890
447.587431	2544.638350
447.962139	2543.972918
448.336786	2543.458720
448.711374	2542.415202
449.085901	2543.461241
449.460369	2545.271015
449.834776	2545.097095
450.209124	2544.156920
450.583412	2544.855120
450.957640	2543.597352
451.331808	2546.067517
451.705917	2541.812784
452.079965	2546.448125
452.453954	2545.230686
452.827883	2546.483413
453.201752	2544.817311
453.575562	2546.269164
453.949311	2547.718495
454.323001	2546.037271
454.696632	2548.104144
455.070202	2547.486602
455.443713	2545.828063
455.817164	2544.557692
456.190556	2545.036602
456.563888	2542.911755
456.937160	2541.956457
457.310373	2545.780172
457.683526	2546.899308
458.056619	2546.685059
458.429653	2547.819318
458.802628	2546.490974
459.175542	2545.780172
459.548398	2549.351829
459.921194	2549.243444
460.293930	2546.178423
460.666607	2546.312013
461.039224	2549.369473
461.411782	2548.653629
461.784280	2549.286294
462.156719	2548.273022
462.529099	2548.903167
462.901419	2547.083310
463.273680	2549.860986
463.645882	2549.314021
464.018024	2550.412992
464.390106	2551.141439
464.762130	2551.809392
465.134094	2551.821995
465.505999	2554.375339
465.877845	2555.255020
466.249631	2554.009855
466.621358	2555.000442
466.993026	2555.416337
467.364634	2557.072356
467.736184	2554.962633
468.107674	2554.508930
468.479105	2555.522202
468.850477	2551.539690
469.221790	2554.090514
469.593043	2553.667057
469.964238	2555.401214
470.335373	2555.343241
470.706449	2554.229146
471.077467	2555.078580
471.448425	2557.674774
471.819324	2557.712583
472.190164	2559.844991
472.560945	2556.303580
472.931667	2556.515309
473.302330	2554.929866
473.672934	2555.701163
474.043479	2558.670402
474.413965	2556.429609
474.784393	2556.853066
475.154761	2554.892057
475.525070	2555.585216
475.895321	2554.869372
476.265513	2557.624363
476.635645	2562.758778
477.005719	2561.208623
477.375734	2561.475804
477.745691	2565.055023
478.115588	2569.239181
478.485427	2563.318346
478.855207	2570.365879
479.224928	2574.557598
479.594591	2577.141190
479.964194	2578.686303
480.333739	2581.905080
480.703226	2583.011613
481.072653	2586.149732
481.442022	2590.497727
481.811333	2595.299426
482.180584	2596.882348
482.549777	2598.540888
482.918912	2604.716301
483.287988	2608.940788
483.657005	2612.530090
484.025964	2616.159721
484.394864	2621.420165
484.763706	2626.673047
485.132489	2628.525671
485.501213	2636.926754
485.869879	2643.452527
486.238487	2646.540234
486.607036	2655.258910
486.975527	2660.940290
487.343959	2670.037052
487.712333	2680.179854
488.080648	2686.312417
488.448905	2693.743078
488.817104	2704.495859
489.185244	2718.006152
489.553326	2737.848133
489.921350	2759.676329
490.289315	2801.878349
490.657222	2822.620176
491.025070	2836.954697
491.392861	2847.828466
491.760593	2852.395752
492.128267	2855.526308
492.495883	2859.970085
492.863440	2864.255066
493.230939	2869.641539
493.598380	2888.813047
493.965763	2899.396949
494.333088	2908.990265
494.700354	2927.284613
495.067563	2946.297324
495.434713	2960.785600
495.801805	2989.653768
496.168839	3009.316788
496.535815	3030.522402
496.902733	3046.180226
497.269593	3068.948597
497.636395	3093.650251
498.003139	3124.723923
498.369825	3138.070378
498.736453	3178.427335
499.103023	3197.051878
499.469535	3231.157805
499.835989	3255.625045
500.202385	3284.659570
500.568723	3302.099442
500.935003	3348.629292
501.301226	3379.952502
501.667390	3428.319852
502.033497	3484.647185
502.399546	3496.652693
502.765537	3523.905170
503.131470	3570.364444
503.497345	3631.997591
503.863163	3618.973770
504.228923	3700.458981
504.594625	3746.673759
504.960269	3755.669698
505.325856	3825.575378
505.691385	3847.375848
506.056856	3910.808687
506.422270	3965.641317
506.787625	3987.754338
507.152924	4060.450297
507.518164	4093.444649
507.883347	4133.431082
508.248472	4166.934590
508.613540	4266.351185
508.978550	4297.906288
509.343503	4339.944470
509.708398	4417.235440
510.073236	4495.819467
510.438016	4552.028333
510.802738	4597.774283
511.167403	4669.764481
511.532010	4710.166808
511.896561	4810.367302
512.261053	4897.992639
512.625488	4923.125311
512.989866	4979.586234
513.354186	5039.686870
513.718449	5074.969906
514.082655	5189.598183
514.446803	5227.976487
514.810894	5325.033822
515.174927	5356.593966
515.538904	5415.928347
515.902822	5532.462179
516.266684	5553.380447
516.630488	5608.293736
516.994235	5680.631773
517.357925	5779.317401
517.721558	5872.074632
518.085133	5952.985151
518.448651	6016.347414
518.812112	6035.440784
519.175516	6119.738958
519.538863	6241.419809
519.902152	6257.168374
520.265385	6407.084728
520.628560	6423.286996
520.991678	6506.110633
521.354739	6587.772284
521.717743	6625.129755
522.080690	6683.987747
522.443580	6828.189953
522.806413	6878.016717
523.169189	6953.160156
523.531908	7050.121709
523.894569	7032.560850
524.257174	7107.230421
524.619722	7234.922848
524.982213	7265.583145
525.344647	7377.685804
525.707025	7409.016575
526.069345	7529.931171
526.431608	7561.534164
526.793815	7685.392794
527.155964	7640.546689
527.518057	7726.884010
527.880093	7763.399608
528.242072	7867.123869
528.603995	7879.220118
528.965860	7892.470791
529.327669	7992.530133
529.689421	8014.733895
530.051117	8060.104280
530.412755	8193.709980
530.774337	8177.369080
531.135862	8237.628512
531.497331	8297.850136
531.858743	8266.118593
532.220098	8431.927184
532.581396	8400.813183
532.942638	8442.198535
533.303824	8469.922361
533.664953	8546.663846
534.026025	8537.471302
534.387040	8662.902771
534.747999	8711.184422
535.108902	8812.267119
535.469748	8683.558899
535.830537	8815.415319
536.191270	8844.691820
536.551947	8922.854911
536.912567	8956.857493
537.273131	8947.727964
537.633638	8981.906987
537.994089	9025.036578
538.354483	9028.593113
538.714821	9180.795629
539.075103	9226.395387
539.435328	9244.674610
539.795497	9147.677769
540.155609	9316.226228
540.515665	9426.869472
540.875665	9253.524356
541.235609	9352.756949
541.595496	9392.471159
541.955328	9559.000635
542.315102	9496.424792
542.674821	9488.946241
543.034483	9526.190285
543.394090	9565.163446
543.753640	9544.214931
544.113134	9766.413869
544.472571	9671.315022
544.831953	9831.487603
545.191278	9699.694198
545.550548	9750.831662
545.909761	9903.888655
546.268918	9906.870497
546.628019	10009.891517
546.987064	9919.846427
547.346053	9874.080312
547.704986	9991.080452
548.063863	10016.790336
548.422684	10022.622951
548.781449	9977.423966
549.140158	10096.395197
549.498811	10006.657617
549.857408	9893.382890
550.215949	10123.120874
550.574434	10010.312454
550.932864	10128.547676
551.291237	10201.740189
551.649555	10174.951497
552.007817	10205.324449
552.366022	10185.510194
552.724173	10196.028561
553.082267	10200.517709
553.440305	10346.849802
553.798288	10174.812865
554.156215	10338.957876
554.514086	10334.309932
554.871902	10201.730106
555.229661	10252.948229
555.587365	10240.345345
555.945014	10155.215380
556.302606	10289.544486
556.660143	10201.425117
557.017625	10360.271874
557.375050	10274.844481
557.732421	10415.659032
558.089735	10347.999185
558.446994	10355.205515
558.804197	10404.528164
559.161345	10409.778526
559.518437	10278.958063
559.875474	10373.721673
560.232455	10415.142313
560.589381	10367.687412
560.946251	10376.108659
561.303065	10488.153344
561.659825	10432.297360
562.016528	10371.115396
562.373177	10263.035578
562.729770	10383.493949
563.086307	10306.470160
563.442789	10400.724613
563.799216	10286.429053
564.155587	10343.900727
564.511904	10304.005036
564.868164	10297.360795
565.224370	10314.599020
565.580520	10251.050235
565.936615	10259.194219
566.292654	10133.636721
566.648638	10266.768553
567.004567	10225.395803
567.360441	10217.022447
567.716260	10125.747315
568.072023	10222.643333
568.427732	10184.239823
568.783385	10092.337068
569.138982	10167.034365
569.494525	10180.859729
569.850013	10066.491072
570.205445	10144.550819
570.560823	10049.772085
570.916145	9970.794849
571.271412	10038.731958
571.626625	9986.447631
571.981782	9970.620929
572.336884	9942.985323
572.691931	9948.149986
573.046923	9899.885979
573.401860	9856.748825
573.756743	9796.262541
574.111570	9840.458337
574.466342	9822.194236
574.821059	9852.907466
575.175722	9745.891332
575.530330	9755.832487
575.884882	9753.251416
576.239380	9680.729377
576.593823	9659.559051
576.948211	9674.654787
577.302544	9554.839162
577.656823	9574.537471
578.011047	9579.049304
578.365216	9554.985356
578.719330	9474.485691
579.073389	9496.591150
579.427394	9431.905585
579.781344	9415.456300
580.135239	9364.180203
580.489080	9374.358293
580.842866	9276.118808
581.196597	9285.122308
581.550273	9323.102361
581.903895	9291.716138
582.257463	9360.411941
582.610975	9241.158406
582.964434	9267.410214
583.317837	9191.233338
583.671186	9167.229884
584.024481	9173.957304
584.377721	9081.968849
584.730906	9065.234739
585.084037	9095.937887
585.437113	9031.920274
585.790135	9051.089262
586.143103	8952.973284
586.496016	8925.438502
586.848874	8987.374118
587.201679	8976.414650
587.554428	8864.806024
587.907124	8905.006705
588.259765	8870.729380
588.612352	8884.494250
588.964884	8756.900126
589.317362	8775.260008
589.669786	8772.832693
590.022155	8822.861103
590.374470	8839.900203
590.726731	8777.699927
591.078937	8629.253069
591.431090	8743.382272
591.783188	8611.470399
592.135232	8607.818083
592.487222	8612.329916
592.839157	8662.701125
593.191038	8596.165456
593.542866	8540.027167
593.894639	8433.111856
594.246358	8490.969178
594.598022	8503.786312
594.949633	8410.162003
595.301190	8378.017085
595.652692	8407.585973
596.004141	8522.143674
596.355535	8294.843088
596.706876	8277.002444
597.058162	8220.412972
597.409395	8285.877396
597.760573	8352.256789
598.111698	8258.269517
598.462768	8246.190912
598.813785	8221.479176
599.164748	8181.112137
599.515657	8171.728029
599.866511	8082.623114
600.217312	8210.091209
600.568060	8068.520486
600.918753	8173.406733
601.269392	8146.376066
601.619978	8052.850059
601.970510	8116.910522
602.320988	8117.855738
602.671412	8171.254160
603.021783	8112.239893
603.372100	8082.940707
603.722363	8087.646624
604.072572	8056.182262
604.422728	8074.595076
604.772830	7999.048345
605.122878	8009.181064
605.472872	8003.905497
605.822813	8028.473560
606.172701	7980.113771
606.522534	8050.843680
606.872314	8055.791572
607.222041	8022.245214
607.571714	8075.386537
607.921333	8030.429527
608.270899	8043.660036
608.620411	8133.319478
608.969870	8032.750979
609.319276	8027.601440
609.668627	8044.108698
610.017926	8075.441990
610.367171	8124.915874
610.716362	8103.702699
611.065500	8092.045030
611.414585	8118.193495
611.763616	8107.818801
612.112594	8093.469156
612.461518	8102.127338
612.810389	8165.890373
613.159207	8109.121939
613.507971	8055.657982
613.856682	8173.414295
614.205340	8130.181359
614.553945	8205.486115
614.902496	8105.638502
615.250994	8154.739340
615.599439	8141.125704
615.947830	8151.192888
616.296169	8125.266234
616.644454	8138.143862
616.992686	8139.333574
617.340864	8192.386677
617.688990	8102.220599
618.037063	8190.186213
618.385082	8134.302502
618.733048	8224.372798
619.080961	8162.911051
619.428821	8182.500974
619.776628	8188.484824
620.124382	8135.247719
620.472083	8118.059905
620.819731	8144.805747
621.167326	8043.614665
621.514868	8050.190851
621.862357	7937.959642
622.209793	7958.499824
622.557176	7897.368272
622.904506	7860.865277
623.251783	7795.579814
623.599007	7749.218842
623.946179	7755.439626
624.293297	7709.741567
624.640363	7626.330635
624.987376	7611.408820
625.334336	7562.310502
625.681243	7512.264447
626.028097	7501.010071
626.374899	7475.411092
626.721647	7466.268959
627.068343	7402.037098
627.414987	7371.633899
627.761577	7325.560273
628.108115	7369.677931
628.454600	7260.030314
628.801032	7314.547873
629.147412	7267.004751
629.493739	7263.533916
629.840014	7196.599996
630.186236	7254.467401
630.532405	7136.065821
630.878521	7183.523243
631.224585	7138.062118
631.570597	7068.675676
631.916556	7104.465348
632.262462	7097.828669
632.608316	7056.264355
632.954117	7040.840945
633.299866	7025.029366
633.645562	7014.410176
633.991206	6939.591891
634.336797	6879.208950
634.682336	6836.964081
635.027823	6805.058618
635.373257	6798.676517
635.718639	6731.871147
636.063968	6736.193936
636.409245	6636.666436
636.754470	6631.864737
637.099642	6591.722028
637.444762	6535.654315
637.789829	6551.786008
638.134845	6493.164950
638.479808	6476.582075
638.824719	6480.856973
639.169577	6411.047075
639.514383	6434.490961
639.859137	6361.290886
640.203839	6368.524942
640.548489	6354.349217
640.893086	6331.220403
641.237632	6298.077337
641.582125	6321.004505
641.926566	6291.728004
642.270955	6303.960364
642.615292	6300.272760
642.959576	6314.004863
643.303809	6301.210415
643.647990	6309.077135
643.992118	6300.063552
644.336195	6248.777373
644.680219	6273.476507
645.024192	6259.668786
645.368112	6354.787798
645.711981	6379.940635
646.055797	6455.857891
646.399562	6417.172077
646.743274	6537.844697
647.086935	6588.699857
647.430544	6584.694660
647.774101	6609.376149
648.117606	6614.727334
648.461059	6604.410613
648.804460	6563.423511
649.147810	6477.935624
649.491108	6442.463545
649.834354	6424.567449
650.177548	6338.230128
650.520690	6251.176963
650.863781	6235.506536
651.206820	6250.196458
651.549807	6179.196848
651.892742	6117.203258
652.235626	6119.829699
652.578458	6108.134222
652.921238	6018.366396
653.263967	6052.021139
653.606644	5997.367469
653.949269	5997.354867
654.291843	5942.592812
654.634365	5991.751624
654.976836	5944.815961
655.319255	5943.094407
655.661622	5922.574390
656.003938	5915.940232
656.346203	5876.294078
656.688416	5911.519140
657.030577	5860.023753
657.372687	5832.234393
657.714746	5820.682589
658.056753	5859.030646
658.398708	5804.034178
658.740612	5793.616634
659.082465	5842.679664
659.424266	5831.947047
659.766016	5830.616183
660.107715	5811.827802
660.449362	5825.401109
660.790958	5814.723945
661.132503	5801.604342
661.473996	5839.385270
661.815438	5821.378268
662.156829	5822.694009
662.498168	5815.712011
662.839456	5795.686028
663.180693	5829.960833
663.521879	5828.430842
663.863013	5818.257794
664.204097	5838.200598
664.545129	5878.882710
664.886110	5872.661926
665.227040	5906.069653
665.567918	5872.404827
665.908746	5904.648047
666.249522	5900.610083
666.590248	5889.764041
666.930922	5920.820069
667.271545	5930.380617
667.612118	5937.375218
667.952639	5901.560341
668.293109	5928.898518
668.633528	5887.382095
668.973896	5891.248660
669.314213	5881.856991
669.654480	5862.768662
669.994695	5855.642991
670.334859	5845.285940
670.674973	5840.229663
671.015035	5842.253686
671.355047	5839.720506
671.695008	5826.013609
672.034918	5805.755732
672.374777	5816.851312
672.714585	5796.011182
673.054342	5798.062932
673.394049	5794.917252
673.733705	5824.009750
674.073310	5814.696219
674.412864	5772.136277
674.752368	5765.217294
675.091820	5767.697541
675.431223	5705.973654
675.770574	5705.053643
676.109875	5656.623278
676.449125	5661.258619
676.788324	5628.874247
677.127473	5572.236883
677.466571	5561.214400
677.805619	5553.261980
678.144616	5538.927459
678.483562	5519.246795
678.822458	5490.970963
679.161303	5481.755733
679.500098	5471.300380
679.838842	5456.335715
680.177535	5460.726560
680.516179	5476.553263
680.854771	5489.493905
681.193314	5565.338064
681.531805	5675.575496
681.870247	5824.312220
682.208638	5926.493887
682.546978	5938.116268
682.885268	5914.410242
683.223508	5832.355381
683.561697	5779.433348
683.899836	5748.750365
684.237925	5701.134146
684.575963	5667.106357
684.913951	5631.611593
685.251889	5686.245098
685.589776	5654.422814
685.927614	5628.871726
686.265401	5697.565009
686.603137	5678.844684
686.940824	5755.601293
687.278460	5781.112052
687.616046	5787.468947
687.953582	5858.612230
688.291068	5840.169169
688.628504	5904.443881
688.965889	5862.743456
689.303224	5808.417462
689.640510	5759.793012
689.977745	5687.543195
690.314930	5589.563329
690.652065	5530.503691
690.989150	5442.079332
691.326185	5365.484041
691.663170	5315.780784
692.000105	5240.612139
692.336990	5164.533566
692.673825	5138.899299
693.010610	5068.527312
693.347345	4998.931662
693.684030	4986.515300
694.020665	4944.945946
694.357251	4856.990414
694.693786	4865.923338
695.030272	4835.578113
695.366707	4801.693997
695.703093	4766.239562
696.039429	4787.367038
696.375716	4767.734264
696.711952	4744.857508
697.048139	4731.914346
697.384276	4713.413311
697.720363	4721.542172
698.056400	4733.444336
698.392388	4683.993137
698.728326	4666.313811
699.064214	4641.108042
699.400053	4634.819202
699.735842	4602.583544
700.071581	4573.806117
700.407270	4549.797622
700.742910	4530.863048
701.078501	4476.050582
701.414042	4480.055779
701.749533	4451.401861
702.084974	4382.156571
702.420366	4443.570428
702.755709	4382.517014
703.091002	4328.551462
703.426246	4375.719018
703.761440	4331.114889
704.096584	4293.971667
704.431679	4317.929751
704.766725	4303.343172
705.101721	4288.020585
705.436668	4317.009740
705.771565	4263.444960
706.106413	4293.734733
706.441212	4327.777645
706.775961	4334.270651
707.110661	4314.577383
707.445311	4340.133513
707.779913	4362.400289
708.114465	4374.199110
708.448967	4400.334972
708.783421	4460.833859
709.117825	4502.705683
709.452180	4506.481508
709.786485	4550.163106
710.120742	4632.898522
710.454949	4623.012820
710.789107	4687.544630
711.123216	4760.152369
711.457275	4745.669134
711.791286	4821.528417
712.125247	4843.147405
712.459159	4744.439092
712.793023	4819.431297
713.126837	4777.388074
713.460602	4766.791569
713.794318	4692.411864
714.127985	4699.759346
714.461602	4612.859936
714.795171	4583.795163
715.128691	4518.895349
715.462162	4463.422492
715.795584	4417.633692
716.128957	4397.111154
716.462281	4349.021067
716.795556	4316.079647
717.128782	4275.226137
717.461960	4215.100295
717.795088	4227.052870
718.128167	4184.036705
718.461198	4125.125781
718.794180	4122.030512
719.127113	4097.676698
719.459997	4081.199687
719.792833	4038.836350
720.125619	4028.728837
720.458357	3993.896984
720.791046	3999.233046
721.123686	3972.764467
721.456278	3931.520267
721.788821	3948.650108
722.121315	3921.891663
722.453761	3892.821850
722.786158	3905.333994
723.118506	3932.271399
723.450805	3882.369017
723.783056	3902.470618
724.115259	3920.636416
724.447412	3927.048764
724.779518	3918.995521
725.111574	3921.599277
725.443582	3953.393834
725.775542	3940.186011
726.107453	3987.356087
726.439315	3986.085717
726.771129	4000.914271
727.102895	4036.845095
727.434612	4085.608176
727.766281	4097.207871
728.097901	4097.651492
728.429473	4102.987554
728.760996	4109.364613
729.092471	4102.929580
729.423897	4087.077672
729.755276	4095.813992
730.086606	4093.963888
730.417887	4132.828664
730.749120	4193.657747
731.080305	4259.401955
731.411442	4285.636119
731.742530	4250.902569
732.073570	4260.430350
732.404562	4313.715346
732.735506	4302.428203
733.066401	4268.765898
733.397249	4201.337945
733.728048	4125.902118
734.058798	4042.660066
734.389501	3972.736741
734.720156	3910.886825
735.050762	3872.566494
735.381320	3862.254813
735.711831	3814.447031
736.042293	3785.586425
736.372707	3807.275990
736.703073	3776.429169
737.033391	3766.735030
737.363661	3789.165644
737.693883	3813.726146
738.024056	3819.687310
738.354182	3816.811332
738.684260	3878.174777
739.014290	3897.978950
739.344272	3894.442581
739.674207	3933.874486
740.004093	3941.224488
740.333931	3933.549332
740.663722	3936.687450
740.993464	3933.773663
741.323159	3908.935898
741.652806	3882.661404
741.982405	3854.713247
742.311956	3824.995645
742.641460	3816.501301
742.970915	3790.395686
743.300323	3750.205087
743.629683	3713.238306
743.958996	3705.608519
744.288260	3677.246988
744.617477	3647.867143
744.946647	3633.409114
745.275768	3610.892800
745.604842	3604.072119
745.933869	3557.620407
746.262847	3547.528017
746.591778	3591.229780
746.920662	3560.254410
747.249498	3526.516488
747.578286	3574.014239
747.907027	3592.941252
748.235720	3587.365735
748.564365	3616.319602
748.892963	3614.043522
749.221514	3597.579113
749.550017	3572.877459
749.878473	3576.406267
750.206881	3543.207748
750.535242	3539.343704
750.863555	3543.326215
751.191821	3534.695760
751.520039	3517.880991
751.848210	3492.569358
752.176334	3524.028678
752.504411	3534.819268
752.832440	3493.002897
753.160421	3478.602841
753.488356	3486.560303
753.816243	3498.376767
754.144082	3454.937144
754.471875	3441.973817
754.799620	3460.167342
755.127318	3450.846248
755.454969	3452.971094
755.782572	3456.285653
756.110129	3432.607353
756.437638	3427.112496
756.765100	3439.637243
757.092515	3450.135445
757.419882	3453.823049
757.747203	3427.833381
758.074477	3432.143567
758.401703	3447.118315
758.728882	3466.173876
759.056014	3476.523365
759.383099	3478.849858
759.710138	3472.805514
760.037129	3493.479286
760.364073	3519.925179
760.690970	3503.299454
761.017820	3481.798933
761.344623	3501.093949
761.671379	3547.316289
761.998088	3599.467025
762.324751	3724.719534
762.651366	3970.879076
762.977935	4435.091207
763.304456	4870.858628
763.630931	4964.697186
763.957359	4603.327114
764.283740	4268.113068
764.610074	4075.861105
764.936362	3881.575036
765.262602	3724.480079
765.588796	3620.541569
765.914943	3530.080584
766.241044	3444.668314
766.567097	3416.604211
766.893104	3368.254504
767.219064	3338.824248
767.544978	3314.321720
767.870845	3257.366763
768.196665	3241.915627
768.522438	3247.539034
768.848165	3242.437386
769.173846	3212.064434
769.499479	3190.087524
769.825066	3173.784433
770.150607	3156.369767
770.476101	3175.702592
770.801548	3165.758916
771.126949	3124.187041
771.452303	3106.424535
771.777611	3113.956019
772.102872	3120.383490
772.428087	3092.198399
772.753256	3079.819846
773.078378	3076.086871
773.403453	3041.265101
773.728482	3029.670447
774.053465	3050.230793
774.378401	3043.092519
774.703291	3007.943074
775.028135	3009.576408
775.352932	3005.825789
775.677683	2991.912205
776.002388	2991.145949
776.327046	2990.944303
776.651658	2982.843169
776.976224	2969.196766
777.300743	2970.308340
777.625216	2961.589664
777.949643	2958.431382
778.274024	2957.387863
778.598359	2948.376800
778.922647	2952.729837
779.246889	2950.131122
779.571086	2936.204934
779.895236	2930.631939
780.219339	2941.256170
780.543397	2952.031637
780.867409	2958.184365
781.191374	2948.026440
781.515294	2947.751697
781.839167	2947.587860
782.162995	2937.745007
782.486776	2946.017540
782.810511	2944.154834
783.134201	2930.972217
783.457844	2937.480346
783.781441	2926.314190
784.104993	2906.381468
784.428498	2912.105698
784.751958	2924.227153
785.075372	2917.731626
785.398739	2903.266035
785.722061	2916.811615
786.045337	2931.370468
786.368568	2914.495205
786.691752	2904.301992
787.014891	2953.659929
787.337983	2981.824856
787.661030	3009.964577
787.984031	3076.255750
788.306987	3121.991618
788.629897	3112.640278
788.952760	3095.646548
789.275579	3085.047522
789.598351	3023.714324
789.921078	2980.773775
790.243759	2973.133907
790.566395	2954.164045
790.888984	2930.412648
791.211529	2916.468817
791.534027	2905.073289
791.856480	2896.158008
792.178888	2880.522869
792.501249	2873.233361
792.823566	2870.281765
793.145836	2864.996116
793.468062	2861.563090
793.790241	2861.734489
794.112375	2868.459388
794.434464	2881.382386
794.756507	2881.921790
795.078505	2890.017883
795.400457	2905.315264
795.722364	2939.101077
796.044226	2961.539253
796.366042	2965.602423
796.687812	2956.782924
797.009538	2973.509473
797.331218	2961.934983
797.652852	2949.581636
797.974442	2932.222423
798.295986	2924.204468
798.617484	2921.126843
798.938938	2906.719225
799.260346	2891.754560
799.581709	2887.598129
799.903026	2879.058414
800.224299	2873.603886
800.545526	2863.168697
800.866708	2849.272757
801.187845	2838.845130
801.508936	2839.825634
801.829983	2845.990966
802.150984	2835.036538
802.471940	2822.085814
802.792851	2822.524394
803.113717	2820.825526
803.434538	2828.334324
803.755314	2819.701348
804.076045	2815.930565
804.396731	2815.471820
804.717372	2815.799495
805.037967	2809.399750
805.358518	2815.638178
805.679024	2826.396001
805.999485	2821.397697
806.319901	2825.203768
806.640272	2819.663540
806.960598	2824.699652
807.280879	2833.907320
807.601115	2841.708505
807.921306	2828.291474
808.241453	2823.091524
808.561554	2830.751557
808.881611	2834.807166
809.201623	2828.856084
809.521590	2828.420024
809.841513	2822.325269
810.161390	2826.453974
810.481223	2820.069352
810.801011	2808.426808
811.120755	2806.128042
811.440453	2809.356901
811.760107	2808.673824
812.079716	2807.910089
812.399281	2799.322484
812.718801	2792.637914
813.038276	2784.929990
813.357707	2791.410393
813.677093	2803.186528
813.996434	2796.287709
814.315731	2792.393418
814.634983	2783.180709
814.954191	2786.288581
815.273354	2802.137968
815.592473	2809.251036
815.911547	2808.031077
816.230577	2816.313693
816.549562	2827.212667
816.868502	2825.939776
817.187399	2835.313802
817.506250	2853.542614
817.825058	2843.946778
818.143821	2855.475897
818.462539	2871.279914
818.781213	2898.371075
819.099843	2934.160746
819.418429	2988.615290
819.736970	3049.943447
820.055466	3118.344343
820.373919	3224.506002
820.692327	3361.816951
821.010691	3528.434647
821.329011	3961.232828
821.647286	4843.780070
821.965517	6194.910124
822.283704	6910.776655
822.601847	6883.521657
822.919945	6269.330158
823.237999	5778.326814
823.556010	5204.653589
823.873976	4666.523019
824.191897	4266.399076
824.509775	3978.579438
824.827609	3713.933985
825.145398	3596.260851
825.463144	3585.382041
825.780845	3676.790763
826.098502	3775.705764
826.416116	4054.915111
826.733685	4361.863407
827.051210	4421.948919
827.368692	4307.751661
827.686129	4049.873957
828.003522	3729.831264
828.320872	3481.216679
828.638177	3290.325827
828.955439	3155.099396
829.272656	3072.205183
829.589830	3007.900224
829.906960	2962.270220
830.224046	2915.541245
830.541088	2883.058570
830.858086	2867.652804
831.175041	2850.636389
831.491952	2851.523632
831.808819	2866.216075
832.125642	2888.392111
832.442421	2931.499017
832.759157	3014.105885
833.075849	3183.770958
833.392497	3462.103145
833.709101	3663.214936
834.025662	3608.490691
834.342179	3450.989921
834.658653	3278.799229
834.975083	3132.121817
835.291469	3041.229813
835.607811	2960.626804
835.924110	2898.653379
836.240366	2849.983559
836.556578	2809.631643
836.872746	2786.255813
837.188871	2765.939963
837.504952	2750.088055
837.820990	2742.322157
838.136984	2726.170300
838.452935	2721.096379
838.768842	2719.828529
839.084706	2737.747310
839.400526	2813.581387
839.716303	2944.192643
840.032037	3019.084024
840.347727	3004.641118
840.663373	2944.926130
840.978977	2875.300234
841.294537	2801.003709
841.610054	2757.821185
841.925527	2735.849316
842.240957	2713.869885
842.556344	2695.459591
842.871687	2676.441838
843.186987	2669.210303
843.502244	2666.293996
843.817458	2661.572955
844.132629	2648.544093
844.447756	2639.016312
844.762840	2634.315436
845.077881	2637.002371
845.392879	2635.963893
845.707833	2631.653707
846.022745	2623.267747
846.337613	2627.383850
846.652438	2622.955196
846.967221	2624.495268
847.281960	2623.129116
847.596656	2621.568879
847.911309	2624.117182
848.225919	2621.102572
848.540485	2615.121243
848.855009	2615.428753
849.169490	2614.168465
849.483928	2616.633589
849.798323	2613.745008
850.112675	2609.729729
850.426984	2613.387086
850.741251	2610.896756
851.055474	2614.183588
851.369654	2617.694752
851.683792	2615.995883
851.997887	2612.625872
852.311938	2612.136880
852.625947	2612.819956
852.939914	2615.403547
853.253837	2616.530245
853.567718	2613.377004
853.881555	2614.738115
854.195350	2616.343723
854.509103	2613.056890
854.822812	2610.622013
855.136479	2612.230141
855.450103	2610.843824
855.763685	2613.951695
856.077224	2612.772065
856.390720	2610.627054
856.704173	2614.065121
857.017584	2617.077211
857.330953	2618.334978
857.644278	2621.591564
857.957561	2619.547376
858.270802	2616.699124
858.584000	2613.371962
858.897155	2617.356995
859.210268	2619.663322
859.523339	2615.537138
859.836367	2612.577981
860.149352	2610.165789
860.462295	2613.644185
860.775195	2610.289297
861.088054	2609.996910
861.400869	2607.282249
861.713642	2605.185129
862.026373	2607.425922
862.339062	2609.044132
862.651708	2616.260544
862.964312	2616.643671
863.276873	2612.547734
863.589392	2614.334823
863.901869	2622.745988
864.214303	2626.259672
864.526696	2627.207409
864.839045	2628.876031
865.151353	2631.671351
865.463619	2631.298306
865.775842	2633.823924
866.088023	2631.003398
866.400162	2634.131434
866.712258	2631.709160
867.024313	2628.301340
867.336325	2626.942749
867.648296	2630.625312
867.960224	2633.597072
868.272110	2632.571197
868.583954	2626.277316
868.895755	2627.504837
869.207515	2631.757051
869.519233	2639.250726
869.830909	2635.971455
870.142542	2630.161525
870.454134	2631.159674
870.765684	2639.596045
871.077191	2641.554533
871.388657	2643.507980
871.700081	2642.214924
872.011463	2643.104688
872.322803	2642.590490
872.634101	2646.144504
872.945357	2653.862510
873.256571	2657.121616
873.567744	2655.158087
873.878874	2653.290339
874.189963	2652.266985
874.501010	2658.150012
874.812015	2662.876093
875.122979	2663.183604
875.433900	2655.626914
875.744780	2652.743374
876.055618	2661.676299
876.366415	2665.265600
876.677169	2662.618994
876.987882	2660.053047
877.298554	2657.590443
877.609183	2668.509583
877.919771	2675.773885
878.230317	2682.738239
878.540822	2691.908098
878.851285	2703.890921
879.161707	2726.760115
879.472087	2765.317381
879.782425	2810.206335
880.092722	2919.727923
880.402977	3100.092846
880.713191	3351.512832
881.023363	3636.486738
881.333494	3815.808143
881.643583	3985.982373
881.953631	3985.816015
882.263637	3812.319664
882.573602	3595.915532
882.883526	3470.748723
883.193408	3359.475335
883.503248	3263.940428
883.813048	3151.230310
884.122806	3044.839279
884.432522	2960.949438
884.742197	2899.775036
885.051831	2862.248687
885.361424	2831.643842
885.670975	2796.562452
885.980485	2766.986002
886.289954	2749.767942
886.599382	2737.933833
886.908768	2724.468911
887.218113	2705.206662
887.527417	2694.317770
887.836680	2686.408199
888.145901	2679.491736
888.455082	2671.756086
888.764221	2662.790394
889.073319	2655.619352
889.382376	2656.393169
889.691392	2656.524239
890.000366	2654.054074
890.309300	2649.786737
890.618193	2657.333345
890.927044	2656.993067
891.235855	2658.288643
891.544625	2657.598005
891.853353	2656.995587
892.162041	2665.873059
892.470687	2683.779238
892.779293	2692.419775
893.087858	2704.309337
893.396381	2724.915053
893.704864	2763.500045
894.013306	2834.149295
894.321707	2923.349992
894.630068	2972.319760
894.938387	2988.118737
895.246665	2981.754280
895.554903	2939.678289
895.863100	2899.487690
896.171256	2841.746314
896.479371	2783.901594
896.787446	2747.859865
897.095480	2727.569221
897.403473	2723.304404
897.711425	2710.451983
898.019336	2691.293077
898.327207	2679.834535
898.635038	2676.845131
898.942827	2673.880932
899.250576	2666.500683
899.558284	2657.000628
899.865952	2653.171872
900.173579	2648.546613
900.481165	2646.883033
900.788711	2639.154944
901.096216	2633.821403
901.403681	2628.578603
901.711105	2632.079684
902.018489	2626.645321
902.325832	2633.140847
902.633135	2633.118162
902.940397	2646.303300
903.247619	2677.558454
903.554800	2749.445308
903.861941	2866.263966
904.169041	2988.363233
904.476101	3048.786503
904.783121	3043.768034
905.090100	2989.540342
905.397039	2916.627613
905.703938	2845.358301
906.010796	2785.534928
906.317614	2737.933833
906.624391	2702.784388
906.931129	2677.838238
907.237826	2653.028199
907.544483	2638.935654
907.851099	2624.918725
908.157675	2617.261213
908.464211	2610.266612
908.770707	2598.697164
909.077163	2593.376226
909.383578	2591.127871
909.689954	2590.001173
909.996289	2589.418920
910.302584	2589.245000
910.608839	2585.506985
910.915054	2587.878848
911.221229	2591.266503
911.527363	2590.699373
911.833458	2588.841708
912.139513	2589.872624
912.445527	2589.640731
912.751502	2597.419231
913.057436	2602.606578
913.363331	2609.114708
913.669186	2618.740791
913.975000	2632.674541
914.280775	2649.552324
914.586510	2663.612102
914.892205	2698.731300
915.197859	2764.457864
915.503475	2843.016685
915.809050	2906.099163
916.114585	2918.467634
916.420081	2931.526743
916.725536	2939.133845
917.030952	2915.584094
917.336328	2873.152703
917.641665	2825.105465
917.946961	2776.107970
918.252218	2745.679566
918.557435	2720.967830
918.862612	2698.905220
919.167750	2682.478620
919.472848	2666.001609
919.777906	2651.374701
920.082925	2640.107722
920.387904	2630.380816
920.692843	2625.450567
920.997743	2623.464352
921.302603	2618.264402
921.607423	2608.739142
921.912204	2602.871239
922.216946	2600.101125
922.521647	2597.283120
922.826310	2593.867738
923.130932	2591.054774
923.435516	2587.241142
923.740059	2582.613362
924.044564	2580.402816
924.349028	2579.223186
924.653454	2574.308061
924.957840	2572.609193
925.262186	2572.589028
925.566493	2572.694892
925.870761	2564.717266
926.174989	2566.453944
926.479178	2565.445713
926.783328	2564.233315
927.087438	2562.473953
927.391509	2564.815569
927.695541	2559.517316
927.999533	2560.928839
928.303486	2558.667882
928.607400	2556.782490
928.911275	2557.775597
929.215110	2556.437171
929.518906	2557.735268
929.822663	2558.040258
930.126381	2558.819116
930.430060	2557.954558
930.733699	2558.340207
931.037299	2559.124106
931.340861	2558.670402
931.644383	2560.694425
931.947866	2559.161915
932.251309	2558.567058
932.554714	2556.870710
932.858080	2556.374157
933.161407	2557.205947
933.464694	2558.572100
933.767943	2556.638817
934.071153	2556.197716
934.374323	2553.840977
934.677455	2556.674105
934.980548	2556.114537
935.283602	2555.726368
935.586617	2552.217725
935.889593	2555.156718
936.192530	2556.318704
936.495428	2555.953220
936.798287	2555.116389
937.101108	2558.569579
937.403890	2557.016904
937.706632	2563.630898
938.009336	2565.352452
938.312002	2567.600806
938.614628	2571.137176
938.917216	2576.011971
939.219765	2577.166396
939.522275	2577.305027
939.824747	2577.547003
940.127179	2571.424521
940.429573	2570.280179
940.731929	2568.241033
941.034246	2565.889334
941.336524	2568.588872
941.638763	2565.964952
941.940964	2565.609550
942.243126	2566.335477
942.545250	2565.014694
942.847335	2564.992009
943.149381	2561.596792
943.451389	2558.188972
943.753359	2559.401369
944.055290	2559.832388
944.357182	2559.469425
944.659036	2556.376677
944.960851	2557.097562
945.262628	2556.041440
945.564367	2558.539332
945.866067	2556.865669
946.167729	2556.069167
946.469352	2559.577810
946.770937	2557.513457
947.072484	2560.853222
947.373992	2559.096380
947.675462	2556.611091
947.976893	2557.032027
948.278286	2555.812068
948.579641	2556.417006
948.880958	2558.622511
949.182236	2554.662685
949.483476	2554.798796
949.784678	2557.059753
950.085841	2555.224773
950.386967	2556.061605
950.688054	2555.703683
950.989103	2556.772408
951.290114	2558.476318
951.591087	2558.282233
951.892021	2557.246276
952.192917	2562.766340
952.493776	2557.831050
952.794596	2560.525547
953.095378	2558.869528
953.396122	2561.901782
953.696828	2562.504200
953.997496	2558.549414
954.298126	2559.056050
954.598718	2557.735268
954.899272	2557.939435
955.199788	2557.122768
955.500266	2554.733261
955.800706	2550.284443
956.101108	2544.466951
956.401472	2550.793599
956.701798	2546.990049
957.002087	2544.091385
957.302337	2549.790410
957.602550	2547.269833
957.902724	2548.217570
958.202861	2546.889226
958.502960	2545.858310
958.803022	2545.349153
959.103045	2545.502908
959.403031	2543.834286
959.702979	2544.880326
960.002889	2543.572146
960.302762	2543.330171
960.602596	2545.512991
960.902393	2540.607948
961.202153	2544.391334
961.501875	2543.529297
961.801559	2541.626261
962.101205	2542.079965
962.400814	2542.926879
962.700385	2543.486447
962.999918	2543.914945
963.299414	2542.200952
963.598873	2540.108874
963.898293	2543.312527
964.197677	2540.744059
964.497022	2542.614327
964.796331	2543.985521
965.095601	2540.292876
965.394835	2541.744728
965.694030	2539.859337
965.993189	2542.069883
966.292309	2537.560570
966.591393	2543.367980
966.890439	2540.590304
967.189447	2539.887063
967.488419	2540.353370
967.787353	2541.318751
968.086249	2541.152392
968.385108	2539.516538
968.683930	2541.832948
968.982714	2541.157434
969.281462	2537.636188
969.580172	2542.218597
969.878844	2539.869419
970.177480	2540.035777
970.476078	2541.928730
970.774639	2539.420756
971.073162	2542.541230
971.371649	2539.458565
971.670098	2537.921013
971.968510	2536.817000
972.266885	2537.936136
972.565223	2542.982331
972.863524	2539.970242
973.161788	2543.836807
973.460014	2540.123997
973.758204	2545.049204
974.056356	2541.759852
974.354471	2542.513504
974.652550	2540.837320
974.950591	2541.522917
975.248595	2538.740200
975.546563	2541.230530
975.844493	2543.614996
976.142386	2540.517207
976.440243	2539.478729
976.738062	2541.734646
977.035845	2541.752290
977.333590	2540.050900
977.631299	2540.822197
977.928971	2540.267670
978.226606	2541.338915
978.524204	2538.843544
978.821765	2539.955118
979.119290	2539.027546
979.416777	2539.544264
979.714228	2538.964532
980.011642	2538.397402
980.309020	2540.935623
980.606360	2542.586601
980.903664	2540.454193
981.200931	2543.491488
981.498162	2538.997299
981.795356	2541.711961
982.092513	2548.696479
982.389633	2546.584236
982.686717	2552.288301
982.983764	2552.258054
983.280775	2555.204609
983.577749	2554.458518
983.874686	2553.054557
984.171587	2548.772097
984.468451	2549.288815
984.765279	2546.995090
985.062070	2545.064328
985.358824	2544.527445
985.655543	2545.326468
985.952224	2542.148020
986.248869	2538.898997
986.545478	2536.295241
986.842050	2538.775488
987.138586	2535.501259
987.435086	2535.629808
987.731549	2536.219623
988.027975	2537.021167
988.324366	2536.519572
988.620719	2537.033770
988.917037	2536.552340
989.213318	2538.594007
989.509563	2538.954449
989.805772	2540.796991
990.101944	2538.142824
990.398080	2536.133924
990.694180	2534.581248
990.990244	2538.193235
991.286271	2536.164171
991.582262	2536.781712
991.878217	2537.411856
992.174136	2538.069727
992.470019	2538.873791
992.765865	2536.015457
993.061676	2537.028729
993.357450	2537.757175
993.653188	2538.155427
993.948890	2537.742052
994.244556	2538.871270
994.540186	2538.783050
994.835780	2538.546116
995.131337	2540.728936
995.426859	2536.290200
995.722345	2539.181301
996.017795	2542.410160
996.313208	2540.630633
996.608586	2543.234389
996.903928	2543.042825
997.199234	2539.082999
997.494504	2542.148020
997.789738	2541.643905
998.084936	2539.166178
998.380099	2541.522917
998.675225	2538.377237
998.970316	2536.612833
999.265371	2537.898328
999.560390	2538.621733
999.855373	2535.264325
1000.150320	2540.043339
1000.445232	2538.919161
1000.740108	2536.259953
1001.034948	2540.184491
1001.329752	2537.028729
1001.624521	2535.213913
1001.919254	2532.350538
1002.213951	2532.756351
1002.508613	2533.847761
1002.803239	2533.925898
1003.097829	2531.425486
1003.392384	2536.136444
1003.686903	2536.144006
1003.981386	2535.607123
1004.275834	2534.921526
1004.570246	2536.660724
1004.864623	2537.464788
1005.158964	2538.699871
1005.453270	2537.845396
1005.747540	2536.799356
1006.041775	2537.008564
1006.335974	2535.304654
1006.630138	2535.133255
1006.924266	2535.382792
1007.218359	2536.433873
1007.512416	2536.915303
1007.806438	2533.578059
1008.100425	2535.299613
1008.394376	2536.421270
1008.688292	2535.289531
1008.982172	2534.883718
1009.276017	2535.551671
1009.569827	2535.413039
1009.863602	2537.434542
1010.157341	2534.379602
1010.451045	2532.799201
1010.744714	2536.713657
1011.038347	2535.662576
1011.331945	2534.755168
1011.625508	2536.660724
1011.919036	2533.492359
1012.212528	2535.574356
1012.505986	2535.103008
1012.799408	2534.787936
1013.092795	2533.504962
1013.386147	2534.684592
1013.679464	2533.860363
1013.972745	2535.586959
1014.265992	2535.826413
1014.559204	2539.017464
1014.852380	2534.939170
1015.145521	2537.563091
1015.438628	2533.489839
1015.731699	2535.440765
1016.024736	2534.876156
1016.317737	2535.463450
1016.610703	2535.410518
1016.903635	2531.397760
1017.196531	2530.548325
1017.489393	2530.253418
1017.782219	2531.158305
1018.075011	2534.205683
1018.367768	2534.114942
1018.660490	2536.801877
1018.953177	2536.801877
1019.245829	2536.801877
