Dividing Wavelength (nm)	Counts (n)	Blue Motor Position (mm): 30.200000	Red Motor Position (mm): 0.000000	
326.493990	2055.230532
326.888308	2055.230532
327.282561	2055.230532
327.676750	2029.001409
328.070874	2031.355627
328.464933	2037.478109
328.858929	2046.007741
329.252859	2056.228681
329.646726	2071.130331
330.040528	2086.664647
330.434265	2102.413212
330.827938	2125.103445
331.221547	2144.552217
331.615091	2165.193221
332.008571	2186.935718
332.401986	2206.714685
332.795338	2229.062120
333.188625	2246.401168
333.581847	2265.355907
333.975006	2283.942641
334.368100	2300.233130
334.761129	2318.865234
335.154095	2333.406443
335.546996	2383.364277
335.939833	2487.847232
336.332606	2496.686895
336.725315	2512.107785
337.117960	2521.514578
337.510540	2529.003212
337.903056	2535.821372
338.295508	2547.907539
338.687896	2553.641851
339.080220	2556.648899
339.472480	2563.560321
339.864676	2566.088460
340.256807	2570.743966
340.648875	2570.370920
341.040879	2574.164388
341.432818	2573.284707
341.824694	2573.841755
342.216506	2573.929975
342.608253	2573.405695
342.999937	2573.803946
343.391557	2572.180694
343.783113	2571.442165
344.174605	2568.944274
344.566033	2567.729356
344.957397	2567.855384
345.348697	2562.355486
345.739934	2563.116700
346.131106	2562.118551
346.522215	2560.462532
346.913260	2557.546225
347.304241	2555.338199
347.695159	2554.980278
348.086012	2553.495658
348.476802	2551.373332
348.867528	2548.993907
349.258191	2546.160779
349.648789	2545.535676
350.039324	2542.752959
350.429796	2548.522559
350.820203	2545.361756
351.210548	2545.354194
351.600828	2542.372352
351.991045	2542.339584
352.381198	2543.531817
352.771288	2545.087013
353.161314	2541.124666
353.551276	2541.107022
353.941175	2539.032587
354.331010	2544.653474
354.720782	2546.891746
355.110490	2546.400234
355.500135	2541.825387
355.889717	2545.202960
356.279235	2544.540048
356.668689	2545.800336
357.058080	2544.585418
357.447408	2544.156920
357.836672	2543.559543
358.225873	2543.373021
358.615010	2545.969215
359.004084	2547.922662
359.393095	2548.381407
359.782043	2546.795964
360.170927	2548.217570
360.559748	2549.122457
360.948505	2548.028526
361.337199	2549.939124
361.725830	2551.650595
362.114398	2548.267981
362.502903	2547.083310
362.891344	2550.687735
363.279722	2549.409802
363.668037	2553.856100
364.056289	2551.131357
364.444478	2551.574978
364.832603	2555.633107
365.220665	2556.059084
365.608665	2554.309804
365.996601	2552.961295
366.384474	2555.227294
366.772284	2553.886347
367.160031	2554.093034
367.547715	2557.682336
367.935336	2556.966492
368.322893	2554.327448
368.710388	2554.430792
369.097820	2554.483724
369.485189	2554.990360
369.872495	2556.447253
370.259738	2557.979764
370.646918	2557.198385
371.034035	2558.690567
371.421090	2560.255845
371.808081	2557.329455
372.195010	2560.051678
372.581875	2558.985474
372.968678	2564.553429
373.355418	2560.112172
373.742096	2560.651576
374.128710	2563.812379
374.515262	2562.201730
374.901751	2563.053685
375.288177	2558.809034
375.674540	2562.486556
376.060841	2562.771381
376.447079	2563.789694
376.833254	2562.380691
377.219367	2559.353478
377.605417	2566.136351
377.991404	2563.177194
378.377329	2563.492266
378.763191	2564.548387
379.148991	2567.953687
379.534727	2563.456978
379.920402	2565.803635
380.306013	2564.944118
380.691563	2570.726322
381.077049	2565.266752
381.462474	2568.543502
381.847835	2564.576114
382.233134	2567.079047
382.618371	2564.777760
383.003545	2569.125755
383.388657	2570.683472
383.773706	2569.080385
384.158693	2568.440158
384.543618	2571.416960
384.928480	2571.658935
385.313280	2568.926630
385.698017	2568.175498
386.082692	2570.254974
386.467305	2572.526013
386.851856	2569.844120
387.236344	2571.714388
387.620770	2570.501990
388.005133	2567.056362
388.389435	2569.219017
388.773674	2568.069633
389.157851	2569.758420
389.541965	2574.111456
389.926018	2577.350398
390.310008	2574.305541
390.693936	2574.015674
391.077802	2573.478792
391.461606	2574.857547
391.845348	2574.678586
392.229027	2576.722774
392.612645	2577.305027
392.996200	2577.509194
393.379694	2575.563309
393.763125	2577.131108
394.146494	2577.426015
394.529801	2576.112794
394.913047	2576.367373
395.296230	2577.088258
395.679351	2579.898701
396.062410	2579.576067
396.445408	2579.316448
396.828343	2584.312231
397.211217	2579.616396
397.594028	2580.748135
397.976778	2580.206211
398.359466	2581.141345
398.742092	2580.259143
399.124656	2582.018506
399.507158	2580.864082
399.889598	2581.602611
400.271977	2582.767117
400.654294	2584.057653
401.036549	2583.674525
401.418742	2581.285018
401.800874	2583.601428
402.182944	2582.439442
402.564952	2584.092941
402.946898	2586.217787
403.328783	2587.238621
403.710606	2587.498240
404.092367	2582.386510
404.474067	2583.588826
404.855705	2586.656368
405.237282	2590.787593
405.618797	2587.387335
406.000250	2589.842377
406.381642	2589.602922
406.762972	2587.798189
407.144240	2586.011100
407.525447	2588.181317
407.906593	2586.777355
408.287677	2591.306832
408.668700	2588.443457
409.049661	2592.420927
409.430560	2591.289188
409.811399	2593.260279
410.192176	2592.839343
410.572891	2593.078798
410.953545	2592.655341
411.334138	2595.826227
411.714669	2593.598037
412.095139	2596.983171
412.475547	2594.102152
412.855894	2592.347830
413.236180	2596.194231
413.616405	2597.663727
413.996568	2596.917636
414.376670	2597.963676
414.756711	2597.404108
415.136691	2596.630291
415.516609	2598.377050
415.896466	2601.179932
416.276262	2599.186156
416.655997	2599.342431
417.035670	2599.667586
417.415283	2603.859305
417.794834	2603.501383
418.174324	2604.217227
418.553753	2601.679006
418.933121	2605.066662
419.312428	2604.123966
419.691674	2604.630602
420.070859	2607.158740
420.449983	2605.840479
420.829045	2605.732094
421.208047	2609.568412
421.586988	2608.592949
421.965867	2609.646550
422.344686	2610.911879
422.723444	2611.993207
423.102141	2611.809205
423.480777	2612.749380
423.859352	2615.597632
424.237866	2615.632920
424.616319	2617.689711
424.994712	2620.792541
425.373044	2619.363374
425.751314	2619.806995
426.129524	2620.976543
426.507673	2625.238839
426.885762	2626.494086
427.263789	2633.289561
427.641756	2634.993471
428.019662	2642.207362
428.397508	2644.664925
428.775292	2649.431336
429.153016	2654.200267
429.530679	2660.186638
429.908282	2667.733245
430.285824	2673.487722
430.663305	2682.264371
431.040726	2687.436595
431.418086	2697.319777
431.795385	2709.365614
432.172624	2722.419682
432.549802	2727.019735
432.926920	2740.482136
433.303977	2751.670977
433.680974	2766.413832
434.057910	2788.610032
434.434786	2801.926240
434.811601	2818.607418
435.188355	2845.612879
435.565050	2861.426979
435.941683	2876.966335
436.318257	2916.705751
436.694770	2935.088319
437.071222	2967.586117
437.447614	2976.272025
437.823946	3000.787156
438.200218	3032.654810
438.576429	3051.294477
438.952580	3090.305446
439.328670	3114.427367
439.704700	3148.757624
440.080670	3168.813855
440.456580	3221.647668
440.832429	3254.636979
441.208218	3261.014038
441.583947	3301.136582
441.959616	3351.659026
442.335224	3388.219994
442.710773	3437.567849
443.086261	3498.870800
443.461689	3503.780884
443.837057	3564.307498
444.212365	3636.892551
444.587612	3677.867050
444.962800	3707.592213
445.337927	3777.881022
445.712995	3743.787698
446.088002	3912.794901
446.462949	3979.393585
446.837837	4039.451371
447.212664	4108.552988
447.587431	4374.153740
447.962139	4665.605529
448.336786	4911.996964
448.711374	4885.770361
449.085901	4676.330583
449.460369	4737.885592
449.834776	4801.220129
450.209124	5144.648735
450.583412	5166.398793
450.957640	5302.550276
451.331808	5260.186940
451.705917	5191.594480
452.079965	5251.546402
452.453954	5400.799844
452.827883	5467.302745
453.201752	5542.889806
453.575562	5638.739785
453.949311	5865.768148
454.323001	5991.872612
454.696632	6050.506272
455.070202	6389.158385
455.443713	6514.874679
455.817164	6687.350196
456.190556	6935.516118
456.563888	6960.860519
456.937160	7160.228071
457.310373	7030.002464
457.683526	7153.281361
458.056619	7288.737165
458.429653	7430.721263
458.802628	7639.062069
459.175542	7780.121116
459.548398	8196.170063
459.921194	8631.453533
460.293930	8928.929501
460.666607	9536.678406
461.039224	10090.013096
461.411782	10372.602537
461.784280	10260.837635
462.156719	10335.345889
462.529099	10411.583259
462.901419	10168.839098
463.273680	10052.491788
463.645882	10336.540642
464.018024	10428.917266
464.390106	10833.769811
464.762130	11766.027871
465.134094	13100.141510
465.505999	14824.879037
465.877845	16422.314827
466.249631	17244.496772
466.621358	16945.110207
466.993026	16480.212479
467.364634	16100.137205
467.736184	15705.649273
468.107674	15429.620894
468.479105	15436.794456
468.850477	15349.910169
469.221790	15141.647501
469.593043	14739.600358
469.964238	14576.650101
470.335373	14764.601961
470.706449	15573.770168
471.077467	16645.443858
471.448425	18770.227190
471.819324	20141.925151
472.190164	19791.081008
472.560945	18425.331608
472.931667	17274.695804
473.302330	17139.013149
473.672934	16833.151221
474.043479	17299.011810
474.413965	17198.897015
474.784393	17126.415305
475.154761	17781.787990
475.525070	17978.007342
475.895321	17894.067089
476.265513	18434.037681
476.635645	19036.321975
477.005719	19162.166819
477.375734	19565.310413
477.745691	20187.681184
478.115588	20867.753002
478.485427	22110.125203
478.855207	23943.822230
479.224928	25624.689115
479.594591	26766.097087
479.964194	26311.009444
480.333739	26708.927882
480.703226	27031.599537
481.072653	27583.195029
481.442022	28108.634494
481.811333	28421.317102
482.180584	27982.162026
482.549777	27832.936311
482.918912	27676.055603
483.287988	27663.896340
483.657005	27519.522735
484.025964	27218.671715
484.394864	27443.275283
484.763706	27407.180622
485.132489	26966.419938
485.501213	27060.437457
485.869879	27277.547350
486.238487	27255.187313
486.607036	27542.218010
486.975527	27291.710472
487.343959	27634.145971
487.712333	27972.603999
488.080648	27970.955541
488.448905	28391.932217
488.817104	28347.597789
489.185244	29245.820499
489.553326	30420.066547
489.921350	32340.662983
490.289315	34703.787028
490.657222	35367.134818
491.025070	35765.905211
491.392861	35394.261267
491.760593	34594.605718
492.128267	33592.666308
492.495883	32677.848120
492.863440	31866.136651
493.230939	30997.578611
493.598380	30531.145851
493.965763	30413.079508
494.333088	29978.738733
494.700354	29819.375258
495.067563	29798.172164
495.434713	29732.513656
495.801805	30023.189108
496.168839	29894.188501
496.535815	29780.823033
496.902733	29930.754511
497.269593	29752.307747
497.636395	29916.407387
498.003139	30217.283613
498.369825	30000.763535
498.736453	30410.526163
499.103023	30258.689130
499.469535	30368.583763
499.835989	30512.332265
500.202385	30378.353519
500.568723	30453.078543
500.935003	30794.014298
501.301226	30693.642404
501.667390	31371.536444
502.033497	31585.641810
502.399546	31395.759189
502.765537	31002.874343
503.131470	31480.813536
503.497345	31907.731212
503.863163	30911.906722
504.228923	31671.616168
504.594625	32084.998345
504.960269	31579.410944
505.325856	32250.194436
505.691385	31940.733125
506.056856	32266.011057
506.422270	32746.647267
506.787625	32294.120530
507.152924	32758.241921
507.518164	32959.968733
507.883347	32539.675134
508.248472	32714.640981
508.613540	33395.078283
508.978550	33628.380363
509.343503	33496.844056
509.708398	33857.261350
510.073236	34456.740242
510.438016	34565.971964
510.802738	34270.351141
511.167403	34822.977549
511.532010	35083.156540
511.896561	35561.993058
512.261053	36304.565102
512.625488	36108.212160
512.989866	36051.952883
513.354186	36090.805056
513.718449	36066.690696
514.082655	36942.568492
514.446803	36667.024064
514.810894	37276.774307
515.174927	37296.601165
515.538904	37309.035171
515.902822	37958.048440
516.266684	37659.954931
516.630488	38010.075669
516.994235	38034.762199
517.357925	38614.273081
517.721558	38876.052638
518.085133	39249.755893
518.448651	39449.080596
518.812112	39344.116211
519.175516	39485.903704
519.538863	39947.325557
519.902152	40008.394094
520.265385	40545.352596
520.628560	40581.104459
520.991678	40540.823120
521.354739	40774.470518
521.717743	41132.284056
522.080690	41053.266490
522.443580	41719.243243
522.806413	41755.973090
523.169189	41889.097360
523.531908	42133.328661
523.894569	41981.582368
524.257174	42178.933459
524.619722	42532.635936
524.982213	42660.630832
525.344647	42705.229921
525.707025	42825.466481
526.069345	43279.087148
526.431608	43175.372969
526.793815	43560.723811
527.155964	43125.089980
527.518057	43396.261208
527.880093	43256.769960
528.242072	43866.699164
528.603995	43621.910815
528.965860	43548.095720
529.327669	43762.032207
529.689421	43813.666225
530.051117	43773.800781
530.412755	44059.069595
530.774337	44123.644255
531.135862	44069.628291
531.497331	44207.103077
531.858743	44213.790168
532.220098	44619.771931
532.581396	44352.305952
532.942638	44123.490500
533.303824	44354.279564
533.664953	44419.355819
534.026025	44107.779744
534.387040	44679.877608
534.747999	44752.707158
535.108902	45062.143263
535.469748	44413.689562
535.830537	44644.934851
536.191270	44901.587555
536.551947	44634.721473
536.912567	44908.894707
537.273131	45075.656076
537.633638	44697.173807
537.994089	44892.425258
538.354483	44648.559440
538.714821	45302.119831
539.075103	45566.956848
539.435328	45434.276199
539.795497	45192.265527
540.155609	45307.357589
540.515665	45904.240287
540.875665	45209.917127
541.235609	45483.714795
541.595496	45612.433097
541.955328	46182.597679
542.315102	45611.472757
542.674821	45493.066135
543.034483	45406.058341
543.394090	45413.234423
543.753640	45393.717596
544.113134	46454.419215
544.472571	45572.930615
544.831953	46696.535752
545.191278	45970.355020
545.550548	45641.001316
545.909761	46302.443550
546.268918	46432.943900
546.628019	46861.963736
546.987064	46281.895807
547.346053	45574.493373
547.704986	46473.915877
548.063863	46125.554503
548.422684	46326.063876
548.781449	45921.410457
549.140158	46457.421222
549.498811	46216.754017
549.857408	45623.727802
550.215949	46456.854092
550.574434	46303.474466
550.932864	46235.522233
551.291237	46941.273689
551.649555	46705.304839
552.007817	46870.684932
552.366022	46539.314766
552.724173	46620.724360
553.082267	47021.324691
553.440305	47379.107983
553.798288	46620.247971
554.156215	46999.622524
554.514086	47222.973366
554.871902	46836.755446
555.229661	47005.863472
555.587365	46695.194805
555.945014	46819.449165
556.302606	46839.381887
556.660143	46938.168338
557.017625	47151.583066
557.375050	46858.056842
557.732421	47273.805841
558.089735	47328.456989
558.446994	47199.836990
558.804197	47681.420938
559.161345	47550.839930
559.518437	46880.038793
559.875474	47138.975140
560.232455	47368.766056
560.589381	47416.397398
560.946251	47226.411433
561.303065	47867.053866
561.659825	47572.453877
562.016528	47380.247283
562.373177	46954.214331
562.729770	47579.957634
563.086307	47102.928369
563.442789	47630.807753
563.799216	47503.599277
564.155587	47390.135507
564.511904	47373.739154
564.868164	47412.341789
565.224370	47735.076459
565.580520	47460.807442
565.936615	47671.005914
566.292654	47325.757452
566.648638	47675.903395
567.004567	47601.107795
567.360441	47712.910505
567.716260	47427.939119
568.072023	47781.389539
568.427732	47713.613746
568.783385	47255.249353
569.138982	47655.201897
569.494525	47794.945202
569.850013	47391.791526
570.205445	47512.842232
570.560823	47296.758214
570.916145	47170.182403
571.271412	47411.068898
571.626625	47052.521872
571.981782	47133.288718
572.336884	46719.039463
572.691931	47051.995071
573.046923	46698.889971
573.401860	46559.222283
573.756743	46563.688745
574.111570	46708.652165
574.466342	46624.739639
574.821059	46770.436547
575.175722	46263.326717
575.530330	46371.431740
575.884882	46012.723397
576.239380	45916.949036
576.593823	46004.460946
576.948211	45934.507375
577.302544	45478.691285
577.656823	45482.426780
578.011047	45745.413694
578.365216	45562.780252
578.719330	45293.587678
579.073389	45272.951714
579.427394	45320.469631
579.781344	45244.922899
580.135239	45007.527403
580.489080	45071.764306
580.842866	44561.276903
581.196597	45054.921811
581.550273	45037.149223
581.903895	44975.251415
582.257463	45417.784064
582.610975	44845.388772
582.964434	45197.704932
583.317837	44700.284199
583.671186	44661.802551
584.024481	44935.479232
584.377721	44483.484337
584.730906	44690.925297
585.084037	44785.530111
585.437113	44517.040777
585.790135	44636.805990
586.143103	44175.719374
586.496016	44351.832084
586.848874	44467.559332
587.201679	44496.261141
587.554428	43993.602650
587.907124	44254.931024
588.259765	44028.474832
588.612352	44208.186925
588.964884	43646.337726
589.317362	43956.756857
589.669786	43963.958145
590.022155	43814.987008
590.374470	44269.492397
590.726731	43840.739742
591.078937	43170.150334
591.431090	43517.349723
591.783188	43060.064137
592.135232	42829.890093
592.487222	43110.006848
592.839157	43269.035087
593.191038	42894.530289
593.542866	42708.123543
593.894639	42105.952675
594.246358	42410.335023
594.598022	42403.418560
594.949633	41987.538492
595.301190	41963.653505
595.652692	41894.370407
596.004141	42374.721792
596.355535	41291.967646
596.706876	41304.739409
597.058162	41030.775382
597.409395	41521.700588
597.760573	41740.206881
598.111698	41338.068998
598.462768	41254.733683
598.813785	41274.747064
599.164748	40876.924408
599.515657	41153.658549
599.866511	40658.314772
600.217312	41360.219827
600.568060	40301.786728
600.918753	41135.031485
601.269392	41037.772504
601.619978	40756.486202
601.970510	40962.941616
602.320988	41094.112439
602.671412	41368.941024
603.021783	41249.241346
603.372100	40804.518316
603.722363	40912.928329
604.072572	40941.914964
604.422728	40940.412700
604.772830	40745.504048
605.122878	40880.271734
605.472872	40759.344536
605.822813	41006.454336
606.172701	40752.770871
606.522534	41090.087078
606.872314	41302.455766
607.222041	41128.394806
607.571714	41450.499331
607.921333	40956.042797
608.270899	41170.768225
608.620411	41552.557491
608.969870	41281.913064
609.319276	41304.333596
609.668627	41336.841477
610.017926	41742.205698
610.367171	41873.472303
610.716362	41914.524940
611.065500	41815.362923
611.414585	42016.389015
611.763616	42206.700134
612.112594	42108.369908
612.461518	42237.713313
612.810389	42617.541570
613.159207	42415.502206
613.507971	42385.295612
613.856682	42874.670663
614.205340	42721.462436
614.553945	43399.817742
614.902496	42730.118097
615.250994	43162.923840
615.599439	43209.166344
615.947830	43309.260974
616.296169	43332.810725
616.644454	43360.995816
616.992686	43533.277248
617.340864	43988.019572
617.688990	43499.728370
618.037063	44188.322259
618.385082	43999.672199
618.733048	44348.870406
619.080961	44206.387233
619.428821	44233.664917
619.776628	44256.435809
620.124382	44058.623452
620.472083	44167.925750
620.819731	44256.098052
621.167326	43811.904342
621.514868	43821.621166
621.862357	43285.910350
622.209793	43346.683980
622.557176	42916.257662
622.904506	42665.248529
623.251783	42296.450317
623.599007	41981.761329
623.946179	41897.972311
624.293297	41638.766263
624.640363	41116.515327
624.987376	40960.660494
625.334336	40755.208269
625.681243	40366.552952
626.028097	40258.369790
626.374899	40081.624416
626.721647	40052.267256
627.068343	39839.596099
627.414987	39561.962113
627.761577	39307.149430
628.108115	39627.363522
628.454600	38885.056139
628.801032	39104.038821
629.147412	39007.785550
629.493739	38923.361346
629.840014	38495.503496
630.186236	38911.897762
630.532405	38361.502065
630.878521	38586.009852
631.224585	38378.397492
631.570597	38036.203969
631.916556	38202.297385
632.262462	38084.024354
632.608316	38016.072121
632.954117	37869.752631
633.299866	37821.468459
633.645562	37735.967969
633.991206	37201.703964
634.336797	36813.903122
634.682336	36702.589404
635.027823	36461.123176
635.373257	36346.517585
635.718639	36005.634762
636.063968	35907.730513
636.409245	35245.486735
636.754470	35210.382660
637.099642	34984.163402
637.444762	34424.963329
637.789829	34546.916402
638.134845	34189.491033
638.479808	34100.993577
638.824719	34041.263466
639.169577	33538.879717
639.514383	33631.946979
639.859137	33264.325876
640.203839	33419.495112
640.548489	33133.139930
640.893086	33130.218581
641.237632	32866.142778
641.582125	32962.179279
641.926566	32760.008845
642.270955	32791.649648
642.615292	32719.059553
642.959576	32605.295834
643.303809	32631.318270
643.647990	32706.426421
643.992118	32659.858763
644.336195	32507.285721
644.680219	32601.744341
645.024192	32816.646209
645.368112	33341.334542
645.711981	33359.054198
646.055797	34080.967593
646.399562	33900.262393
646.743274	34783.195283
647.086935	35163.769631
647.430544	35117.010408
647.774101	35167.921021
648.117606	35437.945386
648.461059	35559.520373
648.804460	35158.650339
649.147810	34637.117768
649.491108	34288.206908
649.834354	34146.356400
650.177548	33310.548216
650.520690	32818.370283
650.863781	32811.834428
651.206820	32636.430000
651.549807	32227.035376
651.892742	31662.685764
652.235626	31561.219940
652.578458	31431.727821
652.921238	30751.724058
653.263967	31064.308364
653.606644	30764.558836
653.949269	30681.052123
654.291843	30287.937905
654.634365	30660.264925
654.976836	30193.774192
655.319255	30278.268972
655.661622	30147.967747
656.003938	30014.886327
656.346203	29846.620173
656.688416	30072.287425
657.030577	29844.109679
657.372687	29683.049855
657.714746	29829.117287
658.056753	30030.821414
658.398708	29402.174406
658.740612	29474.537649
659.082465	29677.224801
659.424266	29574.828884
659.766016	29589.609548
660.107715	29437.621280
660.449362	29553.759382
660.790958	29533.680466
661.132503	29460.757655
661.473996	29535.545693
661.815438	29614.422107
662.156829	29731.023995
662.498168	29541.564831
662.839456	29516.762354
663.180693	29645.009308
663.521879	29740.955068
663.863013	29695.083089
664.204097	29667.959161
664.545129	30091.295096
664.886110	30017.106955
665.227040	30127.296496
665.567918	30131.861261
665.908746	30201.454390
666.249522	30277.553128
666.590248	30310.633179
666.930922	30405.023744
667.271545	30393.870191
667.612118	30461.194801
667.952639	30269.832601
668.293109	30294.519131
668.633528	30158.423101
668.973896	30120.949683
669.314213	30093.437586
669.654480	29909.201057
669.994695	29901.518339
670.334859	29821.628653
670.674973	29666.593008
671.015035	29843.441726
671.355047	29784.432500
671.695008	29708.636231
672.034918	29624.280083
672.374777	29729.045342
672.714585	29599.081876
673.054342	29729.060466
673.394049	29582.859442
673.733705	29792.694951
674.073310	29520.142447
674.412864	29568.290508
674.752368	29274.416444
675.091820	29497.850465
675.431223	29095.052191
675.770574	28894.366377
676.109875	28736.255627
676.449125	28520.254788
676.788324	28433.126005
677.127473	27953.966853
677.466571	27852.722840
677.805619	27570.771105
678.144616	27495.196647
678.483562	27451.656201
678.822458	27143.752607
679.161303	27083.856137
679.500098	27006.285382
679.838842	26949.695910
680.177535	27034.972068
680.516179	27282.054142
680.854771	27418.268639
681.193314	28197.081538
681.531805	29230.875999
681.870247	29971.045933
682.208638	30697.483764
682.546978	30964.475874
682.885268	31082.257393
683.223508	30636.778189
683.561697	30362.841889
683.899836	30195.689830
684.237925	29783.676327
684.575963	29652.502983
684.913951	29280.112948
685.251889	29449.790625
685.589776	29481.096190
685.927614	29499.624951
686.265401	29682.633959
686.603137	29801.761466
686.940824	30308.319290
687.278460	30639.908746
687.616046	30825.435810
687.953582	31482.527529
688.291068	31397.140465
688.628504	31715.312890
688.965889	31698.198172
689.303224	31414.366088
689.640510	31119.032610
689.977745	30470.989763
690.314930	29740.004811
690.652065	29286.890780
690.989150	28606.972716
691.326185	27780.483105
691.663170	27141.181618
692.000105	26391.196558
692.336990	25813.669370
692.673825	25386.953341
693.010610	24893.880604
693.347345	24404.815584
693.684030	23795.317399
694.020665	23589.855092
694.357251	22917.062699
694.693786	22932.899484
695.030272	22695.665305
695.366707	22213.121018
695.703093	21940.477773
696.039429	22001.251404
696.375716	21776.544492
696.711952	21784.549844
697.048139	21638.565590
697.384276	21480.109522
697.720363	21615.608176
698.056400	21504.876711
698.392388	21338.316988
698.728326	21345.989624
699.064214	21179.623985
699.400053	21167.661327
699.735842	20790.366250
700.071581	20584.561144
700.407270	20337.116107
700.742910	20164.733852
701.078501	19908.290356
701.414042	19711.960098
701.749533	19416.737526
702.084974	19102.406461
702.420366	19332.038580
702.755709	18924.153781
703.091002	18626.866857
703.426246	18697.201035
703.761440	18621.228326
704.096584	18379.583137
704.431679	18324.795877
704.766725	18268.597094
705.101721	18210.843115
705.436668	18335.788113
705.771565	18058.658242
706.106413	18377.216315
706.441212	18452.188355
706.775961	18559.771619
707.110661	18642.285226
707.445311	19002.100102
707.779913	18886.491321
708.114465	19192.721252
708.448967	19505.736577
708.783421	20124.011411
709.117825	20500.683906
709.452180	20731.120089
709.786485	21190.167558
710.120742	21954.550154
710.454949	22069.901837
710.789107	22567.289802
711.123216	23283.892341
711.457275	23494.458817
711.791286	24052.126379
712.125247	24189.273490
712.459159	23900.758173
712.793023	24642.816019
713.126837	23624.303817
713.460602	23858.067162
713.794318	23506.799562
714.127985	23224.749524
714.461602	22332.982012
714.795171	22293.063635
715.128691	21323.816109
715.462162	20816.081176
715.795584	20383.502285
716.128957	20106.952146
716.462281	19743.915973
716.795556	19456.272775
717.128782	18995.231530
717.461960	18395.177946
717.795088	18357.354169
718.128167	18021.056275
718.461198	17562.275987
718.794180	17438.397193
719.127113	17119.738297
719.459997	16921.686486
719.792833	16564.629121
720.125619	16604.514730
720.458357	16283.156296
720.791046	16131.931762
721.123686	15992.241389
721.456278	15778.516631
721.788821	15772.500014
722.121315	15510.165929
722.453761	15617.857578
722.786158	15507.751217
723.118506	15579.209573
723.450805	15469.214116
723.783056	15641.871115
724.115259	15539.749941
724.447412	15538.650969
724.779518	15752.746252
725.111574	15804.513861
725.443582	16080.068372
725.775542	16040.510438
726.107453	16550.904579
726.439315	16474.611757
726.771129	16896.561375
727.102895	17305.262841
727.434612	17575.672854
727.766281	17746.371364
728.097901	18063.911124
728.429473	18144.740985
728.760996	18154.722470
729.092471	18266.154655
729.423897	18158.130290
729.755276	18028.282769
730.086606	18150.984454
730.417887	18733.774606
730.749120	19285.785993
731.080305	19505.373614
731.411442	19895.657224
731.742530	20012.614514
732.073570	20168.300468
732.404562	20485.310907
732.735506	20319.930814
733.066401	20098.742627
733.397249	19604.550754
733.728048	18972.637078
734.058798	18111.764277
734.389501	17360.236623
734.720156	16850.457503
735.050762	16279.687982
735.381320	15903.776701
735.711831	15638.745599
736.042293	15273.261946
736.372707	15310.264015
736.703073	15112.809580
737.033391	15310.304344
737.363661	15322.723227
737.693883	15445.611434
738.024056	15651.025850
738.354182	15872.932401
738.684260	16239.867908
739.014290	16511.613826
739.344272	16741.419865
739.674207	17094.033453
740.004093	17264.351357
740.333931	17309.835167
740.663722	17376.963172
740.993464	17416.662258
741.323159	17260.484792
741.652806	16955.898276
741.982405	16778.805062
742.311956	16421.634271
742.641460	16305.002136
742.970915	15967.935466
743.300323	15632.401307
743.629683	15406.418983
743.958996	15093.433906
744.288260	14785.164827
744.617477	14487.981246
744.946647	14453.683756
745.275768	14139.892094
745.604842	13944.922948
745.933869	13768.467440
746.262847	13739.390065
746.591778	13660.506089
746.920662	13548.290005
747.249498	13557.616139
747.578286	13719.076735
747.907027	13898.314960
748.235720	14163.577955
748.564365	14238.464296
748.892963	14159.797090
749.221514	14260.501700
749.550017	14124.055309
749.878473	14088.474845
750.206881	13864.816493
750.535242	13793.741265
750.863555	13724.553949
751.191821	13617.968833
751.520039	13643.272905
751.848210	13570.599631
752.176334	13611.133029
752.504411	13548.544583
752.832440	13357.005943
753.160421	13476.191423
753.488356	13362.100029
753.816243	13275.092234
754.144082	13111.814302
754.471875	13061.241447
754.799620	13030.019060
755.127318	13004.601562
755.454969	12993.614368
755.782572	12963.007002
756.110129	12975.554434
756.437638	12877.967778
756.765100	12893.386147
757.092515	12921.455292
757.419882	12960.236888
757.747203	12964.932723
758.074477	13061.276735
758.401703	13047.436247
758.728882	13247.123912
759.056014	13299.312457
759.383099	13461.408239
759.710138	13585.239142
760.037129	13703.933109
760.364073	13762.677675
760.690970	13795.235967
761.017820	13810.835818
761.344623	14037.533986
761.671379	14411.557354
761.998088	15118.488440
762.324751	16908.334990
762.651366	20332.979841
762.977935	24810.946062
763.304456	27739.901817
763.630931	28749.697864
763.957359	27501.407349
764.283740	25231.743776
764.610074	22961.848310
764.936362	20334.555201
765.262602	18469.078741
765.588796	16554.103191
765.914943	15281.216886
766.241044	14189.807079
766.567097	13402.590576
766.893104	12696.050180
767.219064	12241.385994
767.544978	11762.655339
767.870845	11382.620395
768.196665	11165.601242
768.522438	10937.788979
768.848165	10735.535367
769.173846	10528.517863
769.499479	10400.379294
769.825066	10236.685467
770.150607	10005.624181
770.476101	9922.818188
770.801548	9800.232449
771.126949	9644.501125
771.452303	9534.185555
771.777611	9341.222789
772.102872	9328.544287
772.428087	9190.847690
772.753256	9029.160242
773.078378	8943.874002
773.403453	8758.598995
773.728482	8649.672263
774.053465	8574.934637
774.378401	8476.362435
774.703291	8360.428499
775.028135	8237.651197
775.352932	8200.800363
775.677683	8095.843540
776.002388	7992.565421
776.327046	8001.331988
776.651658	7903.226093
776.976224	7803.567522
777.300743	7807.426525
777.625216	7716.622742
777.949643	7673.830907
778.274024	7690.174328
778.598359	7598.853826
778.922647	7615.527443
779.246889	7572.798623
779.571086	7582.696928
779.895236	7590.278823
780.219339	7602.972449
780.543397	7602.196111
780.867409	7687.613422
781.191374	7694.179525
781.515294	7656.945562
781.839167	7754.083556
782.162995	7723.067857
782.486776	7667.199269
782.810511	7618.645396
783.134201	7533.530555
783.457844	7524.300202
783.781441	7478.123233
784.104993	7406.927017
784.428498	7387.016980
784.751958	7373.418467
785.075372	7342.680032
785.398739	7279.894981
785.722061	7335.133424
786.045337	7339.120977
786.368568	7495.094277
786.691752	7521.451950
787.014891	7869.052111
787.337983	8225.043272
787.661030	8816.332809
787.984031	9445.393192
788.306987	9854.651705
788.629897	10051.019771
788.952760	9993.212860
789.275579	9769.587275
789.598351	9371.378971
789.921078	9008.801542
790.243759	8600.803318
790.566395	8311.791447
790.888984	8063.391112
791.211529	7851.753391
791.534027	7632.420349
791.856480	7434.386182
792.178888	7361.241560
792.501249	7262.243381
792.823566	7107.459793
793.145836	7114.777028
793.468062	7086.055054
793.790241	7034.726026
794.112375	7110.512212
794.434464	7263.359997
794.756507	7307.207953
795.078505	7468.068651
795.400457	7784.307794
795.722364	8132.230588
796.044226	8421.285309
796.366042	8691.181124
796.687812	8641.482909
797.009538	8718.932676
797.331218	8605.121066
797.652852	8518.725771
797.974442	8362.470167
798.295986	8276.994883
798.617484	8080.586488
798.938938	7939.338398
799.260346	7840.599838
799.581709	7642.046432
799.903026	7564.848723
800.224299	7457.814944
800.545526	7281.825743
800.866708	7192.304933
801.187845	7119.077132
801.508936	7019.295054
801.829983	6983.457491
802.150984	6828.230282
802.471940	6789.713346
802.792851	6772.212980
803.113717	6740.209215
803.434538	6707.724020
803.755314	6650.915257
804.076045	6660.596793
804.396731	6605.542352
804.717372	6637.450335
805.037967	6645.120451
805.358518	6683.397932
805.679024	6765.972032
805.999485	6782.118848
806.319901	6822.110321
806.640272	6843.804927
806.960598	6926.462206
807.280879	6926.308450
807.601115	7004.416088
807.921306	6947.297294
808.241453	6962.965201
808.561554	6985.035372
808.881611	6943.526511
809.201623	6948.638241
809.521590	6893.155302
809.841513	6875.987653
810.161390	6912.251193
810.481223	6780.886285
810.801011	6765.916579
811.120755	6739.752991
811.440453	6665.365724
811.760107	6631.128728
812.079716	6596.561536
812.399281	6527.527975
812.718801	6523.144692
813.038276	6477.802034
813.357707	6416.521768
813.677093	6458.819569
813.996434	6360.796853
814.315731	6404.264202
814.634983	6395.550568
814.954191	6411.717548
815.273354	6513.939545
815.592473	6576.822898
815.911547	6702.924841
816.230577	6791.840713
816.549562	6932.478823
816.868502	7030.773761
817.187399	7128.322608
817.506250	7280.179806
817.825058	7311.838252
818.143821	7581.638286
818.462539	7855.244390
818.781213	8223.062098
819.099843	8778.486347
819.418429	9782.306106
819.736970	10752.173695
820.055466	11928.867223
820.373919	13452.818113
820.692327	15801.219467
821.010691	19940.339491
821.329011	28962.827766
821.647286	42025.087526
821.965517	55503.860019
822.283704	60858.679499
822.601847	62817.215659
822.919945	60048.808051
823.237999	55775.242975
823.556010	49522.493172
823.873976	42762.154630
824.191897	36238.858703
824.509775	31425.728848
824.827609	26925.110203
825.145398	24337.833773
825.463144	23000.138394
825.780845	23324.375327
826.098502	25119.628514
826.416116	28942.574931
826.733685	32632.583600
827.051210	33796.074346
827.368692	32009.086130
827.686129	28014.828703
828.003522	23869.283729
828.320872	20156.597429
828.638177	17307.669992
828.955439	15165.086346
829.272656	13355.228936
829.589830	11887.207127
829.906960	10622.668973
830.224046	9684.396816
830.541088	8942.754865
830.858086	8488.241914
831.175041	8110.649409
831.491952	8000.411977
831.808819	8049.177579
832.125642	8461.617060
832.442421	9345.540537
832.759157	11144.025104
833.075849	14089.099948
833.392497	17325.518197
833.709101	19499.999744
834.025662	19334.291976
834.342179	17608.137884
834.658653	15400.198199
834.975083	13464.379999
835.291469	11853.305368
835.607811	10539.767198
835.924110	9629.208785
836.240366	8765.054192
836.556578	7964.219013
836.872746	7328.945408
837.188871	6826.478481
837.504952	6410.976498
837.820990	6103.750939
838.136984	5890.300923
838.452935	5794.513959
838.768842	5828.642571
839.084706	6250.710656
839.400526	7467.236861
839.716303	9051.968943
840.032037	10149.009719
840.347727	10061.212984
840.663373	9075.962315
840.978977	8032.319960
841.294537	7228.790284
841.610054	6629.931454
841.925527	6196.482964
842.240957	5840.602708
842.556344	5505.653323
842.871687	5223.802412
843.186987	4949.445175
843.502244	4725.761617
843.817458	4561.407399
844.132629	4425.331533
844.447756	4337.738965
844.762840	4258.265174
845.077881	4182.715922
845.392879	4121.455821
845.707833	4070.744334
846.022745	4027.168600
846.337613	4000.994929
846.652438	3959.153352
846.967221	3942.368830
847.281960	3912.873039
847.596656	3892.221952
847.911309	3872.246380
848.225919	3853.589070
848.540485	3833.185000
848.855009	3822.061694
849.169490	3800.863642
849.483928	3786.667753
849.798323	3779.267339
850.112675	3761.318311
850.426984	3768.287706
850.741251	3753.907814
851.055474	3750.336157
851.369654	3753.738936
851.683792	3748.387751
851.997887	3758.785131
852.311938	3756.907301
852.625947	3762.666819
852.939914	3750.999069
853.253837	3760.849483
853.567718	3761.850152
853.881555	3749.587546
854.195350	3767.130761
854.509103	3760.206736
854.822812	3761.351078
855.136479	3749.287597
855.450103	3757.509719
855.763685	3743.681834
856.077224	3752.166096
856.390720	3765.850308
856.704173	3786.793782
857.017584	3801.345072
857.330953	3812.594407
857.644278	3833.003518
857.957561	3839.083150
858.270802	3837.936287
858.584000	3841.081967
858.897155	3831.720545
859.210268	3818.071621
859.523339	3792.825522
859.836367	3793.743012
860.149352	3786.834111
860.462295	3777.986886
860.775195	3769.416924
861.088054	3763.085235
861.400869	3761.895523
861.713642	3759.992487
862.026373	3773.865743
862.339062	3776.565280
862.651708	3794.960451
862.964312	3835.153570
863.276873	3847.612782
863.589392	3903.138571
863.901869	3948.874439
864.214303	3994.330524
864.526696	4028.312942
864.839045	4071.911361
865.151353	4100.963530
865.463619	4111.174388
865.775842	4112.666569
866.088023	4130.713900
866.400162	4122.743836
866.712258	4129.176348
867.024313	4132.725320
867.336325	4128.238693
867.648296	4133.461329
867.960224	4137.970641
868.272110	4143.198317
868.583954	4147.899193
868.895755	4162.488293
869.207515	4159.561903
869.519233	4200.987584
869.830909	4214.951581
870.142542	4241.377309
870.454134	4251.996500
870.765684	4280.804173
871.077191	4318.201973
871.388657	4342.326415
871.700081	4378.642887
872.011463	4424.053601
872.322803	4457.846976
872.634101	4489.265967
872.945357	4531.682236
873.256571	4586.870267
873.567744	4616.623157
873.878874	4629.437770
874.189963	4668.284902
874.501010	4676.738917
874.812015	4677.154812
875.122979	4719.717274
875.433900	4716.982448
875.744780	4728.136001
876.055618	4754.977625
876.366415	4755.149024
876.677169	4776.815903
876.987882	4819.789219
877.298554	4871.672774
877.609183	4951.340649
877.919771	5062.465324
878.230317	5206.874217
878.540822	5421.579480
878.851285	5746.262555
879.161707	6204.891609
879.472087	6968.694472
879.782425	8199.986217
880.092722	10386.667356
880.402977	13713.801168
880.713191	17487.291344
881.023363	21251.619224
881.333494	23478.261590
881.643583	24689.280334
881.953631	24661.574153
882.263637	23793.248005
882.573602	22279.802880
882.883526	20707.903055
883.193408	19013.588892
883.503248	17316.885221
883.813048	15758.442756
884.122806	14322.943952
884.432522	12857.997247
884.742197	11596.766090
885.051831	10508.905254
885.361424	9508.730249
885.670975	8690.969395
885.980485	8004.223089
886.289954	7429.329905
886.599382	6964.230530
886.908768	6592.062306
887.218113	6229.371452
887.527417	5942.635662
887.836680	5676.974416
888.145901	5458.100119
888.455082	5302.240245
888.764221	5149.319364
889.073319	5013.886245
889.382376	4942.737920
889.691392	4886.662645
890.000366	4863.624572
890.309300	4842.469370
890.618193	4850.623437
890.927044	4835.961241
891.235855	4856.443449
891.544625	4887.093664
891.853353	4951.292758
892.162041	5068.169390
892.470687	5255.302062
892.779293	5503.447818
893.087858	5874.517071
893.396381	6451.898065
893.704864	7257.988647
894.013306	8416.944875
894.321707	9601.376574
894.630068	10430.543038
894.938387	10638.422579
895.246665	10394.564323
895.554903	9778.716805
895.863100	9076.257222
896.171256	8510.780913
896.479371	7997.798139
896.787446	7509.020465
897.095480	7081.071873
897.403473	6760.893069
897.711425	6440.232835
898.019336	6172.787020
898.327207	5903.939765
898.635038	5671.928221
898.942827	5423.396816
899.250576	5230.789451
899.558284	5032.667064
899.865952	4918.679013
900.173579	4765.702679
900.481165	4662.172503
900.788711	4566.471238
901.096216	4496.434488
901.403681	4432.948717
901.711105	4410.034152
902.018489	4392.833735
902.325832	4466.537925
902.633135	4585.914969
902.940397	4930.319038
903.247619	5726.821345
903.554800	7175.812798
903.861941	9109.332233
904.169041	10631.266661
904.476101	11248.097204
904.783121	10883.170598
905.090100	10127.746133
905.397039	9290.571796
905.703938	8531.651290
906.010796	7840.315013
906.317614	7286.677854
906.624391	6752.406287
906.931129	6326.214538
907.237826	5932.293735
907.544483	5562.502415
907.851099	5185.824879
908.157675	4830.526877
908.464211	4507.209954
908.770707	4268.773460
909.077163	4072.617122
909.383578	3929.594547
909.689954	3818.737053
909.996289	3744.332143
910.302584	3686.242927
910.608839	3650.226403
910.915054	3621.375880
911.221229	3606.532202
911.527363	3620.715489
911.833458	3630.966675
912.139513	3662.131088
912.445527	3691.150490
912.751502	3770.841050
913.057436	3877.146382
913.363331	4009.340559
913.669186	4211.919327
913.975000	4469.363492
914.280775	4887.368407
914.586510	5468.618487
914.892205	6271.858296
915.197859	7315.997204
915.503475	8544.418012
915.809050	9607.539385
916.114585	10265.730075
916.420081	10526.642554
916.725536	10486.068827
917.030952	10037.486793
917.336328	9620.684193
917.641665	9199.251294
917.946961	8724.755208
918.252218	8300.587483
918.557435	7784.330479
918.862612	7348.318562
919.167750	6974.098589
919.472848	6551.486059
919.777906	6173.699469
920.082925	5818.482125
920.387904	5452.968224
920.692843	5185.766906
920.997743	4937.734575
921.302603	4705.851580
921.607423	4544.489287
921.912204	4378.658011
922.216946	4262.512347
922.521647	4143.798215
922.826310	4040.603275
923.130932	3943.797997
923.435516	3848.994058
923.740059	3776.151906
924.044564	3699.438147
924.349028	3641.505207
924.653454	3576.915423
924.957840	3509.928571
925.262186	3461.432671
925.566493	3402.914957
925.870761	3347.593335
926.174989	3310.520690
926.479178	3271.814710
926.783328	3230.641086
927.087438	3206.592262
927.391509	3171.195800
927.695541	3142.657828
927.999533	3114.175309
928.303486	3093.859459
928.607400	3079.845051
928.911275	3069.246025
929.215110	3049.217521
929.518906	3039.377189
929.822663	3041.975904
930.126381	3036.949873
930.430060	3045.620658
930.733699	3048.592418
931.037299	3057.283367
931.340861	3055.226577
931.644383	3065.024059
931.947866	3063.788976
932.251309	3055.745815
932.554714	3058.745302
932.858080	3050.119888
933.161407	3041.731408
933.464694	3034.388967
933.767943	3027.999305
934.071153	3024.649458
934.374323	3009.674710
934.677455	3006.692868
934.980548	2998.659789
935.283602	2991.612256
935.586617	2991.040085
935.889593	3001.011487
936.192530	3009.077334
936.495428	3021.508819
936.798287	3040.634957
937.101108	3075.842375
937.403890	3128.673667
937.706632	3194.349820
938.009336	3274.065586
938.312002	3346.648119
938.614628	3409.788571
938.917216	3463.287816
939.219765	3492.599605
939.522275	3525.583874
939.824747	3527.915408
940.127179	3526.672764
940.429573	3520.313348
940.731929	3518.077596
941.034246	3500.655369
941.336524	3491.384687
941.638763	3471.104125
941.940964	3456.986373
942.243126	3417.856937
942.545250	3391.403483
942.847335	3356.231352
943.149381	3320.234993
943.451389	3287.951444
943.753359	3248.837131
944.055290	3228.097824
944.357182	3197.528267
944.659036	3189.240610
944.960851	3178.336595
945.262628	3166.348731
945.564367	3167.414935
945.866067	3160.032165
946.167729	3157.753563
946.469352	3155.560662
946.770937	3152.470434
947.072484	3138.740852
947.373992	3139.350831
947.675462	3132.875469
947.976893	3112.909979
948.278286	3104.629884
948.579641	3102.535285
948.880958	3091.933738
949.182236	3097.728545
949.483476	3087.694128
949.784678	3090.716300
950.085841	3092.286619
950.386967	3102.116869
950.688054	3117.358798
950.989103	3138.687920
951.290114	3161.448729
951.591087	3188.892771
951.892021	3217.511401
952.192917	3243.249012
952.493776	3270.599792
952.794596	3276.513066
953.095378	3284.591515
953.396122	3279.386523
953.696828	3269.795728
953.997496	3261.135026
954.298126	3234.671489
954.598718	3214.390927
954.899272	3186.268850
955.199788	3157.972854
955.500266	3129.311373
955.800706	3090.721341
956.101108	3052.700958
956.401472	3022.975795
956.701798	2992.179386
957.002087	2948.838066
957.302337	2923.319745
957.602550	2894.582648
957.902724	2867.788915
958.202861	2839.757579
958.502960	2818.085658
958.803022	2799.198976
959.103045	2778.290790
959.403031	2762.718666
959.702979	2748.240472
960.002889	2735.027608
960.302762	2721.424054
960.602596	2712.483568
960.902393	2699.295909
961.202153	2691.948427
961.501875	2683.396110
961.801559	2677.445028
962.101205	2675.526869
962.400814	2668.300375
962.700385	2661.489776
962.999918	2655.263951
963.299414	2647.908907
963.598873	2647.019144
963.898293	2640.770634
964.197677	2641.231899
964.497022	2640.271559
964.796331	2637.204017
965.095601	2637.216620
965.394835	2630.605147
965.694030	2628.835702
965.993189	2627.545167
966.292309	2629.433079
966.591393	2626.451236
966.890439	2628.162708
967.189447	2626.254631
967.488419	2628.084570
967.787353	2629.566669
968.086249	2628.351751
968.385108	2631.197482
968.683930	2633.798718
968.982714	2635.916002
969.281462	2642.971097
969.580172	2648.039977
969.878844	2655.054743
970.177480	2664.262411
970.476078	2670.964625
970.774639	2677.676921
971.073162	2684.477437
971.371649	2691.010773
971.670098	2693.294416
971.968510	2701.420756
972.266885	2704.054758
972.565223	2707.409646
972.863524	2711.130018
973.161788	2713.259905
973.460014	2720.062942
973.758204	2722.926318
974.056356	2725.761967
974.354471	2727.170969
974.652550	2722.621328
974.950591	2720.204095
975.248595	2721.338354
975.546563	2719.780638
975.844493	2715.435163
976.142386	2709.065665
976.440243	2704.274049
976.738062	2700.397401
977.035845	2693.339786
977.333590	2684.043898
977.631299	2683.285205
977.928971	2676.104081
978.226606	2665.384067
978.524204	2668.207113
978.821765	2661.867862
979.119290	2667.617298
979.416777	2663.564211
979.714228	2664.693429
980.011642	2671.645180
980.309020	2679.625327
980.606360	2692.893644
980.903664	2715.518342
981.200931	2753.697521
981.498162	2802.732824
981.795356	2877.999772
982.092513	2965.859522
982.389633	3072.215265
982.686717	3169.471726
982.983764	3243.922006
983.280775	3290.774490
983.577749	3300.617343
983.874686	3282.028088
984.171587	3249.323602
984.468451	3210.010164
984.765279	3164.722959
985.062070	3120.716206
985.358824	3075.411357
985.655543	3019.096627
985.952224	2964.198462
986.248869	2902.099008
986.545478	2843.785461
986.842050	2787.127933
987.138586	2740.159502
987.435086	2704.049717
987.731549	2670.941939
988.027975	2649.844711
988.324366	2629.501134
988.620719	2617.629217
988.917037	2607.690582
989.213318	2599.876794
989.509563	2591.584096
989.805772	2584.866758
990.101944	2581.050605
990.398080	2580.581777
990.694180	2579.026581
990.990244	2579.868454
991.286271	2581.330389
991.582262	2578.976170
991.878217	2581.655543
992.174136	2587.914136
992.470019	2586.984043
992.765865	2590.681729
993.061676	2596.194231
993.357450	2603.130858
993.653188	2609.439862
993.948890	2628.008953
994.244556	2646.194915
994.540186	2671.441014
994.835780	2702.325643
995.131337	2740.227558
995.426859	2781.779268
995.722345	2828.709890
996.017795	2880.956409
996.313208	2920.766401
996.608586	2945.619289
996.903928	2960.914150
997.199234	2957.657564
997.494504	2953.987604
997.789738	2941.470419
998.084936	2915.097623
998.380099	2882.277191
998.675225	2853.424147
998.970316	2824.374498
999.265371	2786.091976
999.560390	2754.604929
999.855373	2722.596122
1000.150320	2694.169056
1000.445232	2666.765343
1000.740108	2645.736170
1001.034948	2630.070785
1001.329752	2612.890532
1001.624521	2604.512135
1001.919254	2588.211564
1002.213951	2582.646130
1002.508613	2571.734552
1002.803239	2569.292113
1003.097829	2559.902964
1003.392384	2556.848025
1003.686903	2552.230328
1003.981386	2548.857796
1004.275834	2542.637012
1004.570246	2542.942002
1004.864623	2539.657690
1005.158964	2537.452186
1005.453270	2536.454037
1005.747540	2534.893800
1006.041775	2532.532019
1006.335974	2533.651156
1006.630138	2528.211751
1006.924266	2527.354754
1007.218359	2528.529343
1007.512416	2524.050278
1007.806438	2526.505320
1008.100425	2521.360822
1008.394376	2521.784279
1008.688292	2525.161853
1008.982172	2523.571368
1009.276017	2525.718900
1009.569827	2524.995494
1009.863602	2523.611698
1010.157341	2524.012469
1010.451045	2521.736388
1010.744714	2522.880730
1011.038347	2522.797551
1011.331945	2519.477952
1011.625508	2518.573064
1011.919036	2517.814371
1012.212528	2515.732374
1012.505986	2514.966119
1012.799408	2514.835049
1013.092795	2514.106602
1013.386147	2512.949657
1013.679464	2513.826818
1013.972745	2513.804133
1014.265992	2510.608041
1014.559204	2513.478978
1014.852380	2512.911849
1015.145521	2513.839421
1015.438628	2510.426560
1015.731699	2516.571726
1016.024736	2513.277332
1016.317737	2517.562313
1016.610703	2518.285719
1016.903635	2517.232118
1017.196531	2519.225894
1017.489393	2523.485669
1017.782219	2520.566841
1018.075011	2525.524816
1018.367768	2523.876358
1018.660490	2524.509023
1018.953177	2524.509023
1019.245829	2524.509023
