Dividing Wavelength (nm)	Counts (n)	Blue Motor Position (mm): 21.000000	Red Motor Position (mm): 0.000000	
326.493990	2186.923115
326.888308	2186.923115
327.282561	2186.923115
327.676750	2146.916518
328.070874	2142.671866
328.464933	2143.198667
328.858929	2148.968267
329.252859	2151.798875
329.646726	2161.498055
330.040528	2175.565395
330.434265	2186.466890
330.827938	2205.850127
331.221547	2220.832436
331.615091	2239.701475
332.008571	2256.831316
332.401986	2275.163472
332.795338	2294.022428
333.188625	2313.272074
333.581847	2330.401915
333.975006	2350.959740
334.368100	2366.637729
334.761129	2386.255379
335.154095	2402.240878
335.546996	2428.850608
335.939833	2461.154322
336.332606	2474.687300
336.725315	2486.937303
337.117960	2501.430621
337.510540	2511.523011
337.903056	2521.698580
338.295508	2529.424148
338.687896	2542.016950
339.080220	2545.586087
339.472480	2557.770556
339.864676	2562.521844
340.256807	2569.062741
340.648875	2571.326219
341.040879	2573.627506
341.432818	2573.057855
341.824694	2578.000707
342.216506	2579.853331
342.608253	2580.347364
342.999937	2579.679411
343.391557	2577.887281
343.783113	2580.967426
344.174605	2577.163875
344.566033	2577.236972
344.957397	2574.880232
345.348697	2575.583473
345.739934	2574.807136
346.131106	2570.948132
346.522215	2570.597772
346.913260	2568.951835
347.304241	2566.416135
347.695159	2563.867832
348.086012	2564.208110
348.476802	2559.754250
348.867528	2554.710576
349.258191	2551.136398
349.648789	2554.781152
350.039324	2549.036757
350.429796	2556.500185
350.820203	2549.548434
351.210548	2551.549772
351.600828	2549.664381
351.991045	2545.616334
352.381198	2549.538352
352.771288	2546.075079
353.161314	2544.935778
353.551276	2543.592311
353.941175	2545.074410
354.331010	2544.315717
354.720782	2542.672300
355.110490	2545.449976
355.500135	2544.237579
355.889717	2546.468289
356.279235	2542.490819
356.668689	2545.984338
357.058080	2545.865871
357.447408	2546.591798
357.836672	2544.063659
358.225873	2547.912580
358.615010	2544.701365
359.004084	2545.823022
359.393095	2546.952240
359.782043	2550.039947
360.170927	2549.508105
360.559748	2549.850903
360.948505	2550.223949
361.337199	2551.146480
361.725830	2549.145142
362.114398	2552.384083
362.502903	2550.624721
362.891344	2553.223435
363.279722	2551.743857
363.668037	2553.583878
364.056289	2552.626059
364.444478	2552.361398
364.832603	2554.594629
365.220665	2555.529763
365.608665	2554.415668
365.996601	2558.887172
366.384474	2556.873231
366.772284	2557.306770
367.160031	2557.483210
367.547715	2557.826009
367.935336	2557.465566
368.322893	2555.754095
368.710388	2552.663867
369.097820	2555.098745
369.485189	2556.548076
369.872495	2557.841132
370.259738	2556.631255
370.646918	2561.483366
371.034035	2560.676781
371.421090	2561.188458
371.808081	2561.117882
372.195010	2558.365412
372.581875	2562.894889
372.968678	2561.105279
373.355418	2563.232646
373.742096	2561.511092
374.128710	2560.782646
374.515262	2562.335321
374.901751	2562.385732
375.288177	2560.969168
375.674540	2561.397666
376.060841	2560.286092
376.447079	2561.266596
376.833254	2564.631567
377.219367	2563.159550
377.605417	2563.071329
377.991404	2563.756926
378.377329	2562.378171
378.763191	2561.889179
379.148991	2562.705846
379.534727	2564.951680
379.920402	2567.449572
380.306013	2564.931515
380.691563	2566.156516
381.077049	2564.331618
381.462474	2566.181721
381.847835	2566.554767
382.233134	2563.741803
382.618371	2566.521999
383.003545	2566.703481
383.388657	2566.514437
383.773706	2568.800601
384.158693	2565.599468
384.543618	2570.764130
384.928480	2567.368913
385.313280	2570.426373
385.698017	2570.267577
386.082692	2567.142061
386.467305	2568.808163
386.851856	2567.792370
387.236344	2570.083574
387.620770	2565.798594
388.005133	2567.431928
388.389435	2566.753892
388.773674	2565.849005
389.157851	2570.696075
389.541965	2572.236147
389.926018	2573.055335
390.310008	2571.905952
390.693936	2572.147927
391.077802	2573.612382
391.461606	2573.385530
391.845348	2572.687330
392.229027	2574.093812
392.612645	2570.806980
392.996200	2574.325705
393.379694	2573.509038
393.763125	2573.103226
394.146494	2575.240675
394.529801	2570.045766
394.913047	2573.206569
395.296230	2574.113977
395.679351	2576.017013
396.062410	2573.060376
396.445408	2573.814028
396.828343	2577.589853
397.211217	2574.285376
397.594028	2577.428536
397.976778	2576.722774
398.359466	2576.425346
398.742092	2574.401323
399.124656	2576.006930
399.507158	2574.993658
399.889598	2576.304358
400.271977	2577.637743
400.654294	2577.357959
401.036549	2578.149421
401.418742	2577.194122
401.800874	2577.970460
402.182944	2577.922569
402.564952	2580.917014
402.946898	2581.705955
403.328783	2579.263516
403.710606	2579.288721
404.092367	2575.512897
404.474067	2581.927765
404.855705	2580.307034
405.237282	2577.093299
405.618797	2579.664287
406.000250	2578.857703
406.381642	2582.184864
406.762972	2577.720922
407.144240	2578.396437
407.525447	2579.356777
407.906593	2576.931982
408.287677	2580.523804
408.668700	2580.105388
409.049661	2585.476738
409.430560	2581.584967
409.811399	2582.033630
410.192176	2582.363825
410.572891	2581.857189
410.953545	2581.370718
411.334138	2585.471697
411.714669	2580.768300
412.095139	2584.024885
412.475547	2584.702921
412.855894	2583.180492
413.236180	2585.270050
413.616405	2585.015472
413.996568	2582.205029
414.376670	2585.660740
414.756711	2586.137129
415.136691	2584.304669
415.516609	2585.529670
415.896466	2586.641244
416.276262	2585.131419
416.655997	2584.841552
417.035670	2587.495720
417.415283	2586.545462
417.794834	2583.452714
418.174324	2583.528332
418.553753	2586.492530
418.933121	2588.249372
419.312428	2586.512695
419.691674	2587.127716
420.070859	2588.198961
420.449983	2588.206523
420.829045	2587.662078
421.208047	2589.008066
421.586988	2588.350195
421.965867	2588.587130
422.344686	2588.579568
422.723444	2589.290371
423.102141	2587.964547
423.480777	2590.656523
423.859352	2590.442274
424.237866	2589.207192
424.616319	2591.112748
424.994712	2593.847574
425.373044	2591.397573
425.751314	2588.720720
426.129524	2585.907756
426.507673	2588.158632
426.885762	2585.297777
427.263789	2590.495206
427.641756	2593.623242
428.019662	2591.319435
428.397508	2591.354723
428.775292	2590.205340
429.153016	2592.388160
429.530679	2593.227512
429.908282	2592.662902
430.285824	2593.630804
430.663305	2592.519230
431.040726	2593.978644
431.418086	2593.146853
431.795385	2593.572831
432.172624	2592.819178
432.549802	2592.768767
432.926920	2593.555187
433.303977	2593.398911
433.680974	2595.385126
434.057910	2593.983685
434.434786	2596.325301
434.811601	2594.649117
435.188355	2598.054417
435.565050	2596.632811
435.941683	2597.293202
436.318257	2594.830599
436.694770	2594.926381
437.071222	2596.768922
437.447614	2596.123655
437.823946	2599.836464
438.200218	2598.631629
438.576429	2596.973089
438.952580	2596.030393
439.328670	2598.755137
439.704700	2597.081474
440.080670	2597.353696
440.456580	2597.509972
440.832429	2597.207503
441.208218	2600.189345
441.583947	2596.431165
441.959616	2596.849581
442.335224	2601.709253
442.710773	2596.564756
443.086261	2599.128182
443.461689	2601.505086
443.837057	2600.338059
444.212365	2600.753954
444.587612	2599.881835
444.962800	2597.572986
445.337927	2594.863366
445.712995	2595.223809
446.088002	2602.677155
446.462949	2602.064654
446.837837	2602.387288
447.212664	2598.891248
447.587431	2603.365272
447.962139	2603.929881
448.336786	2602.699840
448.711374	2603.675303
449.085901	2604.703698
449.460369	2604.202104
449.834776	2604.073554
450.209124	2605.233020
450.583412	2607.902311
450.957640	2607.322578
451.331808	2606.271497
451.705917	2605.447269
452.079965	2603.834099
452.453954	2606.878956
452.827883	2605.369131
453.201752	2606.183277
453.575562	2604.313009
453.949311	2605.520365
454.323001	2606.374841
454.696632	2605.860643
455.070202	2607.688062
455.443713	2607.642691
455.817164	2608.489605
456.190556	2611.826849
456.563888	2611.668052
456.937160	2612.908176
457.310373	2610.644698
457.683526	2610.828700
458.056619	2610.057404
458.429653	2606.044645
458.802628	2610.702672
459.175542	2610.881632
459.548398	2612.532610
459.921194	2613.893722
460.293930	2612.038577
460.666607	2613.871037
461.039224	2614.349946
461.411782	2616.822632
461.784280	2618.229114
462.156719	2617.810698
462.529099	2618.259361
462.901419	2617.906480
463.273680	2614.730553
463.645882	2612.877929
464.018024	2614.702827
464.390106	2613.732405
464.762130	2617.475462
465.134094	2619.164248
465.505999	2625.818571
465.877845	2630.098511
466.249631	2629.861577
466.621358	2632.992133
466.993026	2633.282000
467.364634	2635.235447
467.736184	2629.299488
468.107674	2629.848974
468.479105	2633.702936
468.850477	2631.222688
469.221790	2631.288223
469.593043	2631.562966
469.964238	2630.375774
470.335373	2632.533388
470.706449	2631.452061
471.077467	2631.769653
471.448425	2638.655870
471.819324	2647.848414
472.190164	2655.021976
472.560945	2650.981491
472.931667	2645.587456
473.302330	2644.861530
473.672934	2647.974442
474.043479	2650.225318
474.413965	2651.500730
474.784393	2652.050215
475.154761	2659.135557
475.525070	2662.006494
475.895321	2661.656134
476.265513	2668.403718
476.635645	2672.729028
477.005719	2678.876716
477.375734	2682.082889
477.745691	2689.473221
478.115588	2699.825230
478.485427	2706.605582
478.855207	2718.885833
479.224928	2737.969121
479.594591	2761.284457
479.964194	2774.008330
480.333739	2777.718619
480.703226	2786.588529
481.072653	2796.809469
481.442022	2816.056594
481.811333	2844.695389
482.180584	2854.714682
482.549777	2862.916640
482.918912	2877.659494
483.287988	2904.715367
483.657005	2923.536515
484.025964	2940.189966
484.394864	2960.525981
484.763706	2977.139103
485.132489	2995.539315
485.501213	3025.405631
485.869879	3057.517781
486.238487	3082.809250
486.607036	3125.028913
486.975527	3151.011020
487.343959	3200.464739
487.712333	3236.534195
488.080648	3271.303033
488.448905	3328.699090
488.817104	3367.649566
489.185244	3444.423818
489.553326	3503.259125
489.921350	3600.389556
490.289315	3788.979122
490.657222	3969.049137
491.025070	4067.969178
491.392861	4130.552583
491.760593	4169.845857
492.128267	4192.132798
492.495883	4200.002039
492.863440	4228.292994
493.230939	4248.974328
493.598380	4333.275023
493.965763	4388.488261
494.333088	4443.068833
494.700354	4528.337430
495.067563	4618.352273
495.434713	4700.538204
495.801805	4784.115494
496.168839	4888.013675
496.535815	4978.716635
496.902733	5094.433801
497.269593	5147.741483
497.636395	5293.695489
498.003139	5404.021141
498.369825	5505.340772
498.736453	5620.949553
499.103023	5717.502772
499.469535	5847.809038
499.835989	5998.239589
500.202385	6144.178472
500.568723	6185.836047
500.935003	6331.800136
501.301226	6415.722745
501.667390	6665.726167
502.033497	6891.229581
502.399546	6944.365863
502.765537	7036.190481
503.131470	7229.279276
503.497345	7405.371821
503.863163	7372.737912
504.228923	7671.844693
504.594625	7873.810960
504.960269	7889.365440
505.325856	8179.481323
505.691385	8207.197587
506.056856	8477.264802
506.422270	8677.378445
506.787625	8690.155249
507.152924	9013.232717
507.518164	9142.256008
507.883347	9244.730063
508.248472	9303.159557
508.613540	9716.337567
508.978550	9859.667653
509.343503	10013.846303
509.708398	10284.435276
510.073236	10486.005813
510.438016	10732.987063
510.802738	10824.138687
511.167403	11078.419528
511.532010	11136.470935
511.896561	11617.888524
512.261053	11833.985146
512.625488	11926.018971
512.989866	12070.069942
513.354186	12160.248622
513.718449	12437.383535
514.082655	12760.072833
514.446803	12872.906459
514.810894	13260.709822
515.174927	13211.051936
515.538904	13414.830498
515.902822	13816.716324
516.266684	13934.752420
516.630488	14044.478175
516.994235	14237.249378
517.357925	14565.431013
517.721558	14870.143558
518.085133	15097.600419
518.448651	15250.589356
518.812112	15298.407221
519.175516	15553.318206
519.538863	15863.896133
519.902152	15907.718883
520.265385	16294.282122
520.628560	16343.554360
520.991678	16558.340281
521.354739	16784.183973
521.717743	17016.944129
522.080690	17045.598047
522.443580	17480.316908
522.806413	17633.603273
523.169189	17916.258249
523.531908	18097.449921
523.894569	18046.703146
524.257174	18271.735212
524.619722	18580.339527
524.982213	18520.559004
525.344647	18774.250030
525.707025	18991.065016
526.069345	19183.216157
526.431608	19326.518517
526.793815	19644.254882
527.155964	19345.163224
527.518057	19648.870058
527.880093	19776.963257
528.242072	20044.948475
528.603995	19979.511777
528.965860	19977.921293
529.327669	20211.828311
529.689421	20313.236162
530.051117	20314.035185
530.412755	20633.382198
530.774337	20581.896894
531.135862	20615.997779
531.497331	20911.885784
531.858743	20678.840803
532.220098	21216.941127
532.581396	21027.088752
532.942638	21165.891882
533.303824	21325.041109
533.664953	21461.157304
534.026025	21318.734626
534.387040	21592.189495
534.747999	21795.350516
535.108902	22021.771420
535.469748	21696.823685
535.830537	21976.264925
536.191270	22144.168115
536.551947	22194.801464
536.912567	21957.085855
537.273131	22308.978558
537.633638	22146.928147
537.994089	22438.684926
538.354483	22117.918827
538.714821	22653.909428
539.075103	22775.930556
539.435328	22660.873782
539.795497	22317.145227
540.155609	22781.082616
540.515665	23112.387246
540.875665	22477.990802
541.235609	22798.802271
541.595496	22862.565306
541.955328	23248.556373
542.315102	23226.665163
542.674821	22904.931163
543.034483	22830.208660
543.394090	23028.988918
543.753640	22884.895097
544.113134	23539.519171
544.472571	23218.352300
544.831953	23552.953846
545.191278	23205.651113
545.550548	23203.022151
545.909761	23436.210805
546.268918	23707.099727
546.628019	23693.899466
546.987064	23459.016985
547.346053	23273.386577
547.704986	23429.261574
548.063863	23612.371405
548.422684	23621.185863
548.781449	23255.520727
549.140158	23652.554443
549.498811	23281.553246
549.857408	23042.978120
550.215949	23508.528677
550.574434	23198.588457
550.932864	23449.499286
551.291237	23601.651392
551.649555	23515.326673
552.007817	23570.912956
552.366022	23472.527277
552.724173	23527.705227
553.082267	23482.165963
553.440305	23954.832110
553.798288	23269.562862
554.156215	23811.476818
554.514086	23896.233737
554.871902	23288.472230
555.229661	23579.419903
555.587365	23473.273368
555.945014	23308.745230
556.302606	23601.638789
556.660143	23533.605897
557.017625	23803.179078
557.375050	23362.652808
557.732421	23751.661007
558.089735	23566.476741
558.446994	23647.505727
558.804197	23660.990814
559.161345	23641.602536
559.518437	23373.488769
559.875474	23610.861580
560.232455	23776.067753
560.589381	23619.708805
560.946251	23584.536674
561.303065	23916.708384
561.659825	24011.378732
562.016528	23623.928251
562.373177	23383.911354
562.729770	23725.222675
563.086307	23609.450057
563.442789	23774.220170
563.799216	23594.019085
564.155587	23616.169915
564.511904	23608.116672
564.868164	23542.185941
565.224370	23531.617162
565.580520	23424.890894
565.936615	23571.195261
566.292654	23241.607143
566.648638	23564.727460
567.004567	23387.115007
567.360441	23334.810516
567.716260	23062.789854
568.072023	23409.427154
568.427732	23152.446775
568.783385	22954.712557
569.138982	23172.114837
569.494525	23218.876580
569.850013	22979.247853
570.205445	23063.195667
570.560823	22858.396272
570.916145	22640.240339
571.271412	22811.939518
571.626625	22567.020100
571.981782	22683.029653
572.336884	22477.494249
572.691931	22619.647225
573.046923	22352.745856
573.401860	22243.541860
573.756743	22241.492631
574.111570	22161.237462
574.466342	22099.657247
574.821059	22187.466586
575.175722	21878.635419
575.530330	21872.281044
575.884882	21895.470352
576.239380	21803.227319
576.593823	21702.368954
576.948211	21684.049401
577.302544	21514.195284
577.656823	21397.464846
578.011047	21490.423723
578.365216	21373.012729
578.719330	21249.259964
579.073389	21158.151190
579.427394	21297.163528
579.781344	21085.367011
580.135239	20961.768001
580.489080	20936.277407
580.842866	20699.736386
581.196597	20882.614324
581.550273	20873.903210
581.903895	20767.970924
582.257463	21087.030592
582.610975	20605.292889
582.964434	20905.291955
583.317837	20629.369440
583.671186	20719.643903
584.024481	20675.735453
584.377721	20458.544901
584.730906	20512.742346
585.084037	20546.399609
585.437113	20440.674010
585.790135	20644.039198
586.143103	20118.050247
586.496016	20120.752305
586.848874	20371.337980
587.201679	20308.111829
587.554428	19964.511824
587.907124	20297.903492
588.259765	20084.052705
588.612352	20167.612351
588.964884	19727.358303
589.317362	19915.597508
589.669786	19962.402101
590.022155	20014.613331
590.374470	20183.572644
590.726731	19977.724688
591.078937	19734.005064
591.431090	19853.805565
591.783188	19584.144163
592.135232	19554.716428
592.487222	19662.302212
592.839157	19694.467295
593.191038	19573.393903
593.542866	19463.501790
593.894639	19177.630558
594.246358	19391.317508
594.598022	19317.762032
594.949633	19065.734587
595.301190	19031.999185
595.652692	19188.491724
596.004141	19446.230797
596.355535	18770.401109
596.706876	18778.109034
597.058162	18666.192898
597.409395	18870.541110
597.760573	18978.179827
598.111698	18761.357279
598.462768	18687.842133
598.813785	18645.345206
599.164748	18469.976067
599.515657	18502.554523
599.866511	18290.460578
600.217312	18654.542791
600.568060	18196.838789
600.918753	18499.698710
601.269392	18397.890087
601.619978	18170.191250
601.970510	18388.722749
602.320988	18329.151434
602.671412	18543.604639
603.021783	18443.520091
603.372100	18182.196758
603.722363	18315.817582
604.072572	18252.241070
604.422728	18392.581752
604.772830	18154.384712
605.122878	18095.209128
605.472872	18091.211493
605.822813	18086.442561
606.172701	18038.203760
606.522534	18253.335001
606.872314	18266.154655
607.222041	18096.451772
607.571714	18311.726686
607.921333	18146.717117
608.270899	18220.438951
608.620411	18413.721831
608.969870	18164.005754
609.319276	18171.433895
609.668627	18205.567547
610.017926	18338.545624
610.367171	18453.879662
610.716362	18493.039345
611.065500	18319.074167
611.414585	18447.056461
611.763616	18429.346887
612.112594	18389.073109
612.461518	18344.063167
612.810389	18535.687507
613.159207	18396.385303
613.507971	18298.861661
613.856682	18588.473429
614.205340	18524.259211
614.553945	18656.483635
614.902496	18396.312206
615.250994	18642.060894
615.599439	18571.542714
615.947830	18566.614986
616.296169	18598.321323
616.644454	18570.937775
616.992686	18544.449032
617.340864	18752.694057
617.688990	18513.859311
618.037063	18689.730045
618.385082	18545.331234
618.733048	18824.044028
619.080961	18692.026291
619.428821	18729.345953
619.776628	18621.944170
620.124382	18550.314415
620.472083	18565.286642
620.819731	18596.204038
621.167326	18297.803019
621.514868	18336.662753
621.862357	18089.394157
622.209793	18107.353268
622.557176	17943.475438
622.904506	17771.740971
623.251783	17670.940579
623.599007	17439.985157
623.946179	17395.058394
624.293297	17341.055033
624.640363	17097.229545
624.987376	17118.450282
625.334336	16900.052374
625.681243	16755.066269
626.028097	16744.353817
626.374899	16693.324737
626.721647	16555.126546
627.068343	16387.135135
627.414987	16307.996581
627.761577	16284.010771
628.108115	16340.159143
628.454600	16047.545368
628.801032	16155.673077
629.147412	16086.304279
629.493739	16105.495952
629.840014	15917.014771
630.186236	16009.426683
630.532405	15773.992195
630.878521	15975.587938
631.224585	15864.914446
631.570597	15693.134608
631.916556	15726.340689
632.262462	15699.940166
632.608316	15627.037520
632.954117	15562.830864
633.299866	15561.154680
633.645562	15480.912114
633.991206	15243.183901
634.336797	15103.869094
634.682336	15072.629064
635.027823	14972.930164
635.373257	14856.045971
635.718639	14741.788219
636.063968	14694.172000
636.409245	14451.702583
636.754470	14479.300379
637.099642	14318.366584
637.444762	14095.792080
637.789829	14134.820693
638.134845	13982.373680
638.479808	13998.941432
638.824719	13954.788486
639.169577	13797.806956
639.514383	13854.187220
639.859137	13668.324919
640.203839	13750.682249
640.548489	13587.260645
640.893086	13579.313266
641.237632	13451.514974
641.582125	13598.111728
641.926566	13434.818673
642.270955	13439.978294
642.615292	13405.867326
642.959576	13414.732195
643.303809	13445.004324
643.647990	13386.055592
643.992118	13440.913428
644.336195	13212.874313
644.680219	13410.122060
645.024192	13348.703162
645.368112	13579.716558
645.711981	13636.003561
646.055797	13815.529132
646.399562	13774.426084
646.743274	14043.248133
647.086935	14318.361543
647.430544	14287.229897
647.774101	14311.649247
648.117606	14470.780829
648.461059	14430.686012
648.804460	14429.708028
649.147810	14158.188962
649.491108	14059.384867
649.834354	14083.640379
650.177548	13784.319348
650.520690	13581.924583
650.863781	13513.377494
651.206820	13556.318042
651.549807	13377.057132
651.892742	13193.566694
652.235626	13135.316161
652.578458	13129.647384
652.921238	12812.437819
653.263967	13014.663706
653.606644	12841.064011
653.949269	12807.353815
654.291843	12620.725259
654.634365	12771.770831
654.976836	12618.832306
655.319255	12645.663847
655.661622	12592.489756
656.003938	12504.541786
656.346203	12442.918722
656.688416	12514.039320
657.030577	12459.746093
657.372687	12394.137996
657.714746	12353.360103
658.056753	12544.676933
658.398708	12381.378836
658.740612	12377.655944
659.082465	12467.963174
659.424266	12427.689396
659.766016	12451.307202
660.107715	12357.440917
660.449362	12437.431426
660.790958	12403.741394
661.132503	12350.809279
661.473996	12404.810119
661.815438	12417.715473
662.156829	12431.981938
662.498168	12418.718662
662.839456	12413.710276
663.180693	12434.235334
663.521879	12518.397397
663.863013	12499.379645
664.204097	12476.568423
664.545129	12593.034201
664.886110	12566.404306
665.227040	12658.944767
665.567918	12660.492401
665.908746	12695.097402
666.249522	12670.902384
666.590248	12718.425341
666.930922	12839.155934
667.271545	12817.899909
667.612118	12901.618351
667.952639	12809.029999
668.293109	12810.935555
668.633528	12773.106737
668.973896	12741.511305
669.314213	12832.907424
669.654480	12571.034605
669.994695	12635.843679
670.334859	12654.805979
670.674973	12603.938217
671.015035	12641.787200
671.355047	12583.945000
671.695008	12561.337946
672.034918	12562.663769
672.374777	12612.762756
672.714585	12516.214578
673.054342	12548.593909
673.394049	12495.233296
673.733705	12585.986668
674.073310	12504.350222
674.412864	12533.435159
674.752368	12401.145200
675.091820	12399.259809
675.431223	12395.108418
675.770574	12271.703493
676.109875	12194.609127
676.449125	12155.358703
676.788324	12088.215575
677.127473	11935.549272
677.466571	11919.183166
677.805619	11822.022488
678.144616	11731.259033
678.483562	11701.914477
678.822458	11580.571383
679.161303	11556.096581
679.500098	11540.680732
679.838842	11502.821667
680.177535	11521.930161
680.516179	11575.830178
680.854771	11525.474092
681.193314	11740.607853
681.531805	11890.093188
681.870247	12286.668158
682.208638	12696.556816
682.546978	13022.316177
682.885268	13089.610540
683.223508	12774.258640
683.561697	12614.786780
683.899836	12508.738547
684.237925	12319.375164
684.575963	12234.426681
684.913951	12163.913541
685.251889	12104.909356
685.589776	12201.429808
685.927614	12129.046401
686.265401	12090.814290
686.603137	12136.928245
686.940824	12289.740741
687.278460	12399.337947
687.616046	12450.674537
687.953582	12627.921506
688.291068	12545.831357
688.628504	12778.531018
688.965889	12787.353037
689.303224	12759.039397
689.640510	12655.186587
689.977745	12351.583096
690.314930	12124.159002
690.652065	12037.365456
690.989150	11754.183680
691.326185	11527.566171
691.663170	11321.866929
692.000105	11077.234857
692.336990	10978.579476
692.673825	10726.733512
693.010610	10602.128792
693.347345	10400.638914
693.684030	10193.470176
694.020665	10135.643100
694.357251	9941.626733
694.693786	9892.941789
695.030272	9721.038443
695.366707	9603.574517
695.703093	9545.996979
696.039429	9533.598261
696.375716	9465.880441
696.711952	9330.180141
697.048139	9358.072846
697.384276	9318.489706
697.720363	9336.844547
698.056400	9275.685268
698.392388	9228.323628
698.728326	9185.700672
699.064214	9123.104665
699.400053	9173.299434
699.735842	8990.988625
700.071581	8941.918034
700.407270	8868.228968
700.742910	8791.361454
701.078501	8701.323925
701.414042	8579.925379
701.749533	8510.985080
702.084974	8376.144297
702.420366	8484.927355
702.755709	8372.633133
703.091002	8237.545333
703.426246	8263.429138
703.761440	8220.780976
704.096584	8167.027153
704.431679	8104.690765
704.766725	8093.786749
705.101721	8040.232051
705.436668	8083.172600
705.771565	7982.601580
706.106413	8059.660658
706.441212	8105.167154
706.775961	8058.607057
707.110661	8084.158145
707.445311	8239.929799
707.779913	8130.841750
708.114465	8257.997294
708.448967	8301.646125
708.783421	8433.195035
709.117825	8621.071277
709.452180	8651.915577
709.786485	8743.530986
710.120742	9023.062967
710.454949	9020.123974
710.789107	9116.135270
711.123216	9334.560904
711.457275	9492.036468
711.791286	9655.586622
712.125247	9652.768617
712.459159	9638.736565
712.793023	9897.299867
713.126837	9476.111463
713.460602	9627.066294
713.794318	9445.957801
714.127985	9480.303182
714.461602	9170.027725
714.795171	9117.987894
715.128691	8867.581179
715.462162	8620.065567
715.795584	8560.148933
716.128957	8423.132892
716.462281	8245.250737
716.795556	8292.062892
717.128782	8091.649300
717.461960	7823.638876
717.795088	7896.234012
718.128167	7804.565671
718.461198	7642.192626
718.794180	7573.950526
719.127113	7575.934220
719.459997	7425.821262
719.792833	7195.261570
720.125619	7253.711228
720.458357	7113.279805
720.791046	7102.214473
721.123686	7107.505164
721.456278	6945.658919
721.788821	6964.371683
722.121315	6856.717842
722.453761	6918.010711
722.786158	6866.079265
723.118506	6875.564196
723.450805	6843.719227
723.783056	6914.255052
724.115259	6820.144271
724.447412	6813.923487
724.779518	6858.353697
725.111574	6859.460230
725.443582	6939.692714
725.775542	6925.194355
726.107453	7111.064218
726.439315	7028.235540
726.771129	7077.139773
727.102895	7243.389466
727.434612	7360.863474
727.766281	7390.054275
728.097901	7476.200033
728.429473	7465.028836
728.760996	7440.846421
729.092471	7418.902278
729.423897	7367.308589
729.755276	7375.190433
730.086606	7307.081924
730.417887	7400.481902
730.749120	7578.613593
731.080305	7776.531814
731.411442	7903.770537
731.742530	7898.835247
732.073570	8008.760128
732.404562	8091.369516
732.735506	7937.747914
733.066401	8085.209226
733.397249	8018.761777
733.728048	7787.226622
734.058798	7453.986188
734.389501	7233.113073
734.720156	7055.813172
735.050762	6818.296688
735.381320	6721.193983
735.711831	6673.812178
736.042293	6564.557771
736.372707	6585.637356
736.703073	6451.404032
737.033391	6485.121789
737.363661	6495.262070
737.693883	6516.848291
738.024056	6608.314986
738.354182	6651.200082
738.684260	6684.635535
739.014290	6791.122348
739.344272	6903.182157
739.674207	6932.572084
740.004093	6998.341498
740.333931	7018.531319
740.663722	7024.636156
740.993464	7099.938392
741.323159	7103.600790
741.652806	6843.038671
741.982405	6851.797676
742.311956	6912.979640
742.641460	6762.622185
742.970915	6565.051804
743.300323	6555.418159
743.629683	6501.772720
743.958996	6369.732298
744.288260	6281.844822
744.617477	6229.114353
744.946647	6238.110292
745.275768	6070.176854
745.604842	6023.901583
745.933869	6010.766856
746.262847	5960.932530
746.591778	5955.488084
746.920662	5912.197175
747.249498	5898.243261
747.578286	5949.511796
747.907027	6026.344022
748.235720	6082.895686
748.564365	6055.544905
748.892963	6074.454273
749.221514	6236.093830
749.550017	6079.046765
749.878473	5952.720490
750.206881	5997.803529
750.535242	5947.046672
750.863555	5876.962030
751.191821	5895.195884
751.520039	5898.618827
751.848210	5805.193644
752.176334	5820.987579
752.504411	5876.659561
752.832440	5797.904135
753.160421	5726.289504
753.488356	5772.421103
753.816243	5812.868800
754.144082	5660.167209
754.471875	5630.250482
754.799620	5671.492161
755.127318	5689.844482
755.454969	5640.340351
755.782572	5606.113437
756.110129	5645.157174
756.437638	5634.792561
756.765100	5575.894240
757.092515	5573.565227
757.419882	5619.338904
757.747203	5606.824240
758.074477	5670.869579
758.401703	5655.242002
758.728882	5603.930617
759.056014	5651.645139
759.383099	5790.801149
759.710138	5799.358508
760.037129	5780.973420
760.364073	5786.911899
760.690970	5870.597574
761.017820	5855.398495
761.344623	5807.250434
761.671379	5904.839611
761.998088	6018.610892
762.324751	6251.323156
762.651366	6828.245405
762.977935	8102.248326
763.304456	9720.022651
763.630931	10641.722014
763.957359	10287.475092
764.283740	9357.573771
764.610074	8542.635964
764.936362	7557.256745
765.262602	6959.766588
765.588796	6414.626294
765.914943	6071.424540
766.241044	5916.260345
766.567097	5724.893104
766.893104	5468.656295
767.219064	5281.795846
767.544978	5217.143048
767.870845	5146.143437
768.196665	5039.553280
768.522438	4962.479079
768.848165	4936.239873
769.173846	4873.177559
769.499479	4828.676773
769.825066	4772.619142
770.150607	4713.183939
770.476101	4690.977656
770.801548	4685.656718
771.126949	4615.556953
771.452303	4559.002769
771.777611	4516.566336
772.102872	4533.827247
772.428087	4497.110003
772.753256	4453.836738
773.078378	4417.237961
773.403453	4344.448741
773.728482	4330.827543
774.053465	4287.503867
774.378401	4272.221609
774.703291	4273.900313
775.028135	4207.614181
775.352932	4157.832787
775.677683	4142.739572
776.002388	4157.515194
776.327046	4174.521527
776.651658	4098.221143
776.976224	4035.720917
777.300743	4038.727966
777.625216	4059.520205
777.949643	4056.276222
778.274024	4013.348277
778.598359	3966.417655
778.922647	3990.799195
779.246889	3984.974142
779.571086	3982.932475
779.895236	3966.861276
780.219339	3949.025674
780.543397	3940.790949
780.867409	3994.640555
781.191374	4009.088502
781.515294	3948.813946
781.839167	3940.707770
782.162995	3960.821974
782.486776	3945.302782
782.810511	3955.284267
783.134201	3954.054225
783.457844	3911.075868
783.781441	3852.379193
784.104993	3858.070656
784.428498	3878.265518
784.751958	3880.377762
785.075372	3858.753732
785.398739	3819.135304
785.722061	3831.667612
786.045337	3869.995505
786.368568	3906.201072
786.691752	3819.026919
787.014891	3859.893033
787.337983	3985.122856
787.661030	4141.587669
787.984031	4305.163029
788.306987	4476.869770
788.629897	4558.944796
788.952760	4513.332436
789.275579	4447.217703
789.598351	4387.606059
789.921078	4250.607662
790.243759	4050.383113
790.566395	4027.481151
790.888984	4025.769680
791.211529	3920.933844
791.534027	3860.477807
791.856480	3852.011189
792.178888	3787.844862
792.501249	3736.843509
792.823566	3746.512442
793.145836	3781.188018
793.468062	3728.336562
793.790241	3682.242771
794.112375	3710.521124
794.434464	3769.358951
794.756507	3799.207623
795.078505	3780.446969
795.400457	3810.877894
795.722364	3947.087350
796.044226	4048.928740
796.366042	4125.468579
796.687812	4105.848408
797.009538	4114.589769
797.331218	4067.550763
797.652852	4041.997154
797.974442	4021.078886
798.295986	4024.360677
798.617484	3945.882515
798.938938	3854.093185
799.260346	3898.170514
799.581709	3892.224473
799.903026	3824.030264
800.224299	3785.258750
800.545526	3774.561422
800.866708	3741.519179
801.187845	3679.074406
801.508936	3713.538254
801.829983	3718.385324
802.150984	3636.990854
802.471940	3624.569451
802.792851	3634.009011
803.113717	3633.638487
803.434538	3637.038745
803.755314	3585.288780
804.076045	3551.387020
804.396731	3574.788057
804.717372	3601.455760
805.037967	3588.643668
805.358518	3576.126483
805.679024	3603.835185
805.999485	3613.199128
806.319901	3619.462762
806.640272	3632.302581
806.960598	3648.366217
807.280879	3625.381077
807.601115	3631.674957
807.921306	3646.778254
808.241453	3691.513453
808.561554	3668.064526
808.881611	3606.300309
809.201623	3638.851040
809.521590	3649.828152
809.841513	3622.757156
810.161390	3655.471724
810.481223	3631.957262
810.801011	3574.513314
811.120755	3566.480235
811.440453	3602.980709
811.760107	3611.548150
812.079716	3564.799010
812.399281	3532.218033
812.718801	3552.969943
813.038276	3529.644524
813.357707	3525.271323
813.677093	3541.163560
813.996434	3489.395952
814.315731	3498.853156
814.634983	3500.907426
814.954191	3517.959129
815.273354	3545.380486
815.592473	3543.353942
815.911547	3547.517935
816.230577	3585.523194
816.549562	3636.897592
816.868502	3678.895445
817.187399	3704.300340
817.506250	3700.837067
817.825058	3672.682223
818.143821	3755.473093
818.462539	3861.372612
818.781213	3906.468253
819.099843	3962.162921
819.418429	4192.500802
819.736970	4436.613636
820.055466	4670.127444
820.373919	5038.416500
820.692327	5441.189568
821.010691	5858.355132
821.329011	7178.484610
821.647286	9827.454680
821.965517	14288.964054
822.283704	18296.578018
822.601847	20533.945439
822.919945	18787.510786
823.237999	16271.574245
823.556010	13815.755984
823.873976	11759.091243
824.191897	9681.432618
824.509775	8326.355341
824.827609	7205.071655
825.145398	6650.945504
825.463144	6537.121291
825.780845	6650.489279
826.098502	6821.888510
826.416116	7659.382960
826.733685	8952.123850
827.051210	10068.671371
827.368692	10164.317183
827.686129	8956.688615
828.003522	7445.383459
828.320872	6429.424601
828.638177	5739.734261
828.955439	5189.570457
829.272656	4695.330692
829.589830	4406.898554
829.906960	4234.400352
830.224046	4050.998134
830.541088	3923.827467
830.858086	3879.538409
831.175041	3805.030156
831.491952	3781.044346
831.808819	3795.436840
832.125642	3864.823281
832.442421	4003.550794
832.759157	4272.312350
833.075849	4804.690963
833.392497	5651.047762
833.709101	6418.134937
834.025662	6766.087978
834.342179	6433.823008
834.658653	5780.063492
834.975083	5142.145802
835.291469	4575.101694
835.607811	4160.335720
835.924110	4021.023433
836.240366	3829.867921
836.556578	3622.023668
836.872746	3512.330681
837.188871	3473.095381
837.504952	3409.531472
837.820990	3329.672033
838.136984	3277.465844
838.452935	3304.882159
838.768842	3300.009884
839.084706	3319.614931
839.400526	3470.879793
839.716303	3797.801141
840.032037	4307.353410
840.347727	4583.706943
840.663373	4322.512160
840.978977	3948.261939
841.294537	3641.991678
841.610054	3413.554313
841.925527	3306.069351
842.240957	3238.762385
842.556344	3186.901515
842.871687	3129.255921
843.186987	3080.644074
843.502244	3041.723846
843.817458	3009.931809
844.132629	2975.253712
844.447756	2984.874754
844.762840	2973.789257
845.077881	2940.794905
845.392879	2922.256062
845.707833	2920.864703
846.022745	2916.851945
846.337613	2918.513005
846.652438	2906.878022
846.967221	2903.845768
847.281960	2891.568038
847.596656	2884.107130
847.911309	2886.786503
848.225919	2883.421533
848.540485	2875.622868
848.855009	2877.107488
849.169490	2865.510313
849.483928	2855.715351
849.798323	2854.986905
850.112675	2852.675536
850.426984	2865.384284
850.741251	2861.676516
851.055474	2852.078159
851.369654	2846.467355
851.683792	2850.003724
851.997887	2857.832636
852.311938	2860.186855
852.625947	2849.025740
852.939914	2852.998169
853.253837	2859.153418
853.567718	2841.847137
853.881555	2839.263546
854.195350	2855.788448
854.509103	2855.748119
854.822812	2844.995338
855.136479	2840.372600
855.450103	2844.108095
855.763685	2837.463854
856.077224	2832.120231
856.390720	2847.465503
856.704173	2854.059332
857.017584	2849.406347
857.330953	2843.578773
857.644278	2854.881040
857.957561	2860.862369
858.270802	2864.794469
858.584000	2865.933770
858.897155	2853.653519
859.210268	2851.939527
859.523339	2850.928776
859.836367	2849.260154
860.149352	2844.526510
860.462295	2839.873525
860.775195	2846.782427
861.088054	2851.828622
861.400869	2832.117710
861.713642	2828.525888
862.026373	2842.227744
862.339062	2845.827128
862.651708	2850.888447
862.964312	2857.184848
863.276873	2849.769310
863.589392	2856.106041
863.901869	2866.853781
864.214303	2888.959240
864.526696	2906.764596
864.839045	2902.557753
865.151353	2900.490880
865.463619	2900.863925
865.775842	2898.224881
866.088023	2919.160793
866.400162	2926.735127
866.712258	2897.924933
867.024313	2888.129971
867.336325	2895.674057
867.648296	2917.323293
867.960224	2910.865574
868.272110	2894.804458
868.583954	2902.194790
868.895755	2915.669794
869.207515	2898.212278
869.519233	2903.311405
869.830909	2918.742377
870.142542	2926.893923
870.454134	2926.288985
870.765684	2927.322421
871.077191	2926.788059
871.388657	2933.911209
871.700081	2946.874536
872.011463	2957.445836
872.322803	2958.953141
872.634101	2958.660754
872.945357	2974.313537
873.256571	2999.874707
873.567744	2994.715086
873.878874	2985.343581
874.189963	3012.132273
874.501010	3011.812160
874.812015	3002.763288
875.122979	3000.245232
875.433900	2998.306908
875.744780	3001.971827
876.055618	3011.711337
876.366415	3010.135976
876.677169	3018.015299
876.987882	3015.227541
877.298554	3008.868126
877.609183	3027.469983
877.919771	3051.622152
878.230317	3077.236254
878.540822	3126.818523
878.851285	3166.240346
879.161707	3206.942622
879.472087	3303.463074
879.782425	3518.579191
880.092722	3942.779684
880.402977	4456.511070
880.713191	5068.048402
881.023363	6185.563825
881.333494	7446.336237
881.643583	8016.924276
881.953631	7734.017243
882.263637	7127.732793
882.573602	6555.062758
882.883526	5988.742055
883.193408	5423.366569
883.503248	4961.289366
883.813048	4658.905835
884.122806	4372.810272
884.432522	4061.307294
884.742197	3830.709793
885.051831	3636.678302
885.361424	3499.203516
885.670975	3429.726334
885.980485	3350.928058
886.289954	3274.282355
886.599382	3232.168556
886.908768	3190.415199
887.218113	3149.511277
887.527417	3093.947679
887.836680	3044.236861
888.145901	3035.588762
888.455082	3028.334541
888.764221	2978.054073
889.073319	2948.275977
889.382376	2944.772375
889.691392	2952.939044
890.000366	2951.855196
890.309300	2938.072682
890.618193	2950.920062
890.927044	2964.107721
891.235855	2970.741879
891.544625	2952.220680
891.853353	2963.207875
892.162041	2982.059270
892.470687	3017.296935
892.779293	3072.167374
893.087858	3114.878550
893.396381	3180.090916
893.704864	3297.764050
894.013306	3529.137888
894.321707	3825.522446
894.630068	4033.018859
894.938387	4035.345351
895.246665	3987.550172
895.554903	3870.303016
895.863100	3673.019980
896.171256	3509.812625
896.479371	3375.682644
896.787446	3256.141763
897.095480	3156.347082
897.403473	3089.619849
897.711425	3050.928993
898.019336	3042.001109
898.327207	3017.972450
898.635038	2985.328458
898.942827	2967.565952
899.250576	2959.288378
899.558284	2926.712442
899.865952	2906.900707
900.173579	2886.413458
900.481165	2883.660988
900.788711	2872.053731
901.096216	2847.709999
901.403681	2830.267607
901.711105	2837.786488
902.018489	2836.138030
902.325832	2839.654235
902.633135	2847.563806
902.940397	2877.422560
903.247619	2954.920218
903.554800	3138.219092
903.861941	3467.809731
904.169041	3888.572157
904.476101	4187.290769
904.783121	4156.287673
905.090100	3917.831014
905.397039	3648.993841
905.703938	3403.436717
906.010796	3218.378480
906.317614	3111.059876
906.624391	3018.002697
906.931129	2949.130453
907.237826	2891.333624
907.544483	2844.241685
907.851099	2811.479226
908.157675	2791.148253
908.464211	2771.780140
908.770707	2759.489807
909.077163	2747.338105
909.383578	2733.638770
909.689954	2722.023951
909.996289	2719.747870
910.302584	2722.160062
910.608839	2722.765001
910.915054	2716.743343
911.221229	2709.597507
911.527363	2711.533310
911.833458	2716.637478
912.139513	2723.218705
912.445527	2725.630897
912.751502	2734.586507
913.057436	2743.090933
913.363331	2758.451329
913.669186	2777.554782
913.975000	2806.775830
914.280775	2864.744058
914.586510	2931.357865
914.892205	3013.251409
915.197859	3131.902527
915.503475	3321.051660
915.809050	3523.406096
916.114585	3669.153415
916.420081	3696.859597
916.725536	3639.864312
917.030952	3523.887526
917.336328	3404.306316
917.641665	3273.473250
917.946961	3174.066737
918.252218	3107.221037
918.557435	3030.580375
918.862612	2972.607106
919.167750	2920.539549
919.472848	2884.979249
919.777906	2861.353882
920.082925	2834.865139
920.387904	2805.938998
920.692843	2786.684311
920.997743	2775.871036
921.302603	2763.401742
921.607423	2751.083683
921.912204	2742.793505
922.216946	2732.186917
922.521647	2722.984291
922.826310	2715.876264
923.130932	2706.756817
923.435516	2700.150385
923.740059	2693.175948
924.044564	2684.863086
924.349028	2680.270595
924.653454	2672.159378
924.957840	2669.361538
925.262186	2663.402894
925.566493	2660.232008
925.870761	2651.750267
926.174989	2652.324958
926.479178	2645.814308
926.783328	2642.623258
927.087438	2639.497742
927.391509	2637.496404
927.695541	2637.584624
927.999533	2631.870477
928.303486	2631.850312
928.607400	2628.767646
928.911275	2628.261010
929.215110	2627.696401
929.518906	2625.919394
929.822663	2627.688839
930.126381	2625.818571
930.430060	2626.441154
930.733699	2626.173973
931.037299	2629.397791
931.340861	2629.365023
931.644383	2630.060702
931.947866	2630.317801
932.251309	2625.180865
932.554714	2627.764457
932.858080	2625.274127
933.161407	2622.519136
933.464694	2620.469907
933.767943	2616.951182
934.071153	2622.216667
934.374323	2621.301698
934.677455	2620.059053
934.980548	2615.683332
935.283602	2620.154835
935.586617	2617.447735
935.889593	2616.615945
936.192530	2616.499998
936.495428	2621.573920
936.798287	2619.093672
937.101108	2624.472583
937.403890	2626.277316
937.706632	2632.304016
938.009336	2637.682927
938.312002	2647.724905
938.614628	2653.338230
938.917216	2662.646721
939.219765	2661.772081
939.522275	2662.271155
939.824747	2659.012049
940.127179	2657.630773
940.429573	2653.769249
940.731929	2652.766059
941.034246	2651.359577
941.336524	2645.348001
941.638763	2641.675521
941.940964	2640.881539
942.243126	2638.580252
942.545250	2636.881383
942.847335	2636.105046
943.149381	2633.072792
943.451389	2629.362502
943.753359	2626.514251
944.055290	2624.772532
944.357182	2622.259517
944.659036	2620.928652
944.960851	2621.916718
945.262628	2620.933693
945.564367	2620.043930
945.866067	2621.291615
946.167729	2620.089300
946.469352	2623.537449
946.770937	2620.933693
947.072484	2619.426388
947.373992	2618.944958
947.675462	2618.138373
947.976893	2612.978752
948.278286	2610.758124
948.579641	2611.925151
948.880958	2609.737291
949.182236	2611.206787
949.483476	2611.224431
949.784678	2610.256529
950.085841	2609.737291
950.386967	2613.361880
950.688054	2611.274842
950.989103	2611.544544
951.290114	2615.093517
951.591087	2617.046964
951.892021	2619.156687
952.192917	2621.397479
952.493776	2624.706997
952.794596	2625.027110
953.095378	2624.127264
953.396122	2622.357819
953.696828	2621.039557
953.997496	2619.287757
954.298126	2616.356326
954.598718	2617.180554
954.899272	2613.470265
955.199788	2610.730398
955.500266	2607.516662
955.800706	2607.804008
956.101108	2603.781167
956.401472	2599.859150
956.701798	2599.629777
957.002087	2596.784046
957.302337	2598.009046
957.602550	2595.974941
957.902724	2593.998808
958.202861	2593.078798
958.502960	2589.892788
958.803022	2591.992429
959.103045	2590.258272
959.403031	2589.159301
959.702979	2591.679877
960.002889	2589.292891
960.302762	2591.904209
960.602596	2588.143508
960.902393	2590.832964
961.202153	2584.758373
961.501875	2585.275092
961.801559	2588.521595
962.101205	2586.500092
962.400814	2587.876327
962.700385	2587.541090
962.999918	2584.942375
963.299414	2583.069587
963.598873	2582.704103
963.898293	2580.042374
964.197677	2586.600915
964.497022	2583.956830
964.796331	2586.389187
965.095601	2585.499423
965.394835	2586.681573
965.694030	2586.094279
965.993189	2588.014959
966.292309	2584.523960
966.591393	2584.097982
966.890439	2586.048909
967.189447	2585.428847
967.488419	2584.375246
967.787353	2585.726275
968.086249	2585.012952
968.385108	2582.999011
968.683930	2584.743250
968.982714	2582.492375
969.281462	2583.170410
969.580172	2586.152252
969.878844	2583.099834
970.177480	2584.924731
970.476078	2582.653692
970.774639	2584.949937
971.073162	2585.146542
971.371649	2583.954309
971.670098	2586.109402
971.968510	2582.923393
972.266885	2586.185020
972.565223	2585.093610
972.863524	2583.041860
973.161788	2585.864907
973.460014	2582.981367
973.758204	2586.573189
974.056356	2584.090420
974.354471	2584.987746
974.652550	2583.488002
974.950591	2583.651840
975.248595	2586.404310
975.546563	2585.794330
975.844493	2586.212746
976.142386	2584.768456
976.440243	2585.398600
976.738062	2585.259968
977.035845	2583.737540
977.333590	2586.016141
977.631299	2583.162848
977.928971	2577.284863
978.226606	2578.172106
978.524204	2579.210583
978.821765	2578.456931
979.119290	2582.409196
979.416777	2582.933476
979.714228	2579.354256
980.011642	2582.870461
980.309020	2582.247879
980.606360	2582.653692
980.903664	2582.154617
981.200931	2582.265523
981.498162	2583.782910
981.795356	2583.969433
982.092513	2586.250555
982.389633	2588.375401
982.686717	2591.372367
982.983764	2596.368151
983.280775	2601.613471
983.577749	2597.699015
983.874686	2599.256732
984.171587	2597.474684
984.468451	2597.560383
984.765279	2592.463777
985.062070	2590.855649
985.358824	2588.756008
985.655543	2585.706110
985.952224	2585.136460
986.248869	2584.549165
986.545478	2584.637386
986.842050	2578.782085
987.138586	2580.680080
987.435086	2581.101016
987.731549	2580.644792
988.027975	2580.707806
988.324366	2580.183526
988.620719	2580.241499
988.917037	2581.534555
989.213318	2580.317117
989.509563	2577.879719
989.805772	2578.444328
990.101944	2581.186716
990.398080	2580.778382
990.694180	2577.693196
990.990244	2576.899214
991.286271	2583.326686
991.582262	2582.809967
991.878217	2580.745615
992.174136	2579.364339
992.470019	2580.060018
992.765865	2576.264029
993.061676	2573.685479
993.357450	2574.207238
993.653188	2574.519790
993.948890	2579.283680
994.244556	2579.843248
994.540186	2579.394586
994.835780	2578.358628
995.131337	2580.707806
995.426859	2581.227045
995.722345	2582.086562
996.017795	2580.846438
996.313208	2581.171592
996.608586	2580.831314
996.903928	2583.072107
997.199234	2582.653692
997.494504	2583.125039
997.789738	2583.800554
998.084936	2583.505647
998.380099	2580.697724
998.675225	2582.114288
998.970316	2580.266705
999.265371	2583.354412
999.560390	2578.340984
999.855373	2579.770152
1000.150320	2581.116140
1000.445232	2578.431725
1000.740108	2579.583629
1001.034948	2576.483319
1001.329752	2577.872157
1001.624521	2578.134297
1001.919254	2577.408371
1002.213951	2577.534400
1002.508613	2577.816704
1002.803239	2577.985583
1003.097829	2577.214287
1003.392384	2577.463824
1003.686903	2577.103381
1003.981386	2578.015830
1004.275834	2574.449214
1004.570246	2576.291755
1004.864623	2576.989955
1005.158964	2576.460634
1005.453270	2578.582960
1005.747540	2579.266036
1006.041775	2577.756211
1006.335974	2576.455593
1006.630138	2573.861919
1006.924266	2576.947105
1007.218359	2576.846282
1007.512416	2574.043401
1007.806438	2571.401836
1008.100425	2572.911662
1008.394376	2568.964438
1008.688292	2576.644636
1008.982172	2576.387537
1009.276017	2573.582135
1009.569827	2577.877198
1009.863602	2576.886612
1010.157341	2577.637743
1010.451045	2575.807805
1010.744714	2574.602969
1011.038347	2578.151941
1011.331945	2577.105902
1011.625508	2576.342167
1011.919036	2573.572053
1012.212528	2577.494071
1012.505986	2573.791343
1012.799408	2576.967270
1013.092795	2575.097002
1013.386147	2577.115984
1013.679464	2576.954667
1013.972745	2574.875191
1014.265992	2575.112125
1014.559204	2574.948288
1014.852380	2576.576581
1015.145521	2575.485171
1015.438628	2576.506004
1015.731699	2576.695048
1016.024736	2574.272773
1016.317737	2573.161199
1016.610703	2576.178329
1016.903635	2577.070614
1017.196531	2574.018195
1017.489393	2575.172619
1017.782219	2574.832341
1018.075011	2574.900397
1018.367768	2574.665983
1018.660490	2575.459965
1018.953177	2575.459965
1019.245829	2575.459965
