Dividing Wavelength (nm)	Counts (n)	Blue Motor Position (mm): 30.600000	Red Motor Position (mm): 0.000000	
326.493990	2129.312808
326.888308	2129.312808
327.282561	2129.312808
327.676750	2099.756523
328.070874	2099.713674
328.464933	2098.128231
328.858929	2106.186515
329.252859	2115.699173
329.646726	2128.980092
330.040528	2139.443007
330.434265	2157.790287
330.827938	2174.668070
331.221547	2193.532067
331.615091	2214.241127
332.008571	2231.877604
332.401986	2252.816037
332.795338	2269.935795
333.188625	2289.865997
333.581847	2310.202011
333.975006	2327.049548
334.368100	2345.676611
334.761129	2362.302336
335.154095	2378.237424
335.546996	2403.453275
335.939833	2423.464135
336.332606	2438.486774
336.725315	2451.755091
337.117960	2464.484004
337.510540	2468.852164
337.903056	2479.753659
338.295508	2489.493168
338.687896	2496.213027
339.080220	2507.094357
339.472480	2512.440501
339.864676	2516.672549
340.256807	2524.463653
340.648875	2523.725124
341.040879	2525.018180
341.432818	2529.449354
341.824694	2528.194107
342.216506	2529.598068
342.608253	2530.722245
342.999937	2530.896165
343.391557	2530.749972
343.783113	2527.321987
344.174605	2526.359127
344.566033	2527.581606
344.957397	2521.249917
345.348697	2525.212264
345.739934	2522.336286
346.131106	2520.085411
346.522215	2518.847807
346.913260	2517.769000
347.304241	2512.332116
347.695159	2511.419667
348.086012	2510.761797
348.476802	2506.181908
348.867528	2505.576970
349.258191	2503.600838
349.648789	2506.318019
350.039324	2501.899448
350.429796	2501.866681
350.820203	2501.695281
351.210548	2501.952380
351.600828	2496.903665
351.991045	2499.613285
352.381198	2500.661845
352.771288	2499.101608
353.161314	2497.869046
353.551276	2495.897954
353.941175	2495.897954
354.331010	2496.195383
354.720782	2493.924343
355.110490	2496.240753
355.500135	2499.575476
355.889717	2498.395846
356.279235	2497.143119
356.668689	2499.000785
357.058080	2499.106649
357.447408	2495.729076
357.836672	2493.342089
358.225873	2495.960969
358.615010	2495.550115
359.004084	2499.832575
359.393095	2499.308295
359.782043	2501.327277
360.170927	2500.944149
360.559748	2499.651093
360.948505	2505.982783
361.337199	2502.327946
361.725830	2503.124448
362.114398	2503.966321
362.502903	2504.871208
362.891344	2506.023112
363.279722	2505.773575
363.668037	2504.626712
364.056289	2506.146620
364.444478	2505.100581
364.832603	2506.486898
365.220665	2507.001096
365.608665	2509.002434
365.996601	2505.047649
366.384474	2506.040756
366.772284	2510.882784
367.160031	2509.337671
367.547715	2508.218534
367.935336	2509.153668
368.322893	2509.617455
368.710388	2508.823473
369.097820	2512.551406
369.485189	2509.004954
369.872495	2510.300531
370.259738	2512.385048
370.646918	2508.115191
371.034035	2512.800943
371.421090	2511.190295
371.808081	2512.947137
372.195010	2510.693741
372.581875	2512.498474
372.968678	2513.501664
373.355418	2512.914369
373.742096	2513.279853
374.128710	2513.297497
374.515262	2513.269771
374.901751	2512.831190
375.288177	2511.961591
375.674540	2512.092661
376.060841	2515.470234
376.447079	2513.781448
376.833254	2516.894360
377.219367	2508.634430
377.605417	2513.831859
377.991404	2512.165758
378.377329	2512.853875
378.763191	2510.948319
379.148991	2518.058867
379.534727	2518.656243
379.920402	2513.942765
380.306013	2516.712879
380.691563	2518.288239
381.077049	2517.569875
381.462474	2516.806140
381.847835	2519.535925
382.233134	2519.982067
382.618371	2517.574916
383.003545	2520.382839
383.388657	2519.488034
383.773706	2521.106244
384.158693	2519.309073
384.543618	2517.544669
384.928480	2520.541635
385.313280	2520.125740
385.698017	2521.660771
386.082692	2521.237314
386.467305	2520.370236
386.851856	2523.248735
387.236344	2520.425688
387.620770	2521.917870
388.005133	2522.845442
388.389435	2524.756040
388.773674	2520.521470
389.157851	2522.048940
389.541965	2522.847963
389.926018	2522.157325
390.310008	2521.935514
390.693936	2524.476256
391.077802	2526.608664
391.461606	2526.948942
391.845348	2522.653878
392.229027	2526.386853
392.612645	2524.705628
392.996200	2524.617408
393.379694	2524.478776
393.763125	2526.691843
394.146494	2526.845598
394.529801	2527.185876
394.913047	2525.539939
395.296230	2528.143695
395.679351	2530.800383
396.062410	2529.766947
396.445408	2528.002543
396.828343	2527.478263
397.211217	2524.332583
397.594028	2526.454908
397.976778	2524.466173
398.359466	2527.954652
398.742092	2522.071625
399.124656	2530.891124
399.507158	2527.952131
399.889598	2530.409694
400.271977	2528.428520
400.654294	2530.664272
401.036549	2531.052441
401.418742	2528.922553
401.800874	2530.863397
402.182944	2530.255938
402.564952	2530.150074
402.946898	2530.981865
403.328783	2530.384488
403.710606	2531.085208
404.092367	2534.959335
404.474067	2530.717204
404.855705	2532.993285
405.237282	2533.376413
405.618797	2533.280631
406.000250	2532.942873
406.381642	2534.518234
406.762972	2534.044366
407.144240	2534.034283
407.525447	2537.300951
407.906593	2537.542926
408.287677	2536.431352
408.668700	2539.251878
409.049661	2537.132072
409.430560	2535.844057
409.811399	2538.341949
410.192176	2537.437062
410.572891	2535.649973
410.953545	2540.607948
411.334138	2538.152906
411.714669	2536.645601
412.095139	2537.673996
412.475547	2538.901517
412.855894	2538.377237
413.236180	2539.665252
413.616405	2540.842362
413.996568	2541.787578
414.376670	2542.853782
414.756711	2539.902186
415.136691	2542.851261
415.516609	2544.439225
415.896466	2541.361600
416.276262	2542.445448
416.655997	2539.529141
417.035670	2539.743390
417.415283	2543.062990
417.794834	2538.626774
418.174324	2546.274205
418.553753	2547.151366
418.933121	2547.695810
419.312428	2549.308979
419.691674	2550.602035
420.070859	2554.521533
420.449983	2552.547921
420.829045	2556.043961
421.208047	2560.228119
421.586988	2562.902451
421.965867	2564.888665
422.344686	2572.528534
422.723444	2576.334605
423.102141	2579.152610
423.480777	2587.417582
423.859352	2590.459918
424.237866	2605.159923
424.616319	2611.053032
424.994712	2622.342696
425.373044	2629.425517
425.751314	2639.893473
426.129524	2650.144659
426.507673	2664.519509
426.885762	2677.034174
427.263789	2688.427182
427.641756	2700.238605
428.019662	2716.624876
428.397508	2735.214130
428.775292	2748.621079
429.153016	2771.356683
429.530679	2784.264557
429.908282	2807.796663
430.285824	2818.451142
430.663305	2863.909747
431.040726	2860.111237
431.418086	2882.957747
431.795385	2917.303128
432.172624	2942.773558
432.549802	2965.236939
432.926920	2994.795745
433.303977	3027.870755
433.680974	3060.587844
434.057910	3094.925663
434.434786	3128.545118
434.811601	3153.385404
435.188355	3228.493555
435.565050	3240.085688
435.941683	3274.070627
436.318257	3360.339892
436.694770	3396.941190
437.071222	3447.874488
437.447614	3470.390802
437.823946	3487.066938
438.200218	3572.703539
438.576429	3576.708736
438.952580	3653.848472
439.328670	3714.012123
439.704700	3733.216398
440.080670	3767.402983
440.456580	3919.303031
440.832429	3925.680091
441.208218	3914.027463
441.583947	4021.139380
441.959616	4075.140220
442.335224	4093.308538
442.710773	4204.334911
443.086261	4274.147330
443.461689	4221.121953
443.837057	4348.953012
444.212365	4478.424966
444.587612	4474.991940
444.962800	4608.496817
445.337927	4658.716792
445.712995	4488.403930
446.088002	4872.527250
446.462949	4827.897915
446.837837	4841.882076
447.212664	4984.697964
447.587431	5146.513962
447.962139	5545.092790
448.336786	6201.488830
448.711374	6089.406336
449.085901	5535.164238
449.460369	5535.501995
449.834776	5542.738572
450.209124	5872.117482
450.583412	6044.003184
450.957640	6188.217992
451.331808	6067.923459
451.705917	5778.054592
452.079965	5759.782930
452.453954	5976.852494
452.827883	5921.629174
453.201752	6033.696545
453.575562	5909.326238
453.949311	6117.906499
454.323001	6057.112704
454.696632	6151.820862
455.070202	6305.628986
455.443713	6470.915818
455.817164	6596.143120
456.190556	6703.454162
456.563888	6805.192209
456.937160	6871.869030
457.310373	6594.204797
457.683526	6651.147150
458.056619	6575.958340
458.429653	6589.914775
458.802628	6548.771398
459.175542	6668.957547
459.548398	7024.305961
459.921194	7190.260745
460.293930	7211.136163
460.666607	7720.368319
461.039224	8035.349694
461.411782	8173.593256
461.784280	8212.382414
462.156719	8133.498438
462.529099	8038.271042
462.901419	7651.382649
463.273680	7563.152375
463.645882	7593.943742
464.018024	7474.060063
464.390106	7649.277968
464.762130	8038.233234
465.134094	8503.448555
465.505999	9504.861163
465.877845	10708.723990
466.249631	11355.945129
466.621358	10993.859213
466.993026	10386.057376
467.364634	10143.703905
467.736184	9790.465214
468.107674	9469.321029
468.479105	9500.601388
468.850477	9283.652812
469.221790	9061.428668
469.593043	8737.600068
469.964238	8602.676106
470.335373	8618.117161
470.706449	8675.041870
471.077467	8666.383688
471.448425	9963.275968
471.819324	11025.336178
472.190164	11048.500280
472.560945	9812.306013
472.931667	9028.406590
473.302330	8895.811641
473.672934	8552.372953
474.043479	8904.744565
474.413965	8852.548458
474.784393	8734.235098
475.154761	8893.565807
475.525070	8977.453127
475.895321	8809.572622
476.265513	8985.027461
476.635645	9155.761259
477.005719	9152.476948
477.375734	9261.040716
477.745691	9502.859825
478.115588	9631.615936
478.485427	9874.982679
478.855207	10412.944370
479.224928	11229.747404
479.594591	11853.701098
479.964194	11663.493322
480.333739	11599.029568
480.703226	11519.472598
481.072653	11604.481576
481.442022	11850.184893
481.811333	12031.341277
482.180584	11836.238541
482.549777	11545.926053
482.918912	11373.793334
483.287988	11400.425750
483.657005	11414.069633
484.025964	11096.005593
484.394864	11219.037473
484.763706	11191.691734
485.132489	10948.307347
485.501213	10916.563201
485.869879	10991.313430
486.238487	10835.574544
486.607036	10943.195617
486.975527	10731.870448
487.343959	10914.909703
487.712333	10971.456325
488.080648	10890.636547
488.448905	10942.789804
488.817104	10878.522654
489.185244	11137.421192
489.553326	11306.577110
489.921350	11841.614932
490.289315	12894.333884
490.657222	13233.986665
491.025070	13137.544351
491.392861	13011.162624
491.760593	12634.618679
492.128267	12282.065585
492.495883	11956.480143
492.863440	11629.127777
493.230939	11287.730756
493.598380	11227.315048
493.965763	11092.779254
494.333088	10992.722433
494.700354	10910.085318
495.067563	10980.817748
495.434713	10808.322066
495.801805	10929.266909
496.168839	10859.290652
496.535815	10798.819491
496.902733	10794.879830
497.269593	10735.827753
497.636395	10826.954171
498.003139	10819.425208
498.369825	10685.839672
498.736453	10846.622233
499.103023	10771.549370
499.469535	10807.901130
499.835989	10791.335898
500.202385	10751.843499
500.568723	10606.444019
500.935003	10828.804274
501.301226	10639.897116
501.667390	10895.513863
502.033497	10995.094296
502.399546	10851.996103
502.765537	10757.171999
503.131470	10825.209932
503.497345	11006.260452
503.863163	10618.162182
504.228923	10922.577298
504.594625	10985.027112
504.960269	10740.909237
505.325856	10958.782865
505.691385	10752.090516
506.056856	10902.241283
506.422270	10929.760942
506.787625	10817.738942
507.152924	10939.994484
507.518164	10915.857440
507.883347	10841.848260
508.248472	10758.412123
508.613540	10989.980045
508.978550	10875.157684
509.343503	10849.664569
509.708398	10969.626387
510.073236	11080.196534
510.438016	11087.415467
510.802738	11030.515963
511.167403	11093.379152
511.532010	10979.048303
511.896561	11214.686957
512.261053	11289.303596
512.625488	11154.687144
512.989866	11143.475618
513.354186	11131.442384
513.718449	11025.225272
514.082655	11224.602907
514.446803	11116.621392
514.810894	11237.132695
515.174927	11100.484658
515.538904	11129.471293
515.902822	11286.803184
516.266684	11168.883033
516.630488	11110.720721
516.994235	11160.129070
517.357925	11222.649460
517.721558	11309.281689
518.085133	11328.622075
518.448651	11332.907056
518.812112	11222.387320
519.175516	11238.743343
519.538863	11360.560306
519.902152	11273.242480
520.265385	11431.345667
520.628560	11346.175373
520.991678	11321.614872
521.354739	11395.530790
521.717743	11324.770634
522.080690	11298.118053
522.443580	11431.330544
522.806413	11385.292206
523.169189	11425.119842
523.531908	11480.002884
523.894569	11302.145935
524.257174	11302.171141
524.619722	11422.506004
524.982213	11370.519105
525.344647	11416.864953
525.707025	11370.503982
526.069345	11464.791203
526.431608	11382.625436
526.793815	11487.156282
527.155964	11278.855805
527.518057	11337.320586
527.880093	11283.559201
528.242072	11347.914571
528.603995	11253.597103
528.965860	11175.197079
529.327669	11223.435880
529.689421	11183.083964
530.051117	11149.237657
530.412755	11251.318502
530.774337	11141.078549
531.135862	11123.769748
531.497331	11144.791359
531.858743	10999.724596
532.220098	11169.109885
532.581396	11034.679956
532.942638	11016.872080
533.303824	10983.461833
533.664953	10998.161838
534.026025	10909.820658
534.387040	11005.963023
534.747999	11013.010557
535.108902	11069.126161
535.469748	10829.719244
535.830537	10927.074007
536.191270	10908.739330
536.551947	10931.202712
536.912567	10926.728688
537.273131	10855.250168
537.633638	10837.596047
537.994089	10826.283698
538.354483	10775.632704
538.714821	10919.827348
539.075103	10932.412589
539.435328	10888.461289
539.795497	10726.763759
540.155609	10877.161543
540.515665	10963.095572
540.875665	10708.623167
541.235609	10768.471745
541.595496	10766.659450
541.955328	10920.447410
542.315102	10802.660851
542.674821	10754.427091
543.034483	10751.319219
543.394090	10763.670046
543.753640	10688.360249
544.113134	10907.849567
544.472571	10765.459656
544.831953	10900.726416
545.191278	10710.700122
545.550548	10739.268341
545.909761	10873.148784
546.268918	10853.576504
546.628019	10931.585840
546.987064	10796.792948
547.346053	10720.938706
547.704986	10821.025774
548.063863	10804.699997
548.422684	10794.849583
548.781449	10714.022243
549.140158	10822.175157
549.498811	10692.002482
549.857408	10550.822448
550.215949	10780.194948
550.574434	10627.097627
550.932864	10731.757022
551.291237	10790.914962
551.649555	10734.317928
552.007817	10748.634805
552.366022	10713.011491
552.724173	10702.185613
553.082267	10685.980824
553.440305	10824.857051
553.798288	10625.000507
554.156215	10780.507500
554.514086	10758.888512
554.871902	10611.041552
555.229661	10647.889866
555.587365	10624.884560
555.945014	10518.667449
556.302606	10642.831068
556.660143	10534.721003
557.017625	10687.117604
557.375050	10584.081461
557.732421	10720.747142
558.089735	10629.300611
558.446994	10633.270520
558.804197	10669.690336
559.161345	10678.446820
559.518437	10522.284477
559.875474	10614.603127
560.232455	10635.637341
560.589381	10582.092726
560.946251	10581.223127
561.303065	10695.208656
561.659825	10632.232042
562.016528	10556.826463
562.373177	10432.798955
562.729770	10553.368231
563.086307	10471.893103
563.442789	10559.155476
563.799216	10438.560993
564.155587	10482.356017
564.511904	10439.148288
564.868164	10434.472618
565.224370	10449.651532
565.580520	10371.959789
565.936615	10378.238547
566.292654	10254.158106
566.648638	10380.638136
567.004567	10336.482669
567.360441	10323.436163
567.716260	10236.751002
568.072023	10327.156535
568.427732	10281.922261
568.783385	10188.446666
569.138982	10257.074414
569.494525	10278.121231
569.850013	10154.983487
570.205445	10230.913346
570.560823	10125.631368
570.916145	10043.430314
571.271412	10117.550399
571.626625	10059.572088
571.981782	10037.212051
572.336884	10013.120376
572.691931	10010.526703
573.046923	9960.475607
573.401860	9918.031612
573.756743	9850.858237
574.111570	9904.372606
574.466342	9881.389985
574.821059	9907.026773
575.175722	9800.519795
575.530330	9811.363317
575.884882	9805.220671
576.239380	9735.254497
576.593823	9706.439262
576.948211	9725.615811
577.302544	9603.362789
577.656823	9618.723185
578.011047	9621.034554
578.365216	9594.061860
578.719330	9523.483186
579.073389	9530.692036
579.427394	9481.326537
579.781344	9459.636972
580.135239	9402.989526
580.489080	9415.075693
580.842866	9317.826794
581.196597	9329.943207
581.550273	9362.244400
581.903895	9332.975461
582.257463	9396.647755
582.610975	9278.309189
582.964434	9299.285430
583.317837	9219.983039
583.671186	9201.799597
584.024481	9201.413949
584.377721	9118.476886
584.730906	9092.532587
585.084037	9123.293708
585.437113	9065.375892
585.790135	9082.820804
586.143103	8980.911359
586.496016	8959.468811
586.848874	9014.727419
587.201679	9004.584617
587.554428	8891.254438
587.907124	8932.637270
588.259765	8905.374710
588.612352	8903.638032
588.964884	8790.874982
589.317362	8802.419225
589.669786	8798.270355
590.022155	8847.950926
590.374470	8858.980971
590.726731	8797.241960
591.078937	8654.852049
591.431090	8766.884131
591.783188	8637.843196
592.135232	8635.917475
592.487222	8636.550140
592.839157	8683.440432
593.191038	8623.390207
593.542866	8562.503151
593.894639	8466.900189
594.246358	8514.546655
594.598022	8535.482567
594.949633	8429.837626
595.301190	8405.314933
595.652692	8433.578162
596.004141	8540.395171
596.355535	8318.844021
596.706876	8299.196124
597.058162	8235.168429
597.409395	8310.702558
597.760573	8374.707568
598.111698	8280.821118
598.462768	8270.234695
598.813785	8228.405721
599.164748	8204.472843
599.515657	8192.694188
599.866511	8101.502235
600.217312	8229.456802
600.568060	8092.448323
600.918753	8190.680247
601.269392	8165.749220
601.619978	8071.867812
601.970510	8135.802246
602.320988	8133.478274
602.671412	8188.215122
603.021783	8125.044423
603.372100	8098.984179
603.722363	8105.303265
604.072572	8079.502640
604.422728	8087.749967
604.772830	8017.864452
605.122878	8025.653034
605.472872	8022.335955
605.822813	8048.560037
606.172701	7993.603899
606.522534	8071.439314
606.872314	8068.306237
607.222041	8037.280456
607.571714	8091.039320
607.921333	8051.131026
608.270899	8054.087662
608.620411	8143.510170
608.969870	8052.434164
609.319276	8045.734471
609.668627	8058.859115
610.017926	8095.677182
610.367171	8141.445818
610.716362	8118.077549
611.065500	8114.526056
611.414585	8139.119325
611.763616	8127.968293
612.112594	8109.399202
612.461518	8121.802962
612.810389	8186.455760
613.159207	8121.429916
613.507971	8070.514262
613.856682	8187.466511
614.205340	8148.352198
614.553945	8223.730051
614.902496	8119.186603
615.250994	8172.748862
615.599439	8158.971389
615.947830	8168.932709
616.296169	8142.257443
616.644454	8155.767736
616.992686	8153.864700
617.340864	8212.357208
617.688990	8116.792055
618.037063	8209.241775
618.385082	8157.494331
618.733048	8240.900221
619.080961	8181.402003
619.428821	8202.743728
619.776628	8203.923358
620.124382	8154.031058
620.472083	8134.743603
620.819731	8164.549426
621.167326	8052.577837
621.514868	8068.666679
621.862357	7952.573947
622.209793	7971.899211
622.557176	7904.012512
622.904506	7879.199953
623.251783	7811.015827
623.599007	7764.657376
623.946179	7768.400433
624.293297	7724.859987
624.640363	7648.211763
624.987376	7626.386088
625.334336	7574.689055
625.681243	7522.409769
626.028097	7516.103286
626.374899	7490.186714
626.721647	7480.379149
627.068343	7413.601505
627.414987	7389.625777
627.761577	7340.774476
628.108115	7379.760239
628.454600	7276.318282
628.801032	7325.532547
629.147412	7283.375898
629.493739	7266.858557
629.840014	7207.448559
630.186236	7266.898887
630.532405	7151.380846
630.878521	7203.823970
631.224585	7152.326062
631.570597	7079.993067
631.916556	7113.221832
632.262462	7113.420958
632.608316	7076.186995
632.954117	7052.760753
633.299866	7031.890377
633.645562	7029.785695
633.991206	6951.330217
634.336797	6892.147071
634.682336	6848.951945
635.027823	6815.519012
635.373257	6810.109854
635.718639	6741.101499
636.063968	6757.477688
636.409245	6650.302757
636.754470	6647.141953
637.099642	6606.963957
637.444762	6549.361213
637.789829	6558.473098
638.134845	6505.336816
638.479808	6487.314691
638.824719	6489.580690
639.169577	6416.546973
639.514383	6443.877589
639.859137	6366.279108
640.203839	6376.782352
640.548489	6359.075299
640.893086	6338.867834
641.237632	6308.562937
641.582125	6335.608728
641.926566	6297.321164
642.270955	6312.016128
642.615292	6308.966230
642.959576	6325.153375
643.303809	6314.781201
643.647990	6321.170863
643.992118	6309.828267
644.336195	6261.801194
644.680219	6282.996726
645.024192	6273.098420
645.368112	6365.787595
645.711981	6392.356997
646.055797	6463.656556
646.399562	6421.386481
646.743274	6552.738786
647.086935	6603.243586
647.430544	6597.705878
647.774101	6620.920392
648.117606	6628.835003
648.461059	6615.992664
648.804460	6583.099135
649.147810	6488.327963
649.491108	6455.608354
649.834354	6435.305107
650.177548	6349.807138
650.520690	6268.604232
650.863781	6243.164049
651.206820	6260.029229
651.549807	6184.820255
651.892742	6124.152489
652.235626	6139.568337
652.578458	6118.196365
652.921238	6029.514908
653.263967	6065.816256
653.606644	6004.425085
653.949269	6010.381208
654.291843	5950.469615
654.634365	6003.850393
654.976836	5955.321726
655.319255	5951.934070
655.661622	5927.285349
656.003938	5930.229383
656.346203	5889.733794
656.688416	5919.877373
657.030577	5874.179313
657.372687	5841.676474
657.714746	5828.088044
658.056753	5873.193768
658.398708	5813.677906
658.740612	5803.164579
659.082465	5853.303895
659.424266	5842.283933
659.766016	5841.540363
660.107715	5815.737217
660.449362	5830.780020
660.790958	5821.453885
661.132503	5811.479963
661.473996	5852.580490
661.815438	5834.218087
662.156829	5834.702038
662.498168	5825.396068
662.839456	5802.496626
663.180693	5840.368295
663.521879	5841.726886
663.863013	5823.724925
664.204097	5844.091187
664.545129	5885.726076
664.886110	5881.645262
665.227040	5917.714718
665.567918	5884.122989
665.908746	5908.721300
666.249522	5915.179018
666.590248	5898.127315
666.930922	5926.408188
667.271545	5942.131547
667.612118	5943.122133
667.952639	5916.766981
668.293109	5935.487306
668.633528	5898.575978
668.973896	5897.905504
669.314213	5888.531478
669.654480	5876.450353
669.994695	5870.516915
670.334859	5858.685327
670.674973	5846.901630
671.015035	5854.909503
671.355047	5853.440007
671.695008	5837.220094
672.034918	5810.670857
672.374777	5824.471016
672.714585	5805.607018
673.054342	5811.033820
673.394049	5808.876207
673.733705	5833.214897
674.073310	5826.621068
674.412864	5783.138596
674.752368	5774.195589
675.091820	5778.828409
675.431223	5716.963369
675.770574	5714.520930
676.109875	5667.449156
676.449125	5672.475186
676.788324	5638.644003
677.127473	5585.663997
677.466571	5571.997428
677.805619	5561.635337
678.144616	5549.904572
678.483562	5525.114698
678.822458	5497.224514
679.161303	5492.546323
679.500098	5483.477287
679.838842	5464.951047
680.177535	5470.624866
680.516179	5487.749665
680.854771	5495.313917
681.193314	5579.168470
681.531805	5683.028842
681.870247	5834.598694
682.208638	5938.103665
682.546978	5951.462723
682.885268	5923.804432
683.223508	5845.406928
683.561697	5788.671262
683.899836	5758.857878
684.237925	5712.219643
684.575963	5680.803172
684.913951	5634.747191
685.251889	5700.521646
685.589776	5668.608621
685.927614	5639.543849
686.265401	5710.392225
686.603137	5692.501170
686.940824	5770.797851
687.278460	5798.400689
687.616046	5805.037368
687.953582	5873.370208
688.291068	5851.952866
688.628504	5918.725469
688.965889	5877.541763
689.303224	5821.680737
689.640510	5774.354385
689.977745	5702.540628
690.314930	5598.884422
690.652065	5539.905443
690.989150	5454.016784
691.326185	5379.001895
691.663170	5325.006096
692.000105	5249.986165
692.336990	5170.492210
692.673825	5148.028828
693.010610	5081.921657
693.347345	5009.674361
693.684030	4997.976363
694.020665	4951.993479
694.357251	4866.263616
694.693786	4879.645359
695.030272	4842.101366
695.366707	4808.796983
695.703093	4773.438330
696.039429	4796.486485
696.375716	4775.321201
696.711952	4751.000154
697.048139	4737.825099
697.384276	4725.549889
697.720363	4731.659767
698.056400	4740.806941
698.392388	4692.477399
698.728326	4670.465201
699.064214	4649.441069
699.400053	4644.692302
699.735842	4608.716107
700.071581	4584.074947
700.407270	4562.518974
700.742910	4545.366448
701.078501	4488.817304
701.414042	4486.427797
701.749533	4458.159527
702.084974	4390.925658
702.420366	4449.574442
702.755709	4391.326430
703.091002	4335.755271
703.426246	4382.363259
703.761440	4343.501004
704.096584	4300.835198
704.431679	4323.704393
704.766725	4307.413904
705.101721	4299.456443
705.436668	4325.347809
705.771565	4273.519706
706.106413	4299.494251
706.441212	4334.908357
706.775961	4342.762475
707.110661	4322.260102
707.445311	4351.062734
707.779913	4372.835478
708.114465	4383.537847
708.448967	4408.791508
708.783421	4471.397597
709.117825	4509.110469
709.452180	4514.864946
709.786485	4560.326072
710.120742	4642.522085
710.454949	4632.129747
710.789107	4696.820353
711.123216	4771.517650
711.457275	4759.892750
711.791286	4833.846477
712.125247	4851.240978
712.459159	4754.879322
712.793023	4830.206763
713.126837	4790.293428
713.460602	4783.150113
713.794318	4704.780335
714.127985	4709.166139
714.461602	4623.806802
714.795171	4595.241103
715.128691	4530.235424
715.462162	4471.309377
715.795584	4424.552675
716.128957	4404.060385
716.462281	4355.761090
716.795556	4330.847708
717.128782	4288.991007
717.461960	4224.464238
717.795088	4235.161566
718.128167	4192.168086
718.461198	4131.091986
718.794180	4130.983602
719.127113	4113.503401
719.459997	4088.912652
719.792833	4044.842885
720.125619	4035.332748
720.458357	4002.363602
720.791046	4005.937780
721.123686	3977.735045
721.456278	3941.854633
721.788821	3954.974236
722.121315	3928.979526
722.453761	3901.994229
722.786158	3916.273297
723.118506	3940.186011
723.450805	3892.300090
723.783056	3914.864295
724.115259	3932.281482
724.447412	3934.156791
724.779518	3924.366870
725.111574	3933.693005
725.443582	3960.388435
725.775542	3946.850416
726.107453	3998.212212
726.439315	3994.522087
726.771129	4011.654449
727.102895	4045.135272
727.434612	4092.254937
727.766281	4109.909058
728.097901	4106.758337
728.429473	4110.085498
728.760996	4117.997589
729.092471	4112.268318
729.423897	4097.845577
729.755276	4105.742544
730.086606	4102.062502
730.417887	4141.161691
730.749120	4203.752657
731.080305	4269.809417
731.411442	4294.286739
731.742530	4267.871093
732.073570	4269.922843
732.404562	4323.303621
732.735506	4318.567457
733.066401	4278.780150
733.397249	4211.861353
733.728048	4136.296978
734.058798	4054.106005
734.389501	3983.323164
734.720156	3924.553393
735.050762	3876.755692
735.381320	3871.540619
735.711831	3819.762928
736.042293	3792.432312
736.372707	3810.577945
736.703073	3786.889563
737.033391	3773.782563
737.363661	3792.679329
737.693883	3818.726971
738.024056	3827.158300
738.354182	3825.865244
738.684260	3886.850603
739.014290	3911.325405
739.344272	3901.306112
739.674207	3943.624078
740.004093	3949.393678
740.333931	3943.639201
740.663722	3942.789767
740.993464	3943.722380
741.323159	3916.406888
741.652806	3889.580388
741.982405	3863.051316
742.311956	3830.976974
742.641460	3822.162517
742.970915	3797.213847
743.300323	3760.630193
743.629683	3724.580902
743.958996	3711.877194
744.288260	3687.556147
744.617477	3656.406858
744.946647	3642.518479
745.275768	3613.504118
745.604842	3614.008233
745.933869	3568.705904
746.262847	3557.920356
746.591778	3597.614401
746.920662	3567.755647
747.249498	3536.124927
747.578286	3582.558995
747.907027	3599.794700
748.235720	3599.540122
748.564365	3620.597022
748.892963	3620.602063
749.221514	3606.469188
749.550017	3581.333995
749.878473	3579.110846
750.206881	3551.175292
750.535242	3544.589024
750.863555	3548.952143
751.191821	3543.306051
751.520039	3525.472969
751.848210	3500.463805
752.176334	3532.949000
752.504411	3540.919064
752.832440	3502.742406
753.160421	3485.090806
753.488356	3494.537928
753.816243	3504.811800
754.144082	3464.026345
754.471875	3449.487657
754.799620	3469.112869
755.127318	3458.692804
755.454969	3458.360088
755.782572	3466.451140
756.110129	3445.116977
756.437638	3430.749688
756.765100	3446.775516
757.092515	3453.646609
757.419882	3462.095583
757.747203	3436.211778
758.074477	3437.318312
758.401703	3453.946558
758.728882	3476.611585
759.056014	3482.487050
759.383099	3486.283039
759.710138	3479.026298
760.037129	3493.963237
760.364073	3526.839122
760.690970	3515.491484
761.017820	3488.541476
761.344623	3506.911441
761.671379	3554.383986
761.998088	3608.142851
762.324751	3731.406624
762.651366	3980.016167
762.977935	4451.298517
763.304456	4888.658942
763.630931	4984.481195
763.957359	4620.126759
764.283740	4284.280049
764.610074	4089.741922
764.936362	3893.512488
765.262602	3738.565063
765.588796	3629.300574
765.914943	3538.879918
766.241044	3453.991928
766.567097	3423.994542
766.893104	3376.469064
767.219064	3345.433201
767.544978	3318.173161
767.870845	3261.729882
768.196665	3244.695823
768.522438	3253.585898
768.848165	3247.551637
769.173846	3213.498643
769.499479	3197.102290
769.825066	3179.720391
770.150607	3163.281189
770.476101	3180.206863
770.801548	3173.426511
771.126949	3129.709625
771.452303	3109.418980
771.777611	3120.464148
772.102872	3124.570168
772.428087	3100.228957
772.753256	3088.984663
773.078378	3082.678180
773.403453	3046.031512
773.728482	3036.145809
774.053465	3057.096845
774.378401	3041.325595
774.703291	3013.841224
775.028135	3016.220649
775.352932	3009.674710
775.677683	2998.236332
776.002388	2993.963954
776.327046	2995.622494
776.651658	2983.044815
776.976224	2970.240284
777.300743	2972.725573
777.625216	2963.338945
777.949643	2958.741413
778.274024	2962.799541
778.598359	2948.349074
778.922647	2956.268727
779.246889	2956.084724
779.571086	2939.063268
779.895236	2932.567742
780.219339	2944.250616
780.543397	2956.672019
780.867409	2958.766618
781.191374	2952.006431
781.515294	2948.588529
781.839167	2949.768159
782.162995	2942.508897
782.486776	2950.539455
782.810511	2945.331943
783.134201	2933.215530
783.457844	2943.663321
783.781441	2929.200251
784.104993	2911.457910
784.428498	2913.726429
784.751958	2926.334355
785.075372	2920.340423
785.398739	2901.824265
785.722061	2922.853438
786.045337	2933.591096
786.368568	2915.667273
786.691752	2908.992786
787.014891	2956.180506
787.337983	2986.276195
787.661030	3017.538910
787.984031	3080.145000
788.306987	3125.507823
788.629897	3120.149076
788.952760	3103.384719
789.275579	3090.413830
789.598351	3030.393853
789.921078	2985.855258
790.243759	2977.297900
790.566395	2960.372226
790.888984	2937.455140
791.211529	2917.482089
791.534027	2909.091088
791.856480	2900.793349
792.178888	2885.526215
792.501249	2875.237220
792.823566	2872.709081
793.145836	2871.161447
793.468062	2869.147506
793.790241	2863.413193
794.112375	2870.811087
794.434464	2883.739126
794.756507	2886.247100
795.078505	2894.229767
795.400457	2908.206366
795.722364	2944.328754
796.044226	2967.122331
796.366042	2970.825058
796.687812	2957.597071
797.009538	2980.062973
797.331218	2967.175263
797.652852	2954.746298
797.974442	2934.682506
798.295986	2935.103442
798.617484	2926.583892
798.938938	2908.002199
799.260346	2895.336300
799.581709	2890.670712
799.903026	2883.993704
800.224299	2882.075545
800.545526	2869.636498
800.866708	2853.736698
801.187845	2843.470389
801.508936	2843.787981
801.829983	2851.742922
802.150984	2837.511745
802.471940	2823.260403
802.792851	2825.120589
803.113717	2827.469766
803.434538	2829.345076
803.755314	2819.885350
804.076045	2817.279074
804.396731	2815.202118
804.717372	2817.694969
805.037967	2810.402940
805.358518	2817.873930
805.679024	2832.480673
805.999485	2824.944148
806.319901	2830.983451
806.640272	2822.274857
806.960598	2826.879951
807.280879	2835.742300
807.601115	2844.040039
807.921306	2830.673420
808.241453	2827.003460
808.561554	2834.492094
808.881611	2837.647856
809.201623	2830.184428
809.521590	2830.648214
809.841513	2823.061277
810.161390	2828.127637
810.481223	2823.207471
810.801011	2814.811429
811.120755	2808.439411
811.440453	2814.080462
811.760107	2811.186839
812.079716	2811.522076
812.399281	2800.557567
812.718801	2792.476597
813.038276	2788.925104
813.357707	2794.591361
813.677093	2801.623771
813.996434	2797.089253
814.315731	2793.217647
814.634983	2787.256482
814.954191	2790.321504
815.273354	2802.117804
815.592473	2810.649957
815.911547	2811.151551
816.230577	2820.752429
816.549562	2831.346414
816.868502	2828.483038
817.187399	2840.624657
817.506250	2856.020341
817.825058	2847.689834
818.143821	2861.190044
818.462539	2875.733773
818.781213	2903.901220
819.099843	2941.641819
819.418429	2997.805314
819.736970	3055.869324
820.055466	3130.705252
820.373919	3234.452199
820.692327	3374.313971
821.010691	3541.196328
821.329011	3982.987927
821.647286	4881.344228
821.965517	6255.524958
822.283704	7000.703278
822.601847	6974.393496
822.919945	6340.828843
823.237999	5837.028530
823.556010	5257.931023
823.873976	4704.288823
824.191897	4297.366884
824.509775	4003.107172
824.827609	3735.812593
825.145398	3612.347173
825.463144	3602.718569
825.780845	3694.951520
826.098502	3797.828867
826.416116	4080.582145
826.733685	4399.286412
827.051210	4462.908294
827.368692	4348.514431
827.686129	4080.516610
828.003522	3754.036364
828.320872	3497.824761
828.638177	3299.306643
828.955439	3164.760767
829.272656	3083.885536
829.589830	3016.387007
829.906960	2969.801704
830.224046	2922.765218
830.541088	2886.998232
830.858086	2876.946171
831.175041	2854.490351
831.491952	2857.099148
831.808819	2867.932588
832.125642	2892.556104
832.442421	2935.781477
832.759157	3018.559744
833.075849	3194.853935
833.392497	3478.161740
833.709101	3682.774613
834.025662	3630.139926
834.342179	3468.051706
834.658653	3295.157773
834.975083	3147.520021
835.291469	3047.453117
835.607811	2966.973617
835.924110	2903.598751
836.240366	2856.857173
836.556578	2811.017961
836.872746	2790.351751
837.188871	2767.054058
837.504952	2755.320772
837.820990	2744.184864
838.136984	2729.928481
838.452935	2723.896740
838.768842	2722.006307
839.084706	2738.052300
839.400526	2822.486586
839.716303	2948.553241
840.032037	3030.963503
840.347727	3014.829290
840.663373	2955.515074
840.978977	2879.529762
841.294537	2808.620892
841.610054	2760.240939
841.925527	2737.926271
842.240957	2716.254351
842.556344	2695.026052
842.871687	2680.235307
843.186987	2671.241888
843.502244	2667.907165
843.817458	2658.969199
844.132629	2650.351347
844.447756	2639.137300
844.762840	2634.300313
845.077881	2637.997999
845.392879	2635.225364
845.707833	2631.585651
846.022745	2626.650362
846.337613	2627.731689
846.652438	2624.543159
846.967221	2626.083232
847.281960	2622.819085
847.596656	2619.852366
847.911309	2623.071142
848.225919	2616.520163
848.540485	2616.953702
848.855009	2614.692745
849.169490	2615.585029
849.483928	2614.153341
849.798323	2612.961108
850.112675	2612.794750
850.426984	2614.778444
850.741251	2615.484206
851.055474	2611.156375
851.369654	2615.567385
851.683792	2616.260544
851.997887	2612.409102
852.311938	2612.023454
852.625947	2614.768362
852.939914	2615.940430
853.253837	2618.060236
853.567718	2610.813577
853.881555	2610.881632
854.195350	2614.602004
854.509103	2612.600666
854.822812	2612.358691
855.136479	2609.575974
855.450103	2613.253495
855.763685	2615.446397
856.077224	2613.230810
856.390720	2610.024636
856.704173	2611.355501
857.017584	2617.041922
857.330953	2621.183230
857.644278	2619.900257
857.957561	2619.887654
858.270802	2614.768362
858.584000	2618.667695
858.897155	2621.604167
859.210268	2618.541666
859.523339	2615.300204
859.836367	2609.414657
860.149352	2610.357352
860.462295	2612.404061
860.775195	2611.032867
861.088054	2607.214193
861.400869	2609.762496
861.713642	2605.258225
862.026373	2606.775613
862.339062	2611.345419
862.651708	2617.611573
862.964312	2618.924793
863.276873	2612.706530
863.589392	2618.125771
863.901869	2622.740947
864.214303	2626.569703
864.526696	2630.821917
864.839045	2629.725466
865.151353	2634.761578
865.463619	2632.977010
865.775842	2631.399129
866.088023	2633.748306
866.400162	2632.268728
866.712258	2634.794346
867.024313	2631.414252
867.336325	2627.194806
867.648296	2631.326032
867.960224	2633.995323
868.272110	2632.576238
868.583954	2626.705814
868.895755	2628.603809
869.207515	2632.218316
869.519233	2640.014461
869.830909	2635.873153
870.142542	2632.939201
870.454134	2635.474902
870.765684	2637.224182
871.077191	2638.731487
871.388657	2646.633496
871.700081	2641.184008
872.011463	2642.688793
872.322803	2645.005203
872.634101	2648.718013
872.945357	2656.738488
873.256571	2660.854591
873.567744	2656.640186
873.878874	2656.093221
874.189963	2656.524239
874.501010	2661.124292
874.812015	2669.664007
875.122979	2666.430107
875.433900	2656.801503
875.744780	2654.830412
876.055618	2662.596309
876.366415	2667.834068
876.677169	2666.251146
876.987882	2659.969868
877.298554	2660.607574
877.609183	2670.117711
877.919771	2675.415963
878.230317	2683.877540
878.540822	2692.664271
878.851285	2709.877291
879.161707	2729.023593
879.472087	2772.440531
879.782425	2816.679177
880.092722	2932.988678
880.402977	3118.087244
880.713191	3375.324722
881.023363	3671.608457
881.333494	3864.868652
881.643583	4034.107748
881.953631	4033.215464
882.263637	3855.517311
882.573602	3632.148826
882.883526	3503.110411
883.193408	3391.645458
883.503248	3290.106537
883.813048	3177.222500
884.122806	3059.962741
884.432522	2974.673979
884.742197	2912.148548
885.051831	2873.316540
885.361424	2841.958042
885.670975	2802.160653
885.980485	2774.159564
886.289954	2753.841194
886.599382	2740.144379
886.908768	2730.546022
887.218113	2709.675645
887.527417	2698.091073
887.836680	2686.864424
888.145901	2681.823270
888.455082	2677.079544
888.764221	2664.043120
889.073319	2658.064312
889.382376	2655.006852
889.691392	2659.528767
890.000366	2655.175731
890.309300	2656.410813
890.618193	2657.507264
890.927044	2660.237049
891.235855	2659.090187
891.544625	2660.912564
891.853353	2661.247801
892.162041	2667.483708
892.470687	2689.228725
892.779293	2700.266331
893.087858	2707.500387
893.396381	2730.682133
893.704864	2771.119749
894.013306	2839.908813
894.321707	2935.957918
894.630068	2985.673777
894.938387	3004.981396
895.246665	3000.010818
895.554903	2956.858542
895.863100	2911.362128
896.171256	2854.586133
896.479371	2793.406690
896.787446	2753.352202
897.095480	2733.890827
897.403473	2725.106617
897.711425	2715.896429
898.019336	2694.196782
898.327207	2680.303362
898.635038	2679.406037
898.942827	2677.684483
899.250576	2668.907834
899.558284	2657.081287
899.865952	2656.783859
900.173579	2649.756490
900.481165	2648.183650
900.788711	2641.390696
901.096216	2634.365848
901.403681	2629.538943
901.711105	2629.859056
902.018489	2632.031793
902.325832	2632.495580
902.633135	2635.167391
902.940397	2650.071562
903.247619	2685.339475
903.554800	2757.082656
903.861941	2879.058414
904.169041	3007.509535
904.476101	3067.199317
904.783121	3062.536250
905.090100	3006.516428
905.397039	2931.231836
905.703938	2858.064529
906.010796	2797.646300
906.317614	2742.410377
906.624391	2708.864019
906.931129	2683.133970
907.237826	2658.104641
907.544483	2638.320633
907.851099	2626.289919
908.157675	2613.528238
908.464211	2609.938937
908.770707	2601.648759
909.077163	2596.630291
909.383578	2591.606781
909.689954	2590.701894
909.996289	2589.471852
910.302584	2589.761718
910.608839	2586.381625
910.915054	2587.215936
911.221229	2590.331369
911.527363	2590.502768
911.833458	2590.008735
912.139513	2590.475042
912.445527	2593.565269
912.751502	2596.950404
913.057436	2604.890221
913.363331	2606.768051
913.669186	2619.386059
913.975000	2633.249232
914.280775	2650.616007
914.586510	2668.232319
914.892205	2705.196580
915.197859	2773.915068
915.503475	2857.411700
915.809050	2923.355033
916.114585	2935.854574
916.420081	2948.528035
916.725536	2959.399283
917.030952	2931.975406
917.336328	2887.320865
917.641665	2837.990654
917.946961	2788.211781
918.252218	2755.603077
918.557435	2728.398490
918.862612	2705.151209
919.167750	2688.364167
919.472848	2670.984789
919.777906	2654.578354
920.082925	2643.127373
920.387904	2634.479274
920.692843	2627.159518
920.997743	2625.987450
921.302603	2616.184926
921.607423	2611.181581
921.912204	2603.869387
922.216946	2602.097422
922.521647	2598.848398
922.826310	2593.650969
923.130932	2590.661564
923.435516	2584.508836
923.740059	2584.133270
924.044564	2584.158476
924.349028	2578.366190
924.653454	2571.527865
924.957840	2572.316806
925.262186	2568.107442
925.566493	2573.415777
925.870761	2565.337328
926.174989	2565.891855
926.479178	2566.532082
926.783328	2562.219374
927.087438	2564.165260
927.391509	2563.487225
927.695541	2561.309446
927.999533	2560.139898
928.303486	2557.541184
928.607400	2558.040258
928.911275	2557.158056
929.215110	2556.180072
929.518906	2556.732078
929.822663	2555.323076
930.126381	2556.346430
930.430060	2556.908519
930.733699	2558.133519
931.037299	2559.114024
931.340861	2556.205278
931.644383	2559.968499
931.947866	2555.784342
932.251309	2556.795093
932.554714	2556.301060
932.858080	2555.741492
933.161407	2555.121430
933.464694	2553.180586
933.767943	2556.916081
934.071153	2557.669733
934.374323	2552.832746
934.677455	2555.948179
934.980548	2554.551779
935.283602	2553.135215
935.586617	2552.973898
935.889593	2552.063970
936.192530	2554.067829
936.495428	2555.980947
936.798287	2556.273333
937.101108	2557.321893
937.403890	2560.313818
937.706632	2561.778273
938.009336	2565.254149
938.312002	2571.311095
938.614628	2569.886969
938.917216	2578.600604
939.219765	2575.346539
939.522275	2577.025243
939.824747	2576.659760
940.127179	2570.872515
940.429573	2565.206258
940.731929	2567.265569
941.034246	2564.324056
941.336524	2568.291444
941.638763	2565.748182
941.940964	2566.466547
942.243126	2566.335477
942.545250	2562.915054
942.847335	2562.942780
943.149381	2561.700136
943.451389	2556.575803
943.753359	2559.769374
944.055290	2557.032027
944.357182	2559.993705
944.659036	2556.633776
944.960851	2555.801986
945.262628	2552.414330
945.564367	2558.967830
945.866067	2556.699311
946.167729	2555.839794
946.469352	2556.268292
946.770937	2555.655792
947.072484	2556.235525
947.373992	2559.209806
947.675462	2553.601522
947.976893	2554.448436
948.278286	2555.552448
948.579641	2553.399876
948.880958	2551.680842
949.182236	2555.068498
949.483476	2552.754608
949.784678	2555.413817
950.085841	2555.363405
950.386967	2554.788714
950.688054	2551.912735
950.989103	2555.043292
951.290114	2555.194527
951.591087	2558.088149
951.892021	2557.253838
952.192917	2557.538663
952.493776	2561.067471
952.794596	2562.229457
953.095378	2564.588717
953.396122	2564.364385
953.696828	2556.774928
953.997496	2558.614949
954.298126	2553.699824
954.598718	2557.672254
954.899272	2556.517829
955.199788	2554.433312
955.500266	2549.397200
955.800706	2550.294525
956.101108	2544.235058
956.401472	2547.085831
956.701798	2546.435522
957.002087	2545.155069
957.302337	2548.104144
957.602550	2544.419060
957.902724	2542.725233
958.202861	2544.003165
958.502960	2544.897970
958.803022	2543.146169
959.103045	2541.583411
959.403031	2541.190201
959.702979	2541.555685
960.002889	2540.076106
960.302762	2540.691127
960.602596	2542.768082
960.902393	2541.782537
961.202153	2543.236910
961.501875	2540.953267
961.801559	2542.619368
962.101205	2537.638708
962.400814	2541.686755
962.700385	2538.805735
962.999918	2540.744059
963.299414	2540.411343
963.598873	2540.123997
963.898293	2539.138452
964.197677	2537.520241
964.497022	2539.007382
964.796331	2537.729449
965.095601	2539.718184
965.394835	2539.544264
965.694030	2537.873122
965.993189	2538.657021
966.292309	2534.356917
966.591393	2537.116949
966.890439	2536.234747
967.189447	2538.788091
967.488419	2540.008051
967.787353	2538.165509
968.086249	2536.184335
968.385108	2539.889583
968.683930	2541.772454
968.982714	2538.626774
969.281462	2538.198276
969.580172	2536.673327
969.878844	2538.911600
970.177480	2537.658873
970.476078	2538.082330
970.774639	2537.825231
971.073162	2541.540561
971.371649	2536.302802
971.670098	2534.087215
971.968510	2534.377082
972.266885	2535.970086
972.565223	2536.882535
972.863524	2537.429500
973.161788	2540.232382
973.460014	2540.507125
973.758204	2539.798843
974.056356	2538.470499
974.354471	2544.073741
974.652550	2541.868236
974.950591	2539.221631
975.248595	2538.107536
975.546563	2540.194573
975.844493	2540.088709
976.142386	2541.127187
976.440243	2537.941178
976.738062	2538.644418
977.035845	2537.784902
977.333590	2536.373379
977.631299	2537.051414
977.928971	2538.946888
978.226606	2536.842206
978.524204	2537.384130
978.821765	2535.740714
979.119290	2536.287679
979.416777	2538.636857
979.714228	2536.922864
980.011642	2537.878163
980.309020	2542.047197
980.606360	2538.924203
980.903664	2535.833975
981.200931	2539.519059
981.498162	2541.003678
981.795356	2541.928730
982.092513	2544.572815
982.389633	2546.806047
982.686717	2551.685883
982.983764	2550.864175
983.280775	2555.680998
983.577749	2554.871893
983.874686	2553.742674
984.171587	2548.162117
984.468451	2546.158258
984.765279	2544.139276
985.062070	2545.117260
985.358824	2542.016950
985.655543	2539.617361
985.952224	2541.651467
986.248869	2537.542926
986.545478	2532.441279
986.842050	2536.237267
987.138586	2531.128058
987.435086	2534.855991
987.731549	2532.189221
988.027975	2538.122659
988.324366	2533.331042
988.620719	2536.005374
988.917037	2533.890610
989.213318	2532.073274
989.509563	2532.610157
989.805772	2534.361958
990.101944	2533.169725
990.398080	2537.641229
990.694180	2535.420601
990.990244	2534.150230
991.286271	2534.414890
991.582262	2535.614685
991.878217	2535.178625
992.174136	2534.939170
992.470019	2535.355066
992.765865	2537.805066
993.061676	2534.493028
993.357450	2533.522606
993.653188	2534.190559
993.948890	2534.127545
994.244556	2535.019829
994.540186	2534.982020
994.835780	2534.639222
995.131337	2537.893287
995.426859	2537.623585
995.722345	2536.524613
996.017795	2537.719367
996.313208	2536.958153
996.608586	2539.614841
996.903928	2538.946888
997.199234	2540.872608
997.494504	2539.887063
997.789738	2538.447813
998.084936	2538.394881
998.380099	2540.272711
998.675225	2536.385982
998.970316	2535.556712
999.265371	2535.261804
999.560390	2534.543440
999.855373	2535.768440
1000.150320	2534.288862
1000.445232	2535.032432
1000.740108	2533.552853
1001.034948	2532.474046
1001.329752	2533.741896
1001.624521	2530.613860
1001.919254	2529.494724
1002.213951	2531.702750
1002.508613	2527.475742
1002.803239	2533.542771
1003.097829	2528.834333
1003.392384	2534.326670
1003.686903	2531.014632
1003.981386	2535.861702
1004.275834	2534.046886
1004.570246	2535.370189
1004.864623	2533.807431
1005.158964	2531.773326
1005.453270	2532.821886
1005.747540	2532.332894
1006.041775	2530.414735
1006.335974	2533.487318
1006.630138	2532.751310
1006.924266	2533.416742
1007.218359	2534.614016
1007.512416	2532.660569
1007.806438	2532.680733
1008.100425	2534.727442
1008.394376	2533.643594
1008.688292	2532.814324
1008.982172	2530.767616
1009.276017	2533.875487
1009.569827	2532.942873
1009.863602	2531.601927
1010.157341	2534.286341
1010.451045	2534.278779
1010.744714	2532.249715
1011.038347	2531.400280
1011.331945	2532.441279
1011.625508	2532.595034
1011.919036	2533.641073
1012.212528	2531.175949
1012.505986	2532.330373
1012.799408	2534.067051
1013.092795	2529.535053
1013.386147	2531.589324
1013.679464	2530.263500
1013.972745	2535.498738
1014.265992	2531.057482
1014.559204	2530.823068
1014.852380	2533.235260
1015.145521	2531.720394
1015.438628	2531.750641
1015.731699	2531.485980
1016.024736	2533.918337
1016.317737	2533.207534
1016.610703	2533.615867
1016.903635	2531.037317
1017.196531	2529.996319
1017.489393	2530.465146
1017.782219	2525.121523
1018.075011	2529.512368
1018.367768	2528.670496
1018.660490	2533.925898
1018.953177	2533.925898
1019.245829	2533.925898
