Dividing Wavelength (nm)	Counts (n)	Blue Motor Position (mm): 16.700000	Red Motor Position (mm): 0.000000	
326.493990	2133.754065
326.888308	2133.754065
327.282561	2133.754065
327.676750	2103.895311
328.070874	2099.315423
328.464933	2104.480085
328.858929	2109.778337
329.252859	2119.507764
329.646726	2132.496297
330.040528	2146.765283
330.434265	2161.775319
330.827938	2179.671415
331.221547	2196.347552
331.615091	2216.887733
332.008571	2234.688047
332.401986	2258.263003
332.795338	2274.298914
333.188625	2292.603343
333.581847	2311.371559
333.975006	2327.402428
334.368100	2349.875892
334.761129	2366.017667
335.154095	2383.034082
335.546996	2403.425549
335.939833	2424.172418
336.332606	2439.318564
336.725315	2449.289967
337.117960	2456.665175
337.510540	2464.937708
337.903056	2478.707620
338.295508	2486.496202
338.687896	2494.952738
339.080220	2505.602176
339.472480	2509.471261
339.864676	2510.960922
340.256807	2518.678929
340.648875	2521.920391
341.040879	2523.319311
341.432818	2523.568848
341.824694	2526.643952
342.216506	2526.243180
342.608253	2526.953983
342.999937	2527.291740
343.391557	2528.844415
343.783113	2527.500948
344.174605	2524.995494
344.566033	2523.566327
344.957397	2524.841739
345.348697	2518.207581
345.739934	2519.919053
346.131106	2513.544513
346.522215	2517.942920
346.913260	2512.700120
347.304241	2511.149965
347.695159	2509.345232
348.086012	2508.677279
348.476802	2508.521004
348.867528	2503.326095
349.258191	2501.024808
349.648789	2505.884480
350.039324	2499.847698
350.429796	2499.540188
350.820203	2499.202431
351.210548	2496.437358
351.600828	2497.188490
351.991045	2497.412821
352.381198	2491.355875
352.771288	2494.612460
353.161314	2495.300578
353.551276	2495.348469
353.941175	2494.173880
354.331010	2493.579024
354.720782	2491.529795
355.110490	2491.708756
355.500135	2492.774960
355.889717	2495.663541
356.279235	2494.546925
356.668689	2496.197903
357.058080	2495.045999
357.447408	2492.159939
357.836672	2492.588437
358.225873	2491.766729
358.615010	2491.524753
359.004084	2498.131186
359.393095	2498.519354
359.782043	2496.749909
360.170927	2497.964828
360.559748	2496.747389
360.948505	2496.359220
361.337199	2498.068171
361.725830	2502.186794
362.114398	2500.135044
362.502903	2503.437000
362.891344	2502.789212
363.279722	2501.907010
363.668037	2503.416835
364.056289	2501.604541
364.444478	2502.988337
364.832603	2500.210662
365.220665	2505.211486
365.608665	2501.246619
365.996601	2504.256188
366.384474	2501.995230
366.772284	2505.914727
367.160031	2508.009327
367.547715	2504.593945
367.935336	2505.203924
368.322893	2508.122752
368.710388	2507.106960
369.097820	2511.127280
369.485189	2506.358349
369.872495	2506.363390
370.259738	2506.975890
370.646918	2507.106960
371.034035	2508.377331
371.421090	2509.977897
371.808081	2509.438494
372.195010	2508.972187
372.581875	2510.484533
372.968678	2510.194667
373.355418	2506.794408
373.742096	2509.645181
374.128710	2511.601149
374.515262	2508.697444
374.901751	2509.204080
375.288177	2510.555109
375.674540	2509.579646
376.060841	2512.261540
376.447079	2512.339678
376.833254	2510.940758
377.219367	2505.440859
377.605417	2513.151303
377.991404	2507.404388
378.377329	2507.921106
378.763191	2507.981600
379.148991	2514.716582
379.534727	2514.056191
379.920402	2512.609379
380.306013	2514.494771
380.691563	2514.376304
381.077049	2516.264216
381.462474	2513.463855
381.847835	2512.188443
382.233134	2515.654236
382.618371	2516.791017
383.003545	2516.133146
383.388657	2516.954854
383.773706	2517.388393
384.158693	2512.732888
384.543618	2518.683970
384.928480	2515.535769
385.313280	2515.192971
385.698017	2514.885460
386.082692	2519.044412
386.467305	2513.657939
386.851856	2518.721778
387.236344	2518.920904
387.620770	2518.210101
388.005133	2517.239679
388.389435	2519.891326
388.773674	2517.461490
389.157851	2516.521315
389.541965	2517.159021
389.926018	2519.510719
390.310008	2518.590708
390.693936	2519.583816
391.077802	2521.943076
391.461606	2515.084586
391.845348	2521.625483
392.229027	2518.860410
392.612645	2520.755884
392.996200	2522.921060
393.379694	2520.841584
393.763125	2522.921060
394.146494	2521.587674
394.529801	2523.011800
394.913047	2520.947448
395.296230	2521.892664
395.679351	2521.214629
396.062410	2524.670340
396.445408	2522.855525
396.828343	2523.538601
397.211217	2518.210101
397.594028	2522.439629
397.976778	2520.345030
398.359466	2520.891995
398.742092	2518.144566
399.124656	2523.626821
399.507158	2524.284692
399.889598	2523.054650
400.271977	2523.883920
400.654294	2525.655886
401.036549	2524.564476
401.418742	2524.821575
401.800874	2523.374763
402.182944	2528.020187
402.564952	2526.033972
402.946898	2527.440454
403.328783	2526.694363
403.710606	2526.568334
404.092367	2525.565145
404.474067	2527.778211
404.855705	2525.214785
405.237282	2528.037831
405.618797	2525.736544
406.000250	2528.705784
406.381642	2526.835516
406.762972	2526.757378
407.144240	2526.344003
407.525447	2529.771988
407.906593	2528.889786
408.287677	2527.700073
408.668700	2528.274765
409.049661	2526.313756
409.430560	2526.401976
409.811399	2529.207378
410.192176	2529.512368
410.572891	2531.191073
410.953545	2525.797038
411.334138	2529.209899
411.714669	2529.993798
412.095139	2528.279806
412.475547	2529.277955
412.855894	2527.266534
413.236180	2531.160826
413.616405	2530.666793
413.996568	2531.662420
414.376670	2529.265352
414.756711	2530.339118
415.136691	2531.402801
415.516609	2528.867101
415.896466	2531.675023
416.276262	2532.786598
416.655997	2527.493386
417.035670	2526.475073
417.415283	2528.536905
417.794834	2526.270906
418.174324	2527.170752
418.553753	2532.209386
418.933121	2532.348017
419.312428	2532.592513
419.691674	2530.901206
420.070859	2532.441279
420.449983	2530.994467
420.829045	2531.836340
421.208047	2532.721063
421.586988	2531.891793
421.965867	2532.879859
422.344686	2533.648635
422.723444	2532.085877
423.102141	2533.356248
423.480777	2530.056813
423.859352	2535.740714
424.237866	2534.772812
424.616319	2533.212575
424.994712	2531.886752
425.373044	2531.589324
425.751314	2533.018491
426.129524	2535.702905
426.507673	2536.017977
426.885762	2535.309695
427.263789	2534.382123
427.641756	2534.281300
428.019662	2534.639222
428.397508	2536.227185
428.775292	2537.409336
429.153016	2533.923378
429.530679	2538.299099
429.908282	2535.574356
430.285824	2536.169212
430.663305	2533.709129
431.040726	2533.504962
431.418086	2535.899510
431.795385	2534.987061
432.172624	2535.473533
432.549802	2536.426311
432.926920	2534.636701
433.303977	2537.668955
433.680974	2534.785415
434.057910	2534.790456
434.434786	2534.404808
434.811601	2537.356404
435.188355	2535.153419
435.565050	2536.138965
435.941683	2537.053934
436.318257	2535.483615
436.694770	2532.826927
437.071222	2535.672658
437.447614	2533.946063
437.823946	2535.397915
438.200218	2536.476722
438.576429	2541.354039
438.952580	2536.156609
439.328670	2538.062165
439.704700	2535.702905
440.080670	2536.847247
440.456580	2539.282124
440.832429	2540.870088
441.208218	2538.485622
441.583947	2537.351363
441.959616	2538.505787
442.335224	2536.761548
442.710773	2539.418236
443.086261	2539.249357
443.461689	2537.792463
443.837057	2539.415715
444.212365	2541.044008
444.587612	2539.206507
444.962800	2538.987217
445.337927	2539.728267
445.712995	2539.708102
446.088002	2539.057793
446.462949	2539.750952
446.837837	2538.042001
447.212664	2539.665252
447.587431	2541.046528
447.962139	2538.830941
448.336786	2542.959646
448.711374	2540.474357
449.085901	2541.507794
449.460369	2538.795653
449.834776	2542.122815
450.209124	2539.612320
450.583412	2542.929399
450.957640	2540.151723
451.331808	2541.908566
451.705917	2540.174409
452.079965	2541.994265
452.453954	2542.526107
452.827883	2539.922351
453.201752	2542.062321
453.575562	2544.325799
453.949311	2541.636343
454.323001	2540.746580
454.696632	2541.853113
455.070202	2541.994265
455.443713	2541.510314
455.817164	2538.936805
456.190556	2537.653832
456.563888	2541.298586
456.937160	2536.711136
457.310373	2544.991231
457.683526	2543.393185
458.056619	2542.717671
458.429653	2542.889070
458.802628	2541.653987
459.175542	2542.127856
459.548398	2545.215563
459.921194	2542.563916
460.293930	2542.800850
460.666607	2543.950233
461.039224	2544.340922
461.411782	2546.173382
461.784280	2546.387631
462.156719	2545.374359
462.529099	2544.693803
462.901419	2545.523073
463.273680	2544.048535
463.645882	2545.785213
464.018024	2545.321427
464.390106	2546.488454
464.762130	2545.823022
465.134094	2544.726571
465.505999	2545.800336
465.877845	2545.276056
466.249631	2545.775131
466.621358	2546.659853
466.993026	2549.341747
467.364634	2551.126315
467.736184	2548.512477
468.107674	2544.716488
468.479105	2545.487785
468.850477	2546.317055
469.221790	2546.309493
469.593043	2543.342774
469.964238	2545.059287
470.335373	2547.385779
470.706449	2545.870912
471.077467	2547.010213
471.448425	2548.424257
471.819324	2548.850234
472.190164	2549.719833
472.560945	2548.061294
472.931667	2550.473486
473.302330	2545.570964
473.672934	2545.044163
474.043479	2548.381407
474.413965	2546.110367
474.784393	2544.943340
475.154761	2546.415357
475.525070	2545.886036
475.895321	2545.825542
476.265513	2545.311344
476.635645	2549.545914
477.005719	2545.195398
477.375734	2548.056253
477.745691	2550.387786
478.115588	2551.280071
478.485427	2546.687579
478.855207	2548.336037
479.224928	2550.108002
479.594591	2550.339895
479.964194	2550.849052
480.333739	2551.305276
480.703226	2549.190512
481.072653	2549.498023
481.442022	2553.793086
481.811333	2551.416182
482.180584	2553.914073
482.549777	2552.275698
482.918912	2552.094217
483.287988	2551.438867
483.657005	2549.939124
484.025964	2549.694628
484.394864	2551.282591
484.763706	2553.485575
485.132489	2549.205636
485.501213	2550.483568
485.869879	2551.655637
486.238487	2550.964998
486.607036	2554.027499
486.975527	2552.769732
487.343959	2549.167827
487.712333	2552.686552
488.080648	2553.165462
488.448905	2551.799309
488.817104	2550.405430
489.185244	2551.877447
489.553326	2552.933569
489.921350	2553.079762
490.289315	2552.744526
490.657222	2556.565720
491.025070	2553.654454
491.392861	2555.567572
491.760593	2555.242418
492.128267	2552.870555
492.495883	2551.811912
492.863440	2556.628735
493.230939	2553.767880
493.598380	2557.495813
493.965763	2547.239586
494.333088	2551.111192
494.700354	2551.827036
495.067563	2553.314176
495.434713	2549.535831
495.801805	2553.883827
496.168839	2553.538507
496.535815	2555.476831
496.902733	2553.135215
497.269593	2558.040258
497.636395	2555.360885
498.003139	2555.872562
498.369825	2555.728889
498.736453	2555.791903
499.103023	2554.171172
499.469535	2558.708211
499.835989	2556.346430
500.202385	2555.554969
500.568723	2554.776111
500.935003	2558.017573
501.301226	2557.730227
501.667390	2561.160732
502.033497	2559.224929
502.399546	2560.094528
502.765537	2560.525547
503.131470	2559.726524
503.497345	2557.974723
503.863163	2559.575289
504.228923	2557.667212
504.594625	2561.669889
504.960269	2558.781307
505.325856	2559.323232
505.691385	2559.030845
506.056856	2561.405228
506.422270	2558.841801
506.787625	2565.123079
507.152924	2561.306926
507.518164	2561.621998
507.883347	2559.635783
508.248472	2559.355999
508.613540	2561.309446
508.978550	2564.603840
509.343503	2563.857749
509.708398	2563.157029
510.073236	2562.804148
510.438016	2566.789180
510.802738	2564.525702
511.167403	2567.421845
511.532010	2565.501166
511.896561	2567.905796
512.261053	2568.828327
512.625488	2564.898748
512.989866	2566.217009
513.354186	2567.200034
513.718449	2564.916392
514.082655	2569.700447
514.446803	2571.858061
514.810894	2572.488205
515.174927	2573.864440
515.538904	2572.548699
515.902822	2575.099523
516.266684	2573.594738
516.630488	2577.042887
516.994235	2577.050449
517.357925	2579.941551
517.721558	2582.167220
518.085133	2582.351222
518.448651	2584.254258
518.812112	2584.123188
519.175516	2586.989084
519.538863	2589.885227
519.902152	2589.814651
520.265385	2594.223140
520.628560	2597.053747
520.991678	2595.841350
521.354739	2598.634149
521.717743	2602.220930
522.080690	2607.451127
522.443580	2606.654625
522.806413	2613.329113
523.169189	2612.083948
523.531908	2617.407406
523.894569	2618.390431
524.257174	2622.592233
524.619722	2626.458798
524.982213	2629.007101
525.344647	2633.735703
525.707025	2639.540592
526.069345	2641.879687
526.431608	2647.172899
526.793815	2648.229021
527.155964	2655.064825
527.518057	2659.848880
527.880093	2662.823161
528.242072	2667.728204
528.603995	2673.742300
528.965860	2675.978052
529.327669	2682.745801
529.689421	2689.778211
530.051117	2693.584282
530.412755	2702.396219
530.774337	2707.066848
531.135862	2717.106306
531.497331	2720.867007
531.858743	2724.763818
532.220098	2737.217989
532.581396	2738.074985
532.942638	2746.783578
533.303824	2758.411000
533.664953	2769.650252
534.026025	2777.723660
534.387040	2789.419137
534.747999	2796.633028
535.108902	2805.273566
535.469748	2810.057621
535.830537	2820.258396
536.191270	2830.219716
536.551947	2844.339988
536.912567	2857.111751
537.273131	2866.828575
537.633638	2876.658825
537.994089	2891.194992
538.354483	2903.392064
538.714821	2919.712799
539.075103	2932.025818
539.435328	2944.815225
539.795497	2950.494085
540.155609	2977.807056
540.515665	2994.342041
540.875665	2998.286744
541.235609	3017.574198
541.595496	3028.884027
541.955328	3056.877554
542.315102	3067.471539
542.674821	3083.394024
543.034483	3100.798607
543.394090	3116.123715
543.753640	3132.928401
544.113134	3167.011642
544.472571	3174.961542
544.831953	3210.511759
545.191278	3215.026112
545.550548	3235.372209
545.909761	3266.279523
546.268918	3288.420271
546.628019	3314.984631
546.987064	3329.881241
547.346053	3340.071933
547.704986	3379.196328
548.063863	3398.108217
548.422684	3413.932399
548.781449	3435.987447
549.140158	3468.805359
549.498811	3487.379490
549.857408	3488.395283
550.215949	3548.624468
550.574434	3556.917166
550.932864	3599.754371
551.291237	3622.094244
551.649555	3661.032117
552.007817	3684.934747
552.366022	3702.296481
552.724173	3740.793253
553.082267	3764.005246
553.440305	3826.349195
553.798288	3817.068431
554.156215	3876.743090
554.514086	3906.070002
554.871902	3914.413112
555.229661	3953.711427
555.587365	3980.391733
555.945014	3989.362467
556.302606	4054.506777
556.660143	4058.585071
557.017625	4135.944097
557.375050	4148.075634
557.732421	4206.852967
558.089735	4231.607553
558.446994	4261.499075
558.804197	4307.887772
559.161345	4345.373792
559.518437	4338.159901
559.875474	4404.118358
560.232455	4450.287766
560.589381	4470.207885
560.946251	4527.228376
561.303065	4561.835897
561.659825	4600.010035
562.016528	4617.855719
562.373177	4611.960090
562.729770	4701.521229
563.086307	4709.582034
563.442789	4770.549749
563.799216	4791.957009
564.155587	4832.739943
564.511904	4860.685580
564.868164	4898.574892
565.224370	4932.441363
565.580520	4966.829594
565.936615	4983.122604
566.292654	5004.315614
566.648638	5067.715686
567.004567	5105.516778
567.360441	5133.653978
567.716260	5155.401516
568.072023	5216.759920
568.427732	5249.661010
568.783385	5240.823868
569.138982	5321.484850
569.494525	5358.653277
569.850013	5356.893914
570.205445	5435.866110
570.560823	5420.881280
570.916145	5443.586637
571.271412	5510.495352
571.626625	5532.537797
571.981782	5554.517227
572.336884	5589.066775
572.691931	5621.473833
573.046923	5653.061703
573.401860	5670.181461
573.756743	5688.314492
574.111570	5742.385908
574.466342	5767.455566
574.821059	5826.439587
575.175722	5816.868956
575.530330	5866.068097
575.884882	5890.487446
576.239380	5902.621503
576.593823	5927.121511
576.948211	5984.429348
577.302544	5950.787208
577.656823	6005.256875
578.011047	6040.600405
578.365216	6069.660136
578.719330	6060.449948
579.073389	6115.176714
579.427394	6116.058916
579.781344	6135.195136
580.135239	6149.300285
580.489080	6187.633218
580.842866	6182.269431
581.196597	6217.539864
581.550273	6269.264623
581.903895	6297.464837
582.257463	6358.170412
582.610975	6336.546382
582.964434	6374.029882
583.317837	6371.905036
583.671186	6383.729062
584.024481	6428.154230
584.377721	6411.142857
584.730906	6426.977121
585.084037	6477.618032
585.437113	6467.177802
585.790135	6519.787284
586.143103	6483.990050
586.496016	6494.984807
586.848874	6569.215797
587.201679	6586.277582
587.554428	6553.041255
587.907124	6617.537777
588.259765	6620.033148
588.612352	6661.678120
588.964884	6601.695951
589.317362	6647.401573
589.669786	6673.756725
590.022155	6730.063893
590.374470	6777.148270
590.726731	6760.323419
591.078937	6694.775816
591.431090	6803.422764
591.783188	6740.993114
592.135232	6775.020903
592.487222	6784.334435
592.839157	6853.620053
593.191038	6830.297155
593.542866	6818.047151
593.894639	6774.484020
594.246358	6840.800399
594.598022	6874.303907
594.949633	6825.407236
595.301190	6831.103739
595.652692	6880.698611
596.004141	6988.763305
596.355535	6849.289702
596.706876	6849.836667
597.058162	6832.089285
597.409395	6903.759369
597.760573	6972.818136
598.111698	6935.012003
598.462768	6948.484486
598.813785	6934.303720
599.164748	6940.171623
599.515657	6945.265709
599.866511	6908.805564
600.217312	7019.073243
600.568060	6933.590397
600.918753	7038.564864
601.269392	7028.394336
601.619978	6982.905485
601.970510	7056.715539
602.320988	7069.363794
602.671412	7139.607231
603.021783	7104.298990
603.372100	7106.789320
603.722363	7125.129037
604.072572	7113.761236
604.422728	7148.013355
604.772830	7102.819411
605.122878	7125.862525
605.472872	7139.093034
605.822813	7180.117944
606.172701	7146.087635
606.522534	7233.823876
606.872314	7243.404589
607.222041	7237.662715
607.571714	7296.949205
607.921333	7272.038343
608.270899	7300.513300
608.620411	7387.624439
608.969870	7321.277813
609.319276	7324.703277
609.668627	7358.806683
610.017926	7399.647591
610.367171	7451.810930
610.716362	7446.661392
611.065500	7455.906868
611.414585	7492.127558
611.763616	7491.220150
612.112594	7486.705797
612.461518	7512.617328
612.810389	7572.738129
613.159207	7540.973818
613.507971	7496.238619
613.856682	7620.193030
614.205340	7580.138543
614.553945	7666.934609
614.902496	7588.617763
615.250994	7649.295612
615.599439	7644.753532
615.947830	7667.098446
616.296169	7652.184193
616.644454	7669.190525
616.992686	7674.730753
617.340864	7740.900939
617.688990	7657.331211
618.037063	7753.975171
618.385082	7712.332720
618.733048	7801.397305
619.080961	7750.222032
619.428821	7781.323431
619.776628	7791.751057
620.124382	7750.569872
620.472083	7747.373780
620.819731	7786.278885
621.167326	7686.751385
621.514868	7705.839714
621.862357	7603.673169
622.209793	7635.687017
622.557176	7587.322187
622.904506	7568.185967
623.251783	7508.017275
623.599007	7472.431770
623.946179	7479.852348
624.293297	7452.486445
624.640363	7379.951803
624.987376	7367.401850
625.334336	7325.716549
625.681243	7282.075280
626.028097	7278.871627
626.374899	7261.242712
626.721647	7264.511900
627.068343	7201.013526
627.414987	7176.251379
627.761577	7143.506564
628.108115	7180.652306
628.454600	7085.369457
628.801032	7139.385421
629.147412	7097.465706
629.493739	7092.404387
629.840014	7036.818104
630.186236	7097.289265
630.532405	6984.601833
630.878521	7038.884978
631.224585	7000.083216
631.570597	6928.503873
631.916556	6962.007381
632.262462	6960.729449
632.608316	6932.869512
632.954117	6912.430154
633.299866	6896.270735
633.645562	6896.401805
633.991206	6820.764333
634.336797	6777.594412
634.682336	6733.890129
635.027823	6703.098761
635.373257	6699.217073
635.718639	6639.003010
636.063968	6650.819475
636.409245	6555.977727
636.754470	6551.632253
637.099642	6511.010635
637.444762	6462.492050
637.789829	6476.864379
638.134845	6419.589310
638.479808	6400.763121
638.824719	6413.444143
639.169577	6344.655078
639.514383	6365.908583
639.859137	6296.479292
640.203839	6305.208050
640.548489	6290.162726
640.893086	6270.159427
641.237632	6245.208237
641.582125	6268.001814
641.926566	6236.696248
642.270955	6252.951449
642.615292	6254.045379
642.959576	6261.337408
643.303809	6253.584114
643.647990	6257.879177
643.992118	6255.154433
644.336195	6204.579057
644.680219	6231.675259
645.024192	6221.855091
645.368112	6319.653476
645.711981	6334.794582
646.055797	6412.423310
646.399562	6369.802874
646.743274	6497.636454
647.086935	6550.898765
647.430544	6544.592281
647.774101	6567.423667
648.117606	6572.578247
648.461059	6566.768317
648.804460	6529.519231
649.147810	6443.754081
649.491108	6409.978350
649.834354	6390.085957
650.177548	6302.654705
650.520690	6222.528085
650.863781	6203.263316
651.206820	6220.418362
651.549807	6142.154449
651.892742	6088.635039
652.235626	6096.408498
652.578458	6081.448874
652.921238	5993.584083
653.263967	6031.365011
653.606644	5969.731864
653.949269	5977.033975
654.291843	5912.166928
654.634365	5964.037881
654.976836	5917.117341
655.319255	5915.534419
655.661622	5897.073714
656.003938	5897.918107
656.346203	5856.741962
656.688416	5891.488115
657.030577	5844.718810
657.372687	5812.556249
657.714746	5799.708868
658.056753	5843.256876
658.398708	5780.456702
658.740612	5771.722903
659.082465	5819.515562
659.424266	5813.783770
659.766016	5816.637063
660.107715	5791.267456
660.449362	5806.950486
660.790958	5802.814219
661.132503	5787.042969
661.473996	5828.264484
661.815438	5811.265713
662.156829	5806.816895
662.498168	5803.782121
662.839456	5777.384118
663.180693	5816.082536
663.521879	5817.030273
663.863013	5805.617101
664.204097	5827.024360
664.545129	5864.994331
664.886110	5863.335792
665.227040	5896.632613
665.567918	5858.108115
665.908746	5887.722373
666.249522	5886.734307
666.590248	5877.514037
666.930922	5904.874899
667.271545	5918.357465
667.612118	5925.057159
667.952639	5894.003651
668.293109	5913.056692
668.633528	5872.490527
668.973896	5872.974478
669.314213	5870.668150
669.654480	5848.219892
669.994695	5838.676988
670.334859	5832.791440
670.674973	5827.573846
671.015035	5829.721378
671.355047	5831.911759
671.695008	5815.457433
672.034918	5786.591786
672.374777	5801.216173
672.714585	5786.649759
673.054342	5792.865502
673.394049	5782.190859
673.733705	5816.279141
674.073310	5801.190968
674.412864	5755.563484
674.752368	5755.838227
675.091820	5753.478967
675.431223	5694.212642
675.770574	5694.953691
676.109875	5649.331249
676.449125	5652.204707
676.788324	5615.525271
677.127473	5562.406633
677.466571	5555.737187
677.805619	5538.803951
678.144616	5534.140884
678.483562	5511.531309
678.822458	5481.128110
679.161303	5473.193334
679.500098	5463.176561
679.838842	5447.445640
680.177535	5452.857319
680.516179	5467.486748
680.854771	5481.559128
681.193314	5557.693154
681.531805	5668.371687
681.870247	5818.903062
682.208638	5913.855715
682.546978	5927.986069
682.885268	5908.318007
683.223508	5821.779040
683.561697	5767.863899
683.899836	5738.723510
684.237925	5695.989648
684.575963	5660.726777
684.913951	5619.096929
685.251889	5681.582031
685.589776	5648.814531
685.927614	5621.622547
686.265401	5687.223082
686.603137	5672.129867
686.940824	5751.850674
687.278460	5775.143326
687.616046	5787.960459
687.953582	5850.228792
688.291068	5829.025698
688.628504	5896.854423
688.965889	5859.212128
689.303224	5800.003776
689.640510	5754.784626
689.977745	5682.675961
690.314930	5582.493111
690.652065	5527.191653
690.989150	5439.793169
691.326185	5359.381724
691.663170	5309.068488
692.000105	5231.979163
692.336990	5160.392258
692.673825	5130.246158
693.010610	5065.618566
693.347345	4993.514942
693.684030	4982.313498
694.020665	4940.103917
694.357251	4852.276935
694.693786	4865.144480
695.030272	4829.032175
695.366707	4792.246875
695.703093	4757.838479
696.039429	4782.119197
696.375716	4767.041106
696.711952	4738.714862
697.048139	4727.689859
697.384276	4709.980285
697.720363	4716.604362
698.056400	4725.386052
698.392388	4680.671017
698.728326	4659.145290
699.064214	4636.442454
699.400053	4627.191936
699.735842	4598.727061
700.071581	4573.165891
700.407270	4548.252508
700.742910	4532.778687
701.078501	4475.884224
701.414042	4482.609123
701.749533	4446.837096
702.084974	4379.893093
702.420366	4439.235036
702.755709	4379.174729
703.091002	4324.004341
703.426246	4376.336559
703.761440	4332.024817
704.096584	4293.275988
704.431679	4311.537568
704.766725	4301.793017
705.101721	4285.958753
705.436668	4316.871108
705.771565	4261.730968
706.106413	4289.744660
706.441212	4324.788241
706.775961	4331.533304
707.110661	4313.034790
707.445311	4339.616795
707.779913	4363.607646
708.114465	4373.226167
708.448967	4396.034868
708.783421	4459.674394
709.117825	4499.360878
709.452180	4505.690046
709.786485	4547.408115
710.120742	4630.637565
710.454949	4615.803970
710.789107	4681.719577
711.123216	4754.286987
711.457275	4744.514710
711.791286	4819.761493
712.125247	4838.983412
712.459159	4735.758226
712.793023	4815.032890
713.126837	4778.640801
713.460602	4767.293163
713.794318	4691.431360
714.127985	4695.101320
714.461602	4609.999081
714.795171	4582.068568
715.128691	4519.371738
715.462162	4458.966112
715.795584	4414.601438
716.128957	4393.932707
716.462281	4342.833051
716.795556	4320.112570
717.128782	4277.209831
717.461960	4211.410170
717.795088	4222.243610
718.128167	4183.557795
718.461198	4124.843476
718.794180	4118.138742
719.127113	4100.903037
719.459997	4078.520313
719.792833	4036.603119
720.125619	4027.448384
720.458357	3990.290039
720.791046	4001.468797
721.123686	3968.771874
721.456278	3931.779887
721.788821	3946.714305
722.121315	3920.344029
722.453761	3890.586098
722.786158	3903.844333
723.118506	3928.903908
723.450805	3882.353894
723.783056	3904.565218
724.115259	3918.017537
724.447412	3924.099689
724.779518	3916.542999
725.111574	3921.705141
725.443582	3952.322589
725.775542	3935.487655
726.107453	3987.028412
726.439315	3990.395903
726.771129	3998.875124
727.102895	4036.451885
727.434612	4082.704471
727.766281	4094.581430
728.097901	4096.343313
728.429473	4099.670474
728.760996	4108.598358
729.092471	4099.236935
729.423897	4085.998865
729.755276	4092.023044
730.086606	4092.020523
730.417887	4128.765494
730.749120	4190.630534
731.080305	4258.302983
731.411442	4282.271149
731.742530	4253.100512
732.073570	4258.091255
732.404562	4313.107887
732.735506	4301.518274
733.066401	4263.565948
733.397249	4201.463973
733.728048	4122.214514
734.058798	4043.756517
734.389501	3972.882935
734.720156	3911.148965
735.050762	3868.621791
735.381320	3862.070811
735.711831	3810.207421
736.042293	3783.610293
736.372707	3804.256338
736.703073	3778.410343
737.033391	3770.253756
737.363661	3782.213893
737.693883	3811.255981
738.024056	3817.975839
738.354182	3814.247905
738.684260	3878.696537
739.014290	3896.474166
739.344272	3892.552148
739.674207	3935.976647
740.004093	3942.820014
740.333931	3935.356585
740.663722	3935.117131
740.993464	3932.422634
741.323159	3908.653593
741.652806	3880.176115
741.982405	3848.797453
742.311956	3819.813339
742.641460	3813.756393
742.970915	3789.548772
743.300323	3748.352463
743.629683	3712.771999
743.958996	3699.846481
744.288260	3679.732277
744.617477	3642.856236
744.946647	3630.233187
745.275768	3607.830299
745.604842	3604.941718
745.933869	3556.599573
746.262847	3551.051784
746.591778	3589.367073
746.920662	3556.229049
747.249498	3526.082949
747.578286	3573.648756
747.907027	3589.702310
748.235720	3589.646858
748.564365	3615.036629
748.892963	3613.768779
749.221514	3592.101899
749.550017	3574.505752
749.878473	3568.751275
750.206881	3540.624157
750.535242	3537.022252
750.863555	3538.506872
751.191821	3535.124258
751.520039	3514.616844
751.848210	3494.618587
752.176334	3524.941127
752.504411	3532.709545
752.832440	3494.976509
753.160421	3473.533961
753.488356	3490.232783
753.816243	3499.294257
754.144082	3452.668625
754.471875	3440.295113
754.799620	3461.180613
755.127318	3451.768779
755.454969	3451.466310
755.782572	3459.320428
756.110129	3434.654062
756.437638	3422.615787
756.765100	3437.678754
757.092515	3447.750980
757.419882	3453.843214
757.747203	3424.347423
758.074477	3428.541663
758.401703	3446.420115
758.728882	3465.286633
759.056014	3472.825679
759.383099	3476.636791
759.710138	3471.852736
760.037129	3489.698421
760.364073	3522.912063
760.690970	3506.278776
761.017820	3483.565857
761.344623	3500.778877
761.671379	3545.080537
761.998088	3593.463011
762.324751	3724.230542
762.651366	3967.453612
762.977935	4432.908388
763.304456	4867.108010
763.630931	4956.598573
763.957359	4600.919963
764.283740	4263.097120
764.610074	4077.025611
764.936362	3886.222979
765.262602	3725.248855
765.588796	3613.824231
765.914943	3530.809030
766.241044	3442.102367
766.567097	3414.176895
766.893104	3366.212837
767.219064	3339.028415
767.544978	3311.057573
767.870845	3254.392483
768.196665	3237.925554
768.522438	3249.379055
768.848165	3241.744228
769.173846	3203.557487
769.499479	3187.342616
769.825066	3173.053465
770.150607	3155.290960
770.476101	3171.412570
770.801548	3166.389060
771.126949	3119.239148
771.452303	3103.989658
771.777611	3114.528190
772.102872	3118.722430
772.428087	3092.573965
772.753256	3081.894280
773.078378	3076.240626
773.403453	3041.302910
773.728482	3028.848739
774.053465	3052.642985
774.378401	3040.947508
774.703291	3004.590707
775.028135	3009.788136
775.352932	3001.071981
775.677683	2994.757936
776.002388	2991.082935
776.327046	2992.365909
776.651658	2979.049701
776.976224	2966.517392
777.300743	2971.424956
777.625216	2960.316773
777.949643	2954.746298
778.274024	2956.624128
778.598359	2947.993673
778.922647	2951.189764
779.246889	2950.635237
779.571086	2936.711570
779.895236	2927.813934
780.219339	2941.619133
780.543397	2951.966102
780.867409	2956.150259
781.191374	2949.165741
781.515294	2944.212807
781.839167	2945.198353
782.162995	2937.742486
782.486776	2945.284052
782.810511	2943.093671
783.134201	2930.994902
783.457844	2936.199893
783.781441	2926.571289
784.104993	2905.821900
784.428498	2911.810791
784.751958	2921.167172
785.075372	2918.545772
785.398739	2899.933832
785.722061	2916.904877
786.045337	2927.733275
786.368568	2911.881367
786.691752	2905.811818
787.014891	2952.543314
787.337983	2981.860144
787.661030	3010.788805
787.984031	3075.492015
788.306987	3119.118160
788.629897	3112.423508
788.952760	3096.097731
789.275579	3082.025350
789.598351	3020.863551
789.921078	2980.695638
790.243759	2972.992754
790.566395	2956.823253
790.888984	2930.334511
791.211529	2914.207859
791.534027	2905.837023
791.856480	2893.854201
792.178888	2882.335164
792.501249	2873.039277
792.823566	2868.771940
793.145836	2866.105169
793.468062	2862.846063
793.790241	2860.307842
794.112375	2867.894779
794.434464	2879.665873
794.756507	2884.160062
795.078505	2889.211298
795.400457	2904.750655
795.722364	2938.614606
796.044226	2962.134109
796.366042	2963.507823
796.687812	2954.481638
797.009538	2974.225317
797.331218	2959.316104
797.652852	2947.776903
797.974442	2929.318718
798.295986	2927.156063
798.617484	2919.332192
798.938938	2903.848288
799.260346	2890.706000
799.581709	2884.618807
799.903026	2878.158568
800.224299	2873.787888
800.545526	2865.366640
800.866708	2845.963239
801.187845	2839.707167
801.508936	2840.007116
801.829983	2847.432736
802.150984	2834.391271
802.471940	2821.463232
802.792851	2817.929383
803.113717	2819.298056
803.434538	2825.090342
803.755314	2819.489620
804.076045	2813.188177
804.396731	2813.566264
804.717372	2816.144814
805.037967	2809.021664
805.358518	2813.515852
805.679024	2827.454643
805.999485	2821.425423
806.319901	2828.331804
806.640272	2819.718992
806.960598	2826.983295
807.280879	2831.278358
807.601115	2840.690192
807.921306	2825.715445
808.241453	2822.352995
808.561554	2829.098059
808.881611	2831.230467
809.201623	2827.600836
809.521590	2824.984477
809.841513	2819.494661
810.161390	2825.637307
810.481223	2819.681184
810.801011	2812.275729
811.120755	2806.143165
811.440453	2813.573826
811.760107	2806.286838
812.079716	2810.783547
812.399281	2797.588327
812.718801	2789.373767
813.038276	2785.446708
813.357707	2791.498613
813.677093	2798.397432
813.996434	2793.774694
814.315731	2788.279836
814.634983	2784.440998
814.954191	2786.016358
815.273354	2800.534881
815.592473	2805.349183
815.911547	2810.438228
816.230577	2817.087510
816.549562	2825.218891
816.868502	2824.109837
817.187399	2835.429748
817.506250	2850.212932
817.825058	2842.121880
818.143821	2855.672502
818.462539	2870.874101
818.781213	2898.582803
819.099843	2934.004471
819.418429	2989.520177
819.736970	3050.185423
820.055466	3118.563633
820.373919	3221.418295
820.692327	3360.125643
821.010691	3523.116230
821.329011	3958.472796
821.647286	4843.764947
821.965517	6190.980545
822.283704	6902.887250
822.601847	6872.552106
822.919945	6256.623929
823.237999	5767.460607
823.556010	5197.966498
823.873976	4661.736443
824.191897	4258.623096
824.509775	3975.584993
824.827609	3711.761248
825.145398	3592.600974
825.463144	3583.925148
825.780845	3672.581400
826.098502	3775.640229
826.416116	4060.823343
826.733685	4360.270402
827.051210	4415.387857
827.368692	4303.305363
827.686129	4045.137793
828.003522	3728.971747
828.320872	3475.373982
828.638177	3286.960857
828.955439	3154.749036
829.272656	3069.908937
829.589830	3008.429545
829.906960	2961.236784
830.224046	2914.762386
830.541088	2882.587222
830.858086	2867.733462
831.175041	2849.618076
831.491952	2850.689321
831.808819	2863.945035
832.125642	2886.549569
832.442421	2932.885334
832.759157	3007.285203
833.075849	3188.328162
833.392497	3461.861169
833.709101	3658.945079
834.025662	3606.290227
834.342179	3448.822225
834.658653	3279.825104
834.975083	3132.913278
835.291469	3036.430634
835.607811	2956.235959
835.924110	2899.636404
836.240366	2849.265195
836.556578	2808.157106
836.872746	2786.908642
837.188871	2766.504572
837.504952	2747.282653
837.820990	2740.109091
838.136984	2726.077039
838.452935	2719.518498
838.768842	2717.814588
839.084706	2736.676065
839.400526	2815.348312
839.716303	2946.337653
840.032037	3019.071421
840.347727	3006.052641
840.663373	2946.952674
840.978977	2872.066334
841.294537	2800.176959
841.610054	2754.693149
841.925527	2734.752865
842.240957	2714.091696
842.556344	2690.819209
842.871687	2675.494101
843.186987	2667.337514
843.502244	2664.890034
843.817458	2656.569610
844.132629	2647.457724
844.447756	2638.648308
844.762840	2631.999026
845.077881	2634.897689
845.392879	2632.982051
845.707833	2631.207565
846.022745	2621.034516
846.337613	2628.228243
846.652438	2623.933180
846.967221	2625.498458
847.281960	2623.177007
847.596656	2622.337655
847.911309	2619.968312
848.225919	2620.059053
848.540485	2613.626541
848.855009	2616.250461
849.169490	2613.941613
849.483928	2615.595111
849.798323	2613.203084
850.112675	2611.002620
850.426984	2611.935234
850.741251	2610.848865
851.055474	2610.564040
851.369654	2613.679473
851.683792	2617.704834
851.997887	2613.029164
852.311938	2610.238885
852.625947	2611.413474
852.939914	2615.693414
853.253837	2615.597632
853.567718	2612.895573
853.881555	2608.285438
854.195350	2616.071500
854.509103	2614.294494
854.822812	2613.636623
855.136479	2611.678135
855.450103	2615.779113
855.763685	2615.262395
856.077224	2611.597476
856.390720	2609.545727
856.704173	2612.464555
857.017584	2617.684670
857.330953	2617.387242
857.644278	2621.168107
857.957561	2620.104423
858.270802	2615.985801
858.584000	2615.678290
858.897155	2619.686008
859.210268	2620.343878
859.523339	2616.958743
859.836367	2610.256529
860.149352	2614.372632
860.462295	2612.683845
860.775195	2609.233175
861.088054	2606.694954
861.400869	2608.527414
861.713642	2605.941302
862.026373	2606.208483
862.339062	2611.920110
862.651708	2616.996552
862.964312	2617.982098
863.276873	2612.943464
863.589392	2618.380349
863.901869	2620.404372
864.214303	2626.166411
864.526696	2629.483490
864.839045	2629.869138
865.151353	2632.934160
865.463619	2632.737555
865.775842	2631.386526
866.088023	2630.879890
866.400162	2633.367699
866.712258	2631.983902
867.024313	2627.693881
867.336325	2624.580968
867.648296	2628.961731
867.960224	2635.505148
868.272110	2633.859212
868.583954	2627.388891
868.895755	2627.739251
869.207515	2633.271917
869.519233	2639.099491
869.830909	2635.215282
870.142542	2630.640435
870.454134	2632.634211
870.765684	2637.110756
871.077191	2639.482619
871.388657	2643.291211
871.700081	2641.244502
872.011463	2641.027732
872.322803	2641.667959
872.634101	2645.017806
872.945357	2653.474341
873.256571	2659.082625
873.567744	2657.114054
873.878874	2653.214722
874.189963	2653.844866
874.501010	2657.976092
874.812015	2662.518171
875.122979	2664.383398
875.433900	2655.014414
875.744780	2653.610452
876.055618	2658.812923
876.366415	2666.629232
876.677169	2661.789725
876.987882	2657.252686
877.298554	2655.884013
877.609183	2666.387257
877.919771	2673.112156
878.230317	2680.361335
878.540822	2690.599919
878.851285	2703.790098
879.161707	2727.859087
879.472087	2762.685898
879.782425	2808.482260
880.092722	2918.593663
880.402977	3100.866663
880.713191	3352.364787
881.023363	3630.931387
881.333494	3812.473419
881.643583	3982.408195
881.953631	3980.169922
882.263637	3804.163077
882.573602	3588.318513
882.883526	3468.601192
883.193408	3358.532639
883.503248	3263.277516
883.813048	3152.790547
884.122806	3041.471788
884.432522	2960.936835
884.742197	2896.420148
885.051831	2861.522761
885.361424	2831.227947
885.670975	2794.697225
885.980485	2766.776795
886.289954	2747.396079
886.599382	2733.250601
886.908768	2722.633931
887.218113	2706.565253
887.527417	2693.364992
887.836680	2687.219825
888.145901	2679.481654
888.455082	2671.377999
888.764221	2663.198727
889.073319	2653.479382
889.382376	2653.202119
889.691392	2653.519712
890.000366	2656.226811
890.309300	2652.708086
890.618193	2654.517860
890.927044	2657.103972
891.235855	2658.515495
891.544625	2656.428457
891.853353	2657.862666
892.162041	2665.288285
892.470687	2682.844104
892.779293	2694.221988
893.087858	2701.274562
893.396381	2725.106617
893.704864	2763.613471
894.013306	2835.908658
894.321707	2921.000814
894.630068	2966.507310
894.938387	2987.269302
895.246665	2981.255206
895.554903	2937.752568
895.863100	2896.470560
896.171256	2844.201356
896.479371	2781.123918
896.787446	2743.406005
897.095480	2727.596947
897.403473	2724.174003
897.711425	2706.635829
898.019336	2690.060515
898.327207	2676.782116
898.635038	2676.618279
898.942827	2673.028977
899.250576	2663.423058
899.558284	2656.796462
899.865952	2650.434526
900.173579	2648.710451
900.481165	2645.350522
900.788711	2637.637557
901.096216	2631.421814
901.403681	2630.572379
901.711105	2629.561628
902.018489	2627.456946
902.325832	2633.554222
902.633135	2631.051289
902.940397	2645.889925
903.247619	2681.571212
903.554800	2747.983373
903.861941	2868.449306
904.169041	2991.425733
904.476101	3046.333981
904.783121	3039.110008
905.090100	2982.507932
905.397039	2909.842220
905.703938	2844.337467
906.010796	2785.580298
906.317614	2736.444172
906.624391	2701.277083
906.931129	2674.843792
907.237826	2654.043992
907.544483	2638.068575
907.851099	2624.744806
908.157675	2616.336161
908.464211	2611.715943
908.770707	2597.058789
909.077163	2593.751792
909.383578	2592.879672
909.689954	2592.234404
909.996289	2586.762232
910.302584	2590.066708
910.608839	2585.746439
910.915054	2586.147211
911.221229	2588.012438
911.527363	2590.480083
911.833458	2591.576534
912.139513	2589.290371
912.445527	2591.211050
912.751502	2598.301433
913.057436	2599.816300
913.363331	2607.115891
913.669186	2616.729371
913.975000	2630.834519
914.280775	2645.635347
914.586510	2659.743016
914.892205	2697.995292
915.197859	2761.344951
915.503475	2840.871674
915.809050	2903.185377
916.114585	2913.910431
916.420081	2926.924170
916.725536	2937.296344
917.030952	2914.099475
917.336328	2867.055427
917.641665	2821.196050
917.946961	2776.675100
918.252218	2743.587487
918.557435	2718.553117
918.862612	2699.384129
919.167750	2682.075328
919.472848	2666.130158
919.777906	2651.601553
920.082925	2638.655870
920.387904	2628.792852
920.692843	2627.010804
920.997743	2621.420165
921.302603	2615.322889
921.607423	2606.914244
921.912204	2603.675303
922.216946	2599.813779
922.521647	2600.968203
922.826310	2595.281782
923.130932	2592.544435
923.435516	2583.856007
923.740059	2584.960019
924.044564	2581.514391
924.349028	2579.868454
924.653454	2571.797567
924.957840	2569.808832
925.262186	2570.469223
925.566493	2569.708008
925.870761	2563.779612
926.174989	2562.877245
926.479178	2564.755075
926.783328	2564.152657
927.087438	2565.390260
927.391509	2563.366237
927.695541	2559.882800
927.999533	2560.230639
928.303486	2559.184600
928.607400	2558.224260
928.911275	2558.962789
929.215110	2557.218550
929.518906	2556.792572
929.822663	2557.059753
930.126381	2556.114537
930.430060	2556.558159
930.733699	2558.753581
931.037299	2555.577654
931.340861	2558.960268
931.644383	2558.209137
931.947866	2557.636966
932.251309	2559.487069
932.554714	2554.806358
932.858080	2559.892882
933.161407	2557.193344
933.464694	2558.088149
933.767943	2556.820299
934.071153	2553.644372
934.374323	2551.862324
934.677455	2556.593447
934.980548	2552.091696
935.283602	2555.335679
935.586617	2557.586554
935.889593	2552.870555
936.192530	2554.972716
936.495428	2552.731923
936.798287	2553.576316
937.101108	2557.344579
937.403890	2558.733417
937.706632	2562.526885
938.009336	2566.232133
938.312002	2567.343707
938.614628	2570.133986
938.917216	2574.741601
939.219765	2575.409553
939.522275	2577.761252
939.824747	2576.775706
940.127179	2571.265725
940.429573	2567.331104
940.731929	2568.543502
941.034246	2565.241546
941.336524	2565.821279
941.638763	2566.053172
941.940964	2567.752041
942.243126	2562.665517
942.545250	2562.305074
942.847335	2563.724159
943.149381	2558.123437
943.451389	2562.358006
943.753359	2559.199723
944.055290	2559.345917
944.357182	2557.405072
944.659036	2559.776935
944.960851	2556.253169
945.262628	2556.419527
945.564367	2558.415824
945.866067	2559.177038
946.167729	2556.560679
946.469352	2560.263407
946.770937	2559.171997
947.072484	2555.980947
947.373992	2559.555125
947.675462	2557.074877
947.976893	2558.378015
948.278286	2556.147305
948.579641	2557.321893
948.880958	2554.594629
949.182236	2555.393652
949.483476	2555.718807
949.784678	2553.808209
950.085841	2552.011038
950.386967	2554.758467
950.688054	2555.565051
950.989103	2556.175031
951.290114	2555.812068
951.591087	2558.730896
951.892021	2561.690053
952.192917	2560.517985
952.493776	2562.952862
952.794596	2563.320867
953.095378	2564.437482
953.396122	2563.593089
953.696828	2560.936401
953.997496	2560.520506
954.298126	2556.989177
954.598718	2556.109496
954.899272	2556.167469
955.199788	2555.229815
955.500266	2554.909701
955.800706	2551.970709
956.101108	2548.157076
956.401472	2547.587425
956.701798	2546.896787
957.002087	2546.551468
957.302337	2550.125646
957.602550	2547.819318
957.902724	2545.586087
958.202861	2545.379400
958.502960	2546.291849
958.803022	2545.760007
959.103045	2544.872764
959.403031	2542.982331
959.702979	2545.356715
960.002889	2544.356046
960.302762	2544.431663
960.602596	2543.977959
960.902393	2542.889070
961.202153	2542.004348
961.501875	2542.604245
961.801559	2543.650284
962.101205	2543.599873
962.400814	2540.688606
962.700385	2540.071065
962.999918	2545.200439
963.299414	2540.244985
963.598873	2542.004347
963.898293	2543.582229
964.197677	2540.403781
964.497022	2541.732125
964.796331	2541.444779
965.095601	2539.945036
965.394835	2542.039636
965.694030	2540.355890
965.993189	2542.921838
966.292309	2538.835982
966.591393	2540.945705
966.890439	2539.317412
967.189447	2541.903524
967.488419	2539.143493
967.787353	2537.351363
968.086249	2542.846220
968.385108	2541.406971
968.683930	2542.957126
968.982714	2542.949564
969.281462	2542.243802
969.580172	2538.606610
969.878844	2542.001827
970.177480	2541.202804
970.476078	2541.512835
970.774639	2541.197763
971.073162	2542.319420
971.371649	2540.126518
971.670098	2536.940508
971.968510	2539.370345
972.266885	2538.125180
972.565223	2542.508463
972.863524	2539.236754
973.161788	2542.803370
973.460014	2543.937630
973.758204	2543.743546
974.056356	2544.086344
974.354471	2540.060983
974.652550	2542.853782
974.950591	2543.352856
975.248595	2542.495860
975.546563	2541.530479
975.844493	2541.003678
976.142386	2541.749769
976.440243	2542.490819
976.738062	2538.097453
977.035845	2540.749100
977.333590	2540.018133
977.631299	2542.281611
977.928971	2540.222300
978.226606	2537.931095
978.524204	2540.368493
978.821765	2540.494522
979.119290	2540.320602
979.416777	2540.794471
979.714228	2542.057280
980.011642	2539.866898
980.309020	2540.882691
980.606360	2542.145500
980.903664	2543.231868
981.200931	2541.036446
981.498162	2541.550644
981.795356	2543.196580
982.092513	2547.100954
982.389633	2550.430636
982.686717	2549.573640
982.983764	2553.084804
983.280775	2555.822150
983.577749	2554.713096
983.874686	2555.887685
984.171587	2551.635472
984.468451	2549.298897
984.765279	2547.365615
985.062070	2547.473999
985.358824	2544.260264
985.655543	2543.529297
985.952224	2543.360418
986.248869	2541.764893
986.545478	2536.990920
986.842050	2538.465458
987.138586	2537.719367
987.435086	2536.474202
987.731549	2533.666279
988.027975	2542.032074
988.324366	2539.113246
988.620719	2540.267670
988.917037	2538.898997
989.213318	2539.324974
989.509563	2534.430014
989.805772	2538.662063
990.101944	2537.139634
990.398080	2539.657690
990.694180	2536.050745
990.990244	2539.304810
991.286271	2538.465458
991.582262	2536.953111
991.878217	2537.361445
992.174136	2539.637526
992.470019	2538.644418
992.765865	2539.471168
993.061676	2536.149047
993.357450	2538.533513
993.653188	2538.485622
993.948890	2539.377906
994.244556	2537.283307
994.540186	2540.144162
994.835780	2537.058976
995.131337	2539.080478
995.426859	2541.943854
995.722345	2539.864378
996.017795	2541.669111
996.313208	2541.623740
996.608586	2543.879657
996.903928	2539.456044
997.199234	2540.292876
997.494504	2540.572660
997.789738	2542.760521
998.084936	2540.434028
998.380099	2538.551157
998.675225	2540.739018
998.970316	2537.643749
999.265371	2541.172557
999.560390	2538.014274
999.855373	2537.197607
1000.150320	2538.798174
1000.445232	2538.611651
1000.740108	2538.634336
1001.034948	2539.007382
1001.329752	2535.730632
1001.624521	2537.205169
1001.919254	2530.694519
1002.213951	2536.201979
1002.508613	2533.273069
1002.803239	2532.073274
1003.097829	2530.550846
1003.392384	2537.863040
1003.686903	2535.075282
1003.981386	2538.735159
1004.275834	2534.639222
1004.570246	2536.441434
1004.864623	2535.624767
1005.158964	2535.135775
1005.453270	2536.600231
1005.747540	2538.029398
1006.041775	2533.343645
1006.335974	2536.731301
1006.630138	2535.765920
1006.924266	2536.166691
1007.218359	2538.684748
1007.512416	2537.038811
1007.806438	2532.330373
1008.100425	2535.491177
1008.394376	2533.900693
1008.688292	2535.183666
1008.982172	2537.232895
1009.276017	2536.852288
1009.569827	2536.431352
1009.863602	2536.741383
1010.157341	2536.257432
1010.451045	2538.490663
1010.744714	2535.365148
1011.038347	2535.513862
1011.331945	2535.660055
1011.625508	2534.205682
1011.919036	2534.261135
1012.212528	2535.776002
1012.505986	2536.484284
1012.799408	2538.795653
1013.092795	2536.517052
1013.386147	2535.402957
1013.679464	2534.684592
1013.972745	2536.509490
1014.265992	2536.375899
1014.559204	2537.578214
1014.852380	2537.200128
1015.145521	2538.099974
1015.438628	2533.963707
1015.731699	2537.603420
1016.024736	2533.762061
1016.317737	2536.363296
1016.610703	2537.061496
1016.903635	2534.336753
1017.196531	2531.546474
1017.489393	2531.206196
1017.782219	2530.455064
1018.075011	2533.431865
1018.367768	2530.641587
1018.660490	2537.631147
1018.953177	2537.631147
1019.245829	2537.631147
