Dividing Wavelength (nm)	Counts (n)	Blue Motor Position (mm): 10.000000	Red Motor Position (mm): 0.000000	
326.493990	2162.844043
326.888308	2162.844043
327.282561	2162.844043
327.676750	2119.795110
328.070874	2114.839656
328.464933	2118.859976
328.858929	2122.618156
329.252859	2124.135543
329.646726	2135.316823
330.040528	2146.717392
330.434265	2157.840698
330.827938	2178.552279
331.221547	2194.240349
331.615091	2210.104861
332.008571	2230.198900
332.401986	2250.179513
332.795338	2269.328336
333.188625	2288.293157
333.581847	2305.884263
333.975006	2322.099134
334.368100	2338.331650
334.761129	2358.589527
335.154095	2375.787423
335.546996	2394.268293
335.939833	2416.847621
336.332606	2432.581062
336.725315	2445.085644
337.117960	2457.406224
337.510540	2470.790488
337.903056	2483.811788
338.295508	2489.924187
338.687896	2498.746206
339.080220	2506.890190
339.472480	2511.646519
339.864676	2517.562313
340.256807	2523.352078
340.648875	2526.575896
341.040879	2532.481608
341.432818	2531.682585
341.824694	2535.231557
342.216506	2532.655528
342.608253	2536.038142
342.999937	2535.972607
343.391557	2537.379089
343.783113	2537.963863
344.174605	2536.834644
344.566033	2536.217103
344.957397	2534.485467
345.348697	2531.579241
345.739934	2531.498583
346.131106	2531.029756
346.522215	2528.718387
346.913260	2523.906605
347.304241	2523.150432
347.695159	2521.983405
348.086012	2521.701100
348.476802	2517.171624
348.867528	2514.555265
349.258191	2509.761128
349.648789	2512.009482
350.039324	2507.779954
350.429796	2511.921262
350.820203	2509.383041
351.210548	2507.434635
351.600828	2508.019409
351.991045	2505.226610
352.381198	2503.189983
352.771288	2504.167967
353.161314	2504.236023
353.551276	2503.235354
353.941175	2501.120590
354.331010	2504.546054
354.720782	2502.073368
355.110490	2500.056906
355.500135	2504.278873
355.889717	2500.709736
356.279235	2502.217041
356.668689	2503.757113
357.058080	2499.565394
357.447408	2502.053203
357.836672	2501.735611
358.225873	2504.500683
358.615010	2501.425580
359.004084	2503.252998
359.393095	2506.018071
359.782043	2506.343225
360.170927	2504.122597
360.559748	2505.219048
360.948505	2506.738956
361.337199	2508.281549
361.725830	2508.999913
362.114398	2508.916734
362.502903	2506.519666
362.891344	2508.435304
363.279722	2510.542506
363.668037	2512.077538
364.056289	2510.136693
364.444478	2511.248268
364.832603	2510.139214
365.220665	2512.574091
365.608665	2509.345232
365.996601	2515.240862
366.384474	2514.048629
366.772284	2514.673732
367.160031	2513.940244
367.547715	2516.110461
367.935336	2516.241531
368.322893	2514.061232
368.710388	2510.971004
369.097820	2513.778927
369.485189	2510.209790
369.872495	2515.581140
370.259738	2516.060049
370.646918	2516.039885
371.034035	2515.326561
371.421090	2517.738753
371.808081	2515.704648
372.195010	2516.738084
372.581875	2516.223887
372.968678	2518.389062
373.355418	2520.544156
373.742096	2519.162879
374.128710	2520.372756
374.515262	2519.528363
374.901751	2520.720596
375.288177	2519.997190
375.674540	2520.460977
376.060841	2519.150277
376.447079	2522.195133
376.833254	2520.213960
377.219367	2521.093641
377.605417	2521.940555
377.991404	2521.993487
378.377329	2522.802593
378.763191	2523.825947
379.148991	2522.943745
379.534727	2522.626152
379.920402	2521.665812
380.306013	2523.583971
380.691563	2522.038858
381.077049	2523.478107
381.462474	2524.284692
381.847835	2524.871986
382.233134	2524.388035
382.618371	2522.893333
383.003545	2523.513395
383.388657	2523.606657
383.773706	2529.406504
384.158693	2523.999867
384.543618	2524.708149
384.928480	2525.275278
385.313280	2523.188241
385.698017	2525.958355
386.082692	2527.586648
386.467305	2528.456247
386.851856	2527.972296
387.236344	2526.162522
387.620770	2525.338293
388.005133	2521.474248
388.389435	2524.405679
388.773674	2525.577748
389.157851	2526.563293
389.541965	2526.044054
389.926018	2527.105217
390.310008	2527.432892
390.693936	2528.146216
391.077802	2529.066226
391.461606	2527.067409
391.845348	2528.572193
392.229027	2532.716022
392.612645	2528.000022
392.996200	2529.093953
393.379694	2529.829961
393.763125	2529.288037
394.146494	2527.085053
394.529801	2528.700743
394.913047	2529.076308
395.296230	2533.162164
395.679351	2530.818027
396.062410	2529.850126
396.445408	2531.853984
396.828343	2530.349200
397.211217	2530.571011
397.594028	2529.472039
397.976778	2533.245343
398.359466	2532.020342
398.742092	2534.205683
399.124656	2533.991433
399.507158	2531.123017
399.889598	2534.472864
400.271977	2529.608150
400.654294	2533.663758
401.036549	2531.385157
401.418742	2533.232740
401.800874	2533.424304
402.182944	2533.711649
402.564952	2535.052596
402.946898	2534.581248
403.328783	2534.041845
403.710606	2534.820703
404.092367	2534.278779
404.474067	2534.498069
404.855705	2535.516382
405.237282	2532.242153
405.618797	2532.000178
406.000250	2535.985210
406.381642	2534.735004
406.762972	2532.370703
407.144240	2531.017153
407.525447	2533.663758
407.906593	2529.645959
408.287677	2534.944212
408.668700	2537.694161
409.049661	2534.571166
409.430560	2536.393543
409.811399	2537.817669
410.192176	2534.982020
410.572891	2538.677186
410.953545	2536.375899
411.334138	2536.196938
411.714669	2538.445293
412.095139	2538.563760
412.475547	2538.170550
412.855894	2538.460416
413.236180	2537.091743
413.616405	2536.552340
413.996568	2535.929757
414.376670	2539.723225
414.756711	2536.731301
415.136691	2538.344470
415.516609	2537.754655
415.896466	2536.096115
416.276262	2539.120808
416.655997	2539.138452
417.035670	2539.327495
417.415283	2541.326312
417.794834	2539.529141
418.174324	2542.755479
418.553753	2539.135931
418.933121	2540.086188
419.312428	2540.872608
419.691674	2537.792463
420.070859	2537.994110
420.449983	2540.847403
420.829045	2539.992927
421.208047	2540.781868
421.586988	2537.575694
421.965867	2543.947712
422.344686	2539.430838
422.723444	2540.933102
423.102141	2540.149203
423.480777	2544.562733
423.859352	2540.744059
424.237866	2543.579708
424.616319	2541.825387
424.994712	2539.473688
425.373044	2542.717671
425.751314	2538.641898
426.129524	2539.307330
426.507673	2541.064172
426.885762	2534.921526
427.263789	2540.134079
427.641756	2542.155582
428.019662	2542.241282
428.397508	2544.078782
428.775292	2543.826725
429.153016	2541.807742
429.530679	2543.115922
429.908282	2544.648433
430.285824	2542.664739
430.663305	2542.314378
431.040726	2541.543082
431.418086	2540.733977
431.795385	2543.151210
432.172624	2543.743546
432.549802	2544.671118
432.926920	2542.929399
433.303977	2545.923845
433.680974	2545.883515
434.057910	2546.294369
434.434786	2544.976108
434.811601	2546.317055
435.188355	2544.270346
435.565050	2545.001313
435.941683	2543.541899
436.318257	2544.971067
436.694770	2544.635830
437.071222	2544.101468
437.447614	2546.054915
437.823946	2548.565409
438.200218	2544.724050
438.576429	2542.586601
438.952580	2543.725902
439.328670	2541.754810
439.704700	2544.250182
440.080670	2546.110367
440.456580	2544.872764
440.832429	2544.189688
441.208218	2546.312013
441.583947	2546.768238
441.959616	2546.783361
442.335224	2545.679349
442.710773	2544.436704
443.086261	2545.414688
443.461689	2546.833773
443.837057	2545.913762
444.212365	2547.302600
444.587612	2545.908721
444.962800	2541.515356
445.337927	2544.174564
445.712995	2541.074255
446.088002	2544.933258
446.462949	2546.727909
446.837837	2547.234545
447.212664	2550.158414
447.587431	2548.262940
447.962139	2545.404606
448.336786	2546.987528
448.711374	2549.102292
449.085901	2546.594318
449.460369	2548.419216
449.834776	2547.950388
450.209124	2546.279246
450.583412	2547.443753
450.957640	2547.509287
451.331808	2546.904349
451.705917	2547.955430
452.079965	2547.995759
452.453954	2549.379556
452.827883	2550.458363
453.201752	2547.660522
453.575562	2547.983156
453.949311	2549.487940
454.323001	2549.724875
454.696632	2547.221942
455.070202	2548.772097
455.443713	2549.455173
455.817164	2547.584905
456.190556	2549.130018
456.563888	2549.745039
456.937160	2548.038609
457.310373	2548.807385
457.683526	2550.244113
458.056619	2550.236552
458.429653	2550.453321
458.802628	2549.530790
459.175542	2548.588094
459.548398	2551.433826
459.921194	2547.287477
460.293930	2549.913918
460.666607	2550.556665
461.039224	2548.280584
461.411782	2552.505071
461.784280	2550.375183
462.156719	2550.735626
462.529099	2552.338713
462.901419	2553.208312
463.273680	2550.823846
463.645882	2545.326468
464.018024	2548.101623
464.390106	2545.586087
464.762130	2550.700338
465.134094	2552.860472
465.505999	2550.596994
465.877845	2551.766542
466.249631	2552.114382
466.621358	2550.438198
466.993026	2553.462890
467.364634	2557.261400
467.736184	2552.742005
468.107674	2553.294012
468.479105	2551.489278
468.850477	2553.606563
469.221790	2553.011707
469.593043	2552.346275
469.964238	2552.794937
470.335373	2551.564896
470.706449	2554.271995
471.077467	2549.987015
471.448425	2553.447767
471.819324	2553.677139
472.190164	2555.290308
472.560945	2553.954403
472.931667	2552.976419
473.302330	2552.210163
473.672934	2552.477345
474.043479	2552.646223
474.413965	2555.406255
474.784393	2554.455998
475.154761	2553.160421
475.525070	2553.425082
475.895321	2553.304094
476.265513	2555.459187
476.635645	2556.071687
477.005719	2553.599001
477.375734	2556.409445
477.745691	2555.265103
478.115588	2555.910370
478.485427	2554.206460
478.855207	2555.809547
479.224928	2556.404403
479.594591	2556.532953
479.964194	2558.889692
480.333739	2557.261400
480.703226	2554.496327
481.072653	2556.459856
481.442022	2555.507078
481.811333	2553.082283
482.180584	2553.654454
482.549777	2557.548745
482.918912	2554.244269
483.287988	2557.770556
483.657005	2555.965823
484.025964	2559.592933
484.394864	2560.694425
484.763706	2558.541853
485.132489	2556.845504
485.501213	2558.665361
485.869879	2557.115206
486.238487	2561.044786
486.607036	2556.364074
486.975527	2560.971689
487.343959	2557.367264
487.712333	2558.130999
488.080648	2555.048333
488.448905	2556.812737
488.817104	2556.485062
489.185244	2558.027655
489.553326	2559.257697
489.921350	2558.907336
490.289315	2557.904147
490.657222	2558.778787
491.025070	2561.725341
491.392861	2559.688715
491.760593	2559.615618
492.128267	2561.843808
492.495883	2559.192162
492.863440	2562.045455
493.230939	2559.126627
493.598380	2562.204251
493.965763	2560.301215
494.333088	2559.252655
494.700354	2560.555794
495.067563	2561.072512
495.434713	2561.064950
495.801805	2558.509085
496.168839	2561.652245
496.535815	2560.981771
496.902733	2561.785835
497.269593	2561.526216
497.636395	2561.904302
498.003139	2560.500341
498.369825	2560.550752
498.736453	2559.177038
499.103023	2559.756771
499.469535	2563.144426
499.835989	2561.672409
500.202385	2559.290464
500.568723	2557.208468
500.935003	2556.308622
501.301226	2555.113868
501.667390	2558.630073
502.033497	2562.216854
502.399546	2560.109652
502.765537	2563.572924
503.131470	2562.181566
503.497345	2561.604354
503.863163	2561.863973
504.228923	2561.818603
504.594625	2562.153839
504.960269	2560.800290
505.325856	2560.543191
505.691385	2561.581668
506.056856	2560.013870
506.422270	2564.008984
506.787625	2560.134857
507.152924	2561.422872
507.518164	2559.260217
507.883347	2562.221895
508.248472	2561.553942
508.613540	2564.008984
508.978550	2561.420352
509.343503	2559.300546
509.708398	2563.739282
510.073236	2563.129303
510.438016	2562.418500
510.802738	2562.042934
511.167403	2560.991853
511.532010	2562.426062
511.896561	2560.427244
512.261053	2565.125600
512.625488	2563.305743
512.989866	2562.388253
513.354186	2562.020249
513.718449	2563.474622
514.082655	2563.840105
514.446803	2563.333469
514.810894	2564.268603
515.174927	2563.318346
515.538904	2562.297512
515.902822	2565.760785
516.266684	2562.695763
516.630488	2564.293809
516.994235	2563.648542
517.357925	2563.754406
517.721558	2565.027297
518.085133	2565.932184
518.448651	2563.479663
518.812112	2562.925136
519.175516	2562.791545
519.538863	2561.241391
519.902152	2566.348079
520.265385	2565.982596
520.628560	2567.502504
520.991678	2567.464695
521.354739	2565.866649
521.717743	2565.344890
522.080690	2569.269428
522.443580	2568.097360
522.806413	2567.830179
523.169189	2566.706001
523.531908	2572.019377
523.894569	2568.770354
524.257174	2571.031311
524.619722	2570.423852
524.982213	2573.287228
525.344647	2570.817062
525.707025	2573.486353
526.069345	2570.943091
526.431608	2572.281517
526.793815	2573.115828
527.155964	2574.396282
527.518057	2571.381672
527.880093	2574.925603
528.242072	2577.622620
528.603995	2578.101530
528.965860	2578.265367
529.327669	2576.735377
529.689421	2576.195973
530.051117	2578.469534
530.412755	2578.280491
530.774337	2580.123032
531.135862	2581.794175
531.497331	2580.909452
531.858743	2581.194277
532.220098	2581.232086
532.581396	2581.789134
532.942638	2582.134453
533.303824	2585.766604
533.664953	2587.062181
534.026025	2584.881882
534.387040	2585.086048
534.747999	2588.756008
535.108902	2587.518405
535.469748	2587.914136
535.830537	2590.608632
536.191270	2589.907912
536.551947	2584.695359
536.912567	2584.733168
537.273131	2589.630648
537.633638	2587.543611
537.994089	2593.524940
538.354483	2590.520412
538.714821	2593.920670
539.075103	2593.227512
539.435328	2596.484097
539.795497	2599.110538
540.155609	2597.325970
540.515665	2596.852101
540.875665	2596.615167
541.235609	2596.993254
541.595496	2599.017277
541.955328	2598.971907
542.315102	2599.959973
542.674821	2603.307299
543.034483	2598.508120
543.394090	2603.715632
543.753640	2601.893255
544.113134	2603.771085
544.472571	2603.667741
544.831953	2603.002309
545.191278	2604.905345
545.550548	2605.051538
545.909761	2606.276538
546.268918	2608.209821
546.628019	2605.288472
546.987064	2606.473143
547.346053	2606.906683
547.704986	2607.962804
548.063863	2612.784668
548.422684	2609.568412
548.781449	2608.650922
549.140158	2608.091354
549.498811	2609.838114
549.857408	2608.713936
550.215949	2608.905500
550.574434	2609.739811
550.932864	2610.687548
551.291237	2611.801643
551.649555	2610.543875
552.007817	2611.231993
552.366022	2612.711571
552.724173	2611.116046
553.082267	2610.178392
553.440305	2613.608897
553.798288	2612.106633
554.156215	2617.717437
554.514086	2613.440018
554.871902	2607.204111
555.229661	2610.362394
555.587365	2608.401385
555.945014	2614.559154
556.302606	2615.416150
556.660143	2614.637292
557.017625	2616.883126
557.375050	2615.464041
557.732421	2616.094186
558.089735	2617.334309
558.446994	2611.925151
558.804197	2618.403034
559.161345	2617.667026
559.518437	2612.247785
559.875474	2616.106788
560.232455	2615.060749
560.589381	2618.735750
560.946251	2613.359360
561.303065	2616.464710
561.659825	2618.660133
562.016528	2618.347581
562.373177	2615.489247
562.729770	2615.529576
563.086307	2620.462345
563.442789	2618.730709
563.799216	2616.701645
564.155587	2616.905811
564.511904	2616.575616
564.868164	2616.368928
565.224370	2617.404886
565.580520	2614.029833
565.936615	2618.211470
566.292654	2615.259875
566.648638	2616.691562
567.004567	2615.466562
567.360441	2615.501850
567.716260	2613.296345
568.072023	2615.547220
568.427732	2614.599483
568.783385	2615.204422
569.138982	2616.053856
569.494525	2615.496809
569.850013	2615.368259
570.205445	2614.082765
570.560823	2616.636110
570.916145	2615.635441
571.271412	2612.320882
571.626625	2616.931017
571.981782	2613.326592
572.336884	2613.719802
572.691931	2611.937754
573.046923	2608.887856
573.401860	2608.661004
573.756743	2612.066304
574.111570	2615.267436
574.466342	2612.683845
574.821059	2611.179061
575.175722	2612.013372
575.530330	2611.617641
575.884882	2614.841459
576.239380	2614.191150
576.593823	2616.557972
576.948211	2613.387086
577.302544	2612.134359
577.656823	2613.538321
578.011047	2612.507405
578.365216	2612.225100
578.719330	2613.359360
579.073389	2613.961778
579.427394	2613.810543
579.781344	2611.484050
580.135239	2614.738115
580.489080	2611.012703
580.842866	2611.612600
581.196597	2613.039246
581.550273	2614.481016
581.903895	2615.050667
582.257463	2612.628392
582.610975	2614.523866
582.964434	2614.778444
583.317837	2612.257867
583.671186	2615.983280
584.024481	2617.351953
584.377721	2613.505553
584.730906	2616.381531
585.084037	2616.237858
585.437113	2617.044443
585.790135	2615.459000
586.143103	2616.353805
586.496016	2616.603342
586.848874	2614.702827
587.201679	2618.095524
587.554428	2616.943620
587.907124	2616.575616
588.259765	2616.318517
588.612352	2621.170627
588.964884	2617.402365
589.317362	2617.604011
589.669786	2618.093003
590.022155	2616.820112
590.374470	2619.174331
590.726731	2618.103085
591.078937	2616.744494
591.431090	2618.589557
591.783188	2621.548714
592.135232	2622.178858
592.487222	2625.175824
592.839157	2623.411420
593.191038	2624.238170
593.542866	2622.882099
593.894639	2624.409569
594.246358	2627.366206
594.598022	2625.649693
594.949633	2625.304374
595.301190	2626.368057
595.652692	2627.043572
596.004141	2626.136164
596.355535	2628.102214
596.706876	2626.486524
597.058162	2627.277985
597.409395	2629.044910
597.760573	2633.012298
598.111698	2629.231432
598.462768	2631.164715
598.813785	2632.041876
599.164748	2632.535909
599.515657	2633.047586
599.866511	2634.386012
600.217312	2636.248719
600.568060	2633.949952
600.918753	2636.722587
601.269392	2639.538072
601.619978	2633.312247
601.970510	2642.489667
602.320988	2641.383134
602.671412	2640.700057
603.021783	2642.910603
603.372100	2643.835655
603.722363	2645.819349
604.072572	2644.942188
604.422728	2646.431849
604.772830	2644.687610
605.122878	2648.007210
605.472872	2647.505615
605.822813	2651.200781
606.172701	2652.093065
606.522534	2655.662202
606.872314	2656.015083
607.222041	2658.828047
607.571714	2655.866369
607.921333	2659.286792
608.270899	2661.724190
608.620411	2666.067144
608.969870	2669.459840
609.319276	2670.372289
609.668627	2677.669359
610.017926	2684.661440
610.367171	2687.522294
610.716362	2692.432378
611.065500	2691.580423
611.414585	2693.612008
611.763616	2695.262986
612.112594	2693.609488
612.461518	2694.221988
612.810389	2699.048893
613.159207	2697.682740
613.507971	2698.116279
613.856682	2706.068699
614.205340	2707.679348
614.553945	2713.703527
614.902496	2710.426777
615.250994	2718.036399
615.599439	2720.579661
615.947830	2724.368088
616.296169	2724.902450
616.644454	2731.987792
616.992686	2730.593913
617.340864	2738.816035
617.688990	2741.845768
618.037063	2751.799527
618.385082	2755.910587
618.733048	2763.789911
619.080961	2764.977103
619.428821	2776.397837
619.776628	2779.977056
620.124382	2785.020730
620.472083	2790.550876
620.819731	2796.988430
621.167326	2791.218829
621.514868	2792.731175
621.862357	2794.785445
622.209793	2800.320632
622.557176	2800.524799
622.904506	2798.407514
623.251783	2800.154274
623.599007	2801.240643
623.946179	2804.540078
624.293297	2809.586273
624.640363	2811.582570
624.987376	2811.713640
625.334336	2811.141469
625.681243	2817.871409
626.028097	2818.569609
626.374899	2832.145437
626.721647	2832.478153
627.068343	2834.504697
627.414987	2841.406036
627.761577	2850.051615
628.108115	2858.896319
628.454600	2855.669981
628.801032	2864.703729
629.147412	2869.699512
629.493739	2876.951212
629.840014	2886.668036
630.186236	2889.266751
630.532405	2896.039541
630.878521	2908.307189
631.224585	2916.161307
631.570597	2925.444591
631.916556	2933.391970
632.262462	2939.116201
632.608316	2957.050105
632.954117	2959.295939
633.299866	2973.219606
633.645562	2979.261429
633.991206	2976.839155
634.336797	2976.224134
634.682336	2987.402893
635.027823	2985.648571
635.373257	2992.842298
635.718639	2991.035044
636.063968	2996.958400
636.409245	2995.148626
636.754470	2998.811024
637.099642	3007.958198
637.444762	3005.828310
637.789829	3019.320958
638.134845	3020.369518
638.479808	3029.851929
638.824719	3037.264945
639.169577	3039.236037
639.514383	3048.834393
639.859137	3055.647513
640.203839	3070.070254
640.548489	3066.798545
640.893086	3083.547779
641.237632	3077.498394
641.582125	3100.783484
641.926566	3104.796242
642.270955	3114.576081
642.615292	3122.246196
642.959576	3130.543936
643.303809	3149.402892
643.647990	3158.335817
643.992118	3174.306192
644.336195	3167.450223
644.680219	3194.070036
645.024192	3211.015874
645.368112	3226.376270
645.711981	3248.942995
646.055797	3275.809825
646.399562	3295.077115
646.743274	3323.665498
647.086935	3371.853888
647.430544	3390.017165
647.774101	3404.076943
648.117606	3446.190743
648.461059	3444.880043
648.804460	3470.700833
649.147810	3463.471818
649.491108	3451.763738
649.834354	3472.261070
650.177548	3461.762867
650.520690	3457.104841
650.863781	3465.306798
651.206820	3476.314157
651.549807	3476.677120
651.892742	3479.278356
652.235626	3482.789519
652.578458	3499.387518
652.921238	3488.972495
653.263967	3521.371990
653.606644	3522.612114
653.949269	3526.534132
654.291843	3540.667007
654.634365	3555.319120
654.976836	3564.458732
655.319255	3579.556988
655.661622	3598.592385
656.003938	3600.785287
656.346203	3609.788788
656.688416	3627.518526
657.030577	3639.594610
657.372687	3647.892349
657.714746	3659.479441
658.056753	3685.902649
658.398708	3693.625697
658.740612	3704.897717
659.082465	3734.721183
659.424266	3731.252869
659.766016	3760.158845
660.107715	3766.447685
660.449362	3784.232875
660.790958	3810.651042
661.132503	3819.067248
661.473996	3844.802339
661.815438	3862.569886
662.156829	3882.212742
662.498168	3898.268817
662.839456	3914.518976
663.180693	3929.866769
663.521879	3964.993529
663.863013	3980.737052
664.204097	3995.013600
664.545129	4029.820247
664.886110	4036.192265
665.227040	4076.211465
665.567918	4104.063840
665.908746	4127.908498
666.249522	4128.349599
666.590248	4157.489988
666.930922	4202.215105
667.271545	4217.908217
667.612118	4252.866099
667.952639	4257.695524
668.293109	4276.380561
668.633528	4288.040750
668.973896	4289.043939
669.314213	4353.822766
669.654480	4302.685302
669.994695	4324.634485
670.334859	4361.389538
670.674973	4368.447153
671.015035	4397.695928
671.355047	4399.669540
671.695008	4414.674534
672.034918	4434.332514
672.374777	4465.915342
672.714585	4471.140498
673.054342	4501.808358
673.394049	4510.670706
673.733705	4541.134399
674.073310	4552.363569
674.412864	4585.776337
674.752368	4573.654883
675.091820	4576.437599
675.431223	4620.653560
675.770574	4592.234055
676.109875	4602.434830
676.449125	4608.832054
676.788324	4607.987661
677.127473	4593.373356
677.466571	4601.676136
677.805619	4606.530767
678.144616	4607.488587
678.483562	4630.062873
678.822458	4604.526909
679.161303	4615.710708
679.500098	4643.883197
679.838842	4644.742713
680.177535	4659.316689
680.516179	4684.794681
680.854771	4696.485117
681.193314	4777.065440
681.531805	4814.672448
681.870247	4963.225169
682.208638	5066.304163
682.546978	5188.201783
682.885268	5234.524946
683.223508	5156.593749
683.561697	5143.711080
683.899836	5141.014063
684.237925	5098.794399
684.575963	5108.168425
684.913951	5138.188496
685.251889	5102.116520
685.589776	5183.097615
685.927614	5186.661711
686.265401	5170.593033
686.603137	5230.373556
686.940824	5291.444614
687.278460	5343.398746
687.616046	5392.794492
687.953582	5464.184792
688.291068	5437.943065
688.628504	5535.491913
688.965889	5560.359925
689.303224	5591.897383
689.640510	5580.645528
689.977745	5499.218290
690.314930	5456.292865
690.652065	5458.911745
690.989150	5375.349579
691.326185	5329.631354
691.663170	5283.585455
692.000105	5219.048604
692.336990	5223.696548
692.673825	5139.748733
693.010610	5120.468840
693.347345	5067.955141
693.684030	5010.773333
694.020665	5013.982027
694.357251	4969.430830
694.693786	4987.475640
695.030272	4912.211213
695.366707	4907.069236
695.703093	4896.581116
696.039429	4909.360441
696.375716	4924.758645
696.711952	4866.248493
697.048139	4902.028082
697.384276	4912.284310
697.720363	4917.254888
698.056400	4905.672837
698.392388	4920.476185
698.728326	4911.749948
699.064214	4896.013986
699.400053	4954.718222
699.735842	4881.505545
700.071581	4882.964959
700.407270	4869.996591
700.742910	4857.368500
701.078501	4845.196634
701.414042	4805.190037
701.749533	4792.685455
702.084974	4746.153085
702.420366	4796.788955
702.755709	4778.003095
703.091002	4740.360799
703.426246	4755.822018
703.761440	4754.357563
704.096584	4745.243157
704.431679	4725.933017
704.766725	4745.633846
705.101721	4730.492740
705.436668	4761.132873
705.771565	4728.985435
706.106413	4770.544708
706.441212	4819.660670
706.775961	4801.641065
707.110661	4819.980783
707.445311	4908.710132
707.779913	4868.065829
708.114465	4936.832208
708.448967	4971.348989
708.783421	5019.847409
709.117825	5119.684941
709.452180	5146.922295
709.786485	5180.322460
710.120742	5318.364376
710.454949	5322.702288
710.789107	5366.663671
711.123216	5455.156085
711.457275	5544.066916
711.791286	5630.621007
712.125247	5620.188339
712.459159	5660.464637
712.793023	5769.739209
713.126837	5590.329584
713.460602	5672.477707
713.794318	5586.183235
714.127985	5646.911495
714.461602	5546.970620
714.795171	5515.009705
715.128691	5444.126041
715.462162	5332.535059
715.795584	5343.343293
716.128957	5287.789777
716.462281	5190.432494
716.795556	5272.119351
717.128782	5176.055123
717.461960	5040.188465
717.795088	5094.111167
718.128167	5069.984205
718.461198	4996.963092
718.794180	4980.687726
719.127113	5005.091952
719.459997	4933.494965
719.792833	4813.084484
720.125619	4865.250344
720.458357	4798.563441
720.791046	4804.295233
721.123686	4841.612374
721.456278	4758.677832
721.788821	4770.869862
722.121315	4712.679823
722.453761	4767.051188
722.786158	4763.396352
723.118506	4766.819295
723.450805	4768.150160
723.783056	4807.645079
724.115259	4743.577055
724.447412	4757.752780
724.779518	4784.919558
725.111574	4788.052635
725.443582	4846.323332
725.775542	4833.733051
726.107453	4940.212302
726.439315	4902.786776
726.771129	4923.921813
727.102895	5016.230382
727.434612	5092.563533
727.766281	5096.717444
728.097901	5151.229961
728.429473	5136.235049
728.760996	5137.283609
729.092471	5144.903313
729.423897	5150.491432
729.755276	5177.885062
730.086606	5148.285927
730.417887	5198.546231
730.749120	5289.581908
731.080305	5435.747643
731.411442	5503.047047
731.742530	5498.459597
732.073570	5599.673363
732.404562	5668.023847
732.735506	5540.654054
733.066401	5654.440458
733.397249	5628.707889
733.728048	5518.009191
734.058798	5347.053582
734.389501	5254.926496
734.720156	5165.042723
735.050762	5022.930075
735.381320	4972.389987
735.711831	4958.902380
736.042293	4901.413062
736.372707	4932.043112
736.703073	4850.109239
737.033391	4872.512127
737.363661	4879.494125
737.693883	4895.734202
738.024056	4953.352070
738.354182	4990.979242
738.684260	5002.215974
739.014290	5064.461621
739.344272	5131.735819
739.674207	5133.366632
740.004093	5176.745761
740.333931	5198.090007
740.663722	5203.967992
740.993464	5274.594557
741.323159	5302.540194
741.652806	5119.972287
741.982405	5124.968070
742.311956	5222.209407
742.641460	5138.523733
742.970915	5000.242362
743.300323	5031.288308
743.629683	4994.797916
743.958996	4924.032719
744.288260	4881.777767
744.617477	4864.446280
744.946647	4886.125763
745.275768	4776.432775
745.604842	4759.605404
745.933869	4756.532821
746.262847	4728.695569
746.591778	4731.876537
746.920662	4713.882138
747.249498	4709.645049
747.578286	4744.549998
747.907027	4805.489986
748.235720	4840.399977
748.564365	4807.942507
748.892963	4816.187315
749.221514	4957.148058
749.550017	4858.790106
749.878473	4754.392851
750.206881	4811.335204
750.535242	4780.291779
750.863555	4738.757712
751.191821	4770.214512
751.520039	4775.308598
751.848210	4710.517168
752.176334	4723.528386
752.504411	4783.863436
752.832440	4725.849838
753.160421	4653.781502
753.488356	4703.767063
753.816243	4760.429632
754.144082	4642.204493
754.471875	4606.898772
754.799620	4662.961443
755.127318	4672.524512
755.454969	4635.162001
755.782572	4610.165439
756.110129	4659.341895
756.437638	4667.165766
756.765100	4607.793576
757.092515	4604.423565
757.419882	4642.461591
757.747203	4637.430520
758.074477	4694.889591
758.401703	4691.509498
758.728882	4634.688132
759.056014	4668.446219
759.383099	4789.030619
759.710138	4789.857368
760.037129	4765.884161
760.364073	4770.027989
760.690970	4848.982541
761.017820	4852.334908
761.344623	4798.848266
761.671379	4871.839132
761.998088	4967.258093
762.324751	5126.059480
762.651366	5525.994379
762.977935	6372.976281
763.304456	7447.049560
763.630931	8095.954445
763.957359	7899.823314
764.283740	7343.025351
764.610074	6848.974630
764.936362	6156.539382
765.262602	5724.036108
765.588796	5328.103885
765.914943	5073.306325
766.241044	4982.008509
766.567097	4853.486812
766.893104	4652.332171
767.219064	4518.751676
767.544978	4492.124301
767.870845	4446.063279
768.196665	4359.776369
768.522438	4303.723779
768.848165	4292.330772
769.173846	4258.136625
769.499479	4228.600505
769.825066	4182.640305
770.150607	4140.891989
770.476101	4128.213488
770.801548	4131.079383
771.126949	4090.707303
771.452303	4050.068041
771.777611	4017.033360
772.102872	4030.445350
772.428087	4005.274869
772.753256	3983.741580
773.078378	3960.723672
773.403453	3903.405752
773.728482	3900.610432
774.053465	3865.271944
774.378401	3858.337837
774.703291	3871.885938
775.028135	3815.437618
775.352932	3772.489508
775.677683	3762.291253
776.002388	3787.078607
776.327046	3804.478149
776.651658	3737.163622
776.976224	3683.243440
777.300743	3693.232487
777.625216	3716.930951
777.949643	3720.764748
778.274024	3678.328315
778.598359	3636.307777
778.922647	3652.910818
779.246889	3654.624810
779.571086	3662.909946
779.895236	3650.788492
780.219339	3632.315184
780.543397	3619.808081
780.867409	3665.894309
781.191374	3681.431146
781.515294	3629.938280
781.839167	3628.461222
782.162995	3645.719612
782.486776	3634.810555
782.810511	3648.141886
783.134201	3655.766631
783.457844	3626.240593
783.781441	3573.217737
784.104993	3579.529262
784.428498	3598.599947
784.751958	3606.025566
785.075372	3584.502360
785.398739	3553.995817
785.722061	3567.891758
786.045337	3601.642283
786.368568	3638.336842
786.691752	3562.396900
787.014891	3597.473249
787.337983	3689.078576
787.661030	3810.840085
787.984031	3927.293260
788.306987	4070.293150
788.629897	4134.167090
788.952760	4106.728090
789.275579	4071.150147
789.598351	4039.877349
789.921078	3936.511010
790.243759	3773.162502
790.566395	3747.205600
790.888984	3759.039709
791.211529	3664.939011
791.534027	3617.824387
791.856480	3620.506281
792.178888	3563.679874
792.501249	3516.451824
792.823566	3526.808875
793.145836	3558.777352
793.468062	3521.344264
793.790241	3475.270638
794.112375	3501.817355
794.434464	3553.844583
794.756507	3579.481371
795.078505	3559.253741
795.400457	3576.358376
795.722364	3680.362421
796.044226	3760.731016
796.366042	3819.899039
796.687812	3820.423319
797.009538	3832.806913
797.331218	3797.420534
797.652852	3773.689302
797.974442	3766.011625
798.295986	3775.194087
798.617484	3708.555074
798.938938	3633.121768
799.260346	3668.959331
799.581709	3674.229857
799.903026	3614.847586
800.224299	3577.482553
800.545526	3579.493974
800.866708	3545.612379
801.187845	3486.240189
801.508936	3521.866023
801.829983	3531.051006
802.150984	3459.126343
802.471940	3442.089764
802.792851	3460.003504
803.113717	3457.185499
803.434538	3466.763691
803.755314	3417.551948
804.076045	3384.537431
804.396731	3401.458064
804.717372	3427.064605
805.037967	3421.078235
805.358518	3409.533992
805.679024	3426.590736
805.999485	3434.376798
806.319901	3436.930143
806.640272	3452.938327
806.960598	3468.823003
807.280879	3444.610341
807.601115	3449.341464
807.921306	3461.851087
808.241453	3503.387674
808.561554	3490.386538
808.881611	3432.937549
809.201623	3456.877989
809.521590	3474.766523
809.841513	3453.676856
810.161390	3479.197697
810.481223	3466.819144
810.801011	3416.389962
811.120755	3402.511665
811.440453	3438.150102
811.760107	3452.388841
812.079716	3415.913573
812.399281	3378.737583
812.718801	3403.217427
813.038276	3381.328737
813.357707	3378.966956
813.677093	3398.052764
813.996434	3355.654140
814.315731	3361.383411
814.634983	3364.040099
814.954191	3373.469578
815.273354	3403.754309
815.592473	3404.094587
815.911547	3403.224988
816.230577	3432.970317
816.549562	3482.915548
816.868502	3521.775283
817.187399	3550.618244
817.506250	3545.466185
817.825058	3517.220600
818.143821	3596.737240
818.462539	3701.013508
818.781213	3744.896752
819.099843	3782.541568
819.418429	3980.679079
819.736970	4192.369732
820.055466	4400.733223
820.373919	4729.512236
820.692327	5110.144557
821.010691	5464.328465
821.329011	6564.903090
821.647286	8719.824960
821.965517	12127.493725
822.283704	15190.982753
822.601847	17147.320970
822.919945	16095.453973
823.237999	14337.729656
823.556010	12351.525123
823.873976	10697.240241
824.191897	8900.588134
824.509775	7687.452105
824.827609	6690.707605
825.145398	6194.809301
825.463144	6095.266677
825.780845	6198.101174
826.098502	6314.173742
826.416116	6982.640824
826.733685	8082.048422
827.051210	9093.671888
827.368692	9273.298282
827.686129	8260.976616
828.003522	6929.038235
828.320872	6039.224170
828.638177	5418.269962
828.955439	4921.320578
829.272656	4474.281137
829.589830	4202.338614
829.906960	4045.709964
830.224046	3879.125035
830.541088	3764.854680
830.858086	3729.763208
831.175041	3666.506810
831.491952	3644.474447
831.808819	3655.557423
832.125642	3713.409705
832.442421	3843.438707
832.759157	4077.597782
833.075849	4542.981982
833.392497	5284.646618
833.709101	5955.062106
834.025662	6297.548016
834.342179	6051.615326
834.658653	5477.130475
834.975083	4898.022886
835.291469	4380.417373
835.607811	3996.621728
835.924110	3870.882748
836.240366	3693.973536
836.556578	3500.783918
836.872746	3398.592168
837.188871	3370.775081
837.504952	3311.571770
837.820990	3235.899010
838.136984	3185.744570
838.452935	3211.792212
838.768842	3207.550081
839.084706	3227.024058
839.400526	3359.324100
839.716303	3635.549084
840.032037	4078.727001
840.347727	4355.246892
840.663373	4154.583763
840.978977	3815.631702
841.294537	3533.826161
841.610054	3324.691373
841.925527	3216.483006
842.240957	3155.777431
842.556344	3105.418825
842.871687	3054.591391
843.186987	3007.108763
843.502244	2976.327478
843.817458	2939.597631
844.132629	2907.435069
844.447756	2919.944693
844.762840	2909.088568
845.077881	2879.184443
845.392879	2860.874972
845.707833	2856.254755
846.022745	2854.495392
846.337613	2859.148377
846.652438	2848.483816
846.967221	2843.432580
847.281960	2835.772547
847.596656	2827.142091
847.911309	2825.796103
848.225919	2823.051195
848.540485	2814.836635
848.855009	2817.306800
849.169490	2809.240954
849.483928	2800.650828
849.798323	2798.888945
850.112675	2794.256124
850.426984	2803.806590
850.741251	2806.319605
851.055474	2795.234108
851.369654	2789.404014
851.683792	2793.136988
851.997887	2799.740900
852.311938	2803.620067
852.625947	2791.914508
852.939914	2797.671506
853.253837	2799.738379
853.567718	2786.192799
853.881555	2783.273971
854.195350	2800.638225
854.509103	2797.847946
854.822812	2791.606998
855.136479	2788.466359
855.450103	2789.179682
855.763685	2780.100564
856.077224	2774.961108
856.390720	2791.070115
856.704173	2796.869962
857.017584	2793.305867
857.330953	2787.279167
857.644278	2797.986578
857.957561	2802.463123
858.270802	2807.660552
858.584000	2809.656849
858.897155	2798.868780
859.210268	2797.840385
859.523339	2794.777884
859.836367	2793.925929
860.149352	2788.247069
860.462295	2786.220525
860.775195	2793.983902
861.088054	2793.043727
861.400869	2778.658794
861.713642	2773.995727
862.026373	2787.750515
862.339062	2791.864097
862.651708	2793.910805
862.964312	2798.924233
863.276873	2792.632873
863.589392	2797.283337
863.901869	2810.559216
864.214303	2827.850373
864.526696	2843.213290
864.839045	2842.925944
865.151353	2840.675069
865.463619	2839.641632
865.775842	2837.710870
866.088023	2854.180320
866.400162	2864.008049
866.712258	2839.417301
867.024313	2826.101093
867.336325	2834.855057
867.648296	2854.444981
867.960224	2848.047756
868.272110	2837.015191
868.583954	2839.818073
868.895755	2857.331041
869.207515	2840.622137
869.519233	2843.112467
869.830909	2853.194774
870.142542	2861.895806
870.454134	2864.176928
870.765684	2866.924357
871.077191	2866.339583
871.388657	2867.781353
871.700081	2882.534290
872.011463	2898.910478
872.322803	2895.202709
872.634101	2896.972154
872.945357	2907.994637
873.256571	2933.218051
873.567744	2928.781835
873.878874	2920.975608
874.189963	2941.241047
874.501010	2942.632405
874.812015	2935.355500
875.122979	2933.888524
875.433900	2933.379368
875.744780	2931.786363
876.055618	2944.006120
876.366415	2941.828341
876.677169	2953.952316
876.987882	2948.858230
877.298554	2941.288938
877.609183	2959.028758
877.919771	2983.160762
878.230317	3004.421828
878.540822	3053.948644
878.851285	3094.708893
879.161707	3125.764922
879.472087	3208.069320
879.782425	3401.064854
880.092722	3791.809730
880.402977	4270.507617
880.713191	4805.782373
881.023363	5779.120796
881.333494	6878.964454
881.643583	7393.237764
881.953631	7181.226997
882.263637	6704.409461
882.573602	6223.652263
882.883526	5708.597574
883.193408	5175.062016
883.503248	4735.221343
883.813048	4465.955672
884.122806	4215.165830
884.432522	3927.235287
884.742197	3707.191442
885.051831	3523.486754
885.361424	3394.355078
885.670975	3329.392249
885.980485	3257.434819
886.289954	3186.137780
886.599382	3146.037922
886.908768	3108.090636
887.218113	3067.138823
887.527417	3019.031092
887.836680	2970.472178
888.145901	2965.370530
888.455082	2961.070426
888.764221	2916.272212
889.073319	2884.331461
889.382376	2885.800957
889.691392	2890.136350
890.000366	2884.676780
890.309300	2874.400388
890.618193	2888.039230
890.927044	2904.027249
891.235855	2903.644122
891.544625	2889.659961
891.853353	2898.418966
892.162041	2911.110070
892.470687	2949.962243
892.779293	2997.475118
893.087858	3040.216541
893.396381	3103.906479
893.704864	3204.686706
894.013306	3415.520363
894.321707	3687.825849
894.630068	3890.762538
894.938387	3899.561872
895.246665	3856.172661
895.554903	3749.340529
895.863100	3564.027714
896.171256	3411.126997
896.479371	3282.867440
896.787446	3176.231913
897.095480	3079.507294
897.403473	3017.619569
897.711425	2981.789568
898.019336	2973.766572
898.327207	2951.910649
898.635038	2920.942841
898.942827	2902.666138
899.250576	2896.843605
899.558284	2861.588296
899.865952	2844.967611
900.173579	2827.434478
900.481165	2819.275371
900.788711	2812.575677
901.096216	2787.654733
901.403681	2773.441200
901.711105	2783.140380
902.018489	2780.506377
902.325832	2779.115019
902.633135	2790.087090
902.940397	2816.777479
903.247619	2883.998745
903.554800	3049.822460
903.861941	3350.771783
904.169041	3734.413672
904.476101	4032.459291
904.783121	4016.854399
905.090100	3799.328611
905.397039	3547.666649
905.703938	3311.861637
906.010796	3142.491470
906.317614	3039.024308
906.624391	2951.235134
906.931129	2886.899929
907.237826	2830.408759
907.544483	2786.056687
907.851099	2756.991915
908.157675	2737.880901
908.464211	2720.720813
908.770707	2709.373176
909.077163	2698.512010
909.383578	2685.331913
909.689954	2671.725839
909.996289	2670.765499
910.302584	2672.013185
910.608839	2674.417815
910.915054	2666.969510
911.221229	2660.715959
911.527363	2664.138902
911.833458	2668.282731
912.139513	2673.223062
912.445527	2675.756241
912.751502	2685.765452
913.057436	2693.735517
913.363331	2703.684234
913.669186	2724.395814
913.975000	2750.879516
914.280775	2801.706950
914.586510	2868.192207
914.892205	2940.179884
915.197859	3048.584856
915.503475	3214.819425
915.809050	3407.706574
916.114585	3542.181873
916.420081	3570.513158
916.725536	3527.623021
917.030952	3420.831218
917.336328	3308.080771
917.641665	3183.579395
917.946961	3092.359716
918.252218	3028.795807
918.557435	2960.611681
918.862612	2907.062024
919.167750	2859.440764
919.472848	2825.813747
919.777906	2799.604788
920.082925	2778.210132
920.387904	2751.083683
920.692843	2736.774367
920.997743	2724.100907
921.302603	2711.961808
921.607423	2702.663400
921.912204	2692.134950
922.216946	2683.610359
922.521647	2675.612568
922.826310	2667.639984
923.130932	2662.233346
923.435516	2653.146666
923.740059	2647.840852
924.044564	2639.825417
924.349028	2635.071609
924.653454	2628.956690
924.957840	2624.515433
925.262186	2619.996039
925.566493	2614.811212
925.870761	2608.764348
926.174989	2608.411467
926.479178	2602.994747
926.783328	2597.870414
927.087438	2597.499890
927.391509	2597.930908
927.695541	2592.688108
927.999533	2591.705083
928.303486	2588.972778
928.607400	2585.990935
928.911275	2587.220977
929.215110	2586.016141
929.518906	2583.530852
929.822663	2585.343147
930.126381	2584.692838
930.430060	2584.062694
930.733699	2582.719227
931.037299	2587.278950
931.340861	2586.968919
931.644383	2586.232911
931.947866	2585.222159
932.251309	2586.116964
932.554714	2581.148907
932.858080	2582.648650
933.161407	2580.168403
933.464694	2580.017168
933.767943	2578.169585
934.071153	2576.969791
934.374323	2580.591860
934.677455	2577.872157
934.980548	2576.745459
935.283602	2575.457444
935.586617	2575.240675
935.889593	2577.978021
936.192530	2575.298648
936.495428	2576.753021
936.798287	2581.017837
937.101108	2583.140163
937.403890	2584.733167
937.706632	2588.491348
938.009336	2594.568459
938.312002	2604.043307
938.614628	2613.460183
938.917216	2618.007303
939.219765	2619.653240
939.522275	2617.571244
939.824747	2616.268105
940.127179	2610.538834
940.429573	2611.234513
940.731929	2608.865171
941.034246	2605.081785
941.336524	2600.907710
941.638763	2599.080291
941.940964	2597.462081
942.243126	2595.916967
942.545250	2597.109200
942.847335	2594.966710
943.149381	2586.888261
943.451389	2583.540935
943.753359	2585.973291
944.055290	2583.107395
944.357182	2582.625965
944.659036	2580.758218
944.960851	2579.974318
945.262628	2578.383834
945.564367	2578.824935
945.866067	2581.002714
946.167729	2577.156313
946.469352	2580.203691
946.770937	2580.274267
947.072484	2579.462641
947.373992	2575.553226
947.675462	2574.575242
947.976893	2574.136662
948.278286	2566.673234
948.579641	2572.725139
948.880958	2568.296485
949.182236	2571.174984
949.483476	2569.708008
949.784678	2568.921588
950.085841	2572.573904
950.386967	2573.877043
950.688054	2573.998030
950.989103	2572.140365
951.290114	2576.218659
951.591087	2576.874009
951.892021	2577.524318
952.192917	2583.679566
952.493776	2582.941037
952.794596	2585.544793
953.095378	2583.941706
953.396122	2582.197467
953.696828	2581.476582
953.997496	2581.622776
954.298126	2576.984914
954.598718	2576.722774
954.899272	2573.672876
955.199788	2571.588359
955.500266	2571.696744
955.800706	2567.288255
956.101108	2564.971844
956.401472	2562.952862
956.701798	2562.037893
957.002087	2562.040413
957.302337	2558.098231
957.602550	2559.998746
957.902724	2553.997253
958.202861	2556.653941
958.502960	2557.140412
958.803022	2555.078580
959.103045	2555.010524
959.403031	2554.871893
959.702979	2552.104299
960.002889	2550.342416
960.302762	2548.172199
960.602596	2551.196892
960.902393	2549.215718
961.202153	2551.343085
961.501875	2548.207487
961.801559	2547.766386
962.101205	2550.370142
962.400814	2547.927703
962.700385	2550.513815
962.999918	2547.993238
963.299414	2544.928217
963.598873	2548.220090
963.898293	2542.722712
964.197677	2548.204967
964.497022	2546.395193
964.796331	2549.813095
965.095601	2545.954092
965.394835	2547.564740
965.694030	2548.706562
965.993189	2547.753783
966.292309	2547.940306
966.591393	2549.850903
966.890439	2550.082797
967.189447	2548.570450
967.488419	2546.264123
967.787353	2547.269833
968.086249	2549.553475
968.385108	2547.872251
968.683930	2548.646068
968.982714	2545.240768
969.281462	2547.284956
969.580172	2546.425439
969.878844	2548.983825
970.177480	2546.367466
970.476078	2547.816798
970.774639	2547.688248
971.073162	2549.049360
971.371649	2546.566592
971.670098	2549.505584
971.968510	2550.849052
972.266885	2547.665563
972.565223	2549.371994
972.863524	2546.001983
973.161788	2549.306459
973.460014	2549.235883
973.758204	2550.002138
974.056356	2545.371838
974.354471	2551.010369
974.652550	2548.232693
974.950591	2548.696479
975.248595	2547.819318
975.546563	2548.870399
975.844493	2549.555996
976.142386	2547.257230
976.440243	2550.367622
976.738062	2547.431150
977.035845	2548.832590
977.333590	2549.150183
977.631299	2546.942158
977.928971	2544.023330
978.226606	2542.765562
978.524204	2545.354194
978.821765	2542.142979
979.119290	2545.744884
979.416777	2547.458876
979.714228	2550.307128
980.011642	2543.831766
980.309020	2546.198587
980.606360	2546.657332
980.903664	2546.342260
981.200931	2549.271171
981.498162	2549.298897
981.795356	2549.719833
982.092513	2549.314021
982.389633	2552.580688
982.686717	2555.010524
982.983764	2558.304918
983.280775	2561.115362
983.577749	2563.746844
983.874686	2562.360527
984.171587	2558.567058
984.468451	2559.650907
984.765279	2555.938097
985.062070	2555.023127
985.358824	2553.525905
985.655543	2551.993394
985.952224	2549.777807
986.248869	2550.019782
986.545478	2549.334185
986.842050	2546.750594
987.138586	2545.555840
987.435086	2548.348640
987.731549	2546.304452
988.027975	2545.318906
988.324366	2545.485264
988.620719	2544.056097
988.917037	2543.524255
989.213318	2544.676159
989.509563	2545.109698
989.805772	2545.132383
990.101944	2547.289997
990.398080	2543.153731
990.694180	2542.200953
990.990244	2542.629451
991.286271	2544.512322
991.582262	2545.883515
991.878217	2544.033412
992.174136	2546.672456
992.470019	2545.321427
992.765865	2542.468134
993.061676	2538.228523
993.357450	2539.750952
993.653188	2540.623071
993.948890	2548.210008
994.244556	2546.339740
994.540186	2545.177754
994.835780	2545.485264
995.131337	2547.032898
995.426859	2548.000800
995.722345	2548.431819
996.017795	2548.177240
996.313208	2548.565409
996.608586	2549.878630
996.903928	2549.840821
997.199234	2549.243444
997.494504	2550.317210
997.789738	2547.564740
998.084936	2547.650440
998.380099	2548.880481
998.675225	2547.353012
998.970316	2545.356715
999.265371	2543.178936
999.560390	2546.624565
999.855373	2548.212528
1000.150320	2545.686910
1000.445232	2545.389482
1000.740108	2544.855120
1001.034948	2544.106509
1001.329752	2545.976777
1001.624521	2545.966694
1001.919254	2542.717671
1002.213951	2543.456200
1002.508613	2543.907383
1002.803239	2545.152548
1003.097829	2541.543082
1003.392384	2545.127342
1003.686903	2544.847558
1003.981386	2546.690100
1004.275834	2544.464431
1004.570246	2544.658515
1004.864623	2543.892260
1005.158964	2543.972918
1005.453270	2543.171375
1005.747540	2544.159441
1006.041775	2542.291693
1006.335974	2543.869574
1006.630138	2543.617517
1006.924266	2544.880326
1007.218359	2543.216745
1007.512416	2543.355377
1007.806438	2540.476878
1008.100425	2541.011240
1008.394376	2540.834800
1008.688292	2542.994934
1008.982172	2543.577187
1009.276017	2543.942671
1009.569827	2543.894780
1009.863602	2543.806560
1010.157341	2543.748587
1010.451045	2546.105326
1010.744714	2541.328833
1011.038347	2544.167002
1011.331945	2543.620037
1011.625508	2542.478216
1011.919036	2543.126004
1012.212528	2545.359235
1012.505986	2544.151879
1012.799408	2542.730274
1013.092795	2544.378731
1013.386147	2541.843031
1013.679464	2541.323792
1013.972745	2542.284132
1014.265992	2543.375541
1014.559204	2543.012578
1014.852380	2543.221786
1015.145521	2543.088196
1015.438628	2542.843700
1015.731699	2544.686241
1016.024736	2543.783875
1016.317737	2540.270191
1016.610703	2543.945192
1016.903635	2545.875954
1017.196531	2543.597352
1017.489393	2544.870243
1017.782219	2538.588966
1018.075011	2541.568288
1018.367768	2543.728422
1018.660490	2543.715819
1018.953177	2543.715819
1019.245829	2543.715819
