Dividing Wavelength (nm)	Counts (n)	Blue Motor Position (mm): 8.000000	Red Motor Position (mm): 0.000000	
326.493990	2100.492532
326.888308	2100.492532
327.282561	2100.492532
327.676750	2081.747001
328.070874	2079.942268
328.464933	2087.647672
328.858929	2098.536564
329.252859	2109.707761
329.646726	2125.428599
330.040528	2140.683131
330.434265	2162.269352
330.827938	2179.376507
331.221547	2200.473736
331.615091	2218.306818
332.008571	2241.062586
332.401986	2264.607295
332.795338	2281.265788
333.188625	2302.055507
333.581847	2321.327838
333.975006	2337.273008
334.368100	2355.945441
334.761129	2373.881867
335.154095	2390.890720
335.546996	2412.078689
335.939833	2443.691765
336.332606	2459.384877
336.725315	2468.416104
337.117960	2475.007413
337.510540	2483.925214
337.903056	2492.555669
338.295508	2495.388798
338.687896	2503.026146
339.080220	2513.022754
339.472480	2517.464011
339.864676	2521.552386
340.256807	2525.376102
340.648875	2526.054137
341.040879	2526.611184
341.432818	2526.228057
341.824694	2529.035979
342.216506	2527.158149
342.608253	2526.449867
342.999937	2525.119003
343.391557	2525.058509
343.783113	2523.873838
344.174605	2522.699249
344.566033	2520.924763
344.957397	2520.193795
345.348697	2518.139525
345.739934	2515.092148
346.131106	2513.862106
346.522215	2511.152486
346.913260	2508.488236
347.304241	2507.399347
347.695159	2506.103770
348.086012	2507.253153
348.476802	2503.648728
348.867528	2502.809376
349.258191	2504.016733
349.648789	2502.784171
350.039324	2499.207472
350.429796	2502.012874
350.820203	2497.435506
351.210548	2498.965497
351.600828	2498.007677
351.991045	2498.806700
352.381198	2495.320742
352.771288	2493.586585
353.161314	2497.125475
353.551276	2494.378047
353.941175	2493.992398
354.331010	2495.860146
354.720782	2495.653458
355.110490	2496.661689
355.500135	2496.207985
355.889717	2496.505413
356.279235	2496.029024
356.668689	2499.010867
357.058080	2502.327946
357.447408	2493.266472
357.836672	2496.646566
358.225873	2497.193531
358.615010	2494.436020
359.004084	2499.572956
359.393095	2501.334839
359.782043	2504.384737
360.170927	2500.732421
360.559748	2504.606548
360.948505	2503.784840
361.337199	2503.431959
361.725830	2503.338698
362.114398	2506.164264
362.502903	2503.711743
362.891344	2503.497494
363.279722	2504.883811
363.668037	2502.859788
364.056289	2505.428256
364.444478	2506.612927
364.832603	2506.191991
365.220665	2502.953049
365.608665	2507.268277
365.996601	2509.083092
366.384474	2506.058400
366.772284	2511.243227
367.160031	2509.677948
367.547715	2508.556292
367.935336	2509.277177
368.322893	2508.142917
368.710388	2509.395644
369.097820	2509.380520
369.485189	2510.212311
369.872495	2510.774399
370.259738	2507.285921
370.646918	2509.612413
371.034035	2511.061745
371.421090	2514.404030
371.808081	2510.842455
372.195010	2511.941427
372.581875	2509.118380
372.968678	2512.359842
373.355418	2512.521159
373.742096	2512.127949
374.128710	2512.173320
374.515262	2515.765142
374.901751	2515.006448
375.288177	2514.434277
375.674540	2512.032167
376.060841	2513.718433
376.447079	2513.998217
376.833254	2514.439318
377.219367	2510.885305
377.605417	2515.160203
377.991404	2510.199708
378.377329	2512.523680
378.763191	2510.164420
379.148991	2516.372601
379.534727	2517.022910
379.920402	2516.322189
380.306013	2515.233300
380.691563	2519.722447
381.077049	2515.613907
381.462474	2517.602642
381.847835	2514.628362
382.233134	2516.649864
382.618371	2515.308917
383.003545	2517.005266
383.388657	2515.802950
383.773706	2517.791686
384.158693	2515.835718
384.543618	2520.473579
384.928480	2515.855883
385.313280	2519.561131
385.698017	2518.046264
386.082692	2522.681605
386.467305	2516.241531
386.851856	2517.915194
387.236344	2520.259330
387.620770	2521.335617
388.005133	2522.343848
388.389435	2523.094979
388.773674	2519.568692
389.157851	2517.247241
389.541965	2520.443333
389.926018	2521.842253
390.310008	2519.813188
390.693936	2520.075328
391.077802	2521.716224
391.461606	2521.466687
391.845348	2520.077849
392.229027	2521.794362
392.612645	2523.621780
392.996200	2520.982736
393.379694	2522.563138
393.763125	2524.720752
394.146494	2524.153622
394.529801	2523.289064
394.913047	2524.284692
395.296230	2527.044723
395.679351	2526.452388
396.062410	2524.209074
396.445408	2525.479445
396.828343	2525.827285
397.211217	2521.552386
397.594028	2522.981553
397.976778	2521.680936
398.359466	2525.885258
398.742092	2523.394928
399.124656	2525.698735
399.507158	2527.014477
399.889598	2526.238139
400.271977	2525.938190
400.654294	2526.573376
401.036549	2527.551359
401.418742	2527.964734
401.800874	2525.489528
402.182944	2529.383819
402.564952	2527.649662
402.946898	2527.689991
403.328783	2525.958355
403.710606	2529.648479
404.092367	2527.939528
404.474067	2531.909437
404.855705	2528.408356
405.237282	2528.264683
405.618797	2529.333407
406.000250	2530.535723
406.381642	2530.676875
406.762972	2527.440454
407.144240	2530.104704
407.525447	2531.768285
407.906593	2529.635877
408.287677	2529.409025
408.668700	2528.196627
409.049661	2531.659900
409.430560	2529.275434
409.811399	2533.658717
410.192176	2528.940197
410.572891	2532.234591
410.953545	2530.762574
411.334138	2531.488501
411.714669	2531.458254
412.095139	2531.710311
412.475547	2530.979344
412.855894	2531.972451
413.236180	2529.958510
413.616405	2530.480270
413.996568	2530.150074
414.376670	2532.277441
414.756711	2528.307533
415.136691	2532.647966
415.516609	2533.247863
415.896466	2533.741896
416.276262	2536.927906
416.655997	2528.582275
417.035670	2528.236956
417.415283	2531.896834
417.794834	2529.875331
418.174324	2531.715353
418.553753	2532.068233
418.933121	2531.722914
419.312428	2533.449509
419.691674	2534.135106
420.070859	2533.436907
420.449983	2533.099149
420.829045	2532.131248
421.208047	2535.781043
421.586988	2534.815662
421.965867	2535.826413
422.344686	2534.523275
422.723444	2536.799356
423.102141	2534.475384
423.480777	2536.474202
423.859352	2534.679551
424.237866	2535.649973
424.616319	2534.485467
424.994712	2536.580066
425.373044	2535.332380
425.751314	2534.566125
426.129524	2537.517721
426.507673	2535.317257
426.885762	2534.384643
427.263789	2534.482946
427.641756	2535.861702
428.019662	2537.842875
428.397508	2537.127031
428.775292	2535.259284
429.153016	2537.794984
429.530679	2536.819521
429.908282	2535.697864
430.285824	2537.006043
430.663305	2537.411856
431.040726	2539.357742
431.418086	2540.645757
431.795385	2539.491332
432.172624	2537.265663
432.549802	2537.454706
432.926920	2539.040149
433.303977	2541.044008
433.680974	2537.883204
434.057910	2539.360262
434.434786	2539.219110
434.811601	2538.271373
435.188355	2539.304810
435.565050	2538.437731
435.941683	2536.078471
436.318257	2537.232895
436.694770	2535.712987
437.071222	2538.404964
437.447614	2534.366999
437.823946	2536.234747
438.200218	2540.721374
438.576429	2539.514017
438.952580	2538.914120
439.328670	2539.299768
439.704700	2537.197607
440.080670	2539.624923
440.456580	2538.962011
440.832429	2540.116435
441.208218	2538.732639
441.583947	2538.576363
441.959616	2540.988555
442.335224	2539.977804
442.710773	2539.077958
443.086261	2539.088040
443.461689	2541.855633
443.837057	2540.736497
444.212365	2542.198432
444.587612	2539.451003
444.962800	2540.396219
445.337927	2540.688606
445.712995	2539.075437
446.088002	2542.785726
446.462949	2541.283462
446.837837	2542.878988
447.212664	2541.409491
447.587431	2542.279090
447.962139	2543.506611
448.336786	2543.398227
448.711374	2540.953267
449.085901	2542.354708
449.460369	2539.748431
449.834776	2539.372865
450.209124	2544.648433
450.583412	2544.144317
450.957640	2541.969059
451.331808	2542.551313
451.705917	2541.964018
452.079965	2542.374872
452.453954	2541.139790
452.827883	2543.635161
453.201752	2544.645912
453.575562	2541.011240
453.949311	2543.476364
454.323001	2543.524255
454.696632	2544.537527
455.070202	2542.967208
455.443713	2541.618699
455.817164	2543.894780
456.190556	2541.303627
456.563888	2542.170706
456.937160	2536.708615
457.310373	2541.323792
457.683526	2543.927548
458.056619	2541.958977
458.429653	2542.500901
458.802628	2544.512322
459.175542	2541.452341
459.548398	2548.328475
459.921194	2539.579553
460.293930	2545.941489
460.666607	2545.797816
461.039224	2547.030378
461.411782	2543.859492
461.784280	2541.812784
462.156719	2547.509287
462.529099	2547.060625
462.901419	2544.802188
463.273680	2546.876623
463.645882	2546.160779
464.018024	2546.480892
464.390106	2546.372507
464.762130	2545.291180
465.134094	2549.555996
465.505999	2543.085675
465.877845	2546.828732
466.249631	2547.020296
466.621358	2548.053732
466.993026	2548.373845
467.364634	2549.989535
467.736184	2547.027857
468.107674	2545.724719
468.479105	2545.790254
468.850477	2548.938455
469.221790	2549.583722
469.593043	2547.537014
469.964238	2549.697148
470.335373	2545.636499
470.706449	2548.625903
471.077467	2548.419216
471.448425	2552.837787
471.819324	2551.814433
472.190164	2548.792261
472.560945	2549.472817
472.931667	2549.772766
473.302330	2547.138763
473.672934	2549.916438
474.043479	2550.118085
474.413965	2551.539690
474.784393	2544.882846
475.154761	2550.493651
475.525070	2546.579195
475.895321	2545.548279
476.265513	2545.462579
476.635645	2552.351316
477.005719	2551.413661
477.375734	2551.244783
477.745691	2550.458363
478.115588	2553.649413
478.485427	2549.563558
478.855207	2554.413148
479.224928	2553.215874
479.594591	2551.663198
479.964194	2551.658157
480.333739	2554.791234
480.703226	2553.236038
481.072653	2552.774773
481.442022	2553.248641
481.811333	2552.633620
482.180584	2549.722354
482.549777	2556.132181
482.918912	2554.214022
483.287988	2555.282747
483.657005	2551.257385
484.025964	2555.804506
484.394864	2552.215205
484.763706	2553.954403
485.132489	2552.484906
485.501213	2552.986501
485.869879	2553.180586
486.238487	2551.890050
486.607036	2553.407437
486.975527	2553.427602
487.343959	2552.164793
487.712333	2554.566903
488.080648	2553.755277
488.448905	2554.279557
488.817104	2553.561193
489.185244	2553.987170
489.553326	2551.892571
489.921350	2556.608570
490.289315	2556.457336
490.657222	2556.822819
491.025070	2556.477500
491.392861	2560.800290
491.760593	2555.935576
492.128267	2558.448591
492.495883	2556.185113
492.863440	2555.179403
493.230939	2556.477500
493.598380	2555.723848
493.965763	2553.634289
494.333088	2551.549772
494.700354	2552.968857
495.067563	2553.818292
495.434713	2552.338713
495.801805	2556.958930
496.168839	2555.496996
496.535815	2555.973385
496.902733	2556.981616
497.269593	2554.014897
497.636395	2557.369784
498.003139	2554.219063
498.369825	2554.549259
498.736453	2557.034548
499.103023	2556.585885
499.469535	2559.945814
499.835989	2554.473642
500.202385	2555.557490
500.568723	2555.111348
500.935003	2557.906667
501.301226	2556.606050
501.667390	2557.289126
502.033497	2560.066802
502.399546	2556.800134
502.765537	2554.980277
503.131470	2556.795093
503.497345	2557.737789
503.863163	2558.004970
504.228923	2553.722510
504.594625	2559.429096
504.960269	2555.877603
505.325856	2556.348951
505.691385	2556.243087
506.056856	2556.394321
506.422270	2557.503375
506.787625	2559.174518
507.152924	2555.620504
507.518164	2559.209806
507.883347	2558.572100
508.248472	2556.938766
508.613540	2559.837429
508.978550	2562.075702
509.343503	2558.199054
509.708398	2559.338355
510.073236	2559.613098
510.438016	2559.431616
510.802738	2561.400187
511.167403	2562.962945
511.532010	2562.897410
511.896561	2566.395970
512.261053	2566.978224
512.625488	2562.315156
512.989866	2563.250290
513.354186	2564.480332
513.718449	2561.178376
514.082655	2565.919581
514.446803	2567.444530
514.810894	2569.403019
515.174927	2569.917216
515.538904	2570.305385
515.902822	2574.676066
516.266684	2573.209090
516.630488	2576.979873
516.994235	2576.740418
517.357925	2577.022723
517.721558	2578.439287
518.085133	2579.954154
518.448651	2579.984401
518.812112	2583.631675
519.175516	2583.004052
519.538863	2583.009093
519.902152	2588.304825
520.265385	2588.418251
520.628560	2586.865576
520.991678	2588.733323
521.354739	2591.392532
521.717743	2591.281626
522.080690	2593.479569
522.443580	2597.993923
522.806413	2595.364961
523.169189	2600.010384
523.531908	2602.543564
523.894569	2600.590117
524.257174	2602.203286
524.619722	2605.963987
524.982213	2607.020109
525.344647	2608.431632
525.707025	2609.893566
526.069345	2610.927003
526.431608	2612.635954
526.793815	2616.051336
527.155964	2616.494957
527.518057	2615.058228
527.880093	2619.943107
528.242072	2619.086110
528.603995	2621.016872
528.965860	2622.453601
529.327669	2624.127264
529.689421	2625.715228
530.051117	2628.142543
530.412755	2628.303860
530.774337	2627.247738
531.135862	2630.748820
531.497331	2630.829478
531.858743	2630.189252
532.220098	2634.320477
532.581396	2632.533388
532.942638	2632.346866
533.303824	2637.317443
533.664953	2640.992444
534.026025	2641.720891
534.387040	2640.863895
534.747999	2643.094606
535.108902	2647.440080
535.469748	2647.767755
535.830537	2647.608959
536.191270	2649.695997
536.551947	2647.321613
536.912567	2652.307314
537.273131	2650.835297
537.633638	2651.888898
537.994089	2653.388642
538.354483	2652.571975
538.714821	2655.402583
539.075103	2656.264620
539.435328	2657.681184
539.795497	2659.070022
540.155609	2660.496669
540.515665	2662.808038
540.875665	2660.957934
541.235609	2666.041938
541.595496	2661.825013
541.955328	2666.551094
542.315102	2666.218378
542.674821	2665.903306
543.034483	2668.043276
543.394090	2669.232988
543.753640	2669.641322
544.113134	2671.682989
544.472571	2671.531754
544.831953	2675.819256
545.191278	2674.059893
545.550548	2676.918227
545.909761	2674.717764
546.268918	2676.719102
546.628019	2680.673887
546.987064	2678.145748
547.346053	2677.288752
547.704986	2678.493588
548.063863	2680.252951
548.422684	2680.467200
548.781449	2681.165399
549.140158	2683.592715
549.498811	2685.760411
549.857408	2681.684638
550.215949	2683.396110
550.574434	2683.562468
550.932864	2686.012469
551.291237	2684.858045
551.649555	2690.214271
552.007817	2690.357943
552.366022	2689.742923
552.724173	2694.731144
553.082267	2695.512523
553.440305	2694.408511
553.798288	2695.199972
554.156215	2696.903882
554.514086	2698.580065
554.871902	2701.100642
555.229661	2701.473688
555.587365	2702.494521
555.945014	2703.343956
556.302606	2703.558205
556.660143	2706.565253
557.017625	2707.344111
557.375050	2707.139945
557.732421	2710.673793
558.089735	2711.808053
558.446994	2710.557847
558.804197	2713.650595
559.161345	2712.428115
559.518437	2713.816953
559.875474	2711.586242
560.232455	2716.047663
560.589381	2718.195195
560.946251	2719.997407
561.303065	2723.102758
561.659825	2721.250134
562.016528	2720.796430
562.373177	2721.751729
562.729770	2724.882286
563.086307	2724.816751
563.442789	2725.356154
563.799216	2725.943448
564.155587	2726.404714
564.511904	2725.749364
564.868164	2729.202554
565.224370	2727.468397
565.580520	2728.166597
565.936615	2728.653069
566.292654	2728.050651
566.648638	2730.558625
567.004567	2728.332955
567.360441	2729.676423
567.716260	2729.197513
568.072023	2728.292626
568.427732	2725.507389
568.783385	2727.155846
569.138982	2724.776421
569.494525	2724.385732
569.850013	2722.170145
570.205445	2725.151987
570.560823	2725.013356
570.916145	2724.448746
571.271412	2722.621328
571.626625	2722.170145
571.981782	2720.826677
572.336884	2721.340875
572.691931	2723.440516
573.046923	2717.439022
573.401860	2714.865513
573.756743	2716.743343
574.111570	2713.852241
574.466342	2713.438866
574.821059	2713.877447
575.175722	2711.679504
575.530330	2709.826880
575.884882	2709.282435
576.239380	2707.230685
576.593823	2708.193546
576.948211	2707.490305
577.302544	2702.096270
577.656823	2701.826568
578.011047	2704.122814
578.365216	2701.622402
578.719330	2702.915458
579.073389	2700.767926
579.427394	2699.164839
579.781344	2697.438244
580.135239	2697.108048
580.489080	2696.074612
580.842866	2693.307018
581.196597	2698.138964
581.550273	2697.932277
581.903895	2695.941021
582.257463	2697.581917
582.610975	2693.652338
582.964434	2695.883048
583.317837	2696.198120
583.671186	2698.012936
584.024481	2695.799869
584.377721	2695.187369
584.730906	2695.457071
585.084037	2696.556042
585.437113	2691.325845
585.790135	2694.900023
586.143103	2695.141998
586.496016	2697.884386
586.848874	2694.272399
587.201679	2696.162832
587.554428	2692.003880
587.907124	2696.845908
588.259765	2694.123685
588.612352	2699.343800
588.964884	2699.096784
589.317362	2700.689788
589.669786	2701.042669
590.022155	2704.868905
590.374470	2703.656507
590.726731	2705.625078
591.078937	2702.610468
591.431090	2705.834286
591.783188	2703.689275
592.135232	2703.220447
592.487222	2708.667414
592.839157	2710.809905
593.191038	2710.547765
593.542866	2710.520038
593.894639	2710.686396
594.246358	2713.663198
594.598022	2713.862323
594.949633	2716.866851
595.301190	2712.193701
595.652692	2716.125801
596.004141	2719.831049
596.355535	2719.798282
596.706876	2719.926831
597.058162	2722.467573
597.409395	2722.081925
597.760573	2726.175342
598.111698	2724.075701
598.462768	2727.254148
598.813785	2728.877400
599.164748	2731.423183
599.515657	2733.585838
599.866511	2734.583986
600.217312	2738.511045
600.568060	2736.154306
600.918753	2747.703589
601.269392	2744.194946
601.619978	2747.895153
601.970510	2750.781213
602.320988	2754.375556
602.671412	2759.835126
603.021783	2760.558531
603.372100	2762.522061
603.722363	2763.273193
604.072572	2768.775612
604.422728	2771.228133
604.772830	2772.614451
605.122878	2772.644698
605.472872	2779.220883
605.822813	2780.856737
606.172701	2788.105917
606.522534	2795.909623
606.872314	2801.643935
607.222041	2802.800880
607.571714	2809.515697
607.921333	2810.196253
608.270899	2817.069866
608.620411	2822.680670
608.969870	2828.089828
609.319276	2830.870025
609.668627	2838.686334
610.017926	2844.902076
610.367171	2852.020186
610.716362	2859.229036
611.065500	2864.247504
611.414585	2872.207486
611.763616	2881.427757
612.112594	2887.719117
612.461518	2894.817061
612.810389	2902.991292
613.159207	2909.282652
613.507971	2918.293715
613.856682	2929.091866
614.205340	2934.135541
614.553945	2952.939044
614.902496	2952.886112
615.250994	2965.736013
615.599439	2976.461068
615.947830	2990.157883
616.296169	2998.460664
616.644454	3010.282169
616.992686	3026.020652
617.340864	3045.305586
617.688990	3053.230280
618.037063	3074.209041
618.385082	3086.955599
618.733048	3107.768002
619.080961	3118.556072
619.428821	3127.715848
619.776628	3140.094402
620.124382	3147.812408
620.472083	3159.046619
620.819731	3170.500121
621.167326	3172.766120
621.514868	3177.391378
621.862357	3174.202848
622.209793	3183.445804
622.557176	3186.150383
622.904506	3186.062163
623.251783	3187.919828
623.599007	3194.737989
623.946179	3195.136240
624.293297	3205.740307
624.640363	3206.612427
624.987376	3217.831514
625.334336	3224.647154
625.681243	3230.956158
626.028097	3240.347828
626.374899	3250.412492
626.721647	3261.853390
627.068343	3275.093981
627.414987	3285.438429
627.761577	3290.161990
628.108115	3311.382727
628.454600	3315.231648
628.801032	3335.827282
629.147412	3347.406812
629.493739	3362.810058
629.840014	3374.445041
630.186236	3397.367168
630.532405	3405.639701
630.878521	3428.455963
631.224585	3446.452883
631.570597	3458.453349
631.916556	3479.197697
632.262462	3495.049606
632.608316	3512.464272
632.954117	3525.992208
633.299866	3541.466030
633.645562	3549.574726
633.991206	3552.717885
634.336797	3546.224879
634.682336	3560.635017
635.027823	3562.260789
635.373257	3568.136254
635.718639	3573.222778
636.063968	3577.374168
636.409245	3577.487594
636.754470	3589.220880
637.099642	3597.014504
637.444762	3595.570213
637.789829	3610.088736
638.134845	3617.864716
638.479808	3630.996922
638.824719	3641.825320
639.169577	3643.889673
639.514383	3656.679080
639.859137	3666.990760
640.203839	3689.343237
640.548489	3690.595963
640.893086	3707.619940
641.237632	3712.519941
641.582125	3733.057602
641.926566	3744.911875
642.270955	3763.796038
642.615292	3781.435035
642.959576	3799.510092
643.303809	3815.190601
643.647990	3839.191535
643.992118	3856.664174
644.336195	3873.650342
644.680219	3897.759660
645.024192	3931.298457
645.368112	3976.469716
645.711981	4002.650948
646.055797	4067.941452
646.399562	4099.589816
646.743274	4171.229653
647.086935	4223.506419
647.430544	4248.180346
647.774101	4277.224954
648.117606	4305.165549
648.461059	4342.356662
648.804460	4339.155529
649.147810	4325.430988
649.491108	4322.817149
649.834354	4320.225996
650.177548	4293.321358
650.520690	4285.240389
650.863781	4304.106907
651.206820	4316.614010
651.549807	4310.814162
651.892742	4301.704797
652.235626	4310.362979
652.578458	4324.518539
652.921238	4316.351870
653.263967	4350.288917
653.606644	4357.364177
653.949269	4376.427300
654.291843	4378.113566
654.634365	4418.198301
654.976836	4421.008744
655.319255	4442.834420
655.661622	4455.218014
656.003938	4465.431392
656.346203	4477.361282
656.688416	4512.367055
657.030577	4518.960884
657.372687	4528.811298
657.714746	4566.022576
658.056753	4594.089200
658.398708	4581.171243
658.740612	4607.097897
659.082465	4641.541581
659.424266	4655.724867
659.766016	4686.896842
660.107715	4705.697825
660.449362	4736.695880
660.790958	4761.712606
661.132503	4792.168737
661.473996	4811.751099
661.815438	4841.884596
662.156829	4879.940267
662.498168	4886.534096
662.839456	4912.264145
663.180693	4949.059527
663.521879	4984.415660
663.863013	5009.076984
664.204097	5032.349471
664.545129	5097.098051
664.886110	5120.678048
665.227040	5152.999406
665.567918	5192.716137
665.908746	5230.250048
666.249522	5273.127582
666.590248	5303.813085
666.930922	5342.196430
667.271545	5362.736612
667.612118	5399.179113
667.952639	5404.192540
668.293109	5437.837201
668.633528	5445.923212
668.973896	5465.964319
669.314213	5496.145707
669.654480	5499.051932
669.994695	5521.845509
670.334859	5538.599784
670.674973	5557.544440
671.015035	5597.729998
671.355047	5623.928875
671.695008	5649.323687
672.034918	5675.343603
672.374777	5708.481628
672.714585	5724.401592
673.054342	5777.875631
673.394049	5784.464419
673.733705	5845.825344
674.073310	5841.522719
674.412864	5872.674529
674.752368	5859.880081
675.091820	5913.754892
675.431223	5894.676645
675.770574	5889.844699
676.109875	5888.246653
676.449125	5887.319081
676.788324	5898.137397
677.127473	5869.501123
677.466571	5886.283124
677.805619	5875.195106
678.144616	5897.010699
678.483562	5913.611219
678.822458	5905.235342
679.161303	5920.295789
679.500098	5940.026865
679.838842	5954.003464
680.177535	6002.527090
680.516179	6067.810033
680.854771	6133.987780
681.193314	6285.182066
681.531805	6476.272044
681.870247	6623.204034
682.208638	6751.173725
682.546978	6805.066180
682.885268	6848.173086
683.223508	6811.970040
683.561697	6797.481764
683.899836	6809.215049
684.237925	6781.657582
684.575963	6791.515558
684.913951	6771.658453
685.251889	6829.951836
685.589776	6873.945985
685.927614	6911.578199
686.265401	6977.370298
686.603137	7037.859103
686.940824	7155.645662
687.278460	7262.109790
687.616046	7331.163516
687.953582	7474.891853
688.291068	7489.284347
688.628504	7571.306441
688.965889	7596.981038
689.303224	7563.820328
689.640510	7538.604476
689.977745	7443.298942
690.314930	7338.788261
690.652065	7282.430682
690.989150	7189.307967
691.326185	7062.530510
691.663170	6977.450956
692.000105	6877.578137
692.336990	6791.805425
692.673825	6741.867755
693.010610	6682.203178
693.347345	6610.074349
693.684030	6527.981679
694.020665	6503.658112
694.357251	6424.431338
694.693786	6433.540703
695.030272	6425.520227
695.366707	6362.732656
695.703093	6340.738102
696.039429	6362.372214
696.375716	6346.961406
696.711952	6369.399582
697.048139	6363.085537
697.384276	6367.357915
697.720363	6410.043885
698.056400	6406.870479
698.392388	6390.264918
698.728326	6410.600932
699.064214	6392.757768
699.400053	6402.214973
699.735842	6364.219797
700.071581	6332.526062
700.407270	6298.059693
700.742910	6288.398322
701.078501	6254.796511
701.414042	6228.867336
701.749533	6191.396440
702.084974	6143.654192
702.420366	6202.590322
702.755709	6144.859028
703.091002	6105.538028
703.426246	6128.200535
703.761440	6128.719774
704.096584	6101.285815
704.431679	6111.443740
704.766725	6115.206961
705.101721	6124.646522
705.436668	6163.569271
705.771565	6120.585872
706.106413	6212.019800
706.441212	6239.539459
706.775961	6286.800276
707.110661	6328.162944
707.445311	6426.457882
707.779913	6419.753147
708.114465	6494.702502
708.448967	6582.844557
708.783421	6750.909064
709.117825	6841.097827
709.452180	6918.812255
709.786485	7036.157713
710.120742	7234.844710
710.454949	7270.820904
710.789107	7404.096409
711.123216	7580.209119
711.457275	7634.981255
711.791286	7780.395858
712.125247	7822.789442
712.459159	7780.562217
712.793023	7950.156714
713.126837	7727.176397
713.460602	7802.435783
713.794318	7747.154490
714.127985	7679.368615
714.461602	7490.171590
714.795171	7504.732963
715.128691	7289.107690
715.462162	7177.836822
715.795584	7101.060048
716.128957	7063.783236
716.462281	6987.737431
716.795556	6947.980371
717.128782	6846.103693
717.461960	6736.934986
717.795088	6735.087403
718.128167	6660.216186
718.461198	6567.731177
718.794180	6550.079577
719.127113	6480.925029
719.459997	6451.245235
719.792833	6383.166973
720.125619	6389.153343
720.458357	6326.368293
720.791046	6302.274098
721.123686	6273.957937
721.456278	6232.996041
721.788821	6240.237659
722.121315	6190.181522
722.453761	6223.727880
722.786158	6223.027160
723.118506	6242.130612
723.450805	6223.173353
723.783056	6277.232166
724.115259	6266.839828
724.447412	6264.528459
724.779518	6348.788825
725.111574	6374.281940
725.443582	6450.257169
725.775542	6461.572039
726.107453	6603.490602
726.439315	6594.366114
726.771129	6720.599127
727.102895	6838.597415
727.434612	6911.464773
727.766281	6962.738349
728.097901	7043.043929
728.429473	7074.099958
728.760996	7089.052020
729.092471	7131.317054
729.423897	7124.700539
729.755276	7108.064732
730.086606	7165.904410
730.417887	7335.967735
730.749120	7510.477358
731.080305	7580.138543
731.411442	7702.356276
731.742530	7745.891681
732.073570	7796.761964
732.404562	7900.718118
732.735506	7863.335442
733.066401	7801.067110
733.397249	7657.888258
733.728048	7482.052812
734.058798	7263.972497
734.389501	7072.852272
734.720156	6946.830988
735.050762	6803.785727
735.381320	6714.627880
735.711831	6654.789384
736.042293	6562.526186
736.372707	6576.359112
736.703073	6528.357245
737.033391	6604.493792
737.363661	6605.454132
737.693883	6654.128992
738.024056	6720.213478
738.354182	6790.845085
738.684260	6884.862604
739.014290	6967.305634
739.344272	7034.219390
739.674207	7139.455997
740.004093	7184.405445
740.333931	7197.124276
740.663722	7230.287507
740.993464	7244.395176
741.323159	7204.786830
741.652806	7137.759648
741.982405	7081.825526
742.311956	6987.704663
742.641460	6966.289842
742.970915	6890.417956
743.300323	6789.607482
743.629683	6739.155614
743.958996	6660.145610
744.288260	6580.999494
744.617477	6495.010012
744.946647	6484.562221
745.275768	6403.465179
745.604842	6357.699064
745.933869	6307.894985
746.262847	6300.398789
746.591778	6294.160361
746.920662	6276.216374
747.249498	6289.497294
747.578286	6333.907338
747.907027	6398.408902
748.235720	6478.764894
748.564365	6505.906467
748.892963	6479.029555
749.221514	6512.719586
749.550017	6475.145346
749.878473	6479.742878
750.206881	6410.351395
750.535242	6384.041613
750.863555	6367.098295
751.191821	6339.903791
751.520039	6363.337595
751.848210	6338.910684
752.176334	6363.720722
752.504411	6339.931517
752.832440	6287.483353
753.160421	6314.650131
753.488356	6280.657630
753.816243	6249.417600
754.144082	6203.825405
754.471875	6189.566501
754.799620	6184.863104
755.127318	6181.185583
755.454969	6175.622669
755.782572	6165.305948
756.110129	6180.134502
756.437638	6156.315050
756.765100	6159.085164
757.092515	6173.606208
757.419882	6186.808990
757.747203	6192.059352
758.074477	6226.540844
758.401703	6217.988526
758.728882	6289.550226
759.056014	6309.732485
759.383099	6368.734150
759.710138	6415.332055
760.037129	6455.512572
760.364073	6472.770962
760.690970	6476.652651
761.017820	6493.172512
761.344623	6590.784374
761.671379	6747.269351
761.998088	7031.071189
762.324751	7710.757359
762.651366	8881.716575
762.977935	10311.067692
763.304456	11171.068374
763.630931	11380.737524
763.957359	10936.032137
764.283740	10195.990753
764.610074	9460.335172
764.936362	8626.467832
765.262602	8007.754417
765.588796	7406.110350
765.914943	6995.523493
766.241044	6649.632283
766.567097	6382.287292
766.893104	6161.373848
767.219064	6016.511251
767.544978	5861.261357
767.870845	5732.911059
768.196665	5658.733001
768.522438	5581.404222
768.848165	5513.814951
769.173846	5456.320592
769.499479	5408.306122
769.825066	5352.104818
770.150607	5272.376450
770.476101	5253.948512
770.801548	5213.263880
771.126949	5158.030478
771.452303	5126.513184
771.777611	5054.724632
772.102872	5054.467533
772.428087	5008.277961
772.753256	4954.743428
773.078378	4918.880660
773.403453	4864.602556
773.728482	4819.529600
774.053465	4799.642248
774.378401	4762.143625
774.703291	4723.175506
775.028135	4679.173794
775.352932	4668.156352
775.677683	4637.299450
776.002388	4594.903346
776.327046	4602.487762
776.651658	4566.347730
776.976224	4533.731465
777.300743	4529.368346
777.625216	4503.416486
777.949643	4486.674814
778.274024	4492.018437
778.598359	4462.842759
778.922647	4465.408707
779.246889	4448.951860
779.571086	4455.906132
779.895236	4458.255309
780.219339	4462.726813
780.543397	4462.532728
780.867409	4490.785875
781.191374	4494.970033
781.515294	4483.856809
781.839167	4513.468547
782.162995	4508.253473
782.486776	4485.759845
782.810511	4469.144202
783.134201	4437.644552
783.457844	4435.023152
783.781441	4417.303496
784.104993	4399.311618
784.428498	4394.033530
784.751958	4386.527252
785.075372	4377.901838
785.398739	4366.602091
785.722061	4381.874267
786.045337	4387.555647
786.368568	4449.261891
786.691752	4460.947285
787.014891	4585.287345
787.337983	4719.031677
787.661030	4937.232980
787.984031	5143.085977
788.306987	5274.115648
788.629897	5330.465665
788.952760	5301.768897
789.275579	5224.792998
789.598351	5089.979942
789.921078	4963.487309
790.243759	4823.625537
790.566395	4721.990834
790.888984	4632.797699
791.211529	4564.411927
791.534027	4484.580215
791.856480	4417.053959
792.178888	4387.225452
792.501249	4354.026933
792.823566	4303.108758
793.145836	4300.507523
793.468062	4297.104744
793.790241	4276.614974
794.112375	4302.143378
794.434464	4355.115822
794.756507	4370.642576
795.078505	4438.801497
795.400457	4544.471643
795.722364	4663.452956
796.044226	4759.466772
796.366042	4845.249567
796.687812	4826.473789
797.009538	4845.385678
797.331218	4804.635511
797.652852	4773.408083
797.974442	4715.061768
798.295986	4687.826935
798.617484	4623.280001
798.938938	4568.931321
799.260346	4537.199778
799.581709	4461.171617
799.903026	4433.740178
800.224299	4400.982760
800.545526	4335.747709
800.866708	4307.577741
801.187845	4279.841313
801.508936	4237.782966
801.829983	4224.824680
802.150984	4167.156401
802.471940	4153.502436
802.792851	4142.689161
803.113717	4130.976040
803.434538	4120.374493
803.755314	4102.304477
804.076045	4098.979836
804.396731	4080.191456
804.717372	4087.163372
805.037967	4085.840069
805.358518	4104.588120
805.679024	4136.228922
805.999485	4139.651866
806.319901	4149.915655
806.640272	4155.695338
806.960598	4182.673073
807.280879	4181.490922
807.601115	4202.845250
807.921306	4186.272456
808.241453	4184.245913
808.561554	4192.652037
808.881611	4177.127803
809.201623	4181.158206
809.521590	4154.956809
809.841513	4152.544617
810.161390	4167.274868
810.481223	4116.381899
810.801011	4115.603041
811.120755	4100.353551
811.440453	4077.491918
811.760107	4059.956264
812.079716	4051.673649
812.399281	4024.345554
812.718801	4023.531407
813.038276	4003.076926
813.357707	3990.242148
813.677093	4002.774456
813.996434	3971.849498
814.315731	3989.833814
814.634983	3988.384483
814.954191	3994.146522
815.273354	4030.278992
815.592473	4057.765883
815.911547	4105.843367
816.230577	4133.436123
816.549562	4184.215666
816.868502	4219.649936
817.187399	4252.707302
817.506250	4311.663597
817.825058	4334.615970
818.143821	4433.977112
818.462539	4538.512999
818.781213	4682.488353
819.099843	4896.767638
819.418429	5269.530718
819.736970	5630.794926
820.055466	6055.242436
820.373919	6619.655062
820.692327	7522.926488
821.010691	9084.554961
821.329011	12251.990061
821.647286	16705.670523
821.965517	21488.548413
822.283704	24010.163814
822.601847	24985.193544
822.919945	23008.047965
823.237999	20719.157431
823.556010	18207.097538
823.873976	15857.995462
824.191897	13716.120099
824.509775	12125.348714
824.827609	10725.626979
825.145398	9941.493142
825.463144	9591.019524
825.780845	9800.928129
826.098502	10511.302323
826.416116	11808.731485
826.733685	13012.745547
827.051210	13253.387546
827.368692	12452.267541
827.686129	11099.042888
828.003522	9737.197862
828.320872	8508.726643
828.638177	7568.480874
828.955439	6850.749116
829.272656	6237.076855
829.589830	5756.975007
829.906960	5333.112271
830.224046	5026.680693
830.541088	4788.781082
830.858086	4644.089884
831.175041	4529.817009
831.491952	4506.912526
831.808819	4538.460067
832.125642	4706.902661
832.442421	5068.083690
832.759157	5761.938023
833.075849	6800.206508
833.392497	7852.244904
833.709101	8459.582954
834.025662	8281.557127
834.342179	7663.403281
834.658653	6903.809781
834.975083	6264.289004
835.291469	5734.400720
835.607811	5291.462258
835.924110	4976.763188
836.240366	4679.178835
836.556578	4405.063574
836.872746	4189.886964
837.188871	4027.266902
837.504952	3889.673649
837.820990	3791.534987
838.136984	3720.137125
838.452935	3695.440512
838.768842	3725.984863
839.084706	3909.878594
839.400526	4375.802197
839.716303	4910.224998
840.032037	5227.636209
840.347727	5122.868429
840.663373	4764.316362
840.978977	4416.597734
841.294537	4145.366013
841.610054	3946.878142
841.925527	3800.898930
842.240957	3672.808252
842.556344	3557.451528
842.871687	3461.392342
843.186987	3367.836088
843.502244	3292.163328
843.817458	3241.020822
844.132629	3196.046168
844.447756	3167.006601
844.762840	3137.306643
845.077881	3109.502159
845.392879	3091.338882
845.707833	3077.256419
846.022745	3058.188254
846.337613	3053.323541
846.652438	3034.126827
846.967221	3031.603730
847.281960	3017.370032
847.596656	3011.038343
847.911309	3006.118176
848.225919	2998.324553
848.540485	2992.277688
848.855009	2984.930207
849.169490	2980.249495
849.483928	2975.316726
849.798323	2971.987044
850.112675	2966.313226
850.426984	2966.837506
850.741251	2962.910447
851.055474	2960.531022
851.369654	2961.561938
851.683792	2961.065384
851.997887	2961.040179
852.311938	2959.001032
852.625947	2960.231073
852.939914	2956.369550
853.253837	2964.289202
853.567718	2959.769808
853.881555	2955.842749
854.195350	2960.735189
854.509103	2956.672019
854.822812	2957.420630
855.136479	2956.530867
855.450103	2956.644293
855.763685	2951.610700
856.077224	2953.755711
856.390720	2959.769808
856.704173	2967.749954
857.017584	2971.651808
857.330953	2974.038794
857.644278	2981.144300
857.957561	2981.403920
858.270802	2981.451811
858.584000	2980.672952
858.897155	2978.182622
859.210268	2969.814307
859.523339	2963.389356
859.836367	2962.189562
860.149352	2959.474900
860.462295	2956.719910
860.775195	2951.467028
861.088054	2947.729012
861.400869	2944.500153
861.713642	2946.710699
862.026373	2950.647840
862.339062	2953.634724
862.651708	2961.377936
862.964312	2969.584934
863.276873	2974.336222
863.589392	2998.914368
863.901869	3012.144876
864.214303	3027.971578
864.526696	3040.975235
864.839045	3050.732388
865.151353	3059.428378
865.463619	3059.695559
865.775842	3061.089438
866.088023	3062.362330
866.400162	3059.604819
866.712258	3061.424675
867.024313	3062.677402
867.336325	3062.264027
867.648296	3062.395097
867.960224	3061.381825
868.272110	3061.845612
868.583954	3062.745457
868.895755	3070.586972
869.207515	3069.790470
869.519233	3080.979311
869.830909	3086.096082
870.142542	3094.867690
870.454134	3096.533791
870.765684	3106.240533
871.077191	3121.545476
871.388657	3122.367184
871.700081	3134.465953
872.011463	3151.220228
872.322803	3159.969151
872.634101	3171.306706
872.945357	3186.372194
873.256571	3204.883311
873.567744	3214.025443
873.878874	3214.892522
874.189963	3227.203019
874.501010	3229.345510
874.812015	3228.319635
875.122979	3236.138465
875.433900	3239.997468
875.744780	3238.270873
876.055618	3247.470978
876.366415	3248.484250
876.677169	3253.094386
876.987882	3265.863628
877.298554	3281.108078
877.609183	3306.412149
877.919771	3340.455061
878.230317	3388.645971
878.540822	3464.684215
878.851285	3567.818661
879.161707	3724.172568
879.472087	3987.260305
879.782425	4415.975152
880.092722	5179.525958
880.402977	6283.999915
880.713191	7502.232551
881.023363	8628.113769
881.333494	9259.455273
881.643583	9572.876411
881.953631	9468.806831
882.263637	9112.631668
882.573602	8607.240871
882.883526	8097.378571
883.193408	7549.805920
883.503248	7020.333531
883.813048	6535.308996
884.122806	6076.730354
884.432522	5624.105315
884.742197	5236.148197
885.051831	4902.698556
885.361424	4606.944142
885.670975	4368.182493
885.980485	4166.858973
886.289954	3999.893437
886.599382	3861.148280
886.908768	3746.890528
887.218113	3644.224910
887.527417	3557.403637
887.836680	3477.196359
888.145901	3415.704365
888.455082	3363.180583
888.764221	3319.206598
889.073319	3279.265536
889.382376	3258.972371
889.691392	3243.778333
890.000366	3242.659197
890.309300	3235.939339
890.618193	3237.945718
890.927044	3235.215933
891.235855	3242.313878
891.544625	3249.915938
891.853353	3273.385030
892.162041	3309.449444
892.470687	3372.471429
892.779293	3456.827577
893.087858	3575.135896
893.396381	3760.221860
893.704864	4035.287378
894.013306	4403.084922
894.321707	4761.969705
894.630068	4982.835258
894.938387	5004.444164
895.246665	4887.522162
895.554903	4682.758055
895.863100	4467.561279
896.171256	4289.490081
896.479371	4134.076349
896.787446	3990.539576
897.095480	3861.599463
897.403473	3764.698404
897.711425	3667.527643
898.019336	3590.423195
898.327207	3507.541585
898.635038	3442.142696
898.942827	3372.075699
899.250576	3315.934889
899.558284	3258.697628
899.865952	3225.715879
900.173579	3181.759538
900.481165	3152.140239
900.788711	3122.072277
901.096216	3101.448916
901.403681	3082.829414
901.711105	3075.008064
902.018489	3074.314906
902.325832	3103.699791
902.633135	3143.976090
902.940397	3264.404214
903.247619	3549.322668
903.554800	4034.458108
903.861941	4637.627125
904.169041	5056.179005
904.476101	5164.092465
904.783121	4993.618286
905.090100	4744.993619
905.397039	4485.638857
905.703938	4255.585801
906.010796	4051.855130
906.317614	3889.272877
906.624391	3729.778332
906.931129	3606.234774
907.237826	3488.818739
907.544483	3378.750186
907.851099	3267.887652
908.157675	3166.212620
908.464211	3072.225347
908.770707	3006.597086
909.077163	2954.821915
909.383578	2912.637540
909.689954	2885.523694
909.996289	2867.398225
910.302584	2852.337778
910.608839	2843.762776
910.915054	2835.679285
911.221229	2833.277176
911.527363	2839.303875
911.833458	2842.121880
912.139513	2853.202336
912.445527	2861.432020
912.751502	2885.934548
913.057436	2916.904877
913.363331	2954.579940
913.669186	3018.020341
913.975000	3100.254163
914.280775	3229.622773
914.586510	3412.876277
914.892205	3665.415400
915.197859	3987.640912
915.503475	4357.807798
915.809050	4669.691384
916.114585	4842.970965
916.420081	4884.076533
916.725536	4839.900902
917.030952	4687.927758
917.336328	4553.694434
917.641665	4415.869288
917.946961	4274.490128
918.252218	4139.172956
918.557435	3998.219774
918.862612	3864.188096
919.167750	3753.106271
919.472848	3630.840646
919.777906	3516.696320
920.082925	3414.930548
920.387904	3313.336174
920.692843	3244.252202
920.997743	3178.394568
921.302603	3119.014817
921.607423	3075.786922
921.912204	3029.299922
922.216946	2996.343379
922.521647	2959.018676
922.826310	2936.172167
923.130932	2912.312386
923.435516	2883.197202
923.740059	2866.473174
924.044564	2843.014164
924.349028	2829.453460
924.653454	2808.762044
924.957840	2788.602470
925.262186	2777.958074
925.566493	2761.677667
925.870761	2741.747466
926.174989	2738.153123
926.479178	2728.857235
926.783328	2714.424412
927.087438	2710.283104
927.391509	2700.803214
927.695541	2691.845084
927.999533	2686.768642
928.303486	2678.521314
928.607400	2676.658608
928.911275	2671.735921
929.215110	2666.649397
929.518906	2665.542864
929.822663	2668.383554
930.126381	2667.382885
930.430060	2669.311126
930.733699	2666.919099
931.037299	2672.214831
931.340861	2672.391271
931.644383	2674.531241
931.947866	2675.557116
932.251309	2671.635098
932.554714	2667.559325
932.858080	2670.127793
933.161407	2666.621671
933.464694	2663.720487
933.767943	2660.864673
934.071153	2659.349806
934.374323	2656.526760
934.677455	2656.443581
934.980548	2652.251862
935.283602	2651.851090
935.586617	2650.058960
935.889593	2653.058446
936.192530	2653.335710
936.495428	2657.192192
936.798287	2664.332987
937.101108	2674.435459
937.403890	2691.257789
937.706632	2706.527444
938.009336	2730.203223
938.312002	2748.190060
938.614628	2766.227309
938.917216	2776.279370
939.219765	2784.904784
939.522275	2793.293264
939.824747	2792.569858
940.127179	2785.613066
940.429573	2780.486212
940.731929	2781.353291
941.034246	2778.492436
941.336524	2775.392127
941.638763	2770.391302
941.940964	2766.512134
942.243126	2751.418919
942.545250	2746.597056
942.847335	2737.228071
943.149381	2728.660630
943.451389	2718.777448
943.753359	2712.203784
944.055290	2704.914275
944.357182	2697.934798
944.659036	2694.267358
944.960851	2694.494210
945.262628	2689.513550
945.564367	2691.315763
945.866067	2691.073787
946.167729	2690.272244
946.469352	2687.910463
946.770937	2685.858714
947.072484	2684.527849
947.373992	2685.246213
947.675462	2680.353774
947.976893	2675.695747
948.278286	2675.564677
948.579641	2670.931857
948.880958	2669.515293
949.182236	2671.942608
949.483476	2668.181908
949.784678	2667.418173
950.085841	2667.846671
950.386967	2669.527896
950.688054	2675.816735
950.989103	2681.316634
951.290114	2686.682942
951.591087	2693.574200
951.892021	2701.728266
952.192917	2714.401727
952.493776	2719.795761
952.794596	2720.698128
953.095378	2724.473952
953.396122	2720.657799
953.696828	2718.656461
953.997496	2712.717981
954.298126	2709.670604
954.598718	2702.633153
954.899272	2695.956145
955.199788	2688.391893
955.500266	2679.922755
955.800706	2669.878256
956.101108	2654.936276
956.401472	2650.754639
956.701798	2640.402629
957.002087	2630.776546
957.302337	2624.616256
957.602550	2620.759773
957.902724	2609.921293
958.202861	2604.635643
958.502960	2597.061309
958.803022	2596.453850
959.103045	2588.811461
959.403031	2585.880030
959.702979	2582.820050
960.002889	2578.590522
960.302762	2576.639595
960.602596	2572.561302
960.902393	2570.854871
961.202153	2567.517627
961.501875	2566.426217
961.801559	2564.258521
962.101205	2562.993192
962.400814	2563.482183
962.700385	2560.843139
962.999918	2560.336503
963.299414	2558.224260
963.598873	2558.362892
963.898293	2554.524053
964.197677	2556.129661
964.497022	2553.515822
964.796331	2556.623694
965.095601	2551.993394
965.394835	2554.582026
965.694030	2549.866027
965.993189	2551.418702
966.292309	2552.747046
966.591393	2550.912066
966.890439	2552.159752
967.189447	2550.980122
967.488419	2551.002807
967.787353	2552.011038
968.086249	2552.905843
968.385108	2553.437684
968.683930	2552.953734
968.982714	2558.572100
969.281462	2554.506409
969.580172	2557.478169
969.878844	2558.259548
970.177480	2562.211813
970.476078	2562.720969
970.774639	2567.200034
971.073162	2570.345714
971.371649	2566.736248
971.670098	2566.055693
971.968510	2567.028635
972.266885	2565.365054
972.565223	2571.739593
972.863524	2570.716239
973.161788	2573.869481
973.460014	2574.663463
973.758204	2577.665470
974.056356	2578.056159
974.354471	2577.826787
974.652550	2575.495253
974.950591	2577.713361
975.248595	2573.897207
975.546563	2573.650191
975.844493	2574.139183
976.142386	2572.725139
976.440243	2570.675910
976.738062	2570.078533
977.035845	2568.745148
977.333590	2567.356310
977.631299	2564.644169
977.928971	2563.177194
978.226606	2561.949673
978.524204	2560.205433
978.821765	2561.102759
979.119290	2560.918757
979.416777	2559.204764
979.714228	2560.633932
980.011642	2561.571586
980.309020	2564.583676
980.606360	2567.648697
980.903664	2574.308061
981.200931	2582.454566
981.498162	2592.665423
981.795356	2616.104268
982.092513	2641.156282
982.389633	2671.872032
982.686717	2697.649972
982.983764	2715.573795
983.280775	2724.857080
983.577749	2724.378170
983.874686	2722.235680
984.171587	2708.410315
984.468451	2698.622915
984.765279	2688.908612
985.062070	2674.672393
985.358824	2660.804179
985.655543	2647.873619
985.952224	2635.109418
986.248869	2617.160390
986.545478	2597.522575
986.842050	2587.019331
987.138586	2573.602300
987.435086	2563.303222
987.731549	2557.548745
988.027975	2556.664023
988.324366	2550.808723
988.620719	2550.105482
988.917037	2545.434853
989.213318	2544.572815
989.509563	2542.712630
989.805772	2542.916796
990.101944	2541.427135
990.398080	2541.021323
990.694180	2540.315561
990.990244	2540.005530
991.286271	2540.156765
991.582262	2541.580891
991.878217	2541.790098
992.174136	2543.509132
992.470019	2541.336395
992.765865	2544.298073
993.061676	2547.138763
993.357450	2550.554144
993.653188	2545.402085
993.948890	2553.893909
994.244556	2557.014383
994.540186	2564.994530
994.835780	2571.641291
995.131337	2582.797364
995.426859	2590.565782
995.722345	2603.337546
996.017795	2618.317334
996.313208	2629.533902
996.608586	2633.947432
996.903928	2636.364665
997.199234	2634.431383
997.494504	2632.087246
997.789738	2629.735548
998.084936	2622.085597
998.380099	2613.918928
998.675225	2606.145468
998.970316	2597.578028
999.265371	2585.741398
999.560390	2576.831159
999.855373	2572.402505
1000.150320	2566.290106
1000.445232	2560.437327
1000.740108	2552.046326
1001.034948	2550.332334
1001.329752	2546.677497
1001.624521	2545.840666
1001.919254	2537.578214
1002.213951	2540.618030
1002.508613	2535.881866
1002.803239	2533.845240
1003.097829	2533.265507
1003.392384	2537.046373
1003.686903	2536.428831
1003.981386	2534.898841
1004.275834	2533.678882
1004.570246	2537.026208
1004.864623	2533.593182
1005.158964	2534.493028
1005.453270	2529.527492
1005.747540	2532.017822
1006.041775	2534.087215
1006.335974	2529.509848
1006.630138	2529.134282
1006.924266	2528.909950
1007.218359	2532.342976
1007.512416	2529.199817
1007.806438	2531.186031
1008.100425	2528.254600
1008.394376	2527.710156
1008.688292	2530.598737
1008.982172	2529.194776
1009.276017	2529.320804
1009.569827	2530.248377
1009.863602	2530.704601
1010.157341	2530.071936
1010.451045	2530.639066
1010.744714	2527.553880
1011.038347	2526.749816
1011.331945	2527.165711
1011.625508	2529.204858
1011.919036	2526.185207
1012.212528	2527.208561
1012.505986	2524.753519
1012.799408	2529.245187
1013.092795	2525.839888
1013.386147	2525.648324
1013.679464	2525.204702
1013.972745	2526.853160
1014.265992	2528.473891
1014.559204	2527.523633
1014.852380	2525.817203
1015.145521	2528.428520
1015.438628	2526.654034
1015.731699	2526.361647
1016.024736	2527.445495
1016.317737	2527.758047
1016.610703	2527.407687
1016.903635	2527.546318
1017.196531	2525.789476
1017.489393	2526.540608
1017.782219	2524.529188
1018.075011	2528.594878
1018.367768	2529.061185
1018.660490	2528.594878
1018.953177	2528.594878
1019.245829	2528.594878
