Dividing Wavelength (nm)	Counts (n)	Blue Motor Position (mm): 33.200000	Red Motor Position (mm): 0.000000	
326.493990	2222.213712
326.888308	2222.213712
327.282561	2222.213712
327.676750	2182.824657
328.070874	2179.139573
328.464933	2180.246106
328.858929	2185.614935
329.252859	2188.470749
329.646726	2197.171780
330.040528	2209.764583
330.434265	2222.523743
330.827938	2240.268605
331.221547	2258.459608
331.615091	2277.482402
332.008571	2291.610236
332.401986	2314.582774
332.795338	2332.778819
333.188625	2352.121726
333.581847	2372.177957
333.975006	2385.912580
334.368100	2409.142217
334.761129	2426.002356
335.154095	2442.897783
335.546996	2466.966772
335.939833	2507.328771
336.332606	2525.187058
336.725315	2534.606454
337.117960	2548.721685
337.510540	2558.060423
337.903056	2572.354614
338.295508	2577.584811
338.687896	2587.420102
339.080220	2596.456371
339.472480	2603.337546
339.864676	2607.519183
340.256807	2613.676952
340.648875	2618.786162
341.040879	2616.973867
341.432818	2623.401338
341.824694	2624.351596
342.216506	2627.938377
342.608253	2625.513582
342.999937	2629.047430
343.391557	2626.506689
343.783113	2626.259672
344.174605	2625.354785
344.566033	2625.102727
344.957397	2622.325052
345.348697	2619.058384
345.739934	2620.336317
346.131106	2619.232304
346.522215	2617.200719
346.913260	2616.769700
347.304241	2612.567898
347.695159	2610.753083
348.086012	2610.987497
348.476802	2610.203597
348.867528	2605.661518
349.258191	2600.028028
349.648789	2601.379057
350.039324	2597.429313
350.429796	2600.786722
350.820203	2601.986517
351.210548	2599.687750
351.600828	2597.739344
351.991045	2593.945876
352.381198	2592.932604
352.771288	2596.877307
353.161314	2595.198603
353.551276	2595.637183
353.941175	2592.589806
354.331010	2593.862697
354.720782	2593.187183
355.110490	2592.173911
355.500135	2591.110227
355.889717	2593.688777
356.279235	2594.157605
356.668689	2592.095773
357.058080	2594.697008
357.447408	2596.113572
357.836672	2593.517378
358.225873	2592.748602
358.615010	2597.479725
359.004084	2593.121648
359.393095	2595.364961
359.782043	2593.537543
360.170927	2596.736155
360.559748	2596.693305
360.948505	2596.456371
361.337199	2599.521392
361.725830	2598.535847
362.114398	2599.826382
362.502903	2601.933584
362.891344	2601.023656
363.279722	2597.958635
363.668037	2601.651280
364.056289	2599.990220
364.444478	2601.676486
364.832603	2602.452823
365.220665	2603.471136
365.608665	2602.833430
365.996601	2604.396188
366.384474	2605.948863
366.772284	2607.529265
367.160031	2603.251846
367.547715	2608.078751
367.935336	2604.991044
368.322893	2604.708740
368.710388	2605.172526
369.097820	2603.420725
369.485189	2602.536002
369.872495	2609.465068
370.259738	2607.055397
370.646918	2608.784512
371.034035	2609.686879
371.421090	2609.545727
371.808081	2609.490274
372.195010	2610.450614
372.581875	2609.003803
372.968678	2607.998092
373.355418	2610.768207
373.742096	2611.582353
374.128710	2611.022785
374.515262	2612.777106
374.901751	2612.832559
375.288177	2612.348608
375.674540	2615.859772
376.060841	2613.402209
376.447079	2613.029164
376.833254	2613.858434
377.219367	2613.533279
377.605417	2614.541510
377.991404	2615.229628
378.377329	2619.446553
378.763191	2615.859772
379.148991	2616.623507
379.534727	2615.688373
379.920402	2616.620986
380.306013	2616.268105
380.691563	2618.902108
381.077049	2616.714247
381.462474	2617.019237
381.847835	2618.627365
382.233134	2619.643158
382.618371	2617.341871
383.003545	2620.565689
383.388657	2619.232304
383.773706	2619.438991
384.158693	2620.011162
384.543618	2621.460494
384.928480	2620.875720
385.313280	2619.000411
385.698017	2618.334978
386.082692	2621.309259
386.467305	2624.444857
386.851856	2623.915536
387.236344	2622.365381
387.620770	2621.871348
388.005133	2618.387911
388.389435	2622.952675
388.773674	2617.747684
389.157851	2623.726492
389.541965	2626.458798
389.926018	2624.419651
390.310008	2626.368057
390.693936	2629.385188
391.077802	2628.744961
391.461606	2630.199334
391.845348	2630.683285
392.229027	2629.612040
392.612645	2630.902575
392.996200	2633.730662
393.379694	2630.877369
393.763125	2632.130096
394.146494	2632.309057
394.529801	2635.177473
394.913047	2636.094963
395.296230	2635.580766
395.679351	2634.867442
396.062410	2634.000364
396.445408	2635.154788
396.828343	2636.737711
397.211217	2637.037659
397.594028	2639.598565
397.976778	2636.652011
398.359466	2638.088740
398.742092	2637.133441
399.124656	2638.139151
399.507158	2641.594862
399.889598	2640.284162
400.271977	2642.918165
400.654294	2642.693834
401.036549	2645.872281
401.418742	2645.721047
401.800874	2645.204328
402.182944	2645.353042
402.564952	2645.738691
402.946898	2648.576860
403.328783	2651.190699
403.710606	2647.941675
404.092367	2648.392858
404.474067	2647.419916
404.855705	2648.186171
405.237282	2651.747746
405.618797	2649.542241
406.000250	2653.287819
406.381642	2658.669250
406.762972	2653.000473
407.144240	2654.001142
407.525447	2656.753612
407.906593	2655.737819
408.287677	2662.530774
408.668700	2663.251659
409.049661	2666.241063
409.430560	2669.545540
409.811399	2675.572239
410.192176	2679.978208
410.572891	2688.946420
410.953545	2697.357586
411.334138	2703.747248
411.714669	2717.675956
412.095139	2723.584188
412.475547	2742.889287
412.855894	2764.346958
413.236180	2785.275309
413.616405	2802.889100
413.996568	2832.331959
414.376670	2862.533512
414.756711	2891.777245
415.136691	2936.991354
415.516609	2986.059425
415.896466	3033.277393
416.276262	3095.979264
416.655997	3155.797596
417.035670	3238.285996
417.415283	3344.979497
417.794834	3422.391455
418.174324	3475.371462
418.553753	3542.993499
418.933121	3674.796987
419.312428	3772.373561
419.691674	3814.762103
420.070859	4008.549098
420.449983	4033.989281
420.829045	4214.528124
421.208047	4256.594032
421.586988	4446.199390
421.965867	4553.039084
422.344686	4691.973284
422.723444	4817.495494
423.102141	4691.391031
423.480777	5072.716510
423.859352	4992.877236
424.237866	5365.526890
424.616319	5410.988016
424.994712	5705.519950
425.373044	5632.864320
425.751314	5966.581143
426.129524	6016.463360
426.507673	6203.648964
426.885762	6404.002062
427.263789	6463.041535
427.641756	6525.599734
428.019662	6711.096552
428.397508	6961.962011
428.775292	6871.889195
429.153016	7244.942141
429.530679	7245.332830
429.908282	7384.186372
430.285824	7278.753160
430.663305	7867.406174
431.040726	7567.795277
431.418086	7657.747106
431.795385	7990.087694
432.172624	8142.703585
432.549802	8169.454468
432.926920	8326.529260
433.303977	8306.586456
433.680974	8548.884474
434.057910	8705.419863
434.434786	8821.288263
434.811601	8782.516749
435.188355	9330.525460
435.565050	9159.723606
435.941683	9159.224532
436.318257	9667.715638
436.694770	9825.191202
437.071222	9959.180030
437.447614	9883.356035
437.823946	9821.773300
438.200218	10023.684114
438.576429	9881.276559
438.952580	10146.506787
439.328670	10248.630481
439.704700	10062.984950
440.080670	10086.607797
440.456580	10673.025059
440.832429	10450.574063
441.208218	10087.832797
441.583947	10444.570049
441.959616	10596.165107
442.335224	10423.228324
442.710773	10588.605897
443.086261	10796.341764
443.461689	10122.019382
443.837057	10747.112376
444.212365	11055.061341
444.587612	10718.614734
444.962800	10958.777823
445.337927	10750.431976
445.712995	10321.465072
446.088002	11415.455950
446.462949	11071.258569
446.837837	11049.077492
447.212664	11058.690972
447.587431	11554.435521
447.962139	12252.484094
448.336786	14491.472245
448.711374	15081.231793
449.085901	12949.458901
449.460369	12555.543140
449.834776	12012.580623
450.209124	12864.744831
450.583412	13266.978497
450.957640	14214.233990
451.331808	13417.225046
451.705917	12368.949871
452.079965	11706.857328
452.453954	12601.329419
452.827883	12220.039228
453.201752	12505.986077
453.575562	12019.423990
453.949311	12447.186058
454.323001	12394.246381
454.696632	12619.054116
455.070202	12906.198239
455.443713	13164.728773
455.817164	13614.258544
456.190556	13621.069143
456.563888	13975.825221
456.937160	14157.883972
457.310373	13484.743740
457.683526	13570.836565
458.056619	13129.982620
458.429653	13260.873659
458.802628	12718.062378
459.175542	13072.120257
459.548398	14023.365823
459.921194	14347.675852
460.293930	14406.007044
460.666607	15301.716738
461.039224	16325.519632
461.411782	17014.418511
461.784280	16918.626505
462.156719	16964.059904
462.529099	16656.695713
462.901419	15579.585138
463.273680	15375.620054
463.645882	15235.957407
464.018024	14971.415297
464.390106	15192.006107
464.762130	15912.215593
465.134094	16665.573185
465.505999	18635.323392
465.877845	21892.543962
466.249631	24727.756941
466.621358	24434.092085
466.993026	22988.732784
467.364634	22438.821037
467.736184	20986.341106
468.107674	20174.611993
468.479105	20313.674742
468.850477	19781.850655
469.221790	19352.210757
469.593043	18675.894598
469.964238	18118.703425
470.335373	17793.521276
470.706449	18208.700624
471.077467	17769.008665
471.448425	19579.531507
471.819324	23584.473660
472.190164	25646.900439
472.560945	22127.076083
472.931667	19740.762731
473.302330	19097.950081
473.672934	18601.749308
474.043479	18960.805490
474.413965	18775.714486
474.784393	18409.149504
475.154761	19071.552078
475.525070	19085.596733
475.895321	18735.735615
476.265513	19314.754984
476.635645	19895.556401
477.005719	19683.817857
477.375734	19872.578822
477.745691	20360.237360
478.115588	20867.604288
478.485427	21380.924820
478.855207	22443.781532
479.224928	24186.538664
479.594591	26415.358808
479.964194	26468.782436
480.333739	26674.020412
480.703226	26233.678144
481.072653	25916.892036
481.442022	26487.434705
481.811333	27386.716057
482.180584	27321.072673
482.549777	26366.394081
482.918912	26003.746076
483.287988	26126.367102
483.657005	25804.837269
484.025964	25529.159250
484.394864	25463.646935
484.763706	25167.121225
485.132489	24576.358488
485.501213	24758.013946
485.869879	24677.731051
486.238487	24468.271108
486.607036	24630.298834
486.975527	24320.522451
487.343959	24655.875128
487.712333	24600.205666
488.080648	24267.688638
488.448905	24743.545835
488.817104	24480.949610
489.185244	25157.449771
489.553326	25132.407839
489.921350	26114.351512
490.289315	28381.794456
490.657222	30172.356850
491.025070	30666.221048
491.392861	30465.021036
491.760593	29629.227976
492.128267	28721.608555
492.495883	27684.761676
492.863440	26798.093290
493.230939	25938.594204
493.598380	25784.869258
493.965763	25381.861776
494.333088	24937.226965
494.700354	24869.239444
495.067563	24743.961730
495.434713	24483.722245
495.801805	24638.969619
496.168839	24450.420383
496.535815	24287.598675
496.902733	24507.622355
497.269593	24170.495192
497.636395	24351.492779
498.003139	24338.148845
498.369825	24073.367281
498.736453	24262.276959
499.103023	24153.695547
499.469535	24170.749770
499.835989	24385.024014
500.202385	24404.384566
500.568723	23914.621346
500.935003	24159.656711
501.301226	23761.715588
501.667390	24602.406130
502.033497	24845.135167
502.399546	24573.490071
502.765537	24144.066943
503.131470	24526.471229
503.497345	24663.267980
503.863163	23888.722418
504.228923	24481.965403
504.594625	24680.982595
504.960269	24205.937024
505.325856	24703.846748
505.691385	24103.790644
506.056856	24716.061464
506.422270	24672.626882
506.787625	24258.226392
507.152924	24659.935777
507.518164	24703.435894
507.883347	24506.137735
508.248472	24190.110321
508.613540	24972.179806
508.978550	24763.682724
509.343503	24738.839918
509.708398	25008.428222
510.073236	25160.940770
510.438016	25374.373142
510.802738	25050.025303
511.167403	25295.378261
511.532010	25002.182233
511.896561	25778.459431
512.261053	25743.950213
512.625488	25563.958335
512.989866	25478.299049
513.354186	25323.268445
513.718449	25429.425062
514.082655	25797.454499
514.446803	25540.169130
514.810894	26003.708267
515.174927	25493.606513
515.538904	25518.585430
515.902822	26009.770255
516.266684	25764.223213
516.630488	25661.454250
516.994235	25643.162424
517.357925	25942.785923
517.721558	26131.599820
518.085133	26233.574800
518.448651	26131.380530
518.812112	25879.194288
519.175516	26075.443887
519.538863	26238.300882
519.902152	26005.147517
520.265385	26298.096528
520.628560	26086.867141
520.991678	26092.452740
521.354739	26172.100450
521.717743	26237.925316
522.080690	26025.929673
522.443580	26355.056526
522.806413	26343.507242
523.169189	26451.012369
523.531908	26497.970717
523.894569	26097.153616
524.257174	26176.037591
524.619722	26361.325201
524.982213	26056.690794
525.344647	26109.995955
525.707025	26240.655101
526.069345	26220.863531
526.431608	26173.640522
526.793815	26380.388324
527.155964	25828.296278
527.518057	26012.205132
527.880093	25933.303513
528.242072	26153.712841
528.603995	25861.590579
528.965860	25665.530023
529.327669	25709.680449
529.689421	25706.028133
530.051117	25540.930344
530.412755	25708.994852
530.774337	25523.155236
531.135862	25381.919749
531.497331	25589.146460
531.858743	25136.607121
532.220098	25620.147036
532.581396	25292.174608
532.942638	25238.498922
533.303824	25327.172818
533.664953	25345.273081
534.026025	25013.275292
534.387040	25247.268009
534.747999	25313.284439
535.108902	25466.832944
535.469748	24955.836385
535.830537	25146.671784
536.191270	25273.779437
536.551947	25135.334229
536.912567	24790.814214
537.273131	25130.834999
537.633638	24841.901267
537.994089	25052.959255
538.354483	24572.988477
538.714821	25086.863535
539.075103	25122.708659
539.435328	24911.920373
539.795497	24467.862775
540.155609	24868.861357
540.515665	25163.531923
540.875665	24397.959615
541.235609	24704.388672
541.595496	24656.051568
541.955328	25018.681929
542.315102	24951.027124
542.674821	24477.587161
543.034483	24361.154151
543.394090	24530.100860
543.753640	24318.695033
544.113134	24951.586692
544.472571	24543.525453
544.831953	24846.851680
545.191278	24454.866680
545.550548	24383.524271
545.909761	24587.501958
546.268918	24817.769263
546.628019	24782.168635
546.987064	24486.517565
547.346053	24242.954217
547.704986	24355.223233
548.063863	24512.227449
548.422684	24526.229254
548.781449	24051.060175
549.140158	24453.472801
549.498811	24031.172823
549.857408	23785.348517
550.215949	24204.404513
550.574434	23883.371233
550.932864	24103.047074
551.291237	24263.779223
551.649555	24133.788030
552.007817	24174.744884
552.366022	24042.845615
552.724173	24080.891203
553.082267	24032.788513
553.440305	24509.777448
553.798288	23766.557616
554.156215	24283.152377
554.514086	24370.591191
554.871902	23740.210026
555.229661	24035.452762
555.587365	23888.147727
555.945014	23760.616617
556.302606	24000.542772
556.660143	23953.017294
557.017625	24201.495767
557.375050	23722.384506
557.732421	24118.969558
558.089735	23942.496406
558.446994	23989.500125
558.804197	24023.195197
559.161345	23966.154541
559.518437	23716.448547
559.875474	23920.343056
560.232455	24103.662095
560.589381	23927.811525
560.946251	23909.877620
561.303065	24216.417583
561.659825	24314.152953
562.016528	23909.497013
562.373177	23649.257528
562.729770	24011.955944
563.086307	23877.836046
563.442789	24043.889133
563.799216	23879.996181
564.155587	23876.588361
564.511904	23864.691238
564.868164	23793.923520
565.224370	23774.608339
565.580520	23687.774464
565.936615	23823.066430
566.292654	23509.461291
566.648638	23798.886536
567.004567	23621.163178
567.360441	23568.772986
567.716260	23299.388848
568.072023	23629.274394
568.427732	23392.811511
568.783385	23176.603985
569.138982	23402.165372
569.494525	23445.794038
569.850013	23197.371018
570.205445	23286.707826
570.560823	23102.831739
570.916145	22858.635726
571.271412	23029.921531
571.626625	22778.854426
571.981782	22909.949631
572.336884	22706.637376
572.691931	22841.276513
573.046923	22576.033683
573.401860	22455.242596
573.756743	22476.443168
574.111570	22371.645141
574.466342	22313.921409
574.821059	22390.894787
575.175722	22098.424685
575.530330	22077.208989
575.884882	22107.385336
576.239380	22009.410511
576.593823	21905.444275
576.948211	21883.457282
577.302544	21734.526474
577.656823	21593.497675
578.011047	21701.365764
578.365216	21573.438924
578.719330	21439.371958
579.073389	21334.198365
579.427394	21489.589412
579.781344	21257.204822
580.135239	21135.899537
580.489080	21096.248342
580.842866	20881.084334
581.196597	21075.050290
581.550273	21053.244779
581.903895	20933.230029
582.257463	21242.426680
582.610975	20773.228847
582.964434	21091.139132
583.317837	20792.531425
583.671186	20873.492356
584.024481	20844.115032
584.377721	20623.312494
584.730906	20685.946310
585.084037	20692.494768
585.437113	20615.491143
585.790135	20808.501801
586.143103	20277.569998
586.496016	20303.824328
586.848874	20536.970131
587.201679	20460.480704
587.554428	20142.283073
587.907124	20479.208590
588.259765	20249.720144
588.612352	20330.212247
588.964884	19886.079032
589.317362	20055.774353
589.669786	20118.115782
590.022155	20147.052005
590.374470	20350.563385
590.726731	20133.491301
591.078937	19907.045191
591.431090	19994.894858
591.783188	19761.058416
592.135232	19717.608711
592.487222	19814.779472
592.839157	19835.964921
593.191038	19726.355113
593.542866	19610.416137
593.894639	19318.934101
594.246358	19543.930879
594.598022	19446.986970
594.949633	19203.345484
595.301190	19164.518517
595.652692	19329.553291
596.004141	19570.313758
596.355535	18898.504390
596.706876	18914.875538
597.058162	18809.202871
597.409395	19030.658238
597.760573	19108.773438
598.111698	18879.683242
598.462768	18824.081836
598.813785	18789.350807
599.164748	18596.574563
599.515657	18641.458476
599.866511	18441.488506
600.217312	18796.617630
600.568060	18323.253284
600.918753	18621.558522
601.269392	18529.602834
601.619978	18313.191141
601.970510	18510.743878
602.320988	18462.011043
602.671412	18669.308331
603.021783	18578.673426
603.372100	18301.944327
603.722363	18450.464281
604.072572	18386.582779
604.422728	18533.492084
604.772830	18283.203837
605.122878	18239.212208
605.472872	18236.242968
605.822813	18224.517245
606.172701	18194.925672
606.522534	18373.911839
606.872314	18417.651410
607.222041	18237.127691
607.571714	18457.612637
607.921333	18280.443805
608.270899	18361.588738
608.620411	18537.935862
608.969870	18312.646696
609.319276	18306.496488
609.668627	18331.838369
610.017926	18465.323082
610.367171	18590.353779
610.716362	18634.786509
611.065500	18454.540053
611.414585	18591.727494
611.763616	18570.403413
612.112594	18506.113578
612.461518	18480.275144
612.810389	18672.920318
613.159207	18520.919447
613.507971	18441.440615
613.856682	18713.181493
614.205340	18642.020565
614.553945	18785.176731
614.902496	18536.920069
615.250994	18763.887939
615.599439	18703.555409
615.947830	18695.204738
616.296169	18745.371781
616.644454	18708.049598
616.992686	18676.338220
617.340864	18898.670748
617.688990	18653.912647
618.037063	18822.352720
618.385082	18672.786727
618.733048	18958.952866
619.080961	18829.730449
619.428821	18860.420994
619.776628	18750.670033
620.124382	18679.322583
620.472083	18718.429334
620.819731	18736.426253
621.167326	18432.512732
621.514868	18465.204614
621.862357	18236.048884
622.209793	18242.272188
622.557176	18081.986181
622.904506	17907.708452
623.251783	17819.077405
623.599007	17581.717197
623.946179	17528.782561
624.293297	17465.569012
624.640363	17218.638174
624.987376	17237.950834
625.334336	17031.629010
625.681243	16875.738889
626.028097	16886.287503
626.374899	16814.138510
626.721647	16676.572983
627.068343	16506.121489
627.414987	16451.112418
627.761577	16426.267092
628.108115	16456.017461
628.454600	16181.803897
628.801032	16269.149450
629.147412	16216.537447
629.493739	16230.118316
629.840014	16032.777307
630.186236	16136.037782
630.532405	15903.121351
630.878521	16091.010196
631.224585	15998.152142
631.570597	15810.109542
631.916556	15849.612024
632.262462	15827.836760
632.608316	15746.238123
632.954117	15681.721436
633.299866	15683.503484
633.645562	15597.816471
633.991206	15346.572925
634.336797	15230.505399
634.682336	15190.980233
635.027823	15077.282049
635.373257	14949.856803
635.718639	14855.932545
636.063968	14803.499504
636.409245	14561.614860
636.754470	14583.826184
637.099642	14428.145271
637.444762	14206.392475
637.789829	14247.361932
638.134845	14088.706738
638.479808	14122.038847
638.824719	14056.168611
639.169577	13910.975818
639.514383	13955.464001
639.859137	13775.951033
640.203839	13871.430487
640.548489	13705.561402
640.893086	13691.526830
641.237632	13559.831727
641.582125	13722.829874
641.926566	13543.977298
642.270955	13550.495510
642.615292	13510.985466
642.959576	13534.935988
643.303809	13559.128486
643.647990	13486.898833
643.992118	13546.394531
644.336195	13314.887102
644.680219	13537.701061
645.024192	13450.562196
645.368112	13705.997462
645.711981	13748.822064
646.055797	13922.300770
646.399562	13899.945774
646.743274	14166.756403
647.086935	14447.236120
647.430544	14408.424277
647.774101	14439.082054
648.117606	14579.221090
648.461059	14557.062698
648.804460	14540.109298
649.147810	14269.553091
649.491108	14179.646633
649.834354	14196.010218
650.177548	13872.075755
650.520690	13691.110934
650.863781	13617.147125
651.206820	13662.383919
651.549807	13486.190551
651.892742	13286.155046
652.235626	13221.663565
652.578458	13229.439545
652.921238	12919.668202
653.263967	13118.340076
653.606644	12945.695680
653.949269	12922.110642
654.291843	12716.832336
654.634365	12881.095814
654.976836	12729.047052
655.319255	12737.455697
655.661622	12698.129656
656.003938	12611.807458
656.346203	12543.875389
656.688416	12625.877318
657.030577	12578.858476
657.372687	12482.577479
657.714746	12468.328657
658.056753	12660.068944
658.398708	12469.336888
658.740612	12475.459370
659.082465	12577.883013
659.424266	12543.651058
659.766016	12575.433012
660.107715	12478.242087
660.449362	12559.253429
660.790958	12512.022858
661.132503	12455.256946
661.473996	12521.633818
661.815438	12540.036550
662.156829	12553.982902
662.498168	12537.281560
662.839456	12527.751258
663.180693	12552.158005
663.521879	12643.528918
663.863013	12617.004887
664.204097	12597.019233
664.545129	12719.330228
664.886110	12683.343951
665.227040	12776.726285
665.567918	12786.843881
665.908746	12814.308087
666.249522	12799.103967
666.590248	12847.370495
666.930922	12961.504738
667.271545	12943.946399
667.612118	13018.545394
667.952639	12927.403853
668.293109	12942.010596
668.633528	12901.676324
668.973896	12873.168599
669.314213	12948.279271
669.654480	12686.517358
669.994695	12756.196186
670.334859	12792.432000
670.674973	12730.299779
671.015035	12767.044749
671.355047	12704.090820
671.695008	12682.055937
672.034918	12684.044672
672.374777	12726.934809
672.714585	12647.670226
673.054342	12680.672140
673.394049	12627.263635
673.733705	12723.191752
674.073310	12631.178091
674.412864	12652.005618
674.752368	12509.018331
675.091820	12533.838452
675.431223	12523.856967
675.770574	12392.174467
676.109875	12308.254379
676.449125	12263.188984
676.788324	12222.224568
677.127473	12045.133874
677.466571	12034.481916
677.805619	11935.289653
678.144616	11855.170595
678.483562	11831.028509
678.822458	11696.656553
679.161303	11681.865808
679.500098	11663.069866
679.838842	11617.623864
680.177535	11650.101497
680.516179	11708.911598
680.854771	11652.473360
681.193314	11874.689942
681.531805	12028.974456
681.870247	12450.747633
682.208638	12860.109490
682.546978	13176.315865
682.885268	13208.944734
683.223508	12906.382242
683.561697	12753.410949
683.899836	12654.697595
684.237925	12457.964045
684.575963	12373.297866
684.913951	12290.817028
685.251889	12241.683422
685.589776	12338.801251
685.927614	12264.071186
686.265401	12223.699105
686.603137	12273.475458
686.940824	12429.874736
687.278460	12554.320660
687.616046	12599.179367
687.953582	12766.028957
688.291068	12690.126824
688.628504	12925.079881
688.965889	12937.738218
689.303224	12904.085996
689.640510	12795.537351
689.977745	12485.672747
690.314930	12260.108839
690.652065	12167.943944
690.989150	11874.485776
691.326185	11646.822227
691.663170	11442.670619
692.000105	11205.708662
692.336990	11091.828997
692.673825	10835.788793
693.010610	10716.545340
693.347345	10509.795018
693.684030	10314.001644
694.020665	10251.183826
694.357251	10052.857272
694.693786	9991.448456
695.030272	9839.616464
695.366707	9712.775992
695.703093	9652.314913
696.039429	9650.971446
696.375716	9566.937932
696.711952	9434.905071
697.048139	9473.830341
697.384276	9431.237632
697.720363	9446.325805
698.056400	9384.294407
698.392388	9331.647117
698.728326	9298.685533
699.064214	9239.651101
699.400053	9276.723746
699.735842	9090.831198
700.071581	9052.644457
700.407270	8975.814752
700.742910	8898.279286
701.078501	8806.106829
701.414042	8682.215432
701.749533	8611.200698
702.084974	8478.388979
702.420366	8590.093386
702.755709	8475.283628
703.091002	8339.716919
703.426246	8364.035445
703.761440	8318.934762
704.096584	8270.637988
704.431679	8206.877474
704.766725	8195.295423
705.101721	8145.831621
705.436668	8195.650824
705.771565	8083.104544
706.106413	8169.099067
706.441212	8207.807567
706.775961	8166.069333
707.110661	8204.929068
707.445311	8343.951488
707.779913	8244.118998
708.114465	8370.583904
708.448967	8409.839369
708.783421	8554.275988
709.117825	8734.479594
709.452180	8771.872353
709.786485	8858.733954
710.120742	9148.542327
710.454949	9144.804312
710.789107	9242.786698
711.123216	9458.921128
711.457275	9633.826482
711.791286	9785.267784
712.125247	9782.974059
712.459159	9766.476883
712.793023	10014.005099
713.126837	9585.340664
713.460602	9744.799922
713.794318	9571.046472
714.127985	9597.583106
714.461602	9267.679916
714.795171	9219.299963
715.128691	8969.359555
715.462162	8729.733348
715.795584	8664.730190
716.128957	8524.959158
716.462281	8351.729988
716.795556	8399.270590
717.128782	8192.421965
717.461960	7932.847912
717.795088	8000.071699
718.128167	7908.811691
718.461198	7742.108295
718.794180	7678.065477
719.127113	7676.757297
719.459997	7516.146136
719.792833	7293.725387
720.125619	7359.852722
720.458357	7212.192285
720.791046	7202.704833
721.123686	7193.789553
721.456278	7038.113681
721.788821	7053.980713
722.121315	6952.850125
722.453761	7016.494693
722.786158	6959.575025
723.118506	6970.668084
723.450805	6937.744308
723.783056	7002.291242
724.115259	6914.398724
724.447412	6911.368991
724.779518	6960.101825
725.111574	6957.049407
725.443582	7041.463528
725.775542	7018.740527
726.107453	7218.380301
726.439315	7125.101311
726.771129	7183.752616
727.102895	7356.281065
727.434612	7470.271636
727.766281	7501.662901
728.097901	7577.814571
728.429473	7574.290804
728.760996	7551.207361
729.092471	7524.083432
729.423897	7471.915052
729.755276	7482.929973
730.086606	7401.911069
730.417887	7512.692945
730.749120	7708.193933
731.080305	7905.852534
731.411442	8024.428034
731.742530	8012.349429
732.073570	8125.679609
732.404562	8210.040798
732.735506	8059.426244
733.066401	8195.494548
733.397249	8124.305894
733.728048	7887.253197
734.058798	7554.879841
734.389501	7321.902916
734.720156	7147.083262
735.050762	6919.412152
735.381320	6823.650393
735.711831	6769.720130
736.042293	6663.271125
736.372707	6677.535070
736.703073	6542.459873
737.033391	6579.769453
737.363661	6594.479540
737.693883	6628.063707
738.024056	6705.384924
738.354182	6752.965855
738.684260	6787.885928
739.014290	6906.277426
739.344272	7011.506471
739.674207	7044.757922
740.004093	7112.929445
740.333931	7122.605940
740.663722	7127.495859
740.993464	7212.416616
741.323159	7195.863988
741.652806	6947.125895
741.982405	6965.682382
742.311956	7020.376381
742.641460	6848.251224
742.970915	6658.570249
743.300323	6647.305791
743.629683	6601.852227
743.958996	6462.976000
744.288260	6381.268979
744.617477	6328.188149
744.946647	6323.194887
745.275768	6161.968704
745.604842	6115.627898
745.933869	6100.963181
746.262847	6056.943826
746.591778	6041.606115
746.920662	6004.195712
747.249498	5996.790257
747.578286	6041.144849
747.907027	6120.694257
748.235720	6183.554925
748.564365	6153.292878
748.892963	6186.148599
749.221514	6329.400547
749.550017	6155.697509
749.878473	6035.191247
750.206881	6097.033602
750.535242	6038.057143
750.863555	5970.160362
751.191821	5993.092571
751.520039	5986.128217
751.848210	5891.712447
752.176334	5916.232619
752.504411	5963.861440
752.832440	5892.221603
753.160421	5817.665458
753.488356	5862.602304
753.816243	5900.511781
754.144082	5750.174491
754.471875	5721.671807
754.799620	5768.761225
755.127318	5780.365961
755.454969	5731.791923
755.782572	5701.552562
756.110129	5740.140074
756.437638	5725.994596
756.765100	5665.525956
757.092515	5670.148694
757.419882	5716.996137
757.747203	5692.869174
758.074477	5757.990800
758.401703	5739.230146
758.728882	5694.719278
759.056014	5753.451241
759.383099	5883.830603
759.710138	5888.521396
760.037129	5879.941352
760.364073	5889.592641
760.690970	5965.320854
761.017820	5942.388646
761.344623	5903.468417
761.671379	6006.227297
761.998088	6130.648015
762.324751	6374.125664
762.651366	6986.477142
762.977935	8322.793765
763.304456	9957.849166
763.630931	10843.652993
763.957359	10432.493965
764.283740	9490.143515
764.610074	8638.637177
764.936362	7643.331927
765.262602	7045.314969
765.588796	6511.207240
765.914943	6173.966650
766.241044	6005.897102
766.567097	5805.680115
766.893104	5539.532398
767.219064	5362.434142
767.544978	5306.454650
767.870845	5226.242330
768.196665	5117.403819
768.522438	5053.300506
768.848165	5014.937326
769.173846	4949.009116
769.499479	4900.873658
769.825066	4852.833982
770.150607	4793.703768
770.476101	4770.239718
770.801548	4759.708747
771.126949	4686.112942
771.452303	4632.359119
771.777611	4594.058953
772.102872	4608.171663
772.428087	4572.528185
772.753256	4534.656516
773.078378	4483.037622
773.403453	4415.150923
773.728482	4399.987133
774.053465	4355.778734
774.378401	4344.557125
774.703291	4341.315663
775.028135	4268.523923
775.352932	4220.907704
775.677683	4210.777505
776.002388	4230.858942
776.327046	4238.531578
776.651658	4168.124303
776.976224	4104.018470
777.300743	4106.128193
777.625216	4129.015031
777.949643	4125.629896
778.274024	4076.758430
778.598359	4031.945093
778.922647	4060.314186
779.246889	4050.889749
779.571086	4043.280127
779.895236	4026.724978
780.219339	4016.284749
780.543397	4012.181249
780.867409	4065.120927
781.191374	4073.413625
781.515294	4014.898431
781.839167	4006.656145
782.162995	4026.730019
782.486776	4011.704860
782.810511	4025.767159
783.134201	4019.470758
783.457844	3970.962255
783.781441	3916.356477
784.104993	3925.465842
784.428498	3944.397895
784.751958	3942.086526
785.075372	3919.315634
785.398739	3883.276425
785.722061	3889.605594
786.045337	3938.807255
786.368568	3970.576607
786.691752	3879.976990
787.014891	3933.813992
787.337983	4061.065318
787.661030	4224.471800
787.984031	4382.307806
788.306987	4550.954567
788.629897	4636.994460
788.952760	4589.857151
789.275579	4524.286863
789.598351	4457.920073
789.921078	4315.399092
790.243759	4111.040797
790.566395	4096.678550
790.888984	4092.421295
791.211529	3984.091940
791.534027	3922.302517
791.856480	3912.570570
792.178888	3852.994214
792.501249	3802.761636
792.823566	3813.766475
793.145836	3839.788911
793.468062	3787.744039
793.790241	3744.695106
794.112375	3770.871297
794.434464	3841.918799
794.756507	3859.696428
795.078505	3840.711443
795.400457	3877.030435
795.722364	4018.041591
796.044226	4124.450266
796.366042	4199.563458
796.687812	4174.284593
797.009538	4177.067309
797.331218	4137.988285
797.652852	4112.313688
797.974442	4090.505657
798.295986	4090.087241
798.617484	4007.301412
798.938938	3925.458280
799.260346	3965.535453
799.581709	3960.431285
799.903026	3883.722567
800.224299	3849.261239
800.545526	3840.839992
800.866708	3799.439516
801.187845	3741.801483
801.508936	3779.078296
801.829983	3773.608644
802.150984	3697.298177
802.471940	3684.397865
802.792851	3696.025286
803.113717	3697.971171
803.434538	3697.333465
803.755314	3639.095536
804.076045	3616.783389
804.396731	3632.849546
804.717372	3661.400121
805.037967	3649.145076
805.358518	3635.488590
805.679024	3664.122344
805.999485	3677.194056
806.319901	3682.542720
806.640272	3696.952858
806.960598	3707.929971
807.280879	3683.445087
807.601115	3698.976882
807.921306	3710.626988
808.241453	3755.626848
808.561554	3727.265316
808.881611	3662.589833
809.201623	3697.479659
809.521590	3710.327039
809.841513	3683.429963
810.161390	3714.117987
810.481223	3690.169986
810.801011	3635.251656
811.120755	3627.387456
811.440453	3661.705111
811.760107	3664.165194
812.079716	3617.297586
812.399281	3590.478648
812.718801	3615.954119
813.038276	3587.814398
813.357707	3588.595777
813.677093	3602.320318
813.996434	3548.528686
814.315731	3559.619225
814.634983	3563.674833
814.954191	3575.589600
815.273354	3606.519599
815.592473	3601.145729
815.911547	3609.687965
816.230577	3648.870333
816.549562	3702.566183
816.868502	3744.029673
817.187399	3770.669651
817.506250	3765.099176
817.825058	3738.116400
818.143821	3831.173579
818.462539	3933.695525
818.781213	3975.169098
819.099843	4036.686298
819.418429	4289.124598
819.736970	4529.922873
820.055466	4775.099390
820.373919	5142.644876
820.692327	5559.185336
821.010691	6009.010014
821.329011	7421.712721
821.647286	10201.455363
821.965517	14805.485718
822.283704	18831.751952
822.601847	20952.482196
822.919945	19109.365773
823.237999	16508.115265
823.556010	14007.796219
823.873976	11898.464024
824.191897	9794.790524
824.509775	8449.636758
824.827609	7325.270407
825.145398	6783.427027
825.463144	6670.046436
825.780845	6779.205061
826.098502	6977.148487
826.416116	7871.426494
826.733685	9212.925423
827.051210	10319.614968
827.368692	10339.635911
827.686129	9060.243997
828.003522	7549.926908
828.320872	6529.486464
828.638177	5824.551674
828.955439	5257.555457
829.272656	4759.900311
829.589830	4479.498732
829.906960	4304.575734
830.224046	4117.546406
830.541088	3993.115606
830.858086	3944.092905
831.175041	3866.822099
831.491952	3853.488247
831.808819	3863.933518
832.125642	3938.230043
832.442421	4087.828804
832.759157	4371.408831
833.075849	4928.055560
833.392497	5801.911853
833.709101	6583.280616
834.025662	6908.251037
834.342179	6535.200612
834.658653	5865.614393
834.975083	5211.597778
835.291469	4634.983040
835.607811	4226.662181
835.924110	4088.892487
836.240366	3885.575191
836.556578	3681.985672
836.872746	3569.716656
837.188871	3531.746685
837.504952	3464.318732
837.820990	3383.083058
838.136984	3337.528671
838.452935	3363.445243
838.768842	3354.691280
839.084706	3378.097357
839.400526	3537.980072
839.716303	3886.459914
840.032037	4418.314247
840.347727	4673.114327
840.663373	4387.250657
840.978977	4001.572141
841.294537	3695.566541
841.610054	3467.555153
841.925527	3362.956251
842.240957	3289.181485
842.556344	3238.389340
842.871687	3177.671162
843.186987	3127.572175
843.502244	3089.133377
843.817458	3057.099365
844.132629	3024.455373
844.447756	3034.552805
844.762840	3021.067718
845.077881	2986.992039
845.392879	2969.678196
845.707833	2965.342803
846.022745	2964.805921
846.337613	2962.000518
846.652438	2952.409723
846.967221	2952.185392
847.281960	2934.498504
847.596656	2936.278031
847.911309	2934.889193
848.225919	2927.813934
848.540485	2922.112389
848.855009	2921.588109
849.169490	2911.188208
849.483928	2900.185890
849.798323	2901.564646
850.112675	2897.776218
850.426984	2912.337591
850.741251	2906.207548
851.055474	2896.248749
851.369654	2891.575599
851.683792	2897.778739
851.997887	2906.121849
852.311938	2908.745769
852.625947	2896.500807
852.939914	2901.214285
853.253837	2904.168402
853.567718	2889.239024
853.881555	2885.700134
854.195350	2905.098494
854.509103	2897.614902
854.822812	2890.164076
855.136479	2887.048643
855.450103	2889.014693
855.763685	2883.734084
856.077224	2878.917262
856.390720	2887.973695
856.704173	2901.305026
857.017584	2894.007956
857.330953	2890.544683
857.644278	2900.553894
857.957561	2911.830955
858.270802	2914.883374
858.584000	2910.086716
858.897155	2897.551887
859.210268	2896.077350
859.523339	2894.507030
859.836367	2897.481311
860.149352	2890.219529
860.462295	2885.155690
860.775195	2896.135323
861.088054	2893.100548
861.400869	2878.224103
861.713642	2871.252188
862.026373	2889.612070
862.339062	2890.108623
862.651708	2896.533574
862.964312	2900.992475
863.276873	2891.865466
863.589392	2903.112280
863.901869	2913.416398
864.214303	2939.416149
864.526696	2953.697738
864.839045	2950.675566
865.151353	2946.695575
865.463619	2946.428394
865.775842	2947.837397
866.088023	2967.235757
866.400162	2973.461582
866.712258	2942.536623
867.024313	2936.628391
867.336325	2945.384875
867.648296	2964.193420
867.960224	2957.183696
868.272110	2945.717592
868.583954	2947.280349
868.895755	2960.800724
869.207515	2947.499639
869.519233	2953.702779
869.830909	2965.259624
870.142542	2974.031232
870.454134	2973.191880
870.765684	2974.636171
871.077191	2977.948209
871.388657	2983.594301
871.700081	2995.786332
872.011463	3008.187570
872.322803	3007.375944
872.634101	3009.533558
872.945357	3026.282792
873.256571	3049.013354
873.567744	3045.771892
873.878874	3037.978269
874.189963	3061.258317
874.501010	3061.850653
874.812015	3050.727347
875.122979	3050.170299
875.433900	3048.410937
875.744780	3054.034344
876.055618	3063.138667
876.366415	3056.950651
876.677169	3070.871798
876.987882	3068.510017
877.298554	3059.259500
877.609183	3084.349322
877.919771	3106.056531
878.230317	3134.723052
878.540822	3185.406813
878.851285	3222.635734
879.161707	3269.241201
879.472087	3373.666183
879.782425	3605.803756
880.092722	4050.468813
880.402977	4581.629988
880.713191	5217.750507
881.023363	6392.576287
881.333494	7683.270468
881.643583	8229.280362
881.953631	7919.635048
882.263637	7273.517922
882.573602	6683.944897
882.883526	6102.944354
883.193408	5528.865316
883.503248	5068.602929
883.813048	4757.737656
884.122806	4451.611068
884.432522	4133.844456
884.742197	3898.682191
885.051831	3703.455947
885.361424	3568.393353
885.670975	3496.330059
885.980485	3410.038108
886.289954	3333.193279
886.599382	3288.203502
886.908768	3248.413674
887.218113	3206.010009
887.527417	3149.019764
887.836680	3095.543204
888.145901	3090.242431
888.455082	3080.951585
888.764221	3028.889068
889.073319	2999.912516
889.382376	2998.932012
889.691392	3001.835716
890.000366	3000.610716
890.309300	2988.027996
890.618193	2998.100221
890.927044	3016.883560
891.235855	3018.146369
891.544625	3003.123731
891.853353	3013.765607
892.162041	3033.887372
892.470687	3072.792477
892.779293	3124.776856
893.087858	3174.601100
893.396381	3245.457037
893.704864	3373.278014
894.013306	3612.914303
894.321707	3921.077517
894.630068	4120.989514
894.938387	4118.085809
895.246665	4074.741969
895.554903	3948.675314
895.863100	3748.055035
896.171256	3578.321905
896.479371	3437.444341
896.787446	3316.239879
897.095480	3211.088971
897.403473	3147.217552
897.711425	3108.269597
898.019336	3101.653083
898.327207	3071.854822
898.635038	3035.225799
898.942827	3019.648633
899.250576	3007.572549
899.558284	2972.173567
899.865952	2958.355764
900.173579	2937.702157
900.481165	2930.737803
900.788711	2916.650298
901.096216	2890.355640
901.403681	2879.081099
901.711105	2888.704662
902.018489	2887.885475
902.325832	2883.794578
902.633135	2897.110786
902.940397	2928.681012
903.247619	3015.494722
903.554800	3209.596790
903.861941	3563.032086
904.169041	3991.441942
904.476101	4289.747180
904.783121	4237.566197
905.090100	3991.910770
905.397039	3714.612020
905.703938	3461.352013
906.010796	3276.394599
906.317614	3167.551046
906.624391	3070.150913
906.931129	2996.240035
907.237826	2936.131838
907.544483	2889.412944
907.851099	2859.755836
908.157675	2836.732887
908.464211	2817.049701
908.770707	2805.094605
909.077163	2790.792852
909.383578	2774.341046
909.689954	2763.089191
909.996289	2763.288316
910.302584	2764.478028
910.608839	2765.382916
910.915054	2759.860332
911.221229	2750.204001
911.527363	2753.798344
911.833458	2760.308994
912.139513	2763.948707
912.445527	2768.190838
912.751502	2777.529576
913.057436	2786.820422
913.363331	2799.466157
913.669186	2820.442398
913.975000	2855.853983
914.280775	2918.860844
914.586510	2986.782831
914.892205	3072.207703
915.197859	3199.108669
915.503475	3398.856828
915.809050	3610.615537
916.114585	3761.235132
916.420081	3779.083337
916.725536	3717.256105
917.030952	3595.071139
917.336328	3466.514154
917.641665	3334.879545
917.946961	3235.878845
918.252218	3163.233298
918.557435	3083.255392
918.862612	3020.566123
919.167750	2974.008547
919.472848	2936.472115
919.777906	2904.627147
920.082925	2881.452962
920.387904	2850.775021
920.692843	2833.244408
920.997743	2821.906853
921.302603	2808.953608
921.607423	2795.342493
921.912204	2784.430915
922.216946	2772.695109
922.521647	2762.464087
922.826310	2757.276740
923.130932	2748.308527
923.435516	2740.421642
923.740059	2733.714387
924.044564	2726.742471
924.349028	2720.085628
924.653454	2711.979452
924.957840	2709.156406
925.262186	2702.653318
925.566493	2701.841692
925.870761	2696.160312
926.174989	2691.386339
926.479178	2685.919207
926.783328	2681.122550
927.087438	2679.244720
927.391509	2680.295800
927.695541	2674.730367
927.999533	2673.152485
928.303486	2669.283400
928.607400	2668.983451
928.911275	2668.673420
929.215110	2665.096722
929.518906	2667.987823
929.822663	2665.436999
930.126381	2665.805004
930.430060	2665.923471
930.733699	2667.501352
931.037299	2668.862463
931.340861	2670.276507
931.644383	2671.551919
931.947866	2669.724501
932.251309	2664.607730
932.554714	2666.140240
932.858080	2665.323573
933.161407	2662.563542
933.464694	2662.001453
933.767943	2658.066832
934.071153	2659.876607
934.374323	2660.373160
934.677455	2662.160249
934.980548	2657.875269
935.283602	2655.357212
935.586617	2657.638334
935.889593	2658.233191
936.192530	2659.463232
936.495428	2658.795279
936.798287	2659.659837
937.101108	2663.581855
937.403890	2668.975889
937.706632	2669.963956
938.009336	2677.666839
938.312002	2687.239990
938.614628	2694.174097
938.917216	2700.231043
939.219765	2705.252032
939.522275	2702.537371
939.824747	2702.267669
940.127179	2697.002184
940.429573	2694.015301
940.731929	2690.398273
941.034246	2689.359795
941.336524	2686.889630
941.638763	2681.606500
941.940964	2680.678928
942.243126	2676.772034
942.545250	2680.653722
942.847335	2674.712722
943.149381	2670.664676
943.451389	2669.028822
943.753359	2666.200734
944.055290	2666.924140
944.357182	2661.870383
944.659036	2660.635300
944.960851	2661.477173
945.262628	2655.969712
945.564367	2660.862152
945.866067	2663.821310
946.167729	2661.139416
946.469352	2661.598161
946.770937	2659.296874
947.072484	2661.620846
947.373992	2659.972389
947.675462	2656.607418
947.976893	2653.827222
948.278286	2650.825215
948.579641	2653.970895
948.880958	2650.779845
949.182236	2651.536018
949.483476	2651.417551
949.784678	2651.296563
950.085841	2651.525935
950.386967	2652.849238
950.688054	2652.569454
950.989103	2652.221615
951.290114	2653.683549
951.591087	2655.954589
951.892021	2656.998108
952.192917	2660.504230
952.493776	2663.770898
952.794596	2664.600168
953.095378	2661.623367
953.396122	2664.070847
953.696828	2659.493479
953.997496	2658.868376
954.298126	2656.418375
954.598718	2654.938797
954.899272	2654.830412
955.199788	2650.426964
955.500266	2650.585760
955.800706	2646.257930
956.101108	2644.375059
956.401472	2642.247692
956.701798	2641.564615
957.002087	2638.066055
957.302337	2636.596558
957.602550	2634.627988
957.902724	2633.763430
958.202861	2634.428862
958.502960	2631.424334
958.803022	2630.837040
959.103045	2631.394087
959.403031	2629.118007
959.702979	2628.593727
960.002889	2627.875362
960.302762	2627.761936
960.602596	2628.132461
960.902393	2627.378808
961.202153	2626.403345
961.501875	2626.345372
961.801559	2625.606843
962.101205	2627.351082
962.400814	2625.969806
962.700385	2628.903757
962.999918	2623.492079
963.299414	2621.430247
963.598873	2621.992336
963.898293	2619.338168
964.197677	2624.444857
964.497022	2625.511061
964.796331	2622.317490
965.095601	2625.904271
965.394835	2624.422172
965.694030	2623.018210
965.993189	2624.351596
966.292309	2623.391256
966.591393	2623.199692
966.890439	2622.297325
967.189447	2620.016203
967.488419	2621.977212
967.787353	2622.899743
968.086249	2623.292953
968.385108	2624.422172
968.683930	2621.193313
968.982714	2618.065277
969.281462	2621.369753
969.580172	2621.095010
969.878844	2624.069291
970.177480	2622.892182
970.476078	2621.677263
970.774639	2623.870165
971.073162	2626.133643
971.371649	2624.333952
971.670098	2621.730196
971.968510	2621.238683
972.266885	2624.086935
972.565223	2625.417800
972.863524	2624.805299
973.161788	2623.507202
973.460014	2623.474435
973.758204	2624.170114
974.056356	2622.284723
974.354471	2621.578961
974.652550	2622.151132
974.950591	2623.870165
975.248595	2623.267747
975.546563	2621.062243
975.844493	2622.859414
976.142386	2619.970833
976.440243	2620.260699
976.738062	2620.689197
977.035845	2621.095010
977.333590	2624.286061
977.631299	2623.587861
977.928971	2616.797427
978.226606	2617.450256
978.524204	2618.022427
978.821765	2615.945472
979.119290	2619.174331
979.416777	2620.369084
979.714228	2618.728188
980.011642	2621.457973
980.309020	2621.052160
980.606360	2621.488220
980.903664	2620.543004
981.200931	2620.893364
981.498162	2624.003756
981.795356	2621.052160
982.092513	2622.423354
982.389633	2625.364868
982.686717	2629.859056
982.983764	2635.419449
983.280775	2638.779378
983.577749	2639.240643
983.874686	2635.295941
984.171587	2634.471712
984.468451	2632.135137
984.765279	2629.551546
985.062070	2628.376957
985.358824	2624.817902
985.655543	2624.555762
985.952224	2625.314456
986.248869	2620.956378
986.545478	2620.754732
986.842050	2618.040071
987.138586	2621.911677
987.435086	2619.985956
987.731549	2618.670215
988.027975	2618.435802
988.324366	2619.171810
988.620719	2618.251799
988.917037	2614.594442
989.213318	2618.370267
989.509563	2614.004627
989.805772	2618.904629
990.101944	2618.874382
990.398080	2617.888836
990.694180	2619.320524
990.990244	2616.467231
991.286271	2616.386573
991.582262	2618.773559
991.878217	2617.359515
992.174136	2616.978908
992.470019	2616.421861
992.765865	2614.589401
993.061676	2614.670060
993.357450	2615.169134
993.653188	2612.938423
993.948890	2616.512601
994.244556	2614.917076
994.540186	2614.415481
994.835780	2615.837087
995.131337	2620.190123
995.426859	2618.057715
995.722345	2619.796913
996.017795	2621.306739
996.313208	2621.576440
996.608586	2620.936214
996.903928	2623.434106
997.199234	2622.864455
997.494504	2622.199023
997.789738	2621.616770
998.084936	2621.236162
998.380099	2620.648868
998.675225	2621.684825
998.970316	2620.303549
999.265371	2619.542335
999.560390	2619.297839
999.855373	2620.364043
1000.150320	2618.342540
1000.445232	2617.147787
1000.740108	2615.320368
1001.034948	2618.022427
1001.329752	2617.593929
1001.624521	2617.906480
1001.919254	2619.522170
1002.213951	2618.650051
1002.508613	2615.085955
1002.803239	2615.290122
1003.097829	2614.291973
1003.392384	2613.409771
1003.686903	2614.047477
1003.981386	2616.184926
1004.275834	2616.678959
1004.570246	2615.098558
1004.864623	2614.208794
1005.158964	2616.976387
1005.453270	2615.688373
1005.747540	2614.460852
1006.041775	2612.973711
1006.335974	2616.021089
1006.630138	2613.818105
1006.924266	2613.976901
1007.218359	2614.047477
1007.512416	2615.368259
1007.806438	2608.376179
1008.100425	2612.678804
1008.394376	2610.221241
1008.688292	2612.479678
1008.982172	2614.627210
1009.276017	2614.808691
1009.569827	2614.818774
1009.863602	2615.307766
1010.157341	2614.818774
1010.451045	2616.079062
1010.744714	2613.180399
1011.038347	2613.104781
1011.331945	2613.369442
1011.625508	2613.394648
1011.919036	2615.058228
1012.212528	2611.070676
1012.505986	2613.974380
1012.799408	2616.162241
1013.092795	2615.171654
1013.386147	2611.226952
1013.679464	2612.802312
1013.972745	2613.240892
1014.265992	2614.473455
1014.559204	2616.144597
1014.852380	2617.125102
1015.145521	2611.771396
1015.438628	2614.460852
1015.731699	2613.293825
1016.024736	2614.357508
1016.317737	2611.484050
1016.610703	2614.407920
1016.903635	2616.898250
1017.196531	2612.361211
1017.489393	2614.866665
1017.782219	2614.581839
1018.075011	2611.879781
1018.367768	2613.392127
1018.660490	2614.579319
1018.953177	2614.579319
1019.245829	2614.579319
