Dividing Wavelength (nm)	Counts (n)	Blue Motor Position (mm): 29.400000	Red Motor Position (mm): 0.000000	
326.493990	2129.872377
326.888308	2129.872377
327.282561	2129.872377
327.676750	2097.825762
328.070874	2095.952973
328.464933	2100.797522
328.858929	2106.935127
329.252859	2115.958792
329.646726	2124.501027
330.040528	2140.897380
330.434265	2158.841367
330.827938	2174.698317
331.221547	2193.252283
331.615091	2212.307845
332.008571	2231.260063
332.401986	2251.706983
332.795338	2270.046700
333.188625	2288.943466
333.581847	2307.709161
333.975006	2324.813796
334.368100	2344.832218
334.761129	2362.642614
335.154095	2378.005531
335.546996	2399.506052
335.939833	2425.636873
336.332606	2442.353339
336.725315	2449.365584
337.117960	2463.518623
337.510540	2468.844602
337.903056	2478.047229
338.295508	2488.121975
338.687896	2494.831750
339.080220	2503.167298
339.472480	2513.602487
339.864676	2514.721623
340.256807	2518.651202
340.648875	2523.818385
341.040879	2524.319980
341.432818	2527.516071
341.824694	2528.131092
342.216506	2526.096987
342.608253	2528.526823
342.999937	2527.894158
343.391557	2528.441123
343.783113	2527.783253
344.174605	2527.163191
344.566033	2525.723941
344.957397	2524.839219
345.348697	2522.943745
345.739934	2521.139012
346.131106	2519.281347
346.522215	2513.103413
346.913260	2513.864627
347.304241	2512.692558
347.695159	2510.328257
348.086012	2513.053001
348.476802	2507.558143
348.867528	2506.146620
349.258191	2502.088491
349.648789	2505.766013
350.039324	2501.665034
350.429796	2503.298368
350.820203	2498.600013
351.210548	2498.942811
351.600828	2497.700167
351.991045	2496.959117
352.381198	2495.787049
352.771288	2495.159425
353.161314	2494.110865
353.551276	2494.620022
353.941175	2492.049033
354.331010	2498.463902
354.720782	2495.958448
355.110490	2496.202944
355.500135	2494.020125
355.889717	2493.541215
356.279235	2496.371823
356.668689	2496.308808
357.058080	2494.965341
357.447408	2496.175218
357.836672	2492.991729
358.225873	2494.864518
358.615010	2492.996770
359.004084	2497.972389
359.393095	2499.754437
359.782043	2500.608913
360.170927	2499.522544
360.559748	2498.292502
360.948505	2498.380723
361.337199	2502.201917
361.725830	2498.773933
362.114398	2501.912051
362.502903	2501.521362
362.891344	2502.607730
363.279722	2502.844664
363.668037	2505.045128
364.056289	2504.230982
364.444478	2504.029336
364.832603	2505.420694
365.220665	2507.626199
365.608665	2505.168636
365.996601	2506.088647
366.384474	2505.740807
366.772284	2503.840292
367.160031	2506.318019
367.547715	2507.031343
367.935336	2508.710047
368.322893	2506.728873
368.710388	2507.270798
369.097820	2510.897908
369.485189	2507.071672
369.872495	2508.218534
370.259738	2509.640140
370.646918	2511.364214
371.034035	2510.363545
371.421090	2510.799605
371.808081	2510.792043
372.195010	2509.824142
372.581875	2511.689369
372.968678	2511.452435
373.355418	2511.480161
373.742096	2510.139214
374.128710	2512.662312
374.515262	2515.034174
374.901751	2511.901097
375.288177	2514.409071
375.674540	2515.094668
376.060841	2516.100378
376.447079	2511.795233
376.833254	2514.585512
377.219367	2509.861951
377.605417	2511.049142
377.991404	2508.493277
378.377329	2511.422188
378.763191	2509.771210
379.148991	2513.365553
379.534727	2516.007117
379.920402	2516.478465
380.306013	2513.909997
380.691563	2514.971160
381.077049	2518.194978
381.462474	2514.749349
381.847835	2516.506191
382.233134	2515.371932
382.618371	2519.014165
383.003545	2519.130112
383.388657	2518.522653
383.773706	2521.416275
384.158693	2520.087931
384.543618	2520.471059
384.928480	2516.712879
385.313280	2518.429392
385.698017	2519.278826
386.082692	2520.264372
386.467305	2520.171110
386.851856	2520.579444
387.236344	2519.510719
387.620770	2522.701769
388.005133	2520.982736
388.389435	2522.273271
388.773674	2522.900895
389.157851	2516.496109
389.541965	2522.132119
389.926018	2521.280164
390.310008	2520.554238
390.693936	2523.601615
391.077802	2523.979702
391.461606	2523.215967
391.845348	2523.183200
392.229027	2523.215967
392.612645	2521.862417
392.996200	2524.229239
393.379694	2523.384846
393.763125	2526.722090
394.146494	2523.347037
394.529801	2527.178314
394.913047	2525.600433
395.296230	2524.458612
395.679351	2526.528005
396.062410	2525.360978
396.445408	2523.833508
396.828343	2523.420134
397.211217	2521.668333
397.594028	2524.146060
397.976778	2521.378467
398.359466	2525.146729
398.742092	2522.285874
399.124656	2525.086235
399.507158	2526.709487
399.889598	2527.841226
400.271977	2526.490197
400.654294	2529.714014
401.036549	2529.905578
401.418742	2527.717717
401.800874	2530.989426
402.182944	2528.299971
402.564952	2527.432892
402.946898	2527.899199
403.328783	2529.492204
403.710606	2528.998171
404.092367	2529.963552
404.474067	2532.264838
404.855705	2530.472708
405.237282	2531.508665
405.618797	2529.517409
406.000250	2530.921371
406.381642	2534.092257
406.762972	2531.828778
407.144240	2531.929602
407.525447	2534.271218
407.906593	2535.297092
408.287677	2531.526309
408.668700	2531.634694
409.049661	2532.524458
409.430560	2532.663089
409.811399	2535.390354
410.192176	2533.441948
410.572891	2532.093439
410.953545	2534.835827
411.334138	2535.478574
411.714669	2534.377082
412.095139	2538.102494
412.475547	2534.427493
412.855894	2538.563760
413.236180	2537.421939
413.616405	2538.485622
413.996568	2537.197607
414.376670	2537.797505
414.756711	2537.195087
415.136691	2539.997968
415.516609	2537.752134
415.896466	2539.201466
416.276262	2537.369007
416.655997	2536.774150
417.035670	2535.826413
417.415283	2538.856147
417.794834	2535.960004
418.174324	2539.274563
418.553753	2541.885880
418.933121	2540.746580
419.312428	2540.454193
419.691674	2540.222300
420.070859	2540.020653
420.449983	2541.422094
420.829045	2540.996117
421.208047	2543.491488
421.586988	2542.379913
421.965867	2545.636499
422.344686	2546.110367
422.723444	2546.586756
423.102141	2548.061294
423.480777	2546.354863
423.859352	2548.499874
424.237866	2548.797302
424.616319	2550.125646
424.994712	2551.650595
425.373044	2552.918446
425.751314	2552.764690
426.129524	2553.392314
426.507673	2557.886503
426.885762	2558.683005
427.263789	2563.041082
427.641756	2563.739282
428.019662	2567.378995
428.397508	2573.085582
428.775292	2577.975501
429.153016	2583.266192
429.530679	2589.814651
429.908282	2596.935280
430.285824	2601.177411
430.663305	2612.116715
431.040726	2617.909001
431.418086	2624.772532
431.795385	2637.498925
432.172624	2646.371356
432.549802	2661.643531
432.926920	2669.159892
433.303977	2684.051460
433.680974	2697.292051
434.057910	2710.777137
434.434786	2726.787842
434.811601	2741.603793
435.188355	2766.670930
435.565050	2775.447579
435.941683	2794.246042
436.318257	2827.633604
436.694770	2845.628002
437.071222	2870.685058
437.447614	2882.993035
437.823946	2897.027607
438.200218	2937.475305
438.576429	2949.659774
438.952580	2986.787872
439.328670	3020.319107
439.704700	3038.331149
440.080670	3061.442319
440.456580	3136.162302
440.832429	3152.747698
441.208218	3157.045281
441.583947	3214.378324
441.959616	3248.501894
442.335224	3276.818056
442.710773	3333.425172
443.086261	3383.677914
443.461689	3371.687530
443.837057	3450.173254
444.212365	3532.621325
444.587612	3542.625495
444.962800	3629.149339
445.337927	3669.733148
445.712995	3602.290071
446.088002	3822.026406
446.462949	3815.230930
446.837837	3844.623378
447.212664	3939.518058
447.587431	4058.176737
447.962139	4322.353363
448.336786	4735.891816
448.711374	4690.801216
449.085901	4380.084657
449.460369	4408.829316
449.834776	4433.687246
450.209124	4671.785983
450.583412	4815.007685
450.957640	4927.904325
451.331808	4884.280700
451.705917	4724.231627
452.079965	4736.960541
452.453954	4908.614350
452.827883	4894.363008
453.201752	5004.020707
453.575562	4947.209424
453.949311	5120.857009
454.323001	5101.085604
454.696632	5200.892888
455.070202	5345.367316
455.443713	5497.249720
455.817164	5620.132886
456.190556	5728.651284
456.563888	5838.077090
456.937160	5916.383853
457.310373	5736.016410
457.683526	5810.038192
458.056619	5779.269510
458.429653	5819.588658
458.802628	5818.386343
459.175542	5943.845539
459.548398	6258.567294
459.921194	6428.993582
460.293930	6465.042873
460.666607	6919.039107
461.039224	7198.750048
461.411782	7359.630912
461.784280	7431.351407
462.156719	7398.992241
462.529099	7353.432813
462.901419	7055.727472
463.273680	7007.846593
463.645882	7057.388533
464.018024	6989.446382
464.390106	7168.046901
464.762130	7538.128087
465.134094	7987.756160
465.505999	8902.929750
465.877845	10016.797898
466.249631	10652.830197
466.621358	10380.234843
466.993026	9866.415238
467.364634	9682.304737
467.736184	9382.056135
468.107674	9102.294782
468.479105	9165.067229
468.850477	8970.456006
469.221790	8780.966594
469.593043	8488.768715
469.964238	8382.864155
470.335373	8413.088393
470.706449	8487.722675
471.077467	8485.247469
471.448425	9762.418754
471.819324	10804.959617
472.190164	10835.168731
472.560945	9653.802054
472.931667	8902.672651
473.302330	8782.839383
473.672934	8449.840925
474.043479	8805.600193
474.413965	8753.441894
474.784393	8654.980598
475.154761	8810.263260
475.525070	8904.701716
475.895321	8738.542764
476.265513	8917.491123
476.635645	9091.196682
477.005719	9094.034851
477.375734	9211.680258
477.745691	9444.498387
478.115588	9581.398482
478.485427	9829.856790
478.855207	10366.142298
479.224928	11171.849752
479.594591	11787.745162
479.964194	11610.619180
480.333739	11544.834643
480.703226	11468.070473
481.072653	11564.328785
481.442022	11796.889815
481.811333	11985.300419
482.180584	11801.593212
482.549777	11515.853050
482.918912	11337.983498
483.287988	11365.815708
483.657005	11376.427337
484.025964	11069.007693
484.394864	11191.757269
484.763706	11162.669811
485.132489	10921.604355
485.501213	10894.016641
485.869879	10963.488782
486.238487	10809.095883
486.607036	10921.659808
486.975527	10705.590913
487.343959	10891.299459
487.712333	10945.181832
488.080648	10875.641635
488.448905	10916.341390
488.817104	10859.204953
489.185244	11126.272681
489.553326	11278.132399
489.921350	11821.044504
490.289315	12870.053166
490.657222	13207.523128
491.025070	13106.992438
491.392861	12983.940393
491.760593	12600.316148
492.128267	12267.380703
492.495883	11940.948348
492.863440	11606.840836
493.230939	11272.105700
493.598380	11207.382325
493.965763	11076.997922
494.333088	10981.064765
494.700354	10893.618389
495.067563	10961.573143
495.434713	10789.538727
495.801805	10921.241392
496.168839	10842.002015
496.535815	10781.573704
496.902733	10778.743096
497.269593	10708.177025
497.636395	10813.781636
498.003139	10803.810234
498.369825	10667.938535
498.736453	10829.482310
499.103023	10754.167471
499.469535	10784.941195
499.835989	10779.670668
500.202385	10733.768442
500.568723	10592.953892
500.935003	10810.134361
501.301226	10620.239137
501.667390	10876.982582
502.033497	10977.210802
502.399546	10826.750004
502.765537	10737.090562
503.131470	10812.884311
503.497345	10982.352779
503.863163	10596.986815
504.228923	10910.569269
504.594625	10974.586882
504.960269	10724.646474
505.325856	10945.265011
505.691385	10740.516027
506.056856	10892.544624
506.422270	10910.619681
506.787625	10808.115379
507.152924	10917.563870
507.518164	10904.305636
507.883347	10827.894346
508.248472	10738.421427
508.613540	10978.397994
508.978550	10863.011024
509.343503	10832.585140
509.708398	10951.125352
510.073236	11066.388814
510.438016	11070.026007
510.802738	11018.575990
511.167403	11076.282078
511.532010	10968.746705
511.896561	11200.057529
512.261053	11268.140832
512.625488	11137.101079
512.989866	11118.816814
513.354186	11113.347162
513.718449	11018.772595
514.082655	11206.129599
514.446803	11102.952303
514.810894	11226.682383
515.174927	11098.574061
515.538904	11118.862184
515.902822	11264.420461
516.266684	11155.811322
516.630488	11092.970818
516.994235	11150.205558
517.357925	11206.490041
517.721558	11301.974536
518.085133	11309.821092
518.448651	11328.972436
518.812112	11205.098683
519.175516	11222.679707
519.538863	11348.290137
519.902152	11264.271747
520.265385	11425.712178
520.628560	11333.688435
520.991678	11314.302678
521.354739	11373.569003
521.717743	11308.404528
522.080690	11289.069182
522.443580	11422.387537
522.806413	11376.601257
523.169189	11401.953220
523.531908	11461.043105
523.894569	11286.730087
524.257174	11287.813935
524.619722	11406.210474
524.982213	11349.157216
525.344647	11402.404403
525.707025	11357.959070
526.069345	11452.576487
526.431608	11369.120185
526.793815	11475.818727
527.155964	11269.766604
527.518057	11320.198307
527.880093	11266.968764
528.242072	11336.148518
528.603995	11245.768191
528.965860	11166.259113
529.327669	11219.655014
529.689421	11164.761890
530.051117	11138.779783
530.412755	11237.629248
530.774337	11127.046498
531.135862	11106.425658
531.497331	11134.880451
531.858743	10983.240023
532.220098	11154.356949
532.581396	11027.282063
532.942638	11009.786739
533.303824	10968.300563
533.664953	10980.563170
534.026025	10898.591488
534.387040	10994.930458
534.747999	10999.180151
535.108902	11053.438090
535.469748	10816.100567
535.830537	10915.197048
536.191270	10899.347661
536.551947	10913.409959
536.912567	10917.710064
537.273131	10847.320432
537.633638	10826.039202
537.994089	10813.315329
538.354483	10759.150652
538.714821	10909.704711
539.075103	10917.253839
539.435328	10881.360824
539.795497	10710.236336
540.155609	10860.344253
540.515665	10945.131420
540.875665	10683.636688
541.235609	10758.424726
541.595496	10753.973387
541.955328	10904.250183
542.315102	10794.116095
542.674821	10741.549463
543.034483	10746.083981
543.394090	10748.838972
543.753640	10671.429534
544.113134	10896.028061
544.472571	10753.426422
544.831953	10893.532690
545.191278	10698.409789
545.550548	10725.979859
545.909761	10862.519511
546.268918	10831.418113
546.628019	10923.295662
546.987064	10784.197625
547.346053	10708.013187
547.704986	10809.882303
548.063863	10792.066866
548.422684	10788.598552
548.781449	10698.702176
549.140158	10808.271655
549.498811	10683.271204
549.857408	10536.830726
550.215949	10770.223546
550.574434	10619.424991
550.932864	10717.916534
551.291237	10776.451892
551.649555	10720.338808
552.007817	10735.253062
552.366022	10695.009531
552.724173	10694.873420
553.082267	10682.255412
553.440305	10815.732563
553.798288	10621.383479
554.156215	10770.866293
554.514086	10738.242466
554.871902	10592.187636
555.229661	10631.896805
555.587365	10608.591551
555.945014	10506.480459
556.302606	10631.962340
556.660143	10517.835658
557.017625	10676.042189
557.375050	10580.870246
557.732421	10709.235667
558.089735	10624.360280
558.446994	10623.641916
558.804197	10662.088276
559.161345	10658.640126
559.518437	10503.869142
559.875474	10600.603843
560.232455	10629.078800
560.589381	10580.492159
560.946251	10573.356406
561.303065	10677.710811
561.659825	10616.080185
562.016528	10540.147805
562.373177	10428.849211
562.729770	10547.044104
563.086307	10458.075300
563.442789	10546.045955
563.799216	10430.270816
564.155587	10473.420572
564.511904	10426.331154
564.868164	10421.932748
565.224370	10435.259038
565.580520	10361.176761
565.936615	10353.456234
566.292654	10237.023224
566.648638	10357.602583
567.004567	10317.830400
567.360441	10316.469288
567.716260	10218.391120
568.072023	10312.905193
568.427732	10268.979099
568.783385	10167.861114
569.138982	10242.571014
569.494525	10258.604404
569.850013	10140.248194
570.205445	10215.560512
570.560823	10109.925654
570.916145	10030.451863
571.271412	10103.036917
571.626625	10047.155727
571.981782	10026.275267
572.336884	10001.727369
572.691931	9999.451288
573.046923	9952.397158
573.401860	9903.208099
573.756743	9842.779788
574.111570	9886.189164
574.466342	9867.947748
574.821059	9898.774404
575.175722	9785.119070
575.530330	9794.190627
575.884882	9788.116036
576.239380	9713.207011
576.593823	9697.655051
576.948211	9712.085354
577.302544	9589.257640
577.656823	9612.540209
578.011047	9610.284293
578.365216	9580.652391
578.719330	9507.515331
579.073389	9516.201239
579.427394	9459.667219
579.781344	9440.702398
580.135239	9396.204133
580.489080	9403.758302
580.842866	9299.320718
581.196597	9311.434611
581.550273	9354.589408
581.903895	9319.008944
582.257463	9375.051452
582.610975	9258.948638
582.964434	9284.867730
583.317837	9207.274290
583.671186	9189.932721
584.024481	9186.524901
584.377721	9105.657231
584.730906	9081.850382
585.084037	9113.183674
585.437113	9049.536586
585.790135	9065.496879
586.143103	8970.445923
586.496016	8939.344525
586.848874	9003.752827
587.201679	8985.027461
587.554428	8877.852530
587.907124	8926.726517
588.259765	8892.053461
588.612352	8893.969099
588.964884	8776.434597
589.317362	8783.028426
589.669786	8790.892626
590.022155	8841.324329
590.374470	8850.098458
590.726731	8790.847256
591.078937	8639.789081
591.431090	8748.516687
591.783188	8626.861042
592.135232	8621.691339
592.487222	8616.914845
592.839157	8671.276128
593.191038	8605.544523
593.542866	8551.057212
593.894639	8451.446532
594.246358	8504.247578
594.598022	8519.736523
594.949633	8416.823888
595.301190	8393.742965
595.652692	8421.920494
596.004141	8529.430662
596.355535	8308.340777
596.706876	8293.539950
597.058162	8225.141574
597.409395	8300.063203
597.760573	8366.011577
598.111698	8274.592773
598.462768	8261.271524
598.813785	8220.811223
599.164748	8191.625463
599.515657	8182.818567
599.866511	8091.228363
600.217312	8217.491623
600.568060	8073.833862
600.918753	8179.181375
601.269392	8148.137949
601.619978	8061.697284
601.970510	8123.174155
602.320988	8126.405535
602.671412	8176.373452
603.021783	8113.684183
603.372100	8085.710821
603.722363	8089.229546
604.072572	8065.684837
604.422728	8082.066066
604.772830	8006.214345
605.122878	8017.874534
605.472872	8007.640992
605.822813	8039.286835
606.172701	7983.181313
606.522534	8058.304588
606.872314	8058.904485
607.222041	8028.796194
607.571714	8083.323834
607.921333	8040.100981
608.270899	8046.735140
608.620411	8140.924058
608.969870	8043.516363
609.319276	8035.047224
609.668627	8048.635655
610.017926	8086.504802
610.367171	8132.631360
610.716362	8114.137887
611.065500	8098.984179
611.414585	8131.600444
611.763616	8114.047146
612.112594	8099.500897
612.461518	8114.389945
612.810389	8174.200715
613.159207	8113.280891
613.507971	8062.219044
613.856682	8177.931168
614.205340	8134.799056
614.553945	8213.519194
614.902496	8113.361549
615.250994	8166.008840
615.599439	8145.783730
615.947830	8162.366606
616.296169	8133.458109
616.644454	8151.573496
616.992686	8146.789441
617.340864	8204.679531
617.688990	8102.739838
618.037063	8194.907254
618.385082	8150.580388
618.733048	8228.451092
619.080961	8173.013523
619.428821	8192.152263
619.776628	8192.225360
620.124382	8139.699058
620.472083	8127.113817
620.819731	8154.073908
621.167326	8046.044502
621.514868	8055.093373
621.862357	7945.657484
622.209793	7962.618447
622.557176	7900.745845
622.904506	7870.592183
623.251783	7806.340157
623.599007	7763.155112
623.946179	7758.764267
624.293297	7715.518729
624.640363	7631.117211
624.987376	7616.649099
625.334336	7567.618837
625.681243	7516.536825
626.028097	7507.298911
626.374899	7482.488872
626.721647	7478.763459
627.068343	7412.454642
627.414987	7378.419292
627.761577	7329.310892
628.108115	7373.521811
628.454600	7265.779750
628.801032	7320.214130
629.147412	7274.256451
629.493739	7261.661128
629.840014	7203.264402
630.186236	7259.974862
630.532405	7144.960937
630.878521	7190.744696
631.224585	7148.051164
631.570597	7077.926193
631.916556	7109.045236
632.262462	7105.667663
632.608316	7066.412198
632.954117	7043.018724
633.299866	7036.447580
633.645562	7023.650611
633.991206	6944.073477
634.336797	6889.634056
634.682336	6845.614701
635.027823	6811.657488
635.373257	6802.500233
635.718639	6735.818370
636.063968	6751.698005
636.409245	6649.470966
636.754470	6639.970912
637.099642	6599.414829
637.444762	6543.493310
637.789829	6552.416152
638.134845	6493.346432
638.479808	6478.187682
638.824719	6486.845864
639.169577	6413.378608
639.514383	6437.293842
639.859137	6362.503284
640.203839	6368.721547
640.548489	6362.493201
640.893086	6331.548078
641.237632	6302.816022
641.582125	6326.897614
641.926566	6293.830165
642.270955	6310.347506
642.615292	6305.893647
642.959576	6324.492984
643.303809	6312.719369
643.647990	6321.319577
643.992118	6308.792310
644.336195	6256.596203
644.680219	6280.385408
645.024192	6271.918790
645.368112	6368.807247
645.711981	6386.635287
646.055797	6463.482636
646.399562	6420.907572
646.743274	6550.329114
647.086935	6597.605055
647.430544	6592.581545
647.774101	6615.090297
648.117606	6623.904755
648.461059	6612.428568
648.804460	6570.516415
649.147810	6478.447302
649.491108	6449.531243
649.834354	6431.383089
650.177548	6346.568196
650.520690	6261.347491
650.863781	6243.768987
651.206820	6261.314723
651.549807	6177.074522
651.892742	6125.637108
652.235626	6137.050281
652.578458	6119.766685
652.921238	6021.078537
653.263967	6064.500515
653.606644	6006.907853
653.949269	6007.865672
654.291843	5947.434841
654.634365	5994.589794
654.976836	5953.726201
655.319255	5950.247804
655.661622	5929.773158
656.003938	5928.023878
656.346203	5888.838989
656.688416	5919.463998
657.030577	5868.586153
657.372687	5841.479869
657.714746	5827.616696
658.056753	5874.756526
658.398708	5814.696219
658.740612	5799.860103
659.082465	5853.248443
659.424266	5843.617318
659.766016	5842.576320
660.107715	5820.859029
660.449362	5827.951933
660.790958	5826.860523
661.132503	5811.777391
661.473996	5851.403380
661.815438	5833.109033
662.156829	5834.765052
662.498168	5826.326161
662.839456	5801.773221
663.180693	5841.096741
663.521879	5843.254355
663.863013	5824.526469
664.204097	5849.865828
664.545129	5888.201283
664.886110	5881.541919
665.227040	5913.265900
665.567918	5882.456888
665.908746	5910.556280
666.249522	5913.616260
666.590248	5900.083283
666.930922	5926.198980
667.271545	5942.640703
667.612118	5943.979130
667.952639	5919.234626
668.293109	5940.009221
668.633528	5897.557664
668.973896	5897.756790
669.314213	5891.372169
669.654480	5873.125712
669.994695	5866.221852
670.334859	5857.230954
670.674973	5846.326938
671.015035	5851.781467
671.355047	5851.617629
671.695008	5838.172872
672.034918	5813.226722
672.374777	5823.818187
672.714585	5808.636752
673.054342	5815.291075
673.394049	5801.014527
673.733705	5834.906204
674.073310	5823.629143
674.412864	5784.361075
674.752368	5776.927894
675.091820	5782.926867
675.431223	5715.501434
675.770574	5715.100663
676.109875	5672.238252
676.449125	5675.141957
676.788324	5639.004445
677.127473	5588.449234
677.466571	5577.686371
677.805619	5564.997786
678.144616	5551.646290
678.483562	5529.860944
678.822458	5498.525132
679.161303	5493.126056
679.500098	5486.494418
679.838842	5467.955575
680.177535	5474.667871
680.516179	5488.921734
680.854771	5499.210729
681.193314	5578.026648
681.531805	5690.101581
681.870247	5836.005176
682.208638	5939.305980
682.546978	5952.972548
682.885268	5930.582263
683.223508	5845.321228
683.561697	5792.174864
683.899836	5761.272591
684.237925	5714.122679
684.575963	5680.639335
684.913951	5639.271627
685.251889	5702.212953
685.589776	5668.452346
685.927614	5643.793542
686.265401	5715.549325
686.603137	5697.081058
686.940824	5772.753819
687.278460	5800.008817
687.616046	5810.416279
687.953582	5870.960537
688.291068	5851.726014
688.628504	5916.202372
688.965889	5877.619901
689.303224	5822.739380
689.640510	5782.773112
689.977745	5706.298808
690.314930	5606.710814
690.652065	5552.233585
690.989150	5456.640705
691.326185	5381.605651
691.663170	5330.695038
692.000105	5246.409466
692.336990	5173.151418
692.673825	5149.505886
693.010610	5082.851750
693.347345	5017.848592
693.684030	4999.587012
694.020665	4957.611845
694.357251	4867.342423
694.693786	4876.842478
695.030272	4846.046069
695.366707	4810.848733
695.703093	4774.774236
696.039429	4799.967402
696.375716	4782.280514
696.711952	4759.121453
697.048139	4742.404987
697.384276	4720.624682
697.720363	4736.017845
698.056400	4747.176439
698.392388	4696.369170
698.728326	4673.999050
699.064214	4651.034073
699.400053	4650.383765
699.735842	4614.286583
700.071581	4590.020988
700.407270	4564.298501
700.742910	4544.872415
701.078501	4495.670753
701.414042	4490.692614
701.749533	4455.691883
702.084974	4398.217687
702.420366	4451.742138
702.755709	4395.465217
703.091002	4337.565045
703.426246	4385.690420
703.761440	4343.196014
704.096584	4304.611022
704.431679	4326.759332
704.766725	4313.072599
705.101721	4301.914005
705.436668	4328.276719
705.771565	4275.163122
706.106413	4301.961896
706.441212	4336.972709
706.775961	4341.784491
707.110661	4325.995597
707.445311	4352.169268
707.779913	4374.120972
708.114465	4388.891553
708.448967	4411.216303
708.783421	4474.644100
709.117825	4513.574411
709.452180	4517.148589
709.786485	4563.577616
710.120742	4648.568949
710.454949	4634.476404
710.789107	4698.196588
711.123216	4774.141571
711.457275	4762.846866
711.791286	4836.931663
712.125247	4853.121328
712.459159	4758.889560
712.793023	4829.869006
713.126837	4793.759221
713.460602	4780.443013
713.794318	4704.409810
714.127985	4715.825503
714.461602	4631.542452
714.795171	4595.160445
715.128691	4531.999828
715.462162	4477.041169
715.795584	4430.387811
716.128957	4413.452054
716.462281	4360.008262
716.795556	4334.477338
717.128782	4293.240700
717.461960	4231.158890
717.795088	4237.972010
718.128167	4201.201833
718.461198	4136.632214
718.794180	4137.584993
719.127113	4110.841671
719.459997	4096.552521
719.792833	4050.194070
720.125619	4039.930281
720.458357	4002.875279
720.791046	4011.944315
721.123686	3981.836024
721.456278	3941.050569
721.788821	3960.043116
722.121315	3931.290895
722.453761	3906.400198
722.786158	3918.458638
723.118506	3939.608799
723.450805	3892.350502
723.783056	3913.838420
724.115259	3932.888941
724.447412	3936.677368
724.779518	3928.689659
725.111574	3933.282151
725.443582	3965.313642
725.775542	3948.957618
726.107453	4000.531143
726.439315	3999.391842
726.771129	4013.421373
727.102895	4049.747928
727.434612	4101.374384
727.766281	4107.297740
728.097901	4108.245477
728.429473	4116.954070
728.760996	4121.828866
729.092471	4116.114718
729.423897	4100.910598
729.755276	4108.840333
730.086606	4107.189355
730.417887	4144.246877
730.749120	4208.713153
731.080305	4274.200262
731.411442	4300.905774
731.742530	4270.447123
732.073570	4274.782515
732.404562	4327.346626
732.735506	4319.358918
733.066401	4278.575983
733.397249	4219.445769
733.728048	4142.421980
734.058798	4056.578691
734.389501	3987.295593
734.720156	3923.141870
735.050762	3878.401629
735.381320	3873.476422
735.711831	3824.655367
736.042293	3795.462046
736.372707	3819.873833
736.703073	3788.182619
737.033391	3784.134573
737.363661	3799.126964
737.693883	3822.976663
738.024056	3830.906398
738.354182	3824.418433
738.684260	3888.720871
739.014290	3912.837751
739.344272	3905.888521
739.674207	3945.726239
740.004093	3950.810242
740.333931	3946.555509
740.663722	3949.955767
740.993464	3945.890076
741.323159	3922.294956
741.652806	3893.998959
741.982405	3866.701111
742.311956	3836.053416
742.641460	3827.727951
742.970915	3804.808345
743.300323	3758.177672
743.629683	3725.216087
743.958996	3714.236454
744.288260	3690.583360
744.617477	3660.268382
744.946647	3642.268942
745.275768	3618.888070
745.604842	3615.646608
745.933869	3568.232036
746.262847	3559.299111
746.591778	3597.649689
746.920662	3566.969227
747.249498	3539.406718
747.578286	3586.760797
747.907027	3604.485494
748.235720	3596.580965
748.564365	3624.012403
748.892963	3625.733957
749.221514	3609.509004
749.550017	3581.656629
749.878473	3583.862133
750.206881	3552.004562
750.535242	3547.853172
750.863555	3548.906773
751.191821	3544.256308
751.520039	3529.243752
751.848210	3501.290554
752.176334	3539.177346
752.504411	3543.744631
752.832440	3502.213085
753.160421	3486.091475
753.488356	3494.555573
753.816243	3507.317253
754.144082	3465.084987
754.471875	3452.293059
754.799620	3469.992550
755.127318	3466.448619
755.454969	3464.384267
755.782572	3468.795276
756.110129	3443.082871
756.437638	3434.016356
756.765100	3448.779375
757.092515	3455.887402
757.419882	3462.965182
757.747203	3434.666665
758.074477	3439.191100
758.401703	3455.685756
758.728882	3476.896411
759.056014	3488.259171
759.383099	3488.244048
759.710138	3483.485199
760.037129	3502.588651
760.364073	3530.337682
760.690970	3513.742204
761.017820	3495.110099
761.344623	3510.558715
761.671379	3556.103020
761.998088	3607.560598
762.324751	3734.408631
762.651366	3984.480109
762.977935	4458.101554
763.304456	4896.099685
763.630931	4993.010827
763.957359	4629.536073
764.283740	4287.435811
764.610074	4099.005042
764.936362	3900.847367
765.262602	3743.858274
765.588796	3630.074391
765.914943	3540.120042
766.241044	3450.339612
766.567097	3425.315324
766.893104	3377.900752
767.219064	3347.404292
767.544978	3317.265753
767.870845	3264.162239
768.196665	3249.137080
768.522438	3255.246958
768.848165	3252.401227
769.173846	3214.968139
769.499479	3197.072043
769.825066	3182.228365
770.150607	3164.854029
770.476101	3180.189219
770.801548	3174.613702
771.126949	3130.208699
771.452303	3114.112295
771.777611	3118.288891
772.102872	3125.333903
772.428087	3099.578648
772.753256	3090.144129
773.078378	3081.014599
773.403453	3047.959753
773.728482	3035.160264
774.053465	3056.053326
774.378401	3046.964125
774.703291	3015.106554
775.028135	3014.090761
775.352932	3009.387365
775.677683	2997.265910
776.002388	2994.606702
776.327046	2996.532422
776.651658	2987.539004
776.976224	2974.860502
777.300743	2974.311016
777.625216	2966.411528
777.949643	2961.377936
778.274024	2965.194089
778.598359	2950.741101
778.922647	2955.860393
779.246889	2955.013479
779.571086	2942.395471
779.895236	2935.151333
780.219339	2946.567026
780.543397	2957.229066
780.867409	2959.369036
781.191374	2951.381328
781.515294	2951.945937
781.839167	2953.052470
782.162995	2940.051335
782.486776	2951.197326
782.810511	2951.232614
783.134201	2934.758123
783.457844	2941.452775
783.781441	2933.318874
784.104993	2911.251223
784.428498	2914.437232
784.751958	2928.068512
785.075372	2922.545928
785.398739	2908.057652
785.722061	2923.080290
786.045337	2930.223605
786.368568	2917.056111
786.691752	2908.390368
787.014891	2959.651341
787.337983	2987.203767
787.661030	3017.712830
787.984031	3084.046853
788.306987	3130.843884
788.629897	3122.183182
788.952760	3105.628033
789.275579	3090.169334
789.598351	3030.154398
789.921078	2986.515650
790.243759	2976.821511
790.566395	2961.309880
790.888984	2932.789553
791.211529	2921.076432
791.534027	2909.123856
791.856480	2900.057341
792.178888	2885.740464
792.501249	2877.336860
792.823566	2873.051879
793.145836	2870.342259
793.468062	2864.348327
793.790241	2864.907895
794.112375	2871.136241
794.434464	2882.763662
794.756507	2888.646689
795.078505	2897.025087
795.400457	2905.446334
795.722364	2945.770524
796.044226	2967.329018
796.366042	2970.835141
796.687812	2962.270220
797.009538	2980.683035
797.331218	2966.973617
797.652852	2951.759414
797.974442	2938.551591
798.295986	2931.264603
798.617484	2926.924170
798.938938	2913.887746
799.260346	2896.311763
799.581709	2890.428737
799.903026	2884.119733
800.224299	2879.560009
800.545526	2869.870911
800.866708	2849.665967
801.187845	2844.690348
801.508936	2845.605317
801.829983	2852.612521
802.150984	2841.010306
802.471940	2825.564210
802.792851	2823.814930
803.113717	2825.420537
803.434538	2829.503872
803.755314	2822.179075
804.076045	2819.159424
804.396731	2818.413333
804.717372	2817.954588
805.037967	2813.440235
805.358518	2819.650937
805.679024	2832.818431
805.999485	2825.745692
806.319901	2830.680981
806.640272	2823.885506
806.960598	2827.956238
807.280879	2838.532578
807.601115	2846.139680
807.921306	2830.877586
808.241453	2823.328458
808.561554	2832.042093
808.881611	2834.199707
809.201623	2828.223419
809.521590	2830.418841
809.841513	2826.073367
810.161390	2828.891372
810.481223	2821.521205
810.801011	2814.453507
811.120755	2810.342446
811.440453	2809.944195
811.760107	2812.177426
812.079716	2811.207004
812.399281	2801.664100
812.718801	2797.681588
813.038276	2787.995011
813.357707	2796.736372
813.677093	2803.133596
813.996434	2795.518933
814.315731	2793.799900
814.634983	2788.229425
814.954191	2790.175310
815.273354	2802.100160
815.592473	2810.813794
815.911547	2813.946871
816.230577	2822.970537
816.549562	2834.897907
816.868502	2827.401711
817.187399	2837.773885
817.506250	2856.211905
817.825058	2847.500791
818.143821	2859.108048
818.462539	2879.388610
818.781213	2905.315264
819.099843	2940.245419
819.418429	2996.192144
819.736970	3061.056671
820.055466	3133.331694
820.373919	3239.624422
820.692327	3377.757079
821.010691	3547.729663
821.329011	3989.143176
821.647286	4890.753542
821.965517	6271.845693
822.283704	7006.762745
822.601847	6988.097873
822.919945	6358.515731
823.237999	5853.258525
823.556010	5269.959216
823.873976	4716.634608
824.191897	4308.318791
824.509775	4010.862988
824.827609	3743.676793
825.145398	3619.946713
825.463144	3608.969600
825.780845	3701.560473
826.098502	3804.478149
826.416116	4088.461469
826.733685	4402.439654
827.051210	4465.393583
827.368692	4351.241695
827.686129	4088.128753
828.003522	3761.814864
828.320872	3499.195955
828.638177	3310.863488
828.955439	3167.934174
829.272656	3086.164138
829.589830	3018.509333
829.906960	2971.238433
830.224046	2924.849735
830.541088	2888.382028
830.858086	2876.152189
831.175041	2857.192409
831.491952	2860.262472
831.808819	2874.092878
832.125642	2894.244890
832.442421	2941.046963
832.759157	3021.413037
833.075849	3200.673947
833.392497	3483.197853
833.709101	3683.024150
834.025662	3633.517499
834.342179	3472.003971
834.658653	3296.385294
834.975083	3150.055722
835.291469	3049.686348
835.607811	2966.512351
835.924110	2908.108063
836.240366	2856.731144
836.556578	2813.611634
836.872746	2795.037503
837.188871	2770.681168
837.504952	2753.372367
837.820990	2744.746952
838.136984	2732.794377
838.452935	2724.733572
838.768842	2723.052347
839.084706	2741.873495
839.400526	2820.192861
839.716303	2952.959209
840.032037	3030.598019
840.347727	3015.860206
840.663373	2957.856690
840.978977	2880.328785
841.294537	2809.770275
841.610054	2762.212030
841.925527	2738.143041
842.240957	2719.415154
842.556344	2694.753830
842.871687	2677.838238
843.186987	2670.158040
843.502244	2665.184942
843.817458	2662.382060
844.132629	2647.475368
844.447756	2642.666107
844.762840	2636.291568
845.077881	2636.470529
845.392879	2635.500107
845.707833	2631.373923
846.022745	2623.834877
846.337613	2626.642800
846.652438	2626.622635
846.967221	2625.208592
847.281960	2621.934362
847.596656	2621.533591
847.911309	2621.543673
848.225919	2617.969495
848.540485	2614.954885
848.855009	2614.372632
849.169490	2615.297683
849.483928	2612.479678
849.798323	2612.923300
850.112675	2612.920779
850.426984	2614.143259
850.741251	2610.254009
851.055474	2611.158896
851.369654	2613.092178
851.683792	2615.322889
851.997887	2613.747528
852.311938	2610.957250
852.625947	2611.920110
852.939914	2615.685852
853.253837	2618.284567
853.567718	2612.903135
853.881555	2610.362394
854.195350	2614.770883
854.509103	2615.514453
854.822812	2608.293000
855.136479	2611.950357
855.450103	2612.371293
855.763685	2614.748197
856.077224	2611.731067
856.390720	2610.778289
856.704173	2612.540172
857.017584	2616.331120
857.330953	2616.666357
857.644278	2620.222891
857.957561	2620.434619
858.270802	2614.985132
858.584000	2616.724330
858.897155	2619.814557
859.210268	2619.789351
859.523339	2615.532097
859.836367	2608.955912
860.149352	2611.274842
860.462295	2611.368104
860.775195	2611.242075
861.088054	2607.022629
861.400869	2608.232506
861.713642	2605.411981
862.026373	2608.703854
862.339062	2607.977928
862.651708	2614.728033
862.964312	2618.251799
863.276873	2613.092178
863.589392	2615.824484
863.901869	2622.204064
864.214303	2629.753192
864.526696	2628.220681
864.839045	2631.915847
865.151353	2631.131947
865.463619	2632.334263
865.775842	2633.549181
866.088023	2630.030455
866.400162	2634.605302
866.712258	2630.070785
867.024313	2629.279323
867.336325	2625.367388
867.648296	2630.048099
867.960224	2634.811990
868.272110	2634.486835
868.583954	2627.472070
868.895755	2630.446351
869.207515	2630.970631
869.519233	2642.003196
869.830909	2634.834675
870.142542	2631.721762
870.454134	2632.765281
870.765684	2640.531179
871.077191	2641.494039
871.388657	2644.765748
871.700081	2641.673000
872.011463	2640.705099
872.322803	2644.201139
872.634101	2646.333547
872.945357	2654.467449
873.256571	2661.273006
873.567744	2657.928201
873.878874	2656.955258
874.189963	2658.586071
874.501010	2661.822492
874.812015	2668.864984
875.122979	2665.464726
875.433900	2658.603715
875.744780	2656.612460
876.055618	2663.511279
876.366415	2667.554284
876.677169	2666.299037
876.987882	2661.951042
877.298554	2659.715290
877.609183	2669.361538
877.919771	2679.345543
878.230317	2683.907787
878.540822	2695.840198
878.851285	2708.080120
879.161707	2733.086763
879.472087	2770.585386
879.782425	2819.139260
880.092722	2933.016404
880.402977	3124.058491
880.713191	3383.589694
881.023363	3673.014939
881.333494	3866.663303
881.643583	4042.110580
881.953631	4039.252246
882.263637	3857.095193
882.573602	3637.220226
882.883526	3506.699712
883.193408	3399.071078
883.503248	3293.862197
883.813048	3178.444979
884.122806	3065.359296
884.432522	2976.561891
884.742197	2914.021337
885.051831	2875.393495
885.361424	2841.423680
885.670975	2805.548309
885.980485	2773.826848
886.289954	2755.605598
886.599382	2742.133114
886.908768	2729.530229
887.218113	2710.928372
887.527417	2696.939170
887.836680	2691.277954
888.145901	2684.603466
888.455082	2676.393947
888.764221	2663.793583
889.073319	2655.947027
889.382376	2657.061122
889.691392	2658.669250
890.000366	2658.250835
890.309300	2655.664723
890.618193	2660.196720
890.927044	2661.212512
891.235855	2661.557832
891.544625	2660.695794
891.853353	2660.378202
892.162041	2667.244253
892.470687	2688.737212
892.779293	2700.236084
893.087858	2708.669935
893.396381	2733.280848
893.704864	2774.882970
894.013306	2844.861747
894.321707	2936.598144
894.630068	2988.022955
894.938387	3006.967611
895.246665	3001.122393
895.554903	2957.246710
895.863100	2911.581418
896.171256	2854.714682
896.479371	2794.273768
896.787446	2753.861358
897.095480	2737.850654
897.403473	2731.700446
897.711425	2713.811912
898.019336	2694.773994
898.327207	2683.441480
898.635038	2681.724967
898.942827	2678.637261
899.250576	2669.389264
899.558284	2658.414672
899.865952	2654.981646
900.173579	2651.152890
900.481165	2648.382776
900.788711	2641.675521
901.096216	2636.163019
901.403681	2634.214613
901.711105	2631.318470
902.018489	2629.221350
902.325832	2634.748975
902.633135	2634.196969
902.940397	2651.160452
903.247619	2686.458611
903.554800	2756.303797
903.861941	2884.573437
904.169041	3009.152951
904.476101	3068.683937
904.783121	3065.485325
905.090100	3006.725635
905.397039	2934.047320
905.703938	2859.554190
906.010796	2795.402987
906.317614	2745.689648
906.624391	2710.610779
906.931129	2683.141532
907.237826	2659.324600
907.544483	2641.909934
907.851099	2626.725979
908.157675	2617.898919
908.464211	2610.740480
908.770707	2598.382092
909.077163	2595.836309
909.383578	2593.925712
909.689954	2593.940835
909.996289	2590.066708
910.302584	2588.924887
910.608839	2586.210226
910.915054	2585.774166
911.221229	2586.429516
911.527363	2591.400093
911.833458	2587.490679
912.139513	2589.819692
912.445527	2593.194744
912.751502	2596.075764
913.057436	2605.379213
913.363331	2609.339039
913.669186	2617.951851
913.975000	2633.095477
914.280775	2651.016779
914.586510	2669.059068
914.892205	2705.287321
915.197859	2771.061775
915.503475	2856.335413
915.809050	2925.041299
916.114585	2938.349945
916.420081	2951.247737
916.725536	2960.717545
917.030952	2932.575303
917.336328	2887.167110
917.641665	2841.287569
917.946961	2789.285547
918.252218	2755.164497
918.557435	2728.653069
918.862612	2704.243802
919.167750	2688.694363
919.472848	2671.821621
919.777906	2656.781338
920.082925	2646.089051
920.387904	2634.171763
920.692843	2629.269241
920.997743	2624.623818
921.302603	2616.706686
921.607423	2610.014554
921.912204	2606.770572
922.216946	2602.765375
922.521647	2601.295878
922.826310	2597.537698
923.130932	2592.133581
923.435516	2583.193095
923.740059	2583.951789
924.044564	2584.541604
924.349028	2581.857189
924.653454	2574.280335
924.957840	2569.471074
925.262186	2570.892680
925.566493	2566.816907
925.870761	2565.395301
926.174989	2567.179870
926.479178	2564.434962
926.783328	2561.558983
927.087438	2561.816082
927.391509	2560.344065
927.695541	2558.178890
927.999533	2557.505896
928.303486	2557.137891
928.607400	2560.172666
928.911275	2556.275854
929.215110	2556.845504
929.518906	2556.139743
929.822663	2554.115720
930.126381	2554.211502
930.430060	2556.031358
930.733699	2555.411296
931.037299	2556.989177
931.340861	2556.951369
931.644383	2558.423386
931.947866	2559.751730
932.251309	2557.526060
932.554714	2556.512788
932.858080	2557.944476
933.161407	2552.923487
933.464694	2553.984650
933.767943	2552.749567
934.071153	2555.116389
934.374323	2554.012376
934.677455	2552.235369
934.980548	2552.668908
935.283602	2552.918446
935.586617	2554.574465
935.889593	2553.490617
936.192530	2550.385266
936.495428	2552.968857
936.798287	2555.000442
937.101108	2553.634289
937.403890	2558.168807
937.706632	2564.344221
938.009336	2563.651062
938.312002	2567.557956
938.614628	2570.005437
938.917216	2574.502146
939.219765	2577.405850
939.522275	2579.555902
939.824747	2576.553895
940.127179	2571.505180
940.429573	2568.329253
940.731929	2566.910168
941.034246	2564.069478
941.336524	2565.775908
941.638763	2565.728017
941.940964	2567.419325
942.243126	2562.080743
942.545250	2563.714077
942.847335	2559.905485
943.149381	2559.229970
943.451389	2558.846842
943.753359	2559.229970
944.055290	2557.465566
944.357182	2558.433468
944.659036	2558.199054
944.960851	2558.166287
945.262628	2556.273333
945.564367	2556.951369
945.866067	2558.327604
946.167729	2557.319373
946.469352	2554.539177
946.770937	2556.059084
947.072484	2554.014897
947.373992	2556.132181
947.675462	2554.816440
947.976893	2557.107644
948.278286	2551.582540
948.579641	2555.822150
948.880958	2553.137736
949.182236	2551.385935
949.483476	2552.948692
949.784678	2552.389124
950.085841	2555.242417
950.386967	2553.621687
950.688054	2553.122612
950.989103	2557.412634
951.290114	2554.692932
951.591087	2557.024465
951.892021	2557.193344
952.192917	2558.206616
952.493776	2557.760474
952.794596	2561.584189
953.095378	2558.977913
953.396122	2560.371792
953.696828	2558.297357
953.997496	2559.550083
954.298126	2554.728220
954.598718	2555.928014
954.899272	2554.264434
955.199788	2554.934907
955.500266	2552.394166
955.800706	2548.121788
956.101108	2544.265305
956.401472	2544.242620
956.701798	2543.398227
957.002087	2543.088196
957.302337	2543.904863
957.602550	2543.284801
957.902724	2543.249512
958.202861	2540.928061
958.502960	2541.737166
958.803022	2544.713968
959.103045	2538.825900
959.403031	2541.240613
959.702979	2540.393699
960.002889	2540.171888
960.302762	2540.933102
960.602596	2543.355377
960.902393	2539.035108
961.202153	2538.568801
961.501875	2539.070396
961.801559	2538.452855
962.101205	2538.311702
962.400814	2540.043339
962.700385	2539.624923
962.999918	2540.030736
963.299414	2539.733308
963.598873	2537.553009
963.898293	2539.924872
964.197677	2537.235416
964.497022	2538.765406
964.796331	2534.140147
965.095601	2539.284645
965.394835	2537.673996
965.694030	2537.565612
965.993189	2539.140972
966.292309	2539.224151
966.591393	2535.226516
966.890439	2537.207690
967.189447	2535.067720
967.488419	2535.289531
967.787353	2537.696682
968.086249	2539.274563
968.385108	2538.964532
968.683930	2538.352032
968.982714	2536.189377
969.281462	2537.174922
969.580172	2538.064686
969.878844	2541.626261
970.177480	2538.659542
970.476078	2540.519728
970.774639	2539.882022
971.073162	2540.950746
971.371649	2535.355066
971.670098	2535.082843
971.968510	2532.587472
972.266885	2533.177287
972.565223	2538.596528
972.863524	2537.769778
973.161788	2541.084337
973.460014	2539.740869
973.758204	2542.483257
974.056356	2538.485622
974.354471	2542.495860
974.652550	2537.709284
974.950591	2540.202135
975.248595	2540.156765
975.546563	2537.782381
975.844493	2540.171888
976.142386	2539.279604
976.440243	2538.127700
976.738062	2539.488812
977.035845	2536.854809
977.333590	2536.264994
977.631299	2537.290869
977.928971	2536.635519
978.226606	2537.943698
978.524204	2536.144006
978.821765	2536.617875
979.119290	2535.281969
979.416777	2536.859850
979.714228	2536.857329
980.011642	2535.115611
980.309020	2540.050900
980.606360	2538.057124
980.903664	2535.571835
981.200931	2540.670962
981.498162	2538.283976
981.795356	2545.344112
982.092513	2542.508463
982.389633	2544.351005
982.686717	2547.799154
982.983764	2550.594474
983.280775	2551.199412
983.577749	2550.082797
983.874686	2552.046326
984.171587	2549.699669
984.468451	2545.326468
984.765279	2543.010058
985.062070	2538.384799
985.358824	2541.389327
985.655543	2540.040818
985.952224	2540.045859
986.248869	2535.970086
986.545478	2532.388347
986.842050	2535.216434
987.138586	2532.151412
987.435086	2534.457740
987.731549	2529.741741
988.027975	2535.186187
988.324366	2534.699716
988.620719	2535.496218
988.917037	2535.309695
989.213318	2536.280117
989.509563	2536.199459
989.805772	2532.965559
990.101944	2535.241640
990.398080	2534.883718
990.694180	2534.840868
990.990244	2535.077802
991.286271	2533.303316
991.582262	2535.400436
991.878217	2536.547298
992.174136	2534.268697
992.470019	2533.837678
992.765865	2535.493697
993.061676	2532.418593
993.357450	2533.305837
993.653188	2534.982020
993.948890	2534.125024
994.244556	2536.325488
994.540186	2535.337422
994.835780	2535.100487
995.131337	2534.745086
995.426859	2537.311033
995.722345	2535.324819
996.017795	2538.223482
996.313208	2537.419418
996.608586	2539.476209
996.903928	2538.266332
997.199234	2538.115097
997.494504	2539.670293
997.789738	2535.496218
998.084936	2537.701723
998.380099	2534.760209
998.675225	2537.285828
998.970316	2536.713657
999.265371	2534.525796
999.560390	2533.371372
999.855373	2531.821217
1000.150320	2535.556712
1000.445232	2534.150230
1000.740108	2533.341125
1001.034948	2534.185518
1001.329752	2533.923378
1001.624521	2531.710311
1001.919254	2527.178314
1002.213951	2530.001360
1002.508613	2528.002543
1002.803239	2532.169056
1003.097829	2528.277286
1003.392384	2533.464633
1003.686903	2533.678882
1003.981386	2534.659386
1004.275834	2533.268028
1004.570246	2531.793490
1004.864623	2529.242667
1005.158964	2531.244005
1005.453270	2533.850281
1005.747540	2536.635519
1006.041775	2530.510517
1006.335974	2531.937163
1006.630138	2531.105373
1006.924266	2535.521424
1007.218359	2533.383974
1007.512416	2532.907585
1007.806438	2529.898017
1008.100425	2532.345497
1008.394376	2530.815507
1008.688292	2531.753161
1008.982172	2530.344159
1009.276017	2531.042358
1009.569827	2532.907585
1009.863602	2531.745599
1010.157341	2531.180990
1010.451045	2532.670651
1010.744714	2530.351720
1011.038347	2531.319622
1011.331945	2532.824406
1011.625508	2531.599406
1011.919036	2531.692667
1012.212528	2531.054961
1012.505986	2533.479756
1012.799408	2531.377595
1013.092795	2531.370033
1013.386147	2529.308202
1013.679464	2534.445137
1013.972745	2529.991278
1014.265992	2534.790456
1014.559204	2533.386495
1014.852380	2530.397091
1015.145521	2532.947915
1015.438628	2531.440610
1015.731699	2532.247194
1016.024736	2531.228881
1016.317737	2529.782070
1016.610703	2532.274921
1016.903635	2528.153777
1017.196531	2528.680578
1017.489393	2527.934487
1017.782219	2524.793848
1018.075011	2530.384488
1018.367768	2532.564787
1018.660490	2529.862728
1018.953177	2529.862728
1019.245829	2529.862728
