Dividing Wavelength (nm)	Counts (n)	Blue Motor Position (mm): 4.500000	Red Motor Position (mm): 0.000000	
326.493990	2157.956645
326.888308	2157.956645
327.282561	2157.956645
327.676750	2119.648917
328.070874	2116.803185
328.464933	2115.348812
328.858929	2119.175048
329.252859	2124.135543
329.646726	2133.121400
330.040528	2144.161527
330.434265	2156.706438
330.827938	2178.385921
331.221547	2193.516944
331.615091	2209.391537
332.008571	2230.824003
332.401986	2248.089955
332.795338	2267.427821
333.188625	2286.710234
333.581847	2301.521144
333.975006	2319.800368
334.368100	2338.707216
334.761129	2357.808148
335.154095	2371.779706
335.546996	2392.191338
335.939833	2408.612896
336.332606	2423.519588
336.725315	2434.690785
337.117960	2446.217383
337.510540	2457.154167
337.903056	2471.720581
338.295508	2478.480768
338.687896	2490.690443
339.080220	2496.318891
339.472480	2501.128152
339.864676	2509.009996
340.256807	2511.583505
340.648875	2517.521984
341.040879	2517.277488
341.432818	2522.348889
341.824694	2527.029600
342.216506	2527.659744
342.608253	2526.722090
342.999937	2527.178314
343.391557	2527.712676
343.783113	2527.624456
344.174605	2523.921729
344.566033	2525.189579
344.957397	2525.902902
345.348697	2520.876872
345.739934	2522.918539
346.131106	2520.914680
346.522215	2518.971316
346.913260	2516.488547
347.304241	2513.617610
347.695159	2512.206087
348.086012	2513.294976
348.476802	2509.647702
348.867528	2503.512617
349.258191	2503.416835
349.648789	2498.466422
350.039324	2498.378202
350.429796	2499.469612
350.820203	2500.555981
351.210548	2497.828716
351.600828	2495.882831
351.991045	2495.862666
352.381198	2497.432986
352.771288	2491.701194
353.161314	2494.284785
353.551276	2495.061123
353.941175	2492.734630
354.331010	2490.947541
354.720782	2490.750936
355.110490	2491.605412
355.500135	2494.693119
355.889717	2490.614825
356.279235	2492.956441
356.668689	2491.305463
357.058080	2492.313694
357.447408	2491.602891
357.836672	2494.325114
358.225873	2493.420227
358.615010	2494.945176
359.004084	2494.292347
359.393095	2492.938797
359.782043	2494.589775
360.170927	2495.025835
360.559748	2495.507265
360.948505	2498.085815
361.337199	2498.494149
361.725830	2496.979282
362.114398	2497.082626
362.502903	2501.546567
362.891344	2497.755620
363.279722	2501.052534
363.668037	2500.644201
364.056289	2502.650580
364.444478	2498.804180
364.832603	2501.143275
365.220665	2502.257370
365.608665	2501.622185
365.996601	2499.719149
366.384474	2501.783502
366.772284	2503.394150
367.160031	2505.352638
367.547715	2505.879439
367.935336	2506.615448
368.322893	2500.107318
368.710388	2500.616474
369.097820	2501.498676
369.485189	2499.583038
369.872495	2503.653770
370.259738	2505.977742
370.646918	2507.807680
371.034035	2504.800632
371.421090	2505.982783
371.808081	2506.388596
372.195010	2509.148627
372.581875	2506.975890
372.968678	2507.832886
373.355418	2509.657784
373.742096	2507.963956
374.128710	2511.013854
374.515262	2507.548061
374.901751	2510.706344
375.288177	2509.730881
375.674540	2509.660304
376.060841	2509.630058
376.447079	2509.093175
376.833254	2512.790861
377.219367	2511.084430
377.605417	2509.864471
377.991404	2509.163751
378.377329	2507.946312
378.763191	2510.744153
379.148991	2514.474606
379.534727	2510.169461
379.920402	2513.292456
380.306013	2511.454955
380.691563	2511.591066
381.077049	2510.545027
381.462474	2513.718433
381.847835	2511.825480
382.233134	2514.093999
382.618371	2513.171468
383.003545	2517.640451
383.388657	2513.080727
383.773706	2515.059380
384.158693	2515.545852
384.543618	2514.721623
384.928480	2514.429236
385.313280	2513.317662
385.698017	2515.901253
386.082692	2513.075686
386.467305	2518.366377
386.851856	2516.239010
387.236344	2517.206912
387.620770	2514.489730
388.005133	2514.038547
388.389435	2516.173475
388.773674	2508.901611
389.157851	2515.273629
389.541965	2519.069618
389.926018	2517.506860
390.310008	2515.442508
390.693936	2519.367046
391.077802	2516.899401
391.461606	2518.754546
391.845348	2519.966943
392.229027	2519.601460
392.612645	2520.629855
392.996200	2519.611542
393.379694	2518.288239
393.763125	2518.257992
394.146494	2518.837725
394.529801	2519.631707
394.913047	2520.428209
395.296230	2520.027437
395.679351	2521.854856
396.062410	2519.044412
396.445408	2520.125740
396.828343	2518.610873
397.211217	2517.978208
397.594028	2518.842766
397.976778	2522.273271
398.359466	2518.484844
398.742092	2521.093641
399.124656	2522.104393
399.507158	2522.399300
399.889598	2522.023734
400.271977	2522.739578
400.654294	2523.369722
401.036549	2522.406862
401.418742	2524.768642
401.800874	2524.108251
402.182944	2523.397449
402.564952	2523.836029
402.946898	2523.498272
403.328783	2523.442819
403.710606	2522.245545
404.092367	2524.534229
404.474067	2524.435926
404.855705	2523.553724
405.237282	2523.876358
405.618797	2523.669671
406.000250	2525.817202
406.381642	2523.387366
406.762972	2521.043230
407.144240	2520.589526
407.525447	2521.678415
407.906593	2522.001049
408.287677	2525.126564
408.668700	2527.266534
409.049661	2527.385001
409.430560	2526.732172
409.811399	2527.586647
410.192176	2526.351565
410.572891	2527.838705
410.953545	2526.974147
411.334138	2527.352234
411.714669	2526.802748
412.095139	2529.587986
412.475547	2525.756709
412.855894	2527.432892
413.236180	2527.596730
413.616405	2527.838705
413.996568	2528.834333
414.376670	2526.580937
414.756711	2527.816020
415.136691	2528.955321
415.516609	2526.686802
415.896466	2526.979188
416.276262	2526.727131
416.655997	2526.616225
417.035670	2528.337779
417.415283	2530.109745
417.794834	2530.555887
418.174324	2529.305681
418.553753	2529.358613
418.933121	2531.548994
419.312428	2529.023376
419.691674	2529.532533
420.070859	2532.179139
420.449983	2532.199303
420.829045	2526.825433
421.208047	2531.123017
421.586988	2531.203675
421.965867	2529.540095
422.344686	2531.314581
422.723444	2530.792821
423.102141	2528.660413
423.480777	2531.380116
423.859352	2531.112935
424.237866	2531.052441
424.616319	2532.479087
424.994712	2533.089067
425.373044	2535.163502
425.751314	2529.746782
426.129524	2528.514220
426.507673	2530.079498
426.885762	2526.959024
427.263789	2531.349869
427.641756	2533.492359
428.019662	2533.147040
428.397508	2531.889272
428.775292	2531.455733
429.153016	2532.060672
429.530679	2534.225847
429.908282	2534.024201
430.285824	2532.189221
430.663305	2532.015301
431.040726	2533.948584
431.418086	2532.456402
431.795385	2533.552853
432.172624	2534.482946
432.549802	2533.237781
432.926920	2532.685775
433.303977	2534.949253
433.680974	2535.844057
434.057910	2535.972607
434.434786	2534.366999
434.811601	2535.324819
435.188355	2531.894313
435.565050	2535.269366
435.941683	2533.794828
436.318257	2534.180477
436.694770	2533.734335
437.071222	2532.378264
437.447614	2535.818852
437.823946	2535.687782
438.200218	2534.074612
438.576429	2537.018646
438.952580	2538.752803
439.328670	2535.786084
439.704700	2536.133924
440.080670	2540.025695
440.456580	2536.597710
440.832429	2537.288348
441.208218	2535.256763
441.583947	2537.225334
441.959616	2538.765406
442.335224	2537.852957
442.710773	2537.321116
443.086261	2537.152237
443.461689	2537.590817
443.837057	2535.176105
444.212365	2537.205169
444.587612	2535.733152
444.962800	2531.775846
445.337927	2535.821372
445.712995	2533.078985
446.088002	2538.551157
446.462949	2535.597041
446.837837	2540.166847
447.212664	2537.101825
447.587431	2537.482432
447.962139	2538.757844
448.336786	2540.229861
448.711374	2535.029911
449.085901	2537.409336
449.460369	2536.794315
449.834776	2536.741383
450.209124	2537.384130
450.583412	2539.783719
450.957640	2539.163657
451.331808	2535.080323
451.705917	2539.123328
452.079965	2537.588297
452.453954	2540.184491
452.827883	2539.574511
453.201752	2538.445293
453.575562	2540.930582
453.949311	2539.453524
454.323001	2540.413863
454.696632	2541.263298
455.070202	2537.646270
455.443713	2541.212886
455.817164	2538.452855
456.190556	2540.088709
456.563888	2541.469985
456.937160	2542.241282
457.310373	2538.152906
457.683526	2543.889739
458.056619	2540.199614
458.429653	2539.098122
458.802628	2542.616848
459.175542	2540.633154
459.548398	2541.633823
459.921194	2540.363452
460.293930	2539.997968
460.666607	2539.110725
461.039224	2540.703730
461.411782	2539.022505
461.784280	2541.628782
462.156719	2540.025695
462.529099	2541.429656
462.901419	2539.309851
463.273680	2539.135931
463.645882	2538.914120
464.018024	2539.352701
464.390106	2535.476053
464.762130	2542.763041
465.134094	2541.777496
465.505999	2544.456869
465.877845	2542.027033
466.249631	2539.894625
466.621358	2541.641384
466.993026	2542.352187
467.364634	2544.078782
467.736184	2542.768082
468.107674	2538.709953
468.479105	2541.200283
468.850477	2542.694986
469.221790	2540.673483
469.593043	2542.392516
469.964238	2543.592311
470.335373	2538.359593
470.706449	2542.921838
471.077467	2542.364790
471.448425	2543.546941
471.819324	2543.715819
472.190164	2545.694472
472.560945	2541.129707
472.931667	2539.745911
473.302330	2542.500901
473.672934	2542.886549
474.043479	2542.707588
474.413965	2542.508463
474.784393	2539.645087
475.154761	2543.607434
475.525070	2542.939482
475.895321	2541.646426
476.265513	2545.780172
476.635645	2543.998124
477.005719	2543.143648
477.375734	2543.108360
477.745691	2543.950233
478.115588	2542.430325
478.485427	2543.690613
478.855207	2541.583411
479.224928	2544.217414
479.594591	2542.097609
479.964194	2542.604245
480.333739	2545.281097
480.703226	2544.676159
481.072653	2545.568443
481.442022	2543.340253
481.811333	2543.698175
482.180584	2538.651980
482.549777	2541.343956
482.918912	2539.516538
483.287988	2541.953936
483.657005	2543.194060
484.025964	2546.806047
484.394864	2540.393699
484.763706	2546.947199
485.132489	2544.587939
485.501213	2546.438042
485.869879	2545.492826
486.238487	2547.973074
486.607036	2545.351674
486.975527	2545.765048
487.343959	2546.475851
487.712333	2544.799667
488.080648	2547.448794
488.448905	2545.702034
488.817104	2544.928217
489.185244	2544.764379
489.553326	2546.947199
489.921350	2543.665408
490.289315	2544.734132
490.657222	2547.894936
491.025070	2545.281097
491.392861	2546.150697
491.760593	2546.629606
492.128267	2545.913762
492.495883	2546.460728
492.863440	2545.286139
493.230939	2547.794113
493.598380	2547.335368
493.965763	2544.479554
494.333088	2544.287990
494.700354	2547.373176
495.067563	2545.313865
495.434713	2545.263453
495.801805	2546.339740
496.168839	2548.298228
496.535815	2546.138094
496.902733	2546.788402
497.269593	2544.504760
497.636395	2546.266643
498.003139	2548.739329
498.369825	2546.281767
498.736453	2547.093392
499.103023	2546.496016
499.469535	2545.480223
499.835989	2546.518701
500.202385	2544.434184
500.568723	2543.249512
500.935003	2544.782023
501.301226	2538.830941
501.667390	2545.034081
502.033497	2549.024154
502.399546	2547.015254
502.765537	2547.529452
503.131470	2548.063814
503.497345	2547.705892
503.863163	2546.044832
504.228923	2547.335368
504.594625	2549.515667
504.960269	2548.585574
505.325856	2547.111036
505.691385	2546.702703
506.056856	2547.809236
506.422270	2547.771428
506.787625	2547.325285
507.152924	2547.229503
507.518164	2546.841335
507.883347	2546.775800
508.248472	2547.012734
508.613540	2547.161448
508.978550	2547.342929
509.343503	2546.924514
509.708398	2545.767569
510.073236	2546.087682
510.438016	2546.743032
510.802738	2548.893084
511.167403	2547.519370
511.532010	2549.135060
511.896561	2548.759494
512.261053	2547.690769
512.625488	2544.814791
512.989866	2547.068187
513.354186	2545.260933
513.718449	2547.078269
514.082655	2548.257899
514.446803	2548.787220
514.810894	2547.852086
515.174927	2549.261088
515.538904	2549.515667
515.902822	2546.730429
516.266684	2548.555327
516.630488	2550.508774
516.994235	2546.995090
517.357925	2549.193033
517.721558	2547.675646
518.085133	2545.938968
518.448651	2546.059956
518.812112	2544.683721
519.175516	2545.243289
519.538863	2539.750952
519.902152	2548.336037
520.265385	2546.080120
520.628560	2548.772097
520.991678	2544.645912
521.354739	2546.629606
521.717743	2547.955430
522.080690	2547.592467
522.443580	2548.043650
522.806413	2549.258568
523.169189	2548.026006
523.531908	2546.450645
523.894569	2548.457024
524.257174	2547.310162
524.619722	2551.096068
524.982213	2548.517518
525.344647	2549.414844
525.707025	2548.958619
526.069345	2547.151366
526.431608	2548.502395
526.793815	2547.937786
527.155964	2548.983825
527.518057	2552.500030
527.880093	2548.290666
528.242072	2550.723023
528.603995	2547.504246
528.965860	2545.238248
529.327669	2549.916438
529.689421	2546.281767
530.051117	2548.512477
530.412755	2548.376366
530.774337	2550.145811
531.135862	2548.207487
531.497331	2548.514998
531.858743	2548.560368
532.220098	2550.143290
532.581396	2549.480379
532.942638	2550.637323
533.303824	2546.919472
533.664953	2551.333003
534.026025	2549.382076
534.387040	2548.893084
534.747999	2549.077086
535.108902	2550.891902
535.469748	2549.876109
535.830537	2549.583722
536.191270	2548.711603
536.551947	2544.300593
536.912567	2543.718340
537.273131	2545.218083
537.633638	2544.792106
537.994089	2547.877292
538.354483	2547.292518
538.714821	2549.087169
539.075103	2548.275543
539.435328	2549.924000
539.795497	2550.695297
540.155609	2550.022303
540.515665	2548.572971
540.875665	2548.731767
541.235609	2550.155893
541.595496	2546.314534
541.955328	2549.402241
542.315102	2548.129349
542.674821	2551.829556
543.034483	2549.797971
543.394090	2549.402241
543.753640	2550.337375
544.113134	2549.868548
544.472571	2549.659340
544.831953	2547.458876
545.191278	2550.047508
545.550548	2551.128836
545.909761	2548.504915
546.268918	2548.739329
546.628019	2550.556665
546.987064	2550.148332
547.346053	2549.140101
547.704986	2549.210677
548.063863	2549.510626
548.422684	2549.059442
548.781449	2551.285112
549.140158	2551.043136
549.498811	2551.272509
549.857408	2550.627241
550.215949	2550.037426
550.574434	2551.338044
550.932864	2549.011551
551.291237	2552.036244
551.649555	2550.218908
552.007817	2547.824360
552.366022	2548.893084
552.724173	2549.810574
553.082267	2549.883671
553.440305	2550.004659
553.798288	2549.555996
554.156215	2549.182951
554.514086	2547.756304
554.871902	2547.491643
555.229661	2550.483568
555.587365	2544.744215
555.945014	2550.110523
556.302606	2548.308310
556.660143	2551.673281
557.017625	2550.299566
557.375050	2549.482899
557.732421	2551.224618
558.089735	2551.068342
558.446994	2546.674977
558.804197	2551.905174
559.161345	2549.339226
559.518437	2551.721172
559.875474	2546.148176
560.232455	2551.128836
560.589381	2547.310162
560.946251	2550.730585
561.303065	2549.006510
561.659825	2549.374514
562.016528	2550.077755
562.373177	2549.462735
562.729770	2547.816798
563.086307	2552.784855
563.442789	2550.171017
563.799216	2549.944165
564.155587	2547.937786
564.511904	2551.330482
564.868164	2549.067004
565.224370	2548.893084
565.580520	2549.739998
565.936615	2549.465255
566.292654	2551.116233
566.648638	2548.671273
567.004567	2552.285781
567.360441	2551.685883
567.716260	2547.360573
568.072023	2549.457693
568.427732	2552.840308
568.783385	2551.585060
569.138982	2551.151521
569.494525	2549.833259
569.850013	2551.138918
570.205445	2549.122457
570.560823	2549.508105
570.916145	2549.235883
571.271412	2549.601366
571.626625	2550.365101
571.981782	2547.534493
572.336884	2547.123639
572.691931	2545.994421
573.046923	2546.692621
573.401860	2546.188505
573.756743	2547.965512
574.111570	2549.059442
574.466342	2549.084648
574.821059	2549.455173
575.175722	2550.284443
575.530330	2550.228990
575.884882	2551.317879
576.239380	2551.837118
576.593823	2555.224773
576.948211	2551.398538
577.302544	2548.961140
577.656823	2550.231511
578.011047	2549.182951
578.365216	2551.683363
578.719330	2552.651264
579.073389	2552.119423
579.427394	2552.195040
579.781344	2552.817622
580.135239	2550.140770
580.489080	2551.635472
580.842866	2552.386604
581.196597	2552.999104
581.550273	2548.807385
581.903895	2552.051367
582.257463	2551.708569
582.610975	2553.135215
582.964434	2551.958106
583.317837	2550.844011
583.671186	2550.654967
584.024481	2550.607077
584.377721	2551.600184
584.730906	2549.059442
585.084037	2550.826367
585.437113	2548.779658
585.790135	2553.815771
586.143103	2550.516336
586.496016	2553.873744
586.848874	2553.624207
587.201679	2553.346944
587.554428	2552.744526
587.907124	2553.089845
588.259765	2552.689073
588.612352	2551.264947
588.964884	2550.672612
589.317362	2552.457180
589.669786	2548.613300
590.022155	2547.547096
590.374470	2548.053732
590.726731	2550.912066
591.078937	2545.276056
591.431090	2549.200595
591.783188	2550.869217
592.135232	2552.835267
592.487222	2552.313507
592.839157	2551.113713
593.191038	2550.619679
593.542866	2552.323589
593.894639	2552.888199
594.246358	2550.851572
594.598022	2551.393497
594.949633	2550.397869
595.301190	2549.976932
595.652692	2549.528270
596.004141	2547.746222
596.355535	2551.673281
596.706876	2551.532128
597.058162	2551.322920
597.409395	2549.276212
597.760573	2553.833415
598.111698	2553.704866
598.462768	2552.724361
598.813785	2553.120092
599.164748	2552.565565
599.515657	2551.244782
599.866511	2552.132026
600.217312	2550.120605
600.568060	2547.398382
600.918753	2551.421223
601.269392	2549.336706
601.619978	2551.433826
601.970510	2549.840821
602.320988	2549.172868
602.671412	2548.686397
603.021783	2550.493651
603.372100	2550.849052
603.722363	2550.849052
604.072572	2550.246634
604.422728	2550.392827
604.772830	2553.548590
605.122878	2548.734288
605.472872	2548.925852
605.822813	2550.110523
606.172701	2550.002138
606.522534	2551.149001
606.872314	2550.576830
607.222041	2550.423074
607.571714	2550.370142
607.921333	2546.745553
608.270899	2550.531459
608.620411	2549.664381
608.969870	2551.879968
609.319276	2555.680998
609.668627	2559.451781
610.017926	2563.368757
610.367171	2566.582493
610.716362	2564.780281
611.065500	2559.618139
611.414585	2559.499672
611.763616	2556.177552
612.112594	2555.529763
612.461518	2555.519681
612.810389	2554.922304
613.159207	2557.079918
613.507971	2554.725699
613.856682	2552.187478
614.205340	2555.008004
614.553945	2554.324927
614.902496	2550.574309
615.250994	2553.306614
615.599439	2552.689073
615.947830	2551.511964
616.296169	2551.358208
616.644454	2551.784186
616.992686	2550.685214
617.340864	2551.940462
617.688990	2550.884340
618.037063	2550.901984
618.385082	2552.961295
618.733048	2550.838970
619.080961	2553.445246
619.428821	2548.754452
619.776628	2552.492468
620.124382	2551.632951
620.472083	2551.161603
620.819731	2553.387273
621.167326	2551.476676
621.514868	2552.368960
621.862357	2552.316028
622.209793	2553.861141
622.557176	2549.482899
622.904506	2551.577499
623.251783	2553.346944
623.599007	2552.003476
623.946179	2553.644372
624.293297	2550.660009
624.640363	2551.806871
624.987376	2550.024823
625.334336	2546.758156
625.681243	2546.750594
626.028097	2546.400234
626.374899	2551.075904
626.721647	2553.246121
627.068343	2550.458362
627.414987	2552.285781
627.761577	2551.204453
628.108115	2551.648075
628.454600	2551.506923
628.801032	2553.152859
629.147412	2551.396017
629.493739	2552.005997
629.840014	2550.586912
630.186236	2550.276881
630.532405	2553.941800
630.878521	2551.464073
631.224585	2550.682694
631.570597	2552.063970
631.916556	2552.926007
632.262462	2550.813764
632.608316	2549.669422
632.954117	2548.373845
633.299866	2549.911397
633.645562	2548.499874
633.991206	2549.727395
634.336797	2550.574309
634.682336	2550.788558
635.027823	2547.673125
635.373257	2552.603373
635.718639	2552.013558
636.063968	2551.300235
636.409245	2552.076573
636.754470	2547.768907
637.099642	2549.583722
637.444762	2551.690925
637.789829	2549.866027
638.134845	2550.087838
638.479808	2547.501726
638.824719	2548.325954
639.169577	2549.687066
639.514383	2552.401727
639.859137	2549.997097
640.203839	2551.020451
640.548489	2550.052550
640.893086	2549.069525
641.237632	2548.983825
641.582125	2550.826367
641.926566	2547.176571
642.270955	2547.894936
642.615292	2546.077600
642.959576	2549.717313
643.303809	2547.007693
643.647990	2553.241079
643.992118	2551.794268
644.336195	2549.734957
644.680219	2551.466593
645.024192	2550.735626
645.368112	2549.593805
645.711981	2549.689587
646.055797	2552.593291
646.399562	2547.907539
646.743274	2550.423074
647.086935	2553.046995
647.430544	2550.216387
647.774101	2551.885009
648.117606	2548.504915
648.461059	2552.270657
648.804460	2555.991029
649.147810	2551.113713
649.491108	2550.050029
649.834354	2548.646068
650.177548	2550.279402
650.520690	2550.576830
650.863781	2547.153886
651.206820	2549.306459
651.549807	2550.425595
651.892742	2550.168496
652.235626	2549.528270
652.578458	2548.267981
652.921238	2550.062632
653.263967	2552.414330
653.606644	2548.875440
653.949269	2550.155893
654.291843	2550.135729
654.634365	2548.031047
654.976836	2550.954916
655.319255	2548.686397
655.661622	2550.314690
656.003938	2552.474824
656.346203	2548.986346
656.688416	2549.566078
657.030577	2548.819987
657.372687	2548.262940
657.714746	2550.458362
658.056753	2550.453321
658.398708	2551.670760
658.740612	2550.627241
659.082465	2548.600697
659.424266	2546.806047
659.766016	2549.558517
660.107715	2543.050387
660.449362	2544.134235
660.790958	2549.838301
661.132503	2549.172868
661.473996	2550.322251
661.815438	2548.933413
662.156829	2548.552806
662.498168	2549.777807
662.839456	2549.823177
663.180693	2548.096582
663.521879	2550.912066
663.863013	2549.006510
664.204097	2549.651778
664.545129	2548.948537
664.886110	2549.772766
665.227040	2549.024154
665.567918	2551.343085
665.908746	2550.193702
666.249522	2548.895605
666.590248	2549.732436
666.930922	2550.072714
667.271545	2549.896274
667.612118	2547.728578
667.952639	2551.670760
668.293109	2550.639844
668.633528	2547.186654
668.973896	2550.075235
669.314213	2549.500543
669.654480	2551.101110
669.994695	2547.537014
670.334859	2548.946016
670.674973	2549.777807
671.015035	2550.067673
671.355047	2547.718495
671.695008	2549.878630
672.034918	2547.247148
672.374777	2550.339895
672.714585	2551.053219
673.054342	2548.131870
673.394049	2549.777807
673.733705	2551.355688
674.073310	2548.794782
674.412864	2549.659340
674.752368	2552.666388
675.091820	2551.143959
675.431223	2550.057591
675.770574	2547.937786
676.109875	2552.656306
676.449125	2545.165151
676.788324	2544.088865
677.127473	2547.070707
677.466571	2545.981818
677.805619	2547.768907
678.144616	2550.145811
678.483562	2550.521377
678.822458	2550.901984
679.161303	2550.869217
679.500098	2547.242106
679.838842	2549.785368
680.177535	2549.210677
680.516179	2551.330482
680.854771	2552.338713
681.193314	2549.069525
681.531805	2544.882846
681.870247	2548.673794
682.208638	2547.920142
682.546978	2548.126829
682.885268	2547.103475
683.223508	2548.459545
683.561697	2548.222611
683.899836	2549.939124
684.237925	2549.863506
684.575963	2553.374670
684.913951	2548.867878
685.251889	2551.942982
685.589776	2550.188661
685.927614	2548.416695
686.265401	2548.699000
686.603137	2549.853424
686.940824	2547.468958
687.278460	2550.019782
687.616046	2547.365615
687.953582	2547.542055
688.291068	2548.487271
688.628504	2547.758825
688.965889	2548.399051
689.303224	2548.741850
689.640510	2547.940306
689.977745	2548.285625
690.314930	2549.581202
690.652065	2549.896274
690.989150	2548.903167
691.326185	2548.124308
691.663170	2549.848383
692.000105	2547.698331
692.336990	2550.125646
692.673825	2552.343754
693.010610	2551.292673
693.347345	2548.058773
693.684030	2544.802188
694.020665	2550.523898
694.357251	2544.754297
694.693786	2547.809236
695.030272	2550.952396
695.366707	2546.818649
695.703093	2550.662529
696.039429	2550.743188
696.375716	2551.045657
696.711952	2549.646737
697.048139	2547.829401
697.384276	2549.576161
697.720363	2548.235214
698.056400	2549.019113
698.392388	2549.752601
698.728326	2549.578681
699.064214	2551.017931
699.400053	2551.378373
699.735842	2548.726726
700.071581	2547.012734
700.407270	2549.245965
700.742910	2549.588763
701.078501	2548.262940
701.414042	2549.243444
701.749533	2549.117416
702.084974	2548.855276
702.420366	2547.562220
702.755709	2549.167827
703.091002	2548.520039
703.426246	2546.833773
703.761440	2547.327806
704.096584	2547.962991
704.431679	2548.958619
704.766725	2551.159083
705.101721	2548.136911
705.436668	2546.901828
705.771565	2548.903167
706.106413	2552.011038
706.441212	2548.920811
706.775961	2548.814946
707.110661	2549.266130
707.445311	2549.072045
707.779913	2546.957281
708.114465	2550.813764
708.448967	2547.773948
708.783421	2551.466593
709.117825	2549.077086
709.452180	2547.786551
709.786485	2549.404761
710.120742	2546.680018
710.454949	2544.686241
710.789107	2547.463917
711.123216	2545.293700
711.457275	2550.453321
711.791286	2548.547765
712.125247	2549.462735
712.459159	2546.213711
712.793023	2547.229503
713.126837	2550.372663
713.460602	2547.821839
713.794318	2549.349309
714.127985	2548.855276
714.461602	2546.954761
714.795171	2547.743701
715.128691	2550.357539
715.462162	2547.622713
715.795584	2548.542724
716.128957	2549.389638
716.462281	2546.798485
716.795556	2548.830070
717.128782	2549.220759
717.461960	2546.949719
717.795088	2545.893598
718.128167	2550.254196
718.461198	2550.269319
718.794180	2549.467776
719.127113	2549.049360
719.459997	2548.772097
719.792833	2551.660678
720.125619	2550.619679
720.458357	2548.462066
720.791046	2548.157076
721.123686	2548.225131
721.456278	2549.785368
721.788821	2548.888043
722.121315	2549.576161
722.453761	2547.269833
722.786158	2547.902497
723.118506	2546.364946
723.450805	2549.840821
723.783056	2550.110523
724.115259	2548.429298
724.447412	2547.095913
724.779518	2548.333516
725.111574	2551.340564
725.443582	2547.486602
725.775542	2550.347457
726.107453	2548.247817
726.439315	2548.857796
726.771129	2550.113043
727.102895	2543.710778
727.434612	2544.313196
727.766281	2543.511653
728.097901	2547.421067
728.429473	2548.817467
728.760996	2548.940975
729.092471	2547.194215
729.423897	2545.959133
729.755276	2547.194215
730.086606	2546.163299
730.417887	2548.419216
730.749120	2546.987528
731.080305	2548.913249
731.411442	2548.628424
731.742530	2548.527601
732.073570	2548.421736
732.404562	2548.310831
732.735506	2549.203115
733.066401	2546.727909
733.397249	2547.070707
733.728048	2546.579195
734.058798	2549.193033
734.389501	2550.460883
734.720156	2545.729760
735.050762	2549.152704
735.381320	2547.320244
735.711831	2547.761345
736.042293	2548.152035
736.372707	2548.641027
736.703073	2548.262940
737.033391	2547.847045
737.363661	2549.303938
737.693883	2548.726726
738.024056	2548.424257
738.354182	2549.142621
738.684260	2545.180274
739.014290	2548.835111
739.344272	2550.574309
739.674207	2548.681356
740.004093	2551.141439
740.333931	2549.341747
740.663722	2548.691438
740.993464	2548.366284
741.323159	2546.932075
741.652806	2548.739329
741.982405	2548.159596
742.311956	2547.300080
742.641460	2546.795964
742.970915	2547.784030
743.300323	2545.744884
743.629683	2541.885880
743.958996	2544.797147
744.288260	2542.286652
744.617477	2545.502908
744.946647	2549.664381
745.275768	2546.259081
745.604842	2548.141952
745.933869	2548.643547
746.262847	2547.257230
746.591778	2546.211190
746.920662	2547.610111
747.249498	2549.193033
747.578286	2544.701365
747.907027	2545.460058
748.235720	2546.904349
748.564365	2548.625903
748.892963	2547.494164
749.221514	2548.877961
749.550017	2548.741850
749.878473	2545.891077
750.206881	2548.053732
750.535242	2550.271840
750.863555	2549.094730
751.191821	2548.547765
751.520039	2546.241437
751.848210	2547.645399
752.176334	2547.151366
752.504411	2545.364277
752.832440	2547.519370
753.160421	2548.134391
753.488356	2550.380225
753.816243	2548.041129
754.144082	2547.123639
754.471875	2547.834442
754.799620	2548.825029
755.127318	2547.600028
755.454969	2544.774462
755.782572	2547.741181
756.110129	2546.677497
756.437638	2548.083979
756.765100	2548.484751
757.092515	2549.845862
757.419882	2549.475338
757.747203	2546.818649
758.074477	2547.847045
758.401703	2547.652960
758.728882	2548.169679
759.056014	2548.457024
759.383099	2546.185985
759.710138	2545.570964
760.037129	2543.902342
760.364073	2543.670449
760.690970	2542.576518
761.017820	2547.962991
761.344623	2545.432332
761.671379	2547.113557
761.998088	2550.907025
762.324751	2550.100441
762.651366	2548.736808
762.977935	2547.506767
763.304456	2545.888557
763.630931	2549.530790
763.957359	2546.218752
764.283740	2546.732950
764.610074	2548.333516
764.936362	2547.741181
765.262602	2548.709082
765.588796	2546.501057
765.914943	2547.627755
766.241044	2551.156562
766.567097	2547.678166
766.893104	2546.828732
767.219064	2546.163299
767.544978	2547.642878
767.870845	2545.404606
768.196665	2545.583567
768.522438	2547.166489
768.848165	2545.949050
769.173846	2545.828063
769.499479	2545.379400
769.825066	2546.755635
770.150607	2552.550441
770.476101	2548.719164
770.801548	2546.667415
771.126949	2548.129349
771.452303	2545.916283
771.777611	2545.442414
772.102872	2546.357384
772.428087	2546.896787
772.753256	2547.670604
773.078378	2547.277394
773.403453	2549.233362
773.728482	2544.771941
774.053465	2547.468958
774.378401	2549.571119
774.703291	2546.372507
775.028135	2545.966694
775.352932	2545.328988
775.677683	2544.595501
776.002388	2543.564585
776.327046	2541.071734
776.651658	2543.783875
776.976224	2543.609955
777.300743	2544.983669
777.625216	2546.985007
777.949643	2547.610111
778.274024	2547.093392
778.598359	2550.637323
778.922647	2544.749256
779.246889	2547.262271
779.571086	2544.943340
779.895236	2548.620862
780.219339	2547.615152
780.543397	2547.942827
780.867409	2547.365615
781.191374	2547.148845
781.515294	2548.807385
781.839167	2548.799823
782.162995	2546.952240
782.486776	2545.593649
782.810511	2547.504246
783.134201	2544.061138
783.457844	2545.961653
783.781441	2546.196067
784.104993	2545.122301
784.428498	2549.437529
784.751958	2545.702034
785.075372	2546.213711
785.398739	2547.105995
785.722061	2546.954761
786.045337	2548.467107
786.368568	2548.845193
786.691752	2545.170192
787.014891	2547.078269
787.337983	2546.564071
787.661030	2544.633309
787.984031	2547.582384
788.306987	2544.650953
788.629897	2543.869574
788.952760	2546.687579
789.275579	2546.886705
789.598351	2546.778320
789.921078	2546.211190
790.243759	2546.712785
790.566395	2546.831252
790.888984	2545.573484
791.211529	2545.039122
791.534027	2546.758156
791.856480	2544.209852
792.178888	2543.506611
792.501249	2540.739018
792.823566	2543.335212
793.145836	2542.657177
793.468062	2542.531148
793.790241	2546.720347
794.112375	2544.529966
794.434464	2548.688917
794.756507	2546.601880
795.078505	2546.498536
795.400457	2545.845707
795.722364	2542.780685
796.044226	2545.165151
796.366042	2545.936448
796.687812	2547.910059
797.009538	2548.220090
797.331218	2546.667415
797.652852	2546.601880
797.974442	2542.740356
798.295986	2547.158927
798.617484	2544.610624
798.938938	2546.400234
799.260346	2546.317055
799.581709	2545.197918
799.903026	2546.319575
800.224299	2548.517518
800.545526	2547.872251
800.866708	2547.226983
801.187845	2546.248999
801.508936	2543.546941
801.829983	2545.941489
802.150984	2545.336550
802.471940	2547.471479
802.792851	2547.632796
803.113717	2545.472661
803.434538	2547.143804
803.755314	2544.252702
804.076045	2545.944009
804.396731	2546.654812
804.717372	2544.812270
805.037967	2547.234545
805.358518	2546.506098
805.679024	2544.698844
805.999485	2547.642878
806.319901	2547.617672
806.640272	2544.524924
806.960598	2545.626417
807.280879	2544.963505
807.601115	2547.267312
807.921306	2546.266643
808.241453	2541.522917
808.561554	2541.164995
808.881611	2543.418391
809.201623	2542.112732
809.521590	2543.244471
809.841513	2546.294369
810.161390	2545.883515
810.481223	2545.923845
810.801011	2546.012065
811.120755	2544.015768
811.440453	2545.893598
811.760107	2542.405119
812.079716	2546.155738
812.399281	2543.546941
812.718801	2545.402085
813.038276	2544.945861
813.357707	2545.049204
813.677093	2544.540048
813.996434	2548.066335
814.315731	2544.454348
814.634983	2544.043494
814.954191	2547.340409
815.273354	2545.644061
815.592473	2546.385110
815.911547	2544.930737
816.230577	2544.013247
816.549562	2544.610624
816.868502	2544.383772
817.187399	2544.981149
817.506250	2544.701365
817.825058	2545.323947
818.143821	2545.457538
818.462539	2549.931562
818.781213	2545.114739
819.099843	2547.000131
819.418429	2544.776982
819.736970	2545.210521
820.055466	2544.885367
820.373919	2545.802857
820.692327	2546.937117
821.010691	2546.322096
821.329011	2545.570964
821.647286	2548.003321
821.965517	2545.283618
822.283704	2550.702858
822.601847	2549.218239
822.919945	2548.439380
823.237999	2548.814946
823.556010	2550.425595
823.873976	2548.396531
824.191897	2544.996272
824.509775	2542.178267
824.827609	2544.908052
825.145398	2540.113915
825.463144	2545.926365
825.780845	2545.941489
826.098502	2547.143804
826.416116	2544.025850
826.733685	2545.455017
827.051210	2547.877292
827.368692	2546.914431
827.686129	2545.573484
828.003522	2548.681356
828.320872	2548.464586
828.638177	2544.293031
828.955439	2543.967877
829.272656	2546.831252
829.589830	2544.073741
829.906960	2546.443083
830.224046	2543.859492
830.541088	2546.798485
830.858086	2545.044163
831.175041	2546.531304
831.491952	2544.744215
831.808819	2547.289997
832.125642	2545.875954
832.442421	2545.235727
832.759157	2544.764379
833.075849	2545.911242
833.392497	2544.446787
833.709101	2545.346632
834.025662	2547.736139
834.342179	2547.158927
834.658653	2545.084493
834.975083	2547.816798
835.291469	2554.985319
835.607811	2543.246992
835.924110	2544.502239
836.240366	2544.008206
836.556578	2545.376879
836.872746	2545.752445
837.188871	2547.705892
837.504952	2544.509801
837.820990	2544.529966
838.136984	2544.623227
838.452935	2544.519883
838.768842	2545.089534
839.084706	2545.767569
839.400526	2545.528114
839.716303	2545.263453
840.032037	2543.514173
840.347727	2541.530479
840.663373	2541.243133
840.978977	2542.863864
841.294537	2547.859648
841.610054	2543.403268
841.925527	2545.379400
842.240957	2544.242620
842.556344	2546.561551
842.871687	2542.160623
843.186987	2543.849410
843.502244	2543.768751
843.817458	2546.806047
844.132629	2542.689944
844.447756	2543.972918
844.762840	2543.637681
845.077881	2547.746222
845.392879	2541.583411
845.707833	2545.802857
846.022745	2542.752959
846.337613	2544.340922
846.652438	2544.318237
846.967221	2545.455017
847.281960	2544.109029
847.596656	2544.681200
847.911309	2544.688762
848.225919	2544.282949
848.540485	2544.741694
848.855009	2546.846376
849.169490	2543.153731
849.483928	2545.346633
849.798323	2543.985521
850.112675	2545.717157
850.426984	2544.295552
850.741251	2545.865871
851.055474	2544.461910
851.369654	2543.315048
851.683792	2545.084492
851.997887	2542.420243
852.311938	2545.949050
852.625947	2545.558361
852.939914	2544.479554
853.253837	2545.334030
853.567718	2544.257743
853.881555	2545.848227
854.195350	2544.487116
854.509103	2543.468803
854.822812	2543.146169
855.136479	2546.490974
855.450103	2543.005017
855.763685	2542.253885
856.077224	2541.825387
856.390720	2540.771785
856.704173	2540.991076
857.017584	2547.221942
857.330953	2544.963505
857.644278	2544.759338
857.957561	2543.862013
858.270802	2543.068031
858.584000	2542.904193
858.897155	2542.637012
859.210268	2545.835624
859.523339	2545.354194
859.836367	2544.096426
860.149352	2545.807898
860.462295	2542.994934
860.775195	2542.962167
861.088054	2543.947712
861.400869	2544.439225
861.713642	2546.417878
862.026373	2544.116591
862.339062	2543.398227
862.651708	2544.774462
862.964312	2545.049204
863.276873	2546.145655
863.589392	2546.017106
863.901869	2544.222455
864.214303	2545.855789
864.526696	2543.773793
864.839045	2543.531817
865.151353	2543.680531
865.463619	2544.698844
865.775842	2543.347815
866.088023	2542.032074
866.400162	2544.255223
866.712258	2543.360418
867.024313	2543.118443
867.336325	2545.707075
867.648296	2542.964687
867.960224	2544.819832
868.272110	2543.688093
868.583954	2543.138607
868.895755	2546.072559
869.207515	2546.062476
869.519233	2544.774462
869.830909	2540.650798
870.142542	2544.688762
870.454134	2542.528627
870.765684	2544.330840
871.077191	2543.642722
871.388657	2543.075593
871.700081	2538.498225
872.011463	2543.163813
872.322803	2536.625436
872.634101	2545.064328
872.945357	2541.210366
873.256571	2542.581560
873.567744	2542.982331
873.878874	2544.116591
874.189963	2544.340922
874.501010	2545.699513
874.812015	2542.639533
875.122979	2545.921324
875.433900	2541.807742
875.744780	2542.992414
876.055618	2543.302445
876.366415	2543.017619
876.677169	2542.992414
876.987882	2542.619368
877.298554	2546.022147
877.609183	2545.278577
877.919771	2546.143135
878.230317	2542.952084
878.540822	2542.914276
878.851285	2545.288659
879.161707	2543.804039
879.472087	2545.069369
879.782425	2544.923176
880.092722	2544.948381
880.402977	2544.734132
880.713191	2546.571633
881.023363	2543.559543
881.333494	2548.041129
881.643583	2546.281767
881.953631	2546.395192
882.263637	2544.290511
882.573602	2545.994421
882.883526	2543.753628
883.193408	2544.290511
883.503248	2546.049873
883.813048	2548.215049
884.122806	2547.713454
884.432522	2545.351674
884.742197	2546.387631
885.051831	2541.916127
885.361424	2544.315717
885.670975	2545.492826
885.980485	2543.241951
886.289954	2543.632640
886.599382	2543.098278
886.908768	2542.127856
887.218113	2540.386137
887.527417	2543.781354
887.836680	2536.201979
888.145901	2543.488967
888.455082	2542.130376
888.764221	2541.772454
889.073319	2541.815304
889.382376	2544.940820
889.691392	2542.712630
890.000366	2544.340922
890.309300	2544.466951
890.618193	2545.848227
890.927044	2540.681045
891.235855	2544.010727
891.544625	2541.520397
891.853353	2543.625078
892.162041	2542.205994
892.470687	2541.333874
892.779293	2544.214893
893.087858	2544.686241
893.396381	2543.977959
893.704864	2544.845038
894.013306	2544.053577
894.321707	2541.414533
894.630068	2543.935109
894.938387	2543.662887
895.246665	2544.025850
895.554903	2546.342260
895.863100	2544.255223
896.171256	2545.260933
896.479371	2544.136756
896.787446	2545.243289
897.095480	2541.840510
897.403473	2543.322609
897.711425	2543.317568
898.019336	2544.010727
898.327207	2544.514842
898.635038	2543.267157
898.942827	2545.344112
899.250576	2543.912424
899.558284	2543.791437
899.865952	2541.462423
900.173579	2542.780685
900.481165	2545.157589
900.788711	2541.495191
901.096216	2544.746735
901.403681	2542.911755
901.711105	2543.864533
902.018489	2543.519214
902.325832	2540.502084
902.633135	2538.571322
902.940397	2540.156765
903.247619	2538.788091
903.554800	2543.388144
903.861941	2542.185829
904.169041	2544.081303
904.476101	2547.199257
904.783121	2542.841179
905.090100	2544.015768
905.397039	2543.010058
905.703938	2544.343443
906.010796	2540.623071
906.317614	2544.421581
906.624391	2541.442259
906.931129	2542.921838
907.237826	2544.194729
907.544483	2541.061652
907.851099	2542.037115
908.157675	2542.720191
908.464211	2542.153062
908.770707	2543.153731
909.077163	2542.072403
909.383578	2543.010058
909.689954	2542.843700
909.996289	2544.608103
910.302584	2544.151879
910.608839	2542.942002
910.915054	2543.025181
911.221229	2543.408309
911.527363	2544.366128
911.833458	2541.921168
912.139513	2540.943185
912.445527	2543.554502
912.751502	2542.868905
913.057436	2542.813453
913.363331	2545.205480
913.669186	2542.107691
913.975000	2542.853782
914.280775	2543.814122
914.586510	2543.279759
914.892205	2542.483257
915.197859	2544.540048
915.503475	2543.667928
915.809050	2542.180788
916.114585	2544.003165
916.420081	2546.168341
916.725536	2542.490819
917.030952	2543.148689
917.336328	2542.216076
917.641665	2540.852444
917.946961	2540.648277
918.252218	2543.158772
918.557435	2536.995961
918.862612	2542.047197
919.167750	2541.351518
919.472848	2544.683721
919.777906	2540.771785
920.082925	2542.856302
920.387904	2543.292362
920.692843	2545.817980
920.997743	2540.993596
921.302603	2541.616179
921.607423	2542.644574
921.912204	2542.652136
922.216946	2543.267157
922.521647	2546.291849
922.826310	2541.152392
923.130932	2541.371683
923.435516	2542.599204
923.740059	2541.444779
924.044564	2540.736497
924.349028	2544.098947
924.653454	2537.827752
924.957840	2544.648433
925.262186	2543.635161
925.566493	2543.370500
925.870761	2542.412681
926.174989	2543.246992
926.479178	2540.242464
926.783328	2540.960829
927.087438	2542.324461
927.391509	2542.843700
927.695541	2541.449821
927.999533	2542.760521
928.303486	2542.422763
928.607400	2541.890922
928.911275	2539.866898
929.215110	2541.767413
929.518906	2538.294058
929.822663	2543.075593
930.126381	2543.209183
930.430060	2541.996786
930.733699	2542.112732
931.037299	2542.437887
931.340861	2541.671631
931.644383	2541.200283
931.947866	2541.719522
932.251309	2543.234389
932.554714	2543.884698
932.858080	2541.230530
933.161407	2538.314223
933.464694	2538.457896
933.767943	2537.353883
934.071153	2544.063659
934.374323	2542.737835
934.677455	2541.469985
934.980548	2543.950233
935.283602	2545.185316
935.586617	2543.483926
935.889593	2542.142979
936.192530	2543.930068
936.495428	2543.919986
936.798287	2540.146682
937.101108	2545.422250
937.403890	2538.704912
937.706632	2539.269522
938.009336	2541.187681
938.312002	2542.410160
938.614628	2541.354039
938.917216	2544.960984
939.219765	2541.777496
939.522275	2541.517876
939.824747	2542.712630
940.127179	2540.870088
940.429573	2541.114584
940.731929	2540.960829
941.034246	2540.882691
941.336524	2539.302289
941.638763	2542.246323
941.940964	2539.524100
942.243126	2542.644574
942.545250	2542.155582
942.847335	2542.435366
943.149381	2541.873278
943.451389	2541.679193
943.753359	2539.249357
944.055290	2541.722043
944.357182	2542.798329
944.659036	2538.614172
944.960851	2541.769934
945.262628	2540.517207
945.564367	2540.260108
945.866067	2539.982845
946.167729	2541.147351
946.469352	2541.275901
946.770937	2542.042156
947.072484	2543.609955
947.373992	2540.446631
947.675462	2542.785726
947.976893	2539.246836
948.278286	2537.328677
948.579641	2543.118443
948.880958	2536.481763
949.182236	2541.840510
949.483476	2542.604245
949.784678	2540.020653
950.085841	2542.059800
950.386967	2540.560057
950.688054	2540.192053
950.989103	2545.954092
951.290114	2541.099460
951.591087	2543.163813
951.892021	2541.071734
952.192917	2544.131714
952.493776	2542.397558
952.794596	2541.956457
953.095378	2541.807743
953.396122	2541.137269
953.696828	2543.395706
953.997496	2539.927392
954.298126	2542.069882
954.598718	2541.439738
954.899272	2543.718340
955.199788	2540.045859
955.500266	2541.495191
955.800706	2543.423432
956.101108	2542.047197
956.401472	2544.159441
956.701798	2541.117104
957.002087	2541.127187
957.302337	2544.003165
957.602550	2541.348998
957.902724	2541.744728
958.202861	2542.175747
958.502960	2542.634492
958.803022	2538.868750
959.103045	2542.198432
959.403031	2539.594676
959.702979	2539.889583
960.002889	2540.948226
960.302762	2540.542413
960.602596	2539.783719
960.902393	2538.266332
961.202153	2538.624254
961.501875	2542.218597
961.801559	2541.611137
962.101205	2539.990407
962.400814	2541.560726
962.700385	2541.023843
962.999918	2540.986034
963.299414	2536.317926
963.598873	2538.283976
963.898293	2534.228368
964.197677	2539.647608
964.497022	2540.224820
964.796331	2540.693647
965.095601	2544.366128
965.394835	2539.221631
965.694030	2541.091899
965.993189	2542.203473
966.292309	2539.221631
966.591393	2543.231868
966.890439	2541.164995
967.189447	2538.835982
967.488419	2541.850592
967.787353	2539.342618
968.086249	2539.924872
968.385108	2544.061138
968.683930	2539.577032
968.982714	2541.923689
969.281462	2542.584080
969.580172	2540.275232
969.878844	2539.617361
970.177480	2540.204656
970.476078	2542.251364
970.774639	2539.040149
971.073162	2542.168185
971.371649	2540.441590
971.670098	2541.195242
971.968510	2541.684234
972.266885	2541.180119
972.565223	2543.095757
972.863524	2539.687937
973.161788	2543.395706
973.460014	2538.195756
973.758204	2540.829759
974.056356	2535.670138
974.354471	2541.389327
974.652550	2541.593493
974.950591	2541.706919
975.248595	2541.722043
975.546563	2542.251364
975.844493	2540.156765
976.142386	2540.623071
976.440243	2541.923689
976.738062	2542.687424
977.035845	2538.513348
977.333590	2543.264636
977.631299	2540.219779
977.928971	2537.520241
978.226606	2538.364634
978.524204	2538.135262
978.821765	2535.087884
979.119290	2539.733308
979.416777	2541.926210
979.714228	2540.174409
980.011642	2539.380427
980.309020	2542.432846
980.606360	2539.337577
980.903664	2540.703730
981.200931	2540.149203
981.498162	2542.095088
981.795356	2542.183308
982.092513	2540.406302
982.389633	2541.132228
982.686717	2541.492670
982.983764	2542.354708
983.280775	2540.625592
983.577749	2539.882022
983.874686	2541.951415
984.171587	2537.522762
984.468451	2540.086188
984.765279	2539.007382
985.062070	2539.781199
985.358824	2542.115253
985.655543	2538.707433
985.952224	2540.822197
986.248869	2541.457382
986.545478	2539.022505
986.842050	2538.415046
987.138586	2538.362114
987.435086	2542.715150
987.731549	2538.498225
988.027975	2542.536189
988.324366	2540.739018
988.620719	2539.420756
988.917037	2538.634336
989.213318	2541.225489
989.509563	2540.265149
989.805772	2543.582229
990.101944	2541.888401
990.398080	2540.403781
990.694180	2538.954449
990.990244	2539.403112
991.286271	2543.499050
991.582262	2541.023843
991.878217	2541.928730
992.174136	2539.534182
992.470019	2539.766075
992.765865	2538.092412
993.061676	2533.988913
993.357450	2539.226672
993.653188	2536.204500
993.948890	2540.925541
994.244556	2542.286652
994.540186	2541.175078
994.835780	2540.817156
995.131337	2542.510983
995.426859	2541.507794
995.722345	2538.077289
996.017795	2539.952598
996.313208	2541.177598
996.608586	2538.778009
996.903928	2537.825231
997.199234	2540.489481
997.494504	2537.671476
997.789738	2540.101312
998.084936	2543.415871
998.380099	2539.879501
998.675225	2538.611651
998.970316	2538.888914
999.265371	2541.593493
999.560390	2538.074768
999.855373	2540.181970
1000.150320	2538.556198
1000.445232	2540.686086
1000.740108	2539.934954
1001.034948	2541.860675
1001.329752	2538.571322
1001.624521	2540.098791
1001.919254	2541.608617
1002.213951	2540.965870
1002.508613	2539.398071
1002.803239	2541.606096
1003.097829	2538.024357
1003.392384	2539.622402
1003.686903	2538.596528
1003.981386	2540.476878
1004.275834	2539.302289
1004.570246	2543.178936
1004.864623	2538.377237
1005.158964	2540.038297
1005.453270	2542.248843
1005.747540	2542.752959
1006.041775	2539.382947
1006.335974	2539.236754
1006.630138	2538.596528
1006.924266	2536.839685
1007.218359	2538.135262
1007.512416	2540.597866
1007.806438	2537.487474
1008.100425	2539.362783
1008.394376	2536.491846
1008.688292	2535.569315
1008.982172	2541.921168
1009.276017	2540.804553
1009.569827	2543.355377
1009.863602	2538.072248
1010.157341	2540.302958
1010.451045	2539.866898
1010.744714	2541.238092
1011.038347	2541.522917
1011.331945	2537.361445
1011.625508	2539.602238
1011.919036	2539.776157
1012.212528	2541.482588
1012.505986	2539.385468
1012.799408	2541.283462
1013.092795	2542.054759
1013.386147	2540.391178
1013.679464	2538.515869
1013.972745	2539.844213
1014.265992	2541.691796
1014.559204	2539.539223
1014.852380	2537.396733
1015.145521	2538.399923
1015.438628	2538.772968
1015.731699	2539.952598
1016.024736	2537.926054
1016.317737	2539.075437
1016.610703	2540.295396
1016.903635	2539.985365
1017.196531	2538.241126
1017.489393	2539.899666
1017.782219	2538.790612
1018.075011	2536.801877
1018.367768	2541.046528
1018.660490	2540.345808
1018.953177	2540.345808
1019.245829	2540.345808
