Dividing Wavelength (nm)	Counts (n)	Blue Motor Position (mm): 34.300000	Red Motor Position (mm): 0.000000	
326.493990	2228.247973
326.888308	2228.247973
327.282561	2228.247973
327.676750	2187.616273
328.070874	2182.728875
328.464933	2184.054698
328.858929	2187.104596
329.252859	2193.887469
329.646726	2201.121524
330.040528	2213.477393
330.434265	2227.209496
330.827938	2245.952506
331.221547	2263.709970
331.615091	2278.437701
332.008571	2299.683644
332.401986	2318.013279
332.795338	2337.378872
333.188625	2353.911336
333.581847	2374.053266
333.975006	2392.226626
334.368100	2411.642630
334.761129	2430.093253
335.154095	2447.487754
335.546996	2473.666466
335.939833	2512.657270
336.332606	2528.612522
336.725315	2540.648277
337.117960	2555.542366
337.510540	2567.275652
337.903056	2575.785119
338.295508	2583.508167
338.687896	2594.810434
339.080220	2600.998450
339.472480	2606.765530
339.864676	2612.061262
340.256807	2619.055863
340.648875	2624.543159
341.040879	2623.008128
341.432818	2627.066257
341.824694	2629.228912
342.216506	2631.817544
342.608253	2631.386526
342.999937	2633.655045
343.391557	2631.474746
343.783113	2633.024901
344.174605	2630.365692
344.566033	2627.686319
344.957397	2628.525671
345.348697	2628.291257
345.739934	2625.669857
346.131106	2623.161883
346.522215	2624.112141
346.913260	2620.570730
347.304241	2617.916563
347.695159	2617.848507
348.086012	2613.311469
348.476802	2613.278701
348.867528	2611.282404
349.258191	2606.964656
349.648789	2605.527927
350.039324	2601.694130
350.429796	2606.339553
350.820203	2607.070520
351.210548	2603.624892
351.600828	2603.382916
351.991045	2601.316043
352.381198	2600.665734
352.771288	2600.244798
353.161314	2600.567432
353.551276	2599.055086
353.941175	2597.618357
354.331010	2598.200610
354.720782	2597.288161
355.110490	2598.619026
355.500135	2599.423090
355.889717	2599.614654
356.279235	2597.583069
356.668689	2597.353696
357.058080	2598.840837
357.447408	2599.145826
357.836672	2597.767071
358.225873	2595.783377
358.615010	2599.778491
359.004084	2601.905858
359.393095	2599.612133
359.782043	2601.477360
360.170927	2602.876280
360.559748	2603.456013
360.948505	2604.628081
361.337199	2602.760334
361.725830	2605.119594
362.114398	2603.546754
362.502903	2605.379213
362.891344	2605.285952
363.279722	2605.321240
363.668037	2608.537496
364.056289	2608.613113
364.444478	2609.747373
364.832603	2608.779471
365.220665	2607.730911
365.608665	2611.239554
365.996601	2608.600510
366.384474	2608.272835
366.772284	2610.246447
367.160031	2609.828031
367.547715	2611.594956
367.935336	2610.180912
368.322893	2608.313165
368.710388	2609.485233
369.097820	2610.211159
369.485189	2608.776951
369.872495	2613.117384
370.259738	2613.838269
370.646918	2612.615789
371.034035	2613.603856
371.421090	2612.235182
371.808081	2613.364401
372.195010	2616.850359
372.581875	2616.580657
372.968678	2617.145266
373.355418	2615.022940
373.742096	2613.883640
374.128710	2615.824484
374.515262	2617.480503
374.901751	2616.931017
375.288177	2616.298352
375.674540	2618.760956
376.060841	2619.625514
376.447079	2617.311624
376.833254	2619.708693
377.219367	2621.674743
377.605417	2622.110803
377.991404	2620.709362
378.377329	2622.582151
378.763191	2619.496964
379.148991	2622.975361
379.534727	2622.551904
379.920402	2620.437140
380.306013	2621.367232
380.691563	2622.811523
381.077049	2620.139712
381.462474	2621.853704
381.847835	2621.483179
382.233134	2624.747326
382.618371	2623.426544
383.003545	2625.062398
383.388657	2625.097686
383.773706	2627.726648
384.158693	2625.004425
384.543618	2629.312091
384.928480	2623.935700
385.313280	2626.330248
385.698017	2627.174642
386.082692	2628.981895
386.467305	2630.975672
386.851856	2631.794859
387.236344	2632.114972
387.620770	2628.954169
388.005133	2629.138171
388.389435	2627.335959
388.773674	2628.548356
389.157851	2631.580610
389.541965	2634.179325
389.926018	2634.716208
390.310008	2633.612195
390.693936	2636.447844
391.077802	2635.046403
391.461606	2638.993627
391.845348	2634.978348
392.229027	2637.733338
392.612645	2636.571352
392.996200	2640.324492
393.379694	2639.316261
393.763125	2639.533030
394.146494	2639.265849
394.529801	2646.131901
394.913047	2642.666107
395.296230	2644.667446
395.679351	2644.682569
396.062410	2643.964205
396.445408	2645.113588
396.828343	2644.453197
397.211217	2644.667446
397.594028	2646.673825
397.976778	2647.772796
398.359466	2649.592653
398.742092	2648.743218
399.124656	2649.983342
399.507158	2650.116933
399.889598	2651.220946
400.271977	2650.000986
400.654294	2652.302273
401.036549	2653.640699
401.418742	2653.761687
401.800874	2653.083652
402.182944	2655.934424
402.564952	2656.254538
402.946898	2656.637665
403.328783	2661.575476
403.710606	2658.197902
404.092367	2663.365085
404.474067	2664.116217
404.855705	2663.042451
405.237282	2666.964469
405.618797	2672.066117
406.000250	2676.819925
406.381642	2683.464166
406.762972	2686.178827
407.144240	2694.030424
407.525447	2705.433514
407.906593	2715.498178
408.287677	2737.349059
408.668700	2754.579723
409.049661	2775.596293
409.430560	2797.981537
409.811399	2825.294508
410.192176	2866.349665
410.572891	2903.664286
410.953545	2956.982050
411.334138	2977.668425
411.714669	3040.556819
412.095139	3070.760892
412.475547	3148.929024
412.855894	3221.035168
413.236180	3314.336843
413.616405	3332.837878
413.996568	3441.353755
414.376670	3514.637009
414.756711	3568.521902
415.136691	3669.367664
415.516609	3791.008186
415.896466	3877.101012
416.276262	4012.224099
416.655997	4094.273919
417.035670	4247.877877
417.415283	4459.598777
417.794834	4569.495931
418.174324	4621.162716
418.553753	4693.135270
418.933121	4928.892391
419.312428	5067.556889
419.691674	5072.333383
420.070859	5402.302108
420.449983	5364.715265
420.829045	5645.086597
421.208047	5642.966792
421.586988	5916.351086
421.965867	6030.825608
422.344686	6205.378080
422.723444	6337.763821
423.102141	6047.141302
423.480777	6617.525174
423.859352	6408.027423
424.237866	6931.621827
424.616319	6929.829696
424.994712	7307.409599
425.373044	7111.883406
425.751314	7540.585649
426.129524	7526.717435
426.507673	7742.670384
426.885762	7952.092517
427.263789	7961.325391
427.641756	7969.368552
428.019662	8147.409503
428.397508	8416.922190
428.775292	8232.720949
429.153016	8632.126527
429.530679	8557.030979
429.908282	8668.160695
430.285824	8467.666445
430.663305	9128.844018
431.040726	8694.626752
431.418086	8734.381292
431.795385	9076.564732
432.172624	9198.427065
432.549802	9168.427158
432.926920	9284.479561
433.303977	9204.047952
433.680974	9430.098331
434.057910	9541.931288
434.434786	9625.687539
434.811601	9516.571764
435.188355	10083.953629
435.565050	9836.611936
435.941683	9795.841604
436.318257	10305.038472
436.694770	10427.472976
437.071222	10520.341112
437.447614	10386.848837
437.823946	10279.976376
438.200218	10454.642274
438.576429	10262.995249
438.952580	10510.805769
439.328670	10586.226472
439.704700	10369.020797
440.080670	10366.338903
440.456580	10935.762436
440.832429	10682.772130
441.208218	10297.829622
441.583947	10638.488114
441.959616	10771.120872
442.335224	10577.419576
442.710773	10741.592313
443.086261	10931.850500
443.461689	10231.220856
443.837057	10867.832888
444.212365	11163.206694
444.587612	10796.921497
444.962800	11044.111955
445.337927	10815.044445
445.712995	10387.915041
446.088002	11482.359624
446.462949	11126.186981
446.837837	11098.732857
447.212664	11105.863569
447.587431	11603.012079
447.962139	12314.263434
448.336786	14560.099993
448.711374	15134.670544
449.085901	12997.491015
449.460369	12599.507042
449.834776	12052.690564
450.209124	12909.772418
450.583412	13314.602277
450.957640	14263.297019
451.331808	13442.975260
451.705917	12412.225656
452.079965	11738.961916
452.453954	12626.086526
452.827883	12258.893921
453.201752	12546.403528
453.575562	12057.396481
453.949311	12474.378042
454.323001	12422.678489
454.696632	12659.242195
455.070202	12946.887913
455.443713	13197.284545
455.817164	13645.911949
456.190556	13646.350529
456.563888	14008.890149
456.937160	14184.665102
457.310373	13521.644986
457.683526	13597.693312
458.056619	13160.537054
458.429653	13286.860808
458.802628	12736.729771
459.175542	13097.346190
459.548398	14048.133012
459.921194	14374.255336
460.293930	14447.203353
460.666607	15333.738148
461.039224	16358.166144
461.411782	17067.441367
461.784280	16952.061958
462.156719	16994.243813
462.529099	16694.295159
462.901419	15616.584687
463.273680	15401.403035
463.645882	15257.800727
464.018024	15005.584238
464.390106	15228.597323
464.762130	15945.532578
465.134094	16699.457301
465.505999	18674.054577
465.877845	21935.502155
466.249631	24784.240549
466.621358	24482.472039
466.993026	23030.849103
467.364634	22473.751192
467.736184	21020.202536
468.107674	20209.191787
468.479105	20335.654173
468.850477	19807.066507
469.221790	19378.558348
469.593043	18716.072594
469.964238	18153.005957
470.335373	17815.175552
470.706449	18244.581037
471.077467	17783.164225
471.448425	19612.233472
471.819324	23629.413026
472.190164	25684.076428
472.560945	22156.919714
472.931667	19770.722308
473.302330	19132.973497
473.672934	18634.322723
474.043479	18984.551845
474.413965	18790.908523
474.784393	18425.931505
475.154761	19106.809908
475.525070	19105.169013
475.895321	18759.146733
476.265513	19338.392954
476.635645	19927.219888
477.005719	19714.236179
477.375734	19902.674510
477.745691	20381.642099
478.115588	20901.740462
478.485427	21412.195097
478.855207	22481.058344
479.224928	24235.213525
479.594591	26461.886137
479.964194	26519.340168
480.333739	26714.790744
480.703226	26280.339064
481.072653	25951.678518
481.442022	26524.154470
481.811333	27434.922091
482.180584	27357.764711
482.549777	26403.983444
482.918912	26040.281838
483.287988	26164.783215
483.657005	25859.682502
484.025964	25576.203298
484.394864	25510.569995
484.763706	25193.650297
485.132489	24621.935560
485.501213	24811.959333
485.869879	24725.455654
486.238487	24527.068606
486.607036	24681.007801
486.975527	24368.799061
487.343959	24699.360121
487.712333	24637.059021
488.080648	24298.386744
488.448905	24772.552634
488.817104	24527.038359
489.185244	25207.238727
489.553326	25178.063049
489.921350	26166.318246
490.289315	28447.188304
490.657222	30250.310732
491.025070	30744.782390
491.392861	30533.802539
491.760593	29675.818319
492.128267	28776.947821
492.495883	27740.146313
492.863440	26856.434564
493.230939	25978.767159
493.598380	25825.511041
493.965763	25422.864001
494.333088	24976.661391
494.700354	24907.532049
495.067563	24776.434322
495.434713	24525.727659
495.801805	24687.084912
496.168839	24489.887576
496.535815	24319.504138
496.902733	24544.891606
497.269593	24215.179979
497.636395	24402.128649
498.003139	24373.179823
498.369825	24121.790084
498.736453	24318.979858
499.103023	24195.902607
499.469535	24199.721281
499.835989	24416.629528
500.202385	24455.413645
500.568723	23957.987872
500.935003	24198.115674
501.301226	23815.189627
501.667390	24651.847246
502.033497	24884.297371
502.399546	24605.473672
502.765537	24182.656975
503.131470	24558.779984
503.497345	24706.359763
503.863163	23918.770216
504.228923	24516.041082
504.594625	24717.059612
504.960269	24250.115176
505.325856	24751.440282
505.691385	24145.922087
506.056856	24751.893985
506.422270	24716.174890
506.787625	24288.642194
507.152924	24720.527926
507.518164	24734.844803
507.883347	24548.808582
508.248472	24232.309820
508.613540	25017.053637
508.978550	24799.149762
509.343503	24787.270283
509.708398	25046.030189
510.073236	25193.247005
510.438016	25408.395889
510.802738	25088.622898
511.167403	25348.907753
511.532010	25049.642176
511.896561	25829.796021
512.261053	25781.630317
512.625488	25624.253056
512.989866	25517.373032
513.354186	25364.290834
513.718449	25464.264477
514.082655	25841.597363
514.446803	25585.990698
514.810894	26046.684104
515.174927	25537.668718
515.538904	25563.905403
515.902822	26053.668623
516.266684	25817.425030
516.630488	25726.868263
516.994235	25692.646390
517.357925	25998.893965
517.721558	26173.932909
518.085133	26269.331705
518.448651	26179.992376
518.812112	25916.874392
519.175516	26126.616639
519.538863	26274.932427
519.902152	26061.744551
520.265385	26334.044997
520.628560	26120.370650
520.991678	26140.583156
521.354739	26214.133591
521.717743	26280.449969
522.080690	26078.617293
522.443580	26405.170636
522.806413	26407.040904
523.169189	26495.203123
523.531908	26536.790122
523.894569	26151.668653
524.257174	26229.196558
524.619722	26410.869661
524.982213	26093.627328
525.344647	26149.324517
525.707025	26286.320393
526.069345	26282.274867
526.431608	26228.861322
526.793815	26408.487715
527.155964	25873.389399
527.518057	26059.473511
527.880093	25968.997402
528.242072	26203.050614
528.603995	25900.309161
528.965860	25712.082558
529.327669	25751.537149
529.689421	25733.177267
530.051117	25584.102786
530.412755	25747.937765
530.774337	25553.117334
531.135862	25417.089359
531.497331	25628.858150
531.858743	25195.956625
532.220098	25661.413921
532.581396	25346.571178
532.942638	25276.514263
533.303824	25367.413829
533.664953	25397.512038
534.026025	25045.906681
534.387040	25283.138339
534.747999	25346.175448
535.108902	25508.155283
535.469748	24995.855585
535.830537	25183.439440
536.191270	25296.212572
536.551947	25177.322000
536.912567	24818.404449
537.273131	25181.468349
537.633638	24878.389138
537.994089	25093.074237
538.354483	24622.164932
538.714821	25124.253773
539.075103	25170.697923
539.435328	24937.133704
539.795497	24525.536095
540.155609	24912.031278
540.515665	25208.362904
540.875665	24439.050060
541.235609	24741.962912
541.595496	24693.139337
541.955328	25050.940273
542.315102	24968.650998
542.674821	24517.916391
543.034483	24386.405290
543.394090	24571.075359
543.753640	24361.020560
544.113134	24998.212324
544.472571	24589.669655
544.831953	24873.365628
545.191278	24504.315358
545.550548	24413.856894
545.909761	24624.017556
546.268918	24852.709501
546.628019	24822.301261
546.987064	24519.577452
547.346053	24278.103662
547.704986	24395.786878
548.063863	24546.381267
548.422684	24566.127466
548.781449	24085.655093
549.140158	24482.288037
549.498811	24065.296393
549.857408	23815.378671
550.215949	24236.635130
550.574434	23923.876904
550.932864	24136.253154
551.291237	24293.698471
551.649555	24157.345342
552.007817	24213.602098
552.366022	24075.328289
552.724173	24113.202478
553.082267	24063.211876
553.440305	24543.767428
553.798288	23794.823366
554.156215	24298.638802
554.514086	24400.454986
554.871902	23778.933649
555.229661	24064.482247
555.587365	23916.657972
555.945014	23783.306850
556.302606	24030.996383
556.660143	23996.769468
557.017625	24230.200097
557.375050	23760.704837
557.732421	24150.519620
558.089735	23963.026505
558.446994	24027.873388
558.804197	24047.135637
559.161345	24000.557896
559.518437	23769.471403
559.875474	23948.754999
560.232455	24140.283557
560.589381	23953.236584
560.946251	23937.810654
561.303065	24261.913996
561.659825	24346.766698
562.016528	23951.262973
562.373177	23684.049051
562.729770	24034.396641
563.086307	23911.145470
563.442789	24072.238062
563.799216	23907.573813
564.155587	23914.570934
564.511904	23887.898189
564.868164	23824.341842
565.224370	23805.356857
565.580520	23729.467327
565.936615	23857.610937
566.292654	23539.665364
566.648638	23830.648326
567.004567	23660.927799
567.360441	23613.321663
567.716260	23341.603471
568.072023	23663.423170
568.427732	23427.527417
568.783385	23205.343603
569.138982	23441.977885
569.494525	23477.780159
569.850013	23234.468869
570.205445	23319.306447
570.560823	23124.917034
570.916145	22881.383933
571.271412	23057.637795
571.626625	22822.873781
571.981782	22927.487806
572.336884	22731.807857
572.691931	22870.240463
573.046923	22609.406121
573.401860	22489.774499
573.756743	22487.022029
574.111570	22401.544225
574.466342	22333.360098
574.821059	22419.284045
575.175722	22120.527624
575.530330	22110.830965
575.884882	22129.006845
576.239380	22040.204399
576.593823	21937.102721
576.948211	21908.559708
577.302544	21759.492789
577.656823	21623.699227
578.011047	21723.602294
578.365216	21592.917942
578.719330	21466.828602
579.073389	21359.895647
579.427394	21509.355776
579.781344	21273.218047
580.135239	21168.268786
580.489080	21126.694390
580.842866	20901.430431
581.196597	21090.062846
581.550273	21073.747152
581.903895	20959.499482
582.257463	21271.010022
582.610975	20804.972993
582.964434	21116.649891
583.317837	20815.627472
583.671186	20900.056716
584.024481	20887.161445
584.377721	20647.925927
584.730906	20715.822708
585.084037	20721.284798
585.437113	20644.926441
585.790135	20845.324909
586.143103	20304.280552
586.496016	20326.890127
586.848874	20563.191693
587.201679	20491.534212
587.554428	20167.125879
587.907124	20504.860502
588.259765	20282.636358
588.612352	20341.799339
588.964884	19919.910215
589.317362	20081.552293
589.669786	20139.888525
590.022155	20171.284831
590.374470	20381.606811
590.726731	20163.619757
591.078937	19937.677762
591.431090	20027.533809
591.783188	19776.774213
592.135232	19746.585264
592.487222	19842.646971
592.839157	19863.852584
593.191038	19743.285828
593.542866	19631.795670
593.894639	19341.909159
594.246358	19564.566842
594.598022	19473.261464
594.949633	19224.944308
595.301190	19187.412917
595.652692	19355.343834
596.004141	19591.282437
596.355535	18916.715559
596.706876	18930.873639
597.058162	18828.243309
597.409395	19059.753258
597.760573	19129.542992
598.111698	18898.332991
598.462768	18845.468931
598.813785	18805.066604
599.164748	18625.281414
599.515657	18666.689451
599.866511	18457.506773
600.217312	18819.733841
600.568060	18329.708481
600.918753	18640.606521
601.269392	18544.993477
601.619978	18339.463114
601.970510	18533.298000
602.320988	18477.860431
602.671412	18678.896605
603.021783	18600.264688
603.372100	18326.635898
603.722363	18469.494636
604.072572	18410.366943
604.422728	18548.602943
604.772830	18304.570768
605.122878	18265.607690
605.472872	18246.645389
605.822813	18237.228514
606.172701	18208.803968
606.522534	18397.360766
606.872314	18425.636598
607.222041	18263.510570
607.571714	18482.082398
607.921333	18303.270150
608.270899	18380.803096
608.620411	18559.587617
608.969870	18324.884097
609.319276	18334.484975
609.668627	18355.952728
610.017926	18487.136154
610.367171	18605.661243
610.716362	18655.505652
611.065500	18472.073187
611.414585	18617.971741
611.763616	18591.389736
612.112594	18527.898924
612.461518	18496.611003
612.810389	18694.622485
613.159207	18545.374084
613.507971	18463.919120
613.856682	18735.443228
614.205340	18661.923040
614.553945	18813.676895
614.902496	18556.139468
615.250994	18782.633469
615.599439	18733.550275
615.947830	18711.563282
616.296169	18765.944729
616.644454	18734.140090
616.992686	18698.753710
617.340864	18919.074819
617.688990	18674.750256
618.037063	18851.684674
618.385082	18701.927117
618.733048	18972.639599
619.080961	18850.245425
619.428821	18881.014107
619.776628	18767.237785
620.124382	18698.869657
620.472083	18742.082428
620.819731	18758.327546
621.167326	18450.335731
621.514868	18486.659765
621.862357	18266.371424
622.209793	18270.041384
622.557176	18103.983256
622.904506	17936.415302
623.251783	17844.482300
623.599007	17597.594311
623.946179	17555.281386
624.293297	17483.729769
624.640363	17230.421871
624.987376	17252.996158
625.334336	17056.078606
625.681243	16893.130870
626.028097	16912.153664
626.374899	16826.567474
626.721647	16690.078234
627.068343	16526.893563
627.414987	16459.211032
627.761577	16437.403000
628.108115	16474.946994
628.454600	16199.770570
628.801032	16293.321782
629.147412	16237.745582
629.493739	16248.884011
629.840014	16061.920218
630.186236	16157.117367
630.532405	15913.962352
630.878521	16116.810822
631.224585	16012.998340
631.570597	15830.279199
631.916556	15863.288674
632.262462	15843.635736
632.608316	15757.807571
632.954117	15699.055443
633.299866	15692.428847
633.645562	15613.612927
633.991206	15365.268044
634.336797	15248.250261
634.682336	15211.127204
635.027823	15086.119191
635.373257	14961.743844
635.718639	14872.999371
636.063968	14820.384849
636.409245	14569.524430
636.754470	14601.364358
637.099642	14449.265185
637.444762	14214.579309
637.789829	14251.871244
638.134845	14104.702319
638.479808	14132.262308
638.824719	14065.915682
639.169577	13932.337708
639.514383	13971.948574
639.859137	13798.510197
640.203839	13879.340057
640.548489	13723.333990
640.893086	13703.058469
641.237632	13576.812853
641.582125	13727.543353
641.926566	13552.781673
642.270955	13568.870515
642.615292	13526.802087
642.959576	13542.114591
643.303809	13570.077872
643.647990	13505.110002
643.992118	13565.182911
644.336195	13335.139938
644.680219	13542.238100
645.024192	13464.062406
645.368112	13707.310682
645.711981	13756.673661
646.055797	13951.549545
646.399562	13917.267178
646.743274	14183.485472
647.086935	14459.511330
647.430544	14421.932049
647.774101	14452.756184
648.117606	14606.803763
648.461059	14577.557509
648.804460	14559.096804
649.147810	14280.757056
649.491108	14188.181307
649.834354	14205.510273
650.177548	13893.079722
650.520690	13706.988048
650.863781	13630.027273
651.206820	13671.478161
651.549807	13506.350125
651.892742	13305.404692
652.235626	13237.495308
652.578458	13242.511257
652.921238	12926.987958
653.263967	13132.578815
653.606644	12950.615846
653.949269	12929.931992
654.291843	12736.482754
654.634365	12897.716498
654.976836	12747.691760
655.319255	12744.609094
655.661622	12709.429402
656.003938	12625.186680
656.346203	12555.147409
656.688416	12637.098927
657.030577	12590.097729
657.372687	12500.271929
657.714746	12482.549753
658.056753	12675.089062
658.398708	12477.329638
658.740612	12486.985968
659.082465	12588.340887
659.424266	12553.569528
659.766016	12579.397880
660.107715	12485.430772
660.449362	12570.477558
660.790958	12530.811239
661.132503	12466.947381
661.473996	12529.964325
661.815438	12556.130434
662.156829	12572.146180
662.498168	12554.930639
662.839456	12545.017210
663.180693	12562.988924
663.521879	12653.457471
663.863013	12629.753965
664.204097	12608.782765
664.545129	12728.104356
664.886110	12707.561654
665.227040	12795.166826
665.567918	12799.446766
665.908746	12827.442813
666.249522	12813.826657
666.590248	12857.619160
666.930922	12978.503509
667.271545	12954.260600
667.612118	13042.790823
667.952639	12932.137497
668.293109	12959.606744
668.633528	12909.021286
668.973896	12891.553687
669.314213	12963.773257
669.654480	12701.298021
669.994695	12776.791820
670.334859	12800.253350
670.674973	12749.085639
671.015035	12776.161676
671.355047	12714.999877
671.695008	12696.766023
672.034918	12701.169471
672.374777	12740.949216
672.714585	12661.329232
673.054342	12695.873739
673.394049	12638.906180
673.733705	12743.691604
674.073310	12646.291471
674.412864	12661.359479
674.752368	12526.095239
675.091820	12549.377808
675.431223	12531.433821
675.770574	12397.177812
676.109875	12316.549598
676.449125	12282.098352
676.788324	12229.493912
677.127473	12059.072665
677.466571	12047.737630
677.805619	11943.985643
678.144616	11873.139787
678.483562	11838.328100
678.822458	11709.720703
679.161303	11681.964110
679.500098	11671.874241
679.838842	11629.636933
680.177535	11658.502580
680.516179	11715.941487
680.854771	11665.814774
681.193314	11872.365970
681.531805	12042.688915
681.870247	12463.703399
682.208638	12886.847770
682.546978	13189.722814
682.885268	13226.127507
683.223508	12922.266917
683.561697	12764.708174
683.899836	12669.448011
684.237925	12465.407309
684.575963	12380.070657
684.913951	12302.046198
685.251889	12258.762851
685.589776	12359.301103
685.927614	12273.939245
686.265401	12240.281981
686.603137	12299.991928
686.940824	12444.486520
687.278460	12577.078949
687.616046	12620.029580
687.953582	12779.781224
688.291068	12714.987274
688.628504	12946.522429
688.965889	12952.569293
689.303224	12918.773398
689.640510	12806.239720
689.977745	12500.191270
690.314930	12270.682659
690.652065	12181.973475
690.989150	11886.849205
691.326185	11661.161789
691.663170	11457.428597
692.000105	11215.712832
692.336990	11095.698083
692.673825	10842.722900
693.010610	10730.267361
693.347345	10515.436069
693.684030	10320.955915
694.020665	10262.503737
694.357251	10062.067460
694.693786	10004.121917
695.030272	9841.244757
695.366707	9719.906704
695.703093	9653.943206
696.039429	9657.073762
696.375716	9574.933202
696.711952	9444.256412
697.048139	9489.163010
697.384276	9438.945556
697.720363	9455.667063
698.056400	9394.890913
698.392388	9341.590793
698.728326	9304.462695
699.064214	9243.061441
699.400053	9286.191033
699.735842	9099.456612
700.071581	9056.521105
700.407270	8981.609559
700.742910	8903.978310
701.078501	8813.809712
701.414042	8684.788941
701.749533	8623.375084
702.084974	8479.918969
702.420366	8599.250642
702.755709	8481.002817
703.091002	8343.654060
703.426246	8370.556177
703.761440	8328.071853
704.096584	8285.166593
704.431679	8217.247127
704.766725	8205.045014
705.101721	8154.507447
705.436668	8202.408491
705.771565	8092.770957
706.106413	8168.191659
706.441212	8217.771407
706.775961	8181.407044
707.110661	8211.795119
707.445311	8354.928601
707.779913	8253.709793
708.114465	8379.358032
708.448967	8412.652333
708.783421	8564.852329
709.117825	8749.308148
709.452180	8777.067262
709.786485	8876.730873
710.120742	9155.975508
710.454949	9153.986773
710.789107	9259.346889
711.123216	9475.476278
711.457275	9639.941401
711.791286	9792.751377
712.125247	9798.291605
712.459159	9783.047156
712.793023	10027.840546
713.126837	9602.316749
713.460602	9759.701573
713.794318	9584.087937
714.127985	9604.731462
714.461602	9277.444631
714.795171	9233.672292
715.128691	8986.847317
715.462162	8732.206034
715.795584	8678.051439
716.128957	8532.704891
716.462281	8358.308694
716.795556	8409.128566
717.128782	8200.361782
717.461960	7939.744211
717.795088	8009.720467
718.128167	7913.041219
718.461198	7748.119871
718.794180	7691.422014
719.127113	7685.405397
719.459997	7528.605347
719.792833	7296.775285
720.125619	7364.082250
720.458357	7217.480455
720.791046	7207.851852
721.123686	7205.860596
721.456278	7042.663322
721.788821	7063.921868
722.121315	6955.340455
722.453761	7028.321240
722.786158	6967.345963
723.118506	6978.252500
723.450805	6948.111441
723.783056	7013.515371
724.115259	6928.730725
724.447412	6920.243942
724.779518	6963.943184
725.111574	6965.374872
725.443582	7048.843777
725.775542	7033.352311
726.107453	7222.072947
726.439315	7131.591797
726.771129	7195.856426
727.102895	7366.990996
727.434612	7478.375290
727.766281	7506.792275
728.097901	7587.685150
728.429473	7582.374294
728.760996	7562.421407
729.092471	7542.513891
729.423897	7480.038871
729.755276	7493.589493
730.086606	7415.897750
730.417887	7524.703494
730.749120	7720.814461
731.080305	7913.731857
731.411442	8031.478087
731.742530	8027.039352
732.073570	8137.312071
732.404562	8219.122437
732.735506	8072.767658
733.066401	8215.510450
733.397249	8138.622771
733.728048	7898.305926
734.058798	7557.957466
734.389501	7334.283990
734.720156	7155.663306
735.050762	6927.031856
735.381320	6831.164233
735.711831	6775.663650
736.042293	6670.696745
736.372707	6682.893816
736.703073	6551.992695
737.033391	6591.948880
737.363661	6604.710561
737.693883	6637.591487
738.024056	6714.695935
738.354182	6757.117245
738.684260	6791.762575
739.014290	6914.774290
739.344272	7027.207145
739.674207	7043.583333
740.004093	7123.362113
740.333931	7132.300079
740.663722	7141.633775
740.993464	7222.710652
741.323159	7210.740433
741.652806	6954.138140
741.982405	6976.351985
742.311956	7028.442227
742.641460	6854.121648
742.970915	6668.012330
743.300323	6657.950187
743.629683	6604.990345
743.958996	6474.096786
744.288260	6382.942642
744.617477	6334.053532
744.946647	6332.778120
745.275768	6166.677142
745.604842	6125.271625
745.933869	6101.603408
746.262847	6065.687707
746.591778	6051.325460
746.920662	6014.620818
747.249498	6003.701679
747.578286	6049.253545
747.907027	6125.430421
748.235720	6188.235636
748.564365	6161.630947
748.892963	6195.109250
749.221514	6339.535787
749.550017	6169.575805
749.878473	6050.977620
750.206881	6106.090034
750.535242	6044.119130
750.863555	5979.476414
751.191821	5998.678169
751.520039	5994.751111
751.848210	5899.899280
752.176334	5927.182005
752.504411	5973.243028
752.832440	5901.898098
753.160421	5828.448486
753.488356	5878.691146
753.816243	5908.088635
754.144082	5754.414101
754.471875	5732.301080
754.799620	5775.019817
755.127318	5784.340911
755.454969	5740.697121
755.782572	5703.783272
756.110129	5753.277321
756.437638	5731.136573
756.765100	5675.492317
757.092515	5672.855793
757.419882	5727.496860
757.747203	5708.529519
758.074477	5769.966061
758.401703	5750.907978
758.728882	5706.636565
759.056014	5768.559579
759.383099	5894.749742
759.710138	5904.867338
760.037129	5893.313013
760.364073	5898.313838
760.690970	5976.282843
761.017820	5957.559998
761.344623	5915.022742
761.671379	6021.471747
761.998088	6139.039016
762.324751	6391.348766
762.651366	7002.291242
762.977935	8333.410435
763.304456	9975.712494
763.630931	10871.865811
763.957359	10458.377769
764.283740	9503.633642
764.610074	8656.326586
764.936362	7655.009759
765.262602	7054.134468
765.588796	6522.567480
765.914943	6188.885945
766.241044	6013.264748
766.567097	5816.163194
766.893104	5552.168050
767.219064	5375.805803
767.544978	5314.328932
767.870845	5236.072580
768.196665	5128.922855
768.522438	5059.153286
768.848165	5025.082648
769.173846	4953.974652
769.499479	4912.879166
769.825066	4858.248182
770.150607	4796.736022
770.476101	4776.208444
770.801548	4771.613432
771.126949	4697.195919
771.452303	4638.385818
771.777611	4600.836784
772.102872	4617.618785
772.428087	4578.353238
772.753256	4537.895458
773.078378	4496.189992
773.403453	4423.488992
773.728482	4409.615736
774.053465	4363.925238
774.378401	4353.863095
774.703291	4352.116336
775.028135	4276.839306
775.352932	4232.404055
775.677683	4218.379565
776.002388	4238.428234
776.327046	4247.913165
776.651658	4172.331145
776.976224	4110.700519
777.300743	4117.750573
777.625216	4137.592554
777.949643	4132.503509
778.274024	4089.280656
778.598359	4045.977145
778.922647	4066.953386
779.246889	4062.391142
779.571086	4051.749266
779.895236	4041.424983
780.219339	4022.525697
780.543397	4018.379348
780.867409	4070.739293
781.191374	4080.476281
781.515294	4021.325902
781.839167	4010.852905
782.162995	4032.867624
782.486776	4018.830531
782.810511	4033.104558
783.134201	4025.096686
783.457844	3983.673524
783.781441	3925.589350
784.104993	3930.648148
784.428498	3947.949388
784.751958	3947.828400
785.075372	3927.245369
785.398739	3890.820512
785.722061	3900.307963
786.045337	3946.351342
786.368568	3975.368223
786.691752	3886.422105
787.014891	3942.656176
787.337983	4071.155188
787.661030	4232.106627
787.984031	4392.659815
788.306987	4563.587698
788.629897	4648.148013
788.952760	4599.672278
789.275579	4530.278274
789.598351	4468.811485
789.921078	4320.495698
790.243759	4120.863485
790.566395	4105.571145
790.888984	4101.127368
791.211529	3988.770131
791.534027	3930.328034
791.856480	3920.896036
792.178888	3857.284236
792.501249	3810.469561
792.823566	3819.699913
793.145836	3852.767362
793.468062	3797.523878
793.790241	3747.918924
794.112375	3781.389665
794.434464	3848.300900
794.756507	3871.517934
795.078505	3849.999768
795.400457	3886.656519
795.722364	4030.019372
796.044226	4133.294971
796.366042	4205.418759
796.687812	4184.810522
797.009538	4188.419988
797.331218	4147.742918
797.652852	4118.194194
797.974442	4101.898664
798.295986	4100.540073
798.617484	4014.051517
798.938938	3931.600926
799.260346	3973.248418
799.581709	3963.345072
799.903026	3892.249679
800.224299	3855.963453
800.545526	3853.528576
800.866708	3811.414777
801.187845	3751.510746
801.508936	3783.625416
801.829983	3780.724232
802.150984	3704.053323
802.471940	3694.497816
802.792851	3703.592058
803.113717	3702.840926
803.434538	3703.513920
803.755314	3647.252122
804.076045	3620.410499
804.396731	3643.665342
804.717372	3670.239784
805.037967	3657.644461
805.358518	3639.947491
805.679024	3675.447296
805.999485	3686.951209
806.319901	3690.676622
806.640272	3701.812531
806.960598	3711.720918
807.280879	3692.672919
807.601115	3702.787994
807.921306	3719.776682
808.241453	3760.604987
808.561554	3735.139599
808.881611	3668.881193
809.201623	3708.202193
809.521590	3720.084193
809.841513	3691.901622
810.161390	3721.891446
810.481223	3699.503682
810.801011	3642.405053
811.120755	3633.923312
811.440453	3671.245494
811.760107	3669.990247
812.079716	3632.126140
812.399281	3600.757561
812.718801	3623.359574
813.038276	3595.348402
813.357707	3591.070983
813.677093	3610.615537
813.996434	3554.641085
814.315731	3566.591140
814.634983	3569.109197
814.954191	3583.806681
815.273354	3613.118470
815.592473	3608.268880
815.911547	3617.370683
816.230577	3658.980367
816.549562	3711.380641
816.868502	3751.709871
817.187399	3775.791463
817.506250	3774.455558
817.825058	3746.411619
818.143821	3841.142461
818.462539	3940.909416
818.781213	3990.799195
819.099843	4048.275911
819.418429	4300.333603
819.736970	4544.564904
820.055466	4795.511022
820.373919	5160.838400
820.692327	5572.763684
821.010691	6028.483992
821.329011	7446.424457
821.647286	10255.015103
821.965517	14888.082504
822.283704	18941.230690
822.601847	21071.216492
822.919945	19210.889571
823.237999	16578.714104
823.556010	14068.887442
823.873976	11945.974378
824.191897	9832.757974
824.509775	8485.159248
824.827609	7347.678336
825.145398	6802.343957
825.463144	6689.459919
825.780845	6801.149203
826.098502	7009.323651
826.416116	7908.894870
826.733685	9256.228935
827.051210	10368.428461
827.368692	10385.034022
827.686129	9092.351106
828.003522	7574.028664
828.320872	6556.295320
828.638177	5840.259910
828.955439	5273.523312
829.272656	4774.731386
829.589830	4493.258561
829.906960	4319.026202
830.224046	4128.306749
830.541088	4005.524406
830.858086	3956.032878
831.175041	3873.920043
831.491952	3863.298332
831.808819	3873.105897
832.125642	3944.934778
832.442421	4100.444292
832.759157	4380.467785
833.075849	4946.128096
833.392497	5825.622920
833.709101	6607.800789
834.025662	6940.164062
834.342179	6553.263066
834.658653	5879.442278
834.975083	5230.587805
835.291469	4649.206655
835.607811	4241.185745
835.924110	4099.199127
836.240366	3893.741860
836.556578	3688.536652
836.872746	3580.298038
837.188871	3540.223385
837.504952	3472.117397
837.820990	3389.011455
838.136984	3344.109898
838.452935	3372.884804
838.768842	3364.965151
839.084706	3389.364336
839.400526	3550.434242
839.716303	3900.315525
840.032037	4435.403759
840.347727	4693.631823
840.663373	4402.106938
840.978977	4014.071682
841.294537	3703.866801
841.610054	3475.000937
841.925527	3370.974207
842.240957	3300.440903
842.556344	3246.767737
842.871687	3183.092923
843.186987	3134.944863
843.502244	3098.749378
843.817458	3064.351065
844.132629	3032.609440
844.447756	3042.752241
844.762840	3022.958151
845.077881	2994.619304
845.392879	2973.703557
845.707833	2971.306488
846.022745	2970.489822
846.337613	2971.659369
846.652438	2957.902060
846.967221	2958.083542
847.281960	2943.650718
847.596656	2938.291972
847.911309	2937.855912
848.225919	2932.187135
848.540485	2928.554983
848.855009	2929.124634
849.169490	2916.849424
849.483928	2907.752662
849.798323	2907.306520
850.112675	2905.721077
850.426984	2915.531162
850.741251	2910.361459
851.055474	2902.550191
851.369654	2894.353275
851.683792	2902.010788
851.997887	2910.903383
852.311938	2912.148548
852.625947	2896.899058
852.939914	2905.839544
853.253837	2907.830800
853.567718	2895.361506
853.881555	2894.091135
854.195350	2905.418608
854.509103	2904.380130
854.822812	2896.931825
855.136479	2891.278171
855.450103	2893.403018
855.763685	2888.848335
856.077224	2883.482027
856.390720	2900.778226
856.704173	2907.551016
857.017584	2902.961045
857.330953	2896.914181
857.644278	2906.895666
857.957561	2916.690628
858.270802	2917.532500
858.584000	2916.088210
858.897155	2904.047414
859.210268	2907.193094
859.523339	2901.950294
859.836367	2902.719070
860.149352	2898.151784
860.462295	2892.266237
860.775195	2901.499111
861.088054	2899.729666
861.400869	2880.807695
861.713642	2880.381717
862.026373	2895.210271
862.339062	2899.270921
862.651708	2902.784605
862.964312	2906.061355
863.276873	2897.569531
863.589392	2909.234761
863.901869	2924.983326
864.214303	2941.914041
864.526696	2957.655044
864.839045	2955.615897
865.151353	2956.445167
865.463619	2953.216308
865.775842	2956.954323
866.088023	2977.335708
866.400162	2982.207984
866.712258	2951.885443
867.024313	2940.754576
867.336325	2949.937037
867.648296	2972.017291
867.960224	2962.171918
868.272110	2949.211111
868.583954	2953.506174
868.895755	2969.126189
869.207515	2953.957358
869.519233	2959.056485
869.830909	2971.954277
870.142542	2983.059939
870.454134	2980.201604
870.765684	2982.570947
871.077191	2983.962305
871.388657	2990.669560
871.700081	3004.752024
872.011463	3016.800381
872.322803	3019.038654
872.634101	3015.106554
872.945357	3031.039120
873.256571	3056.260013
873.567744	3051.049981
873.878874	3044.703168
874.189963	3069.510686
874.501010	3068.094122
874.812015	3060.633214
875.122979	3058.710014
875.433900	3054.722461
875.744780	3063.975499
876.055618	3068.623443
876.366415	3066.347362
876.677169	3076.732139
876.987882	3071.338104
877.298554	3068.441961
877.609183	3093.004983
877.919771	3116.249744
878.230317	3142.617499
878.540822	3195.763863
878.851285	3235.765419
879.161707	3276.460134
879.472087	3382.634395
879.782425	3620.166003
880.092722	4063.646389
880.402977	4598.540538
880.713191	5243.760340
881.023363	6435.025323
881.333494	7740.207780
881.643583	8273.496322
881.953631	7967.102553
882.263637	7319.374777
882.573602	6718.088632
882.883526	6127.646008
883.193408	5548.803080
883.503248	5085.694961
883.813048	4780.362355
884.122806	4468.461125
884.432522	4147.851302
884.742197	3908.295672
885.051831	3714.599417
885.361424	3577.424580
885.670975	3505.774660
885.980485	3417.327616
886.289954	3344.412367
886.599382	3294.613329
886.908768	3257.018924
887.218113	3211.507387
887.527417	3155.212822
887.836680	3102.759616
888.145901	3098.005808
888.455082	3087.063984
888.764221	3033.211858
889.073319	3008.038856
889.382376	3006.564318
889.691392	3010.879546
890.000366	3009.092457
890.309300	2993.374139
890.618193	3008.137158
890.927044	3026.302956
891.235855	3024.533511
891.544625	3011.996162
891.853353	3022.874972
892.162041	3040.400543
892.470687	3083.613314
892.779293	3134.579379
893.087858	3180.705937
893.396381	3252.801999
893.704864	3379.922255
894.013306	3626.903505
894.321707	3934.305505
894.630068	4141.015498
894.938387	4135.006442
895.246665	4088.474072
895.554903	3961.706697
895.863100	3756.221704
896.171256	3587.756425
896.479371	3450.327009
896.787446	3323.113492
897.095480	3222.827298
897.403473	3153.382883
897.711425	3118.160341
898.019336	3110.149948
898.327207	3077.092581
898.635038	3044.287273
898.942827	3026.267668
899.250576	3016.361801
899.558284	2984.133704
899.865952	2964.536219
900.173579	2944.217848
900.481165	2935.675613
900.788711	2922.901329
901.096216	2897.831671
901.403681	2887.789693
901.711105	2894.202040
902.018489	2893.037534
902.325832	2890.537122
902.633135	2903.843247
902.940397	2935.045469
903.247619	3023.694159
903.554800	3219.258161
903.861941	3573.905855
904.169041	4010.938605
904.476101	4311.729132
904.783121	4257.609824
905.090100	4006.827544
905.397039	3725.160635
905.703938	3473.680154
906.010796	3286.227369
906.317614	3173.817200
906.624391	3077.924372
906.931129	3007.043228
907.237826	2941.606531
907.544483	2896.142885
907.851099	2866.725231
908.157675	2842.409226
908.464211	2825.027327
908.770707	2810.357570
909.077163	2797.018677
909.383578	2780.334978
909.689954	2768.924326
909.996289	2768.142947
910.302584	2769.998092
910.608839	2768.682351
910.915054	2764.654469
911.221229	2757.392687
911.527363	2760.210692
911.833458	2766.214706
912.139513	2772.412805
912.445527	2773.441200
912.751502	2783.999897
913.057436	2794.445167
913.363331	2806.929585
913.669186	2828.878769
913.975000	2863.934953
914.280775	2924.098603
914.586510	2998.274141
914.892205	3079.235072
915.197859	3214.900083
915.503475	3408.019126
915.809050	3628.062970
916.114585	3776.492184
916.420081	3794.133702
916.725536	3730.544587
917.030952	3611.701906
917.336328	3478.073520
917.641665	3345.213910
917.946961	3240.849423
918.252218	3170.762261
918.557435	3092.483224
918.862612	3032.528781
919.167750	2980.685555
919.472848	2940.747014
919.777906	2914.182654
920.082925	2886.862120
920.387904	2856.683253
920.692843	2839.155161
920.997743	2824.858449
921.302603	2814.463589
921.607423	2804.587969
921.912204	2791.344858
922.216946	2780.176182
922.521647	2771.160078
922.826310	2761.279416
923.130932	2753.516039
923.435516	2749.369690
923.740059	2738.072465
924.044564	2732.461660
924.349028	2726.497975
924.653454	2717.998590
924.957840	2712.919627
925.262186	2708.543906
925.566493	2702.728935
925.870761	2700.551157
926.174989	2695.658717
926.479178	2692.460105
926.783328	2685.888961
927.087438	2687.043385
927.391509	2684.807633
927.695541	2681.714885
927.999533	2679.096006
928.303486	2675.390758
928.607400	2673.908658
928.911275	2673.114677
929.215110	2671.584687
929.518906	2669.623678
929.822663	2671.088133
930.126381	2670.382371
930.430060	2671.914882
930.733699	2673.386899
931.037299	2674.281704
931.340861	2671.982938
931.644383	2675.710871
931.947866	2673.845644
932.251309	2671.519152
932.554714	2672.731549
932.858080	2669.064110
933.161407	2667.380364
933.464694	2667.191321
933.767943	2662.314005
934.071153	2664.249808
934.374323	2665.212668
934.677455	2665.492452
934.980548	2663.009684
935.283602	2664.096052
935.586617	2661.585558
935.889593	2663.100425
936.192530	2662.687050
936.495428	2665.479849
936.798287	2665.855415
937.101108	2669.575787
937.403890	2671.705674
937.706632	2677.676921
938.009336	2683.660771
938.312002	2694.486648
938.614628	2700.694829
938.917216	2706.746735
939.219765	2708.531303
939.522275	2708.236396
939.824747	2702.376054
940.127179	2703.091898
940.429573	2698.368337
940.731929	2698.907740
941.034246	2692.180321
941.336524	2690.597398
941.638763	2687.086235
941.940964	2683.323013
942.243126	2684.147242
942.545250	2685.195802
942.847335	2681.372087
943.149381	2675.957887
943.451389	2672.474450
943.753359	2667.997906
944.055290	2668.469253
944.357182	2666.901455
944.659036	2666.800632
944.960851	2664.118738
945.262628	2663.176042
945.564367	2664.534633
945.866067	2666.014212
946.167729	2666.175528
946.469352	2666.523368
946.770937	2664.411125
947.072484	2664.000271
947.373992	2663.186124
947.675462	2662.341731
947.976893	2658.767553
948.278286	2655.478200
948.579641	2656.446102
948.880958	2656.680515
949.182236	2656.249497
949.483476	2655.997439
949.784678	2653.812099
950.085841	2653.711276
950.386967	2656.551966
950.688054	2658.137409
950.989103	2658.974240
951.290114	2657.219919
951.591087	2657.681184
951.892021	2664.189314
952.192917	2663.652431
952.493776	2667.244253
952.794596	2669.764830
953.095378	2668.280210
953.396122	2665.802483
953.696828	2665.744510
953.997496	2665.142092
954.298126	2660.683191
954.598718	2657.202275
954.899272	2657.797131
955.199788	2654.220432
955.500266	2655.190854
955.800706	2651.838487
956.101108	2648.919659
956.401472	2643.364307
956.701798	2646.139462
957.002087	2643.626447
957.302337	2640.647125
957.602550	2641.443628
957.902724	2637.226703
958.202861	2636.445324
958.502960	2634.065899
958.803022	2634.633029
959.103045	2636.024387
959.403031	2631.603295
959.702979	2634.678399
960.002889	2631.724283
960.302762	2634.685961
960.602596	2631.631022
960.902393	2631.167236
961.202153	2630.985754
961.501875	2632.919037
961.801559	2629.596916
962.101205	2629.854015
962.400814	2631.043727
962.700385	2629.095321
962.999918	2625.175824
963.299414	2626.317646
963.598873	2626.133643
963.898293	2623.618108
964.197677	2630.179169
964.497022	2629.216309
964.796331	2629.291926
965.095601	2627.144395
965.394835	2629.735548
965.694030	2630.002729
965.993189	2627.477111
966.292309	2628.553397
966.591393	2628.598768
966.890439	2626.030300
967.189447	2627.986267
967.488419	2627.910650
967.787353	2628.956690
968.086249	2626.277316
968.385108	2627.885444
968.683930	2626.625156
968.982714	2627.837553
969.281462	2628.238325
969.580172	2628.906278
969.878844	2627.719086
970.177480	2629.831330
970.476078	2628.240846
970.774639	2627.015845
971.073162	2626.221864
971.371649	2626.176493
971.670098	2629.218830
971.968510	2627.272944
972.266885	2628.472739
972.565223	2630.348048
972.863524	2626.685650
973.161788	2627.467029
973.460014	2629.138171
973.758204	2626.539456
974.056356	2624.306225
974.354471	2627.356123
974.652550	2628.230763
974.950591	2628.739920
975.248595	2627.840074
975.546563	2628.077008
975.844493	2626.889817
976.142386	2626.645321
976.440243	2627.638428
976.738062	2625.962244
977.035845	2627.197327
977.333590	2627.144395
977.631299	2625.750516
977.928971	2623.686163
978.226606	2620.275823
978.524204	2625.117851
978.821765	2621.044599
979.119290	2626.935187
979.416777	2627.910650
979.714228	2624.074332
980.011642	2625.579117
980.309020	2624.283540
980.606360	2625.392594
980.903664	2624.528036
981.200931	2625.889147
981.498162	2626.146246
981.795356	2629.128089
982.092513	2630.723614
982.389633	2632.248563
982.686717	2632.077164
982.983764	2637.103194
983.280775	2642.396406
983.577749	2643.709626
983.874686	2642.098978
984.171587	2643.298772
984.468451	2637.267032
984.765279	2633.939870
985.062070	2633.763430
985.358824	2631.159674
985.655543	2628.558438
985.952224	2629.581793
986.248869	2627.429220
986.545478	2628.568521
986.842050	2623.187089
987.138586	2622.551904
987.435086	2625.001904
987.731549	2623.555093
988.027975	2622.325052
988.324366	2621.896554
988.620719	2623.204733
988.917037	2621.069804
989.213318	2623.018210
989.509563	2623.807151
989.805772	2622.277161
990.101944	2620.157356
990.398080	2623.587861
990.694180	2620.225411
990.990244	2619.943107
991.286271	2620.106944
991.582262	2621.226080
991.878217	2622.214146
992.174136	2623.318159
992.470019	2619.945627
992.765865	2622.100720
993.061676	2616.666357
993.357450	2621.654578
993.653188	2617.843466
993.948890	2620.812706
994.244556	2621.163066
994.540186	2623.073663
994.835780	2623.078704
995.131337	2623.691204
995.426859	2625.256483
995.722345	2623.943262
996.017795	2623.192130
996.313208	2623.459311
996.608586	2624.064250
996.903928	2626.917543
997.199234	2627.676237
997.494504	2626.589868
997.789738	2625.889147
998.084936	2624.296143
998.380099	2625.415279
998.675225	2624.706997
998.970316	2623.471914
999.265371	2624.119702
999.560390	2620.313631
999.855373	2624.036523
1000.150320	2623.514764
1000.445232	2621.100051
1000.740108	2621.513426
1001.034948	2621.689866
1001.329752	2622.909826
1001.624521	2620.515277
1001.919254	2620.079218
1002.213951	2621.281533
1002.508613	2619.549897
1002.803239	2619.285236
1003.097829	2619.484362
1003.392384	2621.031996
1003.686903	2619.733899
1003.981386	2619.968312
1004.275834	2618.697942
1004.570246	2619.068466
1004.864623	2617.664505
1005.158964	2620.888323
1005.453270	2618.493775
1005.747540	2617.694752
1006.041775	2618.529063
1006.335974	2619.423868
1006.630138	2620.759773
1006.924266	2618.723147
1007.218359	2619.819598
1007.512416	2618.087962
1007.806438	2616.494957
1008.100425	2617.024278
1008.394376	2612.353649
1008.688292	2616.626027
1008.982172	2621.911677
1009.276017	2620.243055
1009.569827	2622.410751
1009.863602	2618.889505
1010.157341	2618.017386
1010.451045	2618.531583
1010.744714	2619.065946
1011.038347	2620.548045
1011.331945	2620.129629
1011.625508	2618.765997
1011.919036	2618.466048
1012.212528	2618.617283
1012.505986	2621.092490
1012.799408	2615.882457
1013.092795	2618.239197
1013.386147	2620.338837
1013.679464	2618.428240
1013.972745	2618.667695
1014.265992	2616.903291
1014.559204	2617.883795
1014.852380	2618.760956
1015.145521	2617.593929
1015.438628	2618.650051
1015.731699	2618.219032
1016.024736	2619.028137
1016.317737	2616.285749
1016.610703	2617.924124
1016.903635	2621.609208
1017.196531	2617.649382
1017.489393	2615.733743
1017.782219	2618.516460
1018.075011	2617.339351
1018.367768	2619.000411
1018.660490	2617.881275
1018.953177	2617.881275
1019.245829	2617.881275
