Dividing Wavelength (nm)	Counts (n)	Blue Motor Position (mm): 32.100000	Red Motor Position (mm): 0.000000	
326.493990	2219.151211
326.888308	2219.151211
327.282561	2219.151211
327.676750	2178.277536
328.070874	2175.520025
328.464933	2174.176557
328.858929	2177.690241
329.252859	2183.079235
329.646726	2194.341173
330.040528	2205.111598
330.434265	2216.459235
330.827938	2236.210476
331.221547	2251.749833
331.615091	2270.792791
332.008571	2290.110493
332.401986	2307.613379
332.795338	2327.530978
333.188625	2345.853051
333.581847	2362.047758
333.975006	2383.185316
334.368100	2402.429921
334.761129	2424.033786
335.154095	2436.251022
335.546996	2463.427883
335.939833	2503.633605
336.332606	2517.794206
336.725315	2532.342976
337.117960	2539.692978
337.510540	2553.120092
337.903056	2566.433779
338.295508	2576.261508
338.687896	2581.446335
339.080220	2591.367326
339.472480	2598.651793
339.864676	2600.300251
340.256807	2609.860799
340.648875	2611.579832
341.040879	2612.646036
341.432818	2617.372118
341.824694	2621.866307
342.216506	2618.778600
342.608253	2621.520988
342.999937	2621.470576
343.391557	2620.795062
343.783113	2621.831019
344.174605	2620.457304
344.566033	2618.818929
344.957397	2618.801285
345.348697	2617.374639
345.739934	2614.080245
346.131106	2613.659308
346.522215	2613.689555
346.913260	2612.885491
347.304241	2608.000613
347.695159	2608.151848
348.086012	2605.371651
348.476802	2603.100612
348.867528	2599.770929
349.258191	2598.621546
349.648789	2596.587441
350.039324	2591.924373
350.429796	2595.632142
350.820203	2592.506627
351.210548	2592.393201
351.600828	2594.689446
351.991045	2592.035279
352.381198	2591.553849
352.771288	2590.618715
353.161314	2591.430340
353.551276	2587.034454
353.941175	2587.349526
354.331010	2587.462952
354.720782	2589.171903
355.110490	2588.844228
355.500135	2588.133426
355.889717	2587.525967
356.279235	2586.376584
356.668689	2587.949424
357.058080	2588.093097
357.447408	2587.072263
357.836672	2589.091245
358.225873	2585.723754
358.615010	2588.095617
359.004084	2587.044537
359.393095	2591.160639
359.782043	2591.677357
360.170927	2590.921184
360.559748	2591.745412
360.948505	2593.555187
361.337199	2594.639035
361.725830	2590.689291
362.114398	2596.045517
362.502903	2594.886051
362.891344	2594.838160
363.279722	2595.140630
363.668037	2594.170207
364.056289	2599.057606
364.444478	2595.193562
364.832603	2600.244798
365.220665	2599.508789
365.608665	2598.913933
365.996601	2600.675817
366.384474	2599.851588
366.772284	2598.528285
367.160031	2601.069027
367.547715	2602.288986
367.935336	2602.543564
368.322893	2598.495517
368.710388	2596.456371
369.097820	2598.724890
369.485189	2597.270517
369.872495	2604.796960
370.259738	2602.578852
370.646918	2604.612958
371.034035	2603.191352
371.421090	2603.650097
371.808081	2602.820828
372.195010	2605.404419
372.581875	2602.283945
372.968678	2605.971549
373.355418	2607.007506
373.742096	2605.553133
374.128710	2608.555140
374.515262	2606.188318
374.901751	2603.377875
375.288177	2607.357866
375.674540	2608.545058
376.060841	2608.199739
376.447079	2607.655294
376.833254	2607.725870
377.219367	2608.378700
377.605417	2610.019595
377.991404	2609.679317
378.377329	2610.125459
378.763191	2611.310131
379.148991	2610.296859
379.534727	2611.582353
379.920402	2611.693258
380.306013	2608.451796
380.691563	2612.295676
381.077049	2612.199894
381.462474	2610.939606
381.847835	2611.831890
382.233134	2613.407251
382.618371	2611.814246
383.003545	2610.488422
383.388657	2612.958588
383.773706	2614.561675
384.158693	2614.445728
384.543618	2617.299021
384.928480	2614.307097
385.313280	2615.494288
385.698017	2613.946654
386.082692	2615.708537
386.467305	2617.525873
386.851856	2615.358177
387.236344	2617.442694
387.620770	2615.338012
388.005133	2614.281891
388.389435	2616.000924
388.773674	2612.945985
389.157851	2618.246758
389.541965	2619.048302
389.926018	2619.058384
390.310008	2621.233642
390.693936	2622.078035
391.077802	2620.747171
391.461606	2622.420834
391.845348	2620.401852
392.229027	2622.393107
392.612645	2619.675925
392.996200	2623.124075
393.379694	2623.383694
393.763125	2624.323869
394.146494	2624.465022
394.529801	2627.257821
394.913047	2625.251442
395.296230	2627.106586
395.679351	2627.514920
396.062410	2627.872842
396.445408	2628.434930
396.828343	2628.371916
397.211217	2630.985754
397.594028	2630.219499
397.976778	2629.024745
398.359466	2631.207565
398.742092	2631.106742
399.124656	2628.094652
399.507158	2631.200003
399.889598	2632.724952
400.271977	2630.930301
400.654294	2635.643780
401.036549	2632.810652
401.418742	2634.229737
401.800874	2636.747793
402.182944	2637.042700
402.564952	2636.447844
402.946898	2636.646970
403.328783	2635.772330
403.710606	2637.224182
404.092367	2640.384985
404.474067	2638.731487
404.855705	2639.530510
405.237282	2641.297434
405.618797	2643.608803
406.000250	2642.189718
406.381642	2644.823721
406.762972	2641.796508
407.144240	2639.926240
407.525447	2642.595531
407.906593	2640.886580
408.287677	2646.827580
408.668700	2648.095430
409.049661	2648.377735
409.430560	2649.837149
409.811399	2651.730102
410.192176	2652.014927
410.572891	2651.755308
410.953545	2653.875113
411.334138	2653.607932
411.714669	2655.921822
412.095139	2655.901657
412.475547	2658.611277
412.855894	2662.087153
413.236180	2662.795435
413.616405	2665.641166
413.996568	2669.258194
414.376670	2675.720953
414.756711	2680.126922
415.136691	2685.858714
415.516609	2696.704756
415.896466	2706.439224
416.276262	2721.313149
416.655997	2737.790160
417.035670	2757.440578
417.415283	2781.597787
417.794834	2808.169709
418.174324	2826.675785
418.553753	2857.212574
418.933121	2895.767319
419.312428	2939.075871
419.691674	2965.599902
420.070859	3043.710061
420.449983	3071.413722
420.829045	3155.643841
421.208047	3195.380736
421.586988	3290.862710
421.965867	3359.613966
422.344686	3444.875001
422.723444	3528.056560
423.102141	3504.416069
423.480777	3703.050134
423.859352	3701.822613
424.237866	3908.802307
424.616319	3973.356803
424.994712	4144.942557
425.373044	4148.693175
425.751314	4362.233931
426.129524	4425.452521
426.507673	4570.340324
426.885762	4718.890525
427.263789	4794.714520
427.641756	4874.904154
428.019662	5030.453997
428.397508	5223.507504
428.775292	5218.221854
429.153016	5492.208566
429.530679	5541.299322
429.908282	5671.608108
430.285824	5654.223689
430.663305	6078.706487
431.040726	5947.893586
431.418086	6042.125354
431.795385	6324.775288
432.172624	6477.633155
432.549802	6551.160905
432.926920	6719.192645
433.303977	6748.630463
433.680974	6975.114381
434.057910	7147.174003
434.434786	7291.222454
434.811601	7323.450550
435.188355	7797.984444
435.565050	7720.479224
435.941683	7790.551263
436.318257	8247.065552
436.694770	8436.237371
437.071222	8602.401363
437.447614	8596.901465
437.823946	8615.631872
438.200218	8845.203497
438.576429	8776.454762
438.952580	9054.048419
439.328670	9208.383344
439.704700	9102.090615
440.080670	9174.844547
440.456580	9737.432275
440.832429	9599.218960
441.208218	9329.212240
441.583947	9692.293784
441.959616	9881.233709
442.335224	9775.641701
442.710773	9975.437751
443.086261	10218.789371
443.461689	9619.784348
443.837057	10247.312219
444.212365	10572.380943
444.587612	10290.451893
444.962800	10564.751157
445.337927	10393.006607
445.712995	10004.502524
446.088002	11087.982597
446.462949	10783.365834
446.837837	10782.465988
447.212664	10833.185037
447.587431	11326.207363
447.962139	12017.397446
448.336786	14226.877203
448.711374	14833.489328
449.085901	12773.890636
449.460369	12395.191598
449.834776	11885.714946
450.209124	12729.682238
450.583412	13133.924803
450.957640	14091.297891
451.331808	13320.442454
451.705917	12294.265177
452.079965	11648.861373
452.453954	12531.496836
452.827883	12159.769713
453.201752	12456.981020
453.575562	11975.386990
453.949311	12398.843913
454.323001	12357.259435
454.696632	12581.406779
455.070202	12867.628371
455.443713	13129.647384
455.817164	13573.316813
456.190556	13590.139143
456.563888	13952.968630
456.937160	14138.127690
457.310373	13470.016009
457.683526	13550.130026
458.056619	13117.430147
458.429653	13230.082292
458.802628	12702.737270
459.175542	13050.718038
459.548398	14004.574922
459.921194	14332.045755
460.293930	14385.802099
460.666607	15284.077741
461.039224	16303.749409
461.411782	16999.307652
461.784280	16905.862304
462.156719	16951.129345
462.529099	16646.532747
462.901419	15573.518110
463.273680	15364.416089
463.645882	15223.914091
464.018024	14966.023783
464.390106	15179.582184
464.762130	15912.442445
465.134094	16646.847819
465.505999	18609.915977
465.877845	21859.214373
466.249631	24704.602921
466.621358	24432.945223
466.993026	22987.827897
467.364634	22426.013986
467.736184	20975.404322
468.107674	20177.714823
468.479105	20303.685696
468.850477	19772.033008
469.221790	19350.748823
469.593043	18674.551131
469.964238	18116.707128
470.335373	17785.422662
470.706449	18208.360347
471.077467	17751.493176
471.448425	19573.474561
471.819324	23559.212438
472.190164	25642.983463
472.560945	22144.619298
472.931667	19743.394213
473.302330	19097.511500
473.672934	18596.201518
474.043479	18950.302246
474.413965	18767.358773
474.784393	18401.428977
475.154761	19078.831505
475.525070	19081.258820
475.895321	18726.480057
476.265513	19313.746753
476.635645	19883.971829
477.005719	19684.664771
477.375734	19871.971363
477.745691	20352.237048
478.115588	20859.072136
478.485427	21377.837113
478.855207	22434.258793
479.224928	24182.967006
479.594591	26399.781643
479.964194	26481.826422
480.333739	26671.396491
480.703226	26237.305254
481.072653	25915.631748
481.442022	26468.989123
481.811333	27378.385551
482.180584	27308.507597
482.549777	26357.751022
482.918912	26001.144841
483.287988	26119.513653
483.657005	25805.159902
484.025964	25530.931216
484.394864	25471.798481
484.763706	25168.424363
485.132489	24585.951804
485.501213	24750.726958
485.869879	24669.191336
486.238487	24473.738240
486.607036	24644.373736
486.975527	24323.209386
487.343959	24643.206708
487.712333	24614.177224
488.080648	24268.704430
488.448905	24736.019392
488.817104	24483.674354
489.185244	25154.745192
489.553326	25135.964373
489.921350	26100.609327
490.289315	28359.263019
490.657222	30167.655974
491.025070	30663.823979
491.392861	30455.770519
491.760593	29625.147162
492.128267	28715.309633
492.495883	27683.413167
492.863440	26810.013099
493.230939	25925.167090
493.598380	25781.221983
493.965763	25366.181267
494.333088	24941.912718
494.700354	24856.003895
495.067563	24738.456790
495.434713	24486.205013
495.801805	24639.652695
496.168839	24447.957779
496.535815	24281.211533
496.902733	24498.699513
497.269593	24154.938191
497.636395	24364.476271
498.003139	24338.494164
498.369825	24078.695780
498.736453	24270.766262
499.103023	24147.643641
499.469535	24178.440050
499.835989	24371.085224
500.202385	24408.039402
500.568723	23909.355861
500.935003	24167.858668
501.301226	23759.739456
501.667390	24591.744089
502.033497	24844.005948
502.399546	24570.687190
502.765537	24143.835050
503.131470	24520.404201
503.497345	24663.832589
503.863163	23876.593402
504.228923	24481.010104
504.594625	24681.025445
504.960269	24206.282343
505.325856	24710.866555
505.691385	24098.726805
506.056856	24705.381779
506.422270	24680.697770
506.787625	24262.755869
507.152924	24670.602859
507.518164	24692.020201
507.883347	24502.916438
508.248472	24195.945457
508.613540	24971.050587
508.978550	24755.279120
509.343503	24739.485185
509.708398	25004.750701
510.073236	25167.801781
510.438016	25368.701844
510.802738	25055.379009
511.167403	25300.840351
511.532010	24997.695606
511.896561	25776.614369
512.261053	25745.084472
512.625488	25586.872900
512.989866	25477.762166
513.354186	25328.344887
513.718449	25421.903661
514.082655	25808.625696
514.446803	25550.077518
514.810894	26004.106518
515.174927	25491.093497
515.538904	25521.910071
515.902822	26025.249118
516.266684	25770.436435
516.630488	25674.846076
516.994235	25650.154504
517.357925	25955.567769
517.721558	26134.470757
518.085133	26218.123664
518.448651	26140.676417
518.812112	25858.971699
519.175516	26085.569044
519.538863	26222.048202
519.902152	26005.727249
520.265385	26308.256974
520.628560	26067.894759
520.991678	26108.627282
521.354739	26173.033063
521.717743	26227.442237
522.080690	26025.493614
522.443580	26361.597423
522.806413	26357.269592
523.169189	26452.960775
523.531908	26502.361562
523.894569	26095.300992
524.257174	26175.513311
524.619722	26368.660079
524.982213	26042.164709
525.344647	26113.842355
525.707025	26249.693890
526.069345	26229.725879
526.431608	26181.482037
526.793815	26368.909617
527.155964	25841.108371
527.518057	26010.289494
527.880093	25925.557780
528.242072	26154.065722
528.603995	25864.965631
528.965860	25658.439640
529.327669	25714.915687
529.689421	25705.282042
530.051117	25533.096391
530.412755	25709.314965
530.774337	25518.192220
531.135862	25382.060901
531.497331	25584.722848
531.858743	25138.197605
532.220098	25616.701407
532.581396	25297.951770
532.942638	25228.956018
533.303824	25329.244733
533.664953	25345.686456
534.026025	25014.482648
534.387040	25243.751804
534.747999	25308.394520
535.108902	25464.687933
535.469748	24953.822444
535.830537	25137.998479
536.191270	25267.520845
536.551947	25144.562061
536.912567	24801.289731
537.273131	25138.036288
537.633638	24839.766338
537.994089	25057.639966
538.354483	24589.836013
538.714821	25090.188176
539.075103	25123.878207
539.435328	24918.362968
539.795497	24481.862059
540.155609	24876.844025
540.515665	25164.487222
540.875665	24398.103288
541.235609	24699.203845
541.595496	24661.541385
541.955328	25023.534040
542.315102	24947.077380
542.674821	24481.529343
543.034483	24362.540468
543.394090	24535.363825
543.753640	24333.614327
544.113134	24957.247908
544.472571	24555.785539
544.831953	24857.743093
545.191278	24464.016374
545.550548	24379.536718
545.909761	24583.159004
546.268918	24818.316228
546.628019	24795.285717
546.987064	24491.440251
547.346053	24254.115331
547.704986	24367.042218
548.063863	24527.076168
548.422684	24536.596387
548.781449	24062.349839
549.140158	24455.569921
549.498811	24035.919069
549.857408	23781.663434
550.215949	24210.277457
550.574434	23891.941195
550.932864	24114.291368
551.291237	24272.518063
551.649555	24133.150324
552.007817	24187.751061
552.366022	24057.470002
552.724173	24100.430715
553.082267	24039.326889
553.440305	24519.622822
553.798288	23783.127889
554.156215	24295.283914
554.514086	24385.568459
554.871902	23740.779676
555.229661	24049.298292
555.587365	23900.067535
555.945014	23767.805302
556.302606	24013.511140
556.660143	23960.130362
557.017625	24211.777201
557.375050	23735.189037
557.732421	24135.255006
558.089735	23942.153608
558.446994	23999.776517
558.804197	24046.719741
559.161345	23980.988136
559.518437	23725.247881
559.875474	23922.427573
560.232455	24112.189206
560.589381	23931.630199
560.946251	23911.773094
561.303065	24237.222425
561.659825	24329.205838
562.016528	23927.148613
562.373177	23658.467716
562.729770	24022.391133
563.086307	23881.611871
563.442789	24062.569129
563.799216	23887.315936
564.155587	23892.765423
564.511904	23874.740778
564.868164	23806.579337
565.224370	23789.814980
565.580520	23704.039747
565.936615	23831.074303
566.292654	23514.958669
566.648638	23809.679646
567.004567	23642.444409
567.360441	23589.043466
567.716260	23314.068688
568.072023	23635.016268
568.427732	23392.100709
568.783385	23184.989944
569.138982	23427.519856
569.494525	23454.668990
569.850013	23197.711296
570.205445	23302.668119
570.560823	23108.981947
570.916145	22852.694727
571.271412	23039.910577
571.626625	22787.494963
571.981782	22915.636053
572.336884	22720.127504
572.691931	22845.866484
573.046923	22588.220672
573.401860	22458.181588
573.756743	22483.379796
574.111570	22381.782902
574.466342	22306.715080
574.821059	22403.220408
575.175722	22111.745934
575.530330	22084.478333
575.884882	22116.477057
576.239380	22014.895287
576.593823	21917.202766
576.948211	21882.809494
577.302544	21728.600598
577.656823	21599.037903
578.011047	21705.658307
578.365216	21567.376936
578.719330	21433.171338
579.073389	21341.979386
579.427394	21506.381495
579.781344	21269.033890
580.135239	21153.339409
580.489080	21113.723502
580.842866	20893.311652
581.196597	21079.995662
581.550273	21062.104607
581.903895	20953.961774
582.257463	21254.709451
582.610975	20790.550252
582.964434	21095.582909
583.317837	20797.882610
583.671186	20883.521732
584.024481	20861.822085
584.377721	20634.556787
584.730906	20705.808456
585.084037	20714.295238
585.437113	20627.743668
585.790135	20827.648103
586.143103	20298.480704
586.496016	20299.458688
586.848874	20553.242976
587.201679	20478.228086
587.554428	20154.051647
587.907124	20477.635750
588.259765	20262.401166
588.612352	20327.812658
588.964884	19897.862729
589.317362	20083.112530
589.669786	20128.505600
590.022155	20158.140022
590.374470	20362.523523
590.726731	20155.894188
591.078937	19913.558361
591.431090	20014.164669
591.783188	19768.630229
592.135232	19740.097299
592.487222	19835.753193
592.839157	19852.651141
593.191038	19724.862932
593.542866	19630.973962
593.894639	19335.058231
594.246358	19558.552746
594.598022	19467.519590
594.949633	19217.856445
595.301190	19174.608387
595.652692	19348.508030
596.004141	19587.246993
596.355535	18917.194468
596.706876	18927.289379
597.058162	18818.395415
597.409395	19048.251865
597.760573	19121.502351
598.111698	18890.952742
598.462768	18836.593980
598.813785	18800.378331
599.164748	18624.729407
599.515657	18648.576586
599.866511	18449.468653
600.217312	18808.323189
600.568060	18327.684458
600.918753	18638.113671
601.269392	18540.413589
601.619978	18318.542326
601.970510	18531.616775
602.320988	18471.745512
602.671412	18683.736113
603.021783	18587.142564
603.372100	18333.880036
603.722363	18461.774109
604.072572	18406.848218
604.422728	18537.487199
604.772830	18296.237740
605.122878	18255.452285
605.472872	18239.436539
605.822813	18225.459940
606.172701	18206.232980
606.522534	18391.286176
606.872314	18416.106297
607.222041	18253.264424
607.571714	18471.649730
607.921333	18300.719326
608.270899	18377.387714
608.620411	18549.318787
608.969870	18319.389239
609.319276	18323.664138
609.668627	18350.740175
610.017926	18485.243201
610.367171	18607.748281
610.716362	18653.869797
611.065500	18463.967011
611.414585	18608.396069
611.763616	18577.445905
612.112594	18520.942132
612.461518	18492.147061
612.810389	18680.333334
613.159207	18542.893836
613.507971	18452.190876
613.856682	18729.078771
614.205340	18647.893509
614.553945	18805.258168
614.902496	18552.653510
615.250994	18783.815620
615.599439	18720.884376
615.947830	18715.384477
616.296169	18761.818545
616.644454	18726.648935
616.992686	18705.685297
617.340864	18910.585516
617.688990	18667.150717
618.037063	18831.376386
618.385082	18691.146609
618.733048	18973.262181
619.080961	18831.550306
619.428821	18880.174755
619.776628	18761.571528
620.124382	18693.526034
620.472083	18729.421570
620.819731	18759.613040
621.167326	18438.952806
621.514868	18482.067274
621.862357	18251.021111
622.209793	18265.078368
622.557176	18097.162575
622.904506	17925.876770
623.251783	17839.030292
623.599007	17599.930886
623.946179	17533.221297
624.293297	17470.998335
624.640363	17235.195843
624.987376	17256.562774
625.334336	17035.377108
625.681243	16888.329171
626.028097	16901.594967
626.374899	16819.192266
626.721647	16687.315682
627.068343	16522.306113
627.414987	16458.497709
627.761577	16430.468893
628.108115	16470.127651
628.454600	16186.804722
628.801032	16290.483613
629.147412	16223.511884
629.493739	16239.250366
629.840014	16042.589913
630.186236	16150.674773
630.532405	15912.266004
630.878521	16108.946622
631.224585	16000.357647
631.570597	15825.971533
631.916556	15855.570667
632.262462	15837.251114
632.608316	15756.353198
632.954117	15690.782910
633.299866	15686.457600
633.645562	15608.884325
633.991206	15366.233425
634.336797	15234.656789
634.682336	15205.821389
635.027823	15087.739922
635.373257	14968.839268
635.718639	14875.867788
636.063968	14812.321523
636.409245	14567.717177
636.754470	14598.538791
637.099642	14449.124033
637.444762	14213.624010
637.789829	14256.879631
638.134845	14096.911216
638.479808	14127.758037
638.824719	14065.862750
639.169577	13915.792641
639.514383	13968.853306
639.859137	13791.311429
640.203839	13873.845200
640.548489	13712.087176
640.893086	13696.656204
641.237632	13572.842945
641.582125	13722.499679
641.926566	13553.593299
642.270955	13564.240216
642.615292	13523.716900
642.959576	13531.553374
643.303809	13568.900762
643.647990	13491.700532
643.992118	13558.352148
644.336195	13320.850787
644.680219	13541.423953
645.024192	13458.623001
645.368112	13701.387327
645.711981	13759.610133
646.055797	13932.801494
646.399562	13910.900201
646.743274	14179.374411
647.086935	14452.733499
647.430544	14414.836625
647.774101	14448.572026
648.117606	14591.277009
648.461059	14567.031580
648.804460	14555.136977
649.147810	14277.533238
649.491108	14187.289022
649.834354	14203.009861
650.177548	13890.677612
650.520690	13704.306155
650.863781	13625.621305
651.206820	13665.917768
651.549807	13499.826872
651.892742	13293.986478
652.235626	13236.958426
652.578458	13242.274322
652.921238	12928.008792
653.263967	13129.145789
653.606644	12949.032924
653.949269	12928.984255
654.291843	12732.767424
654.634365	12894.543092
654.976836	12745.929876
655.319255	12744.011717
655.661622	12703.780789
656.003938	12626.308337
656.346203	12546.025441
656.688416	12623.455044
657.030577	12580.917787
657.372687	12495.404695
657.714746	12475.834936
658.056753	12667.008092
658.398708	12482.960607
658.740612	12483.741985
659.082465	12590.231319
659.424266	12562.280642
659.766016	12581.331162
660.107715	12490.688695
660.449362	12557.514231
660.790958	12519.022501
661.132503	12460.504787
661.473996	12532.633616
661.815438	12546.053168
662.156829	12573.923187
662.498168	12542.879761
662.839456	12543.199874
663.180693	12560.387688
663.521879	12655.186587
663.863013	12635.727733
664.204097	12605.410233
664.545129	12725.994633
664.886110	12694.777288
665.227040	12785.213068
665.567918	12795.368472
665.908746	12820.412924
666.249522	12807.865492
666.590248	12850.480887
666.930922	12968.179226
667.271545	12950.298253
667.612118	13033.852858
667.952639	12931.479626
668.293109	12950.028552
668.633528	12906.747725
668.973896	12875.386707
669.314213	12956.158595
669.654480	12698.361549
669.994695	12771.670008
670.334859	12794.629943
670.674973	12741.551634
671.015035	12768.925100
671.355047	12708.917725
671.695008	12687.586082
672.034918	12694.865508
672.374777	12728.300961
672.714585	12656.431752
673.054342	12687.356710
673.394049	12633.207156
673.733705	12730.650139
674.073310	12637.897949
674.412864	12657.374447
674.752368	12519.100638
675.091820	12533.941795
675.431223	12525.709591
675.770574	12399.295097
676.109875	12319.932212
676.449125	12275.451591
676.788324	12218.335318
677.127473	12055.097715
677.466571	12047.228474
677.805619	11938.727720
678.144616	11862.220648
678.483562	11825.551295
678.822458	11703.232738
679.161303	11681.396980
679.500098	11669.711586
679.838842	11622.612085
680.177535	11650.368678
680.516179	11708.188192
680.854771	11654.252888
681.193314	11867.523942
681.531805	12024.538240
681.870247	12450.026748
682.208638	12860.469933
682.546978	13171.700689
682.885268	13213.146535
683.223508	12910.558838
683.561697	12752.085125
683.899836	12659.678255
684.237925	12459.279786
684.575963	12370.384079
684.913951	12292.374744
685.251889	12241.489337
685.589776	12338.745798
685.927614	12262.629416
686.265401	12229.342677
686.603137	12279.986109
686.940824	12429.375662
687.278460	12551.512737
687.616046	12595.030498
687.953582	12760.524017
688.291068	12687.205475
688.628504	12927.965942
688.965889	12934.842076
689.303224	12907.251841
689.640510	12793.047021
689.977745	12482.121254
690.314930	12261.971545
690.652065	12168.543841
690.989150	11877.901157
691.326185	11652.072588
691.663170	11441.443098
692.000105	11198.141890
692.336990	11094.354615
692.673825	10833.517753
693.010610	10722.423325
693.347345	10506.790490
693.684030	10310.024173
694.020665	10254.458055
694.357251	10054.959433
694.693786	9993.406944
695.030272	9829.839146
695.366707	9710.830107
695.703093	9653.391200
696.039429	9645.963059
696.375716	9564.263600
696.711952	9433.581768
697.048139	9476.373603
697.384276	9434.736193
697.720363	9451.379562
698.056400	9382.514880
698.392388	9333.734155
698.728326	9299.497158
699.064214	9231.844874
699.400053	9275.455896
699.735842	9096.318494
700.071581	9049.569354
700.407270	8976.686872
700.742910	8901.677023
701.078501	8802.111714
701.414042	8681.219804
701.749533	8618.076831
702.084974	8473.481416
702.420366	8595.033717
702.755709	8470.620561
703.091002	8338.638112
703.426246	8364.932770
703.761440	8321.246131
704.096584	8272.538503
704.431679	8208.152886
704.766725	8195.988582
705.101721	8144.899008
705.436668	8187.032972
705.771565	8085.857014
706.106413	8159.261255
706.441212	8208.213380
706.775961	8165.431628
707.110661	8201.901855
707.445311	8341.952671
707.779913	8241.585818
708.114465	8369.996609
708.448967	8410.552692
708.783421	8551.652068
709.117825	8734.797187
709.452180	8768.449409
709.786485	8860.682360
710.120742	9139.609403
710.454949	9143.622161
710.789107	9242.005319
711.123216	9453.418709
711.457275	9623.492116
711.791286	9782.601014
712.125247	9782.792578
712.459159	9764.077294
712.793023	10010.352783
713.126837	9585.338143
713.460602	9743.769006
713.794318	9566.595133
714.127985	9596.995812
714.461602	9264.448536
714.795171	9220.847597
715.128691	8968.845357
715.462162	8722.489210
715.795584	8664.452926
716.128957	8521.657202
716.462281	8353.839711
716.795556	8403.558091
717.128782	8194.004888
717.461960	7928.598220
717.795088	8002.907348
718.128167	7911.218842
718.461198	7736.958756
718.794180	7680.906167
719.127113	7670.697830
719.459997	7511.656988
719.792833	7289.490817
720.125619	7357.697629
720.458357	7209.402006
720.791046	7197.202414
721.123686	7191.669748
721.456278	7034.146293
721.788821	7052.148253
722.121315	6950.712676
722.453761	7008.310379
722.786158	6959.635518
723.118506	6968.878474
723.450805	6935.148114
723.783056	7002.439956
724.115259	6913.645072
724.447412	6910.955616
724.779518	6951.846936
725.111574	6955.839530
725.443582	7035.588063
725.775542	7022.115579
726.107453	7208.897891
726.439315	7117.980681
726.771129	7182.396545
727.102895	7350.909715
727.434612	7465.409443
727.766281	7495.890779
728.097901	7580.246927
728.429473	7566.819814
728.760996	7545.735188
729.092471	7524.184255
729.423897	7469.407078
729.755276	7484.192782
730.086606	7402.926861
730.417887	7504.475864
730.749120	7699.707150
731.080305	7900.118221
731.411442	8013.944954
731.742530	8009.304572
732.073570	8121.470245
732.404562	8204.114922
732.735506	8056.157056
733.066401	8194.647635
733.397249	8126.569372
733.728048	7883.915953
734.058798	7552.170221
734.389501	7321.113976
734.720156	7144.502192
735.050762	6912.944352
735.381320	6816.169321
735.711831	6765.296517
736.042293	6658.192163
736.372707	6676.468866
736.703073	6540.753442
737.033391	6580.102169
737.363661	6589.773623
737.693883	6620.635566
738.024056	6704.779986
738.354182	6742.097127
738.684260	6775.088958
739.014290	6897.094964
739.344272	7007.133270
739.674207	7039.066459
740.004093	7104.029288
740.333931	7122.908409
740.663722	7127.483256
740.993464	7203.556788
741.323159	7195.604368
741.652806	6946.069773
741.982405	6956.598223
742.311956	7014.011924
742.641460	6845.486151
742.970915	6654.297871
743.300323	6648.871069
743.629683	6593.995589
743.958996	6458.872501
744.288260	6369.752463
744.617477	6318.609957
744.946647	6319.585420
745.275768	6151.876314
745.604842	6113.064471
745.933869	6091.122849
746.262847	6051.799328
746.591778	6040.610487
746.920662	5997.100288
747.249498	5994.012582
747.578286	6037.598398
747.907027	6111.431137
748.235720	6174.924470
748.564365	6143.863400
748.892963	6175.753739
749.221514	6328.339384
749.550017	6156.534340
749.878473	6035.100506
750.206881	6085.507003
750.535242	6033.898191
750.863555	5963.284228
751.191821	5979.720910
751.520039	5981.006405
751.848210	5886.608278
752.176334	5915.965438
752.504411	5958.323733
752.832440	5883.528133
753.160421	5817.045396
753.488356	5861.868816
753.816243	5886.467126
754.144082	5741.133181
754.471875	5716.411363
754.799620	5761.280152
755.127318	5772.995794
755.454969	5721.371858
755.782572	5691.450089
756.110129	5737.511112
756.437638	5719.907403
756.765100	5659.610162
757.092515	5660.580584
757.419882	5710.296443
757.747203	5687.979255
758.074477	5753.604996
758.401703	5739.426751
758.728882	5690.419173
759.056014	5745.826495
759.383099	5876.674685
759.710138	5886.189863
760.037129	5873.377770
760.364073	5879.611157
760.690970	5962.049146
761.017820	5938.121309
761.344623	5895.813425
761.671379	5997.485937
761.998088	6122.375482
762.324751	6371.461414
762.651366	6976.170503
762.977935	8298.394581
763.304456	9932.151884
763.630931	10828.123719
763.957359	10425.181771
764.283740	9480.426691
764.610074	8634.984861
764.936362	7642.386710
765.262602	7036.835748
765.588796	6502.884295
765.914943	6164.569940
766.241044	6002.022975
766.567097	5796.376666
766.893104	5541.047264
767.219064	5357.894583
767.544978	5298.446777
767.870845	5222.126228
768.196665	5116.130927
768.522438	5044.314650
768.848165	5010.178476
769.173846	4947.368220
769.499479	4898.257299
769.825066	4846.146892
770.150607	4786.464672
770.476101	4761.941979
770.801548	4759.839817
771.126949	4681.407025
771.452303	4625.911483
771.777611	4584.551337
772.102872	4607.314667
772.428087	4567.943255
772.753256	4526.361298
773.078378	4477.797342
773.403453	4409.749327
773.728482	4393.809198
774.053465	4348.648022
774.378401	4339.687371
774.703291	4337.181917
775.028135	4265.181638
775.352932	4216.113567
775.677683	4206.260631
776.002388	4221.328640
776.327046	4231.035382
776.651658	4160.116430
776.976224	4096.837346
777.300743	4102.163325
777.625216	4127.522849
777.949643	4120.727374
778.274024	4076.650045
778.598359	4029.132129
778.922647	4057.420564
779.246889	4047.181981
779.571086	4037.460115
779.895236	4022.997045
780.219339	4010.258049
780.543397	4001.972913
780.867409	4055.799833
781.191374	4073.373295
781.515294	4006.895600
781.839167	3998.572655
782.162995	4021.323382
782.486776	4008.473481
782.810511	4018.114687
783.134201	4012.052700
783.457844	3968.754230
783.781441	3910.496135
784.104993	3915.565015
784.428498	3936.324487
784.751958	3936.085032
785.075372	3915.736415
785.398739	3876.168398
785.722061	3883.712485
786.045337	3931.646296
786.368568	3962.243579
786.691752	3875.714694
787.014891	3928.462807
787.337983	4055.943506
787.661030	4212.995613
787.984031	4375.207341
788.306987	4547.272004
788.629897	4630.715703
788.952760	4585.564608
789.275579	4519.207900
789.598351	4452.836069
789.921078	4310.562104
790.243759	4110.067854
790.566395	4091.914659
790.888984	4084.781427
791.211529	3976.305878
791.534027	3919.890325
791.856480	3907.831885
792.178888	3845.175384
792.501249	3798.393477
792.823566	3806.247594
793.145836	3835.758509
793.468062	3782.788585
793.790241	3737.816451
794.112375	3768.305350
794.434464	3832.602747
794.756507	3858.557127
795.078505	3835.342614
795.400457	3871.916185
795.722364	4014.921117
796.044226	4116.495325
796.366042	4190.489382
796.687812	4168.094056
797.009538	4175.620498
797.331218	4134.814878
797.652852	4107.007874
797.974442	4085.570367
798.295986	4087.302003
798.617484	4002.998788
798.938938	3915.670880
799.260346	3959.518836
799.581709	3950.051549
799.903026	3878.734345
800.224299	3844.051207
800.545526	3836.365968
800.866708	3797.886841
801.187845	3739.782501
801.508936	3772.580248
801.829983	3770.954476
802.150984	3691.037064
802.471940	3680.105322
802.792851	3691.342054
803.113717	3692.531766
803.434538	3693.751726
803.755314	3634.770226
804.076045	3611.827934
804.396731	3631.954741
804.717372	3654.602125
805.037967	3639.571925
805.358518	3629.540028
805.679024	3660.578413
805.999485	3671.807583
806.319901	3674.461750
806.640272	3688.904656
806.960598	3698.679453
807.280879	3678.822348
807.601115	3689.754091
807.921306	3705.290927
808.241453	3746.855240
808.561554	3721.646950
808.881611	3655.519615
809.201623	3695.112837
809.521590	3702.858570
809.841513	3671.948735
810.161390	3705.033828
810.481223	3684.589428
810.801011	3630.336531
811.120755	3623.974595
811.440453	3657.621776
811.760107	3661.379956
812.079716	3616.657360
812.399281	3586.438163
812.718801	3609.478757
813.038276	3581.722164
813.357707	3579.083120
813.677093	3599.247735
813.996434	3545.173798
814.315731	3553.625293
814.634983	3559.415058
814.954191	3570.067016
815.273354	3604.624126
815.592473	3597.475769
815.911547	3603.835185
816.230577	3645.948984
816.549562	3698.341696
816.868502	3739.038931
817.187399	3760.055502
817.506250	3759.107765
817.825058	3732.931573
818.143821	3828.274916
818.462539	3929.970112
818.781213	3973.008963
819.099843	4033.212943
819.418429	4281.101601
819.736970	4523.308879
820.055466	4770.670737
820.373919	5134.848732
820.692327	5550.277617
821.010691	6001.433160
821.329011	7399.561891
821.647286	10176.055510
821.965517	14770.222847
822.283704	18802.190626
822.601847	20941.744538
822.919945	19093.544112
823.237999	16506.262641
823.556010	14003.823790
823.873976	11901.347564
824.191897	9801.626328
824.509775	8451.403682
824.827609	7321.597926
825.145398	6782.406193
825.463144	6661.620147
825.780845	6778.559793
826.098502	6967.040973
826.416116	7859.879731
826.733685	9196.226601
827.051210	10308.859667
827.368692	10333.450415
827.686129	9060.354902
828.003522	7543.436422
828.320872	6530.073758
828.638177	5820.042362
828.955439	5257.177371
829.272656	4754.344960
829.589830	4475.019666
829.906960	4302.007266
830.224046	4110.450982
830.541088	3989.440604
830.858086	3942.814972
831.175041	3860.865976
831.491952	3847.486753
831.808819	3859.318341
832.125642	3931.976492
832.442421	4081.723967
832.759157	4362.740567
833.075849	4917.799332
833.392497	5790.957425
833.709101	6571.305355
834.025662	6903.333392
834.342179	6532.667432
834.658653	5859.285224
834.975083	5212.666503
835.291469	4632.580930
835.607811	4221.063980
835.924110	4080.289758
836.240366	3879.906414
836.556578	3677.201618
836.872746	3569.799835
837.188871	3527.307949
837.504952	3460.767239
837.820990	3378.097357
838.136984	3331.287723
838.452935	3358.885520
838.768842	3352.357225
839.084706	3373.646018
839.400526	3534.726007
839.716303	3881.842217
840.032037	4411.498607
840.347727	4669.131816
840.663373	4387.003641
840.978977	3995.820185
841.294537	3691.793237
841.610054	3466.420893
841.925527	3356.743029
842.240957	3288.037143
842.556344	3232.476066
842.871687	3174.699402
843.186987	3123.584623
843.502244	3088.183120
843.817458	3051.745660
844.132629	3021.869262
844.447756	3028.339582
844.762840	3017.516225
845.077881	2980.254537
845.392879	2961.753502
845.707833	2963.623770
846.022745	2963.091928
846.337613	2961.153605
846.652438	2950.221863
846.967221	2947.224897
847.281960	2935.176539
847.596656	2929.411979
847.911309	2927.947524
848.225919	2922.981988
848.540485	2917.232552
848.855009	2915.117788
849.169490	2907.545975
849.483928	2896.420148
849.798323	2897.577093
850.112675	2893.143398
850.426984	2904.743093
850.741251	2900.130437
851.055474	2891.247924
851.369654	2888.843294
851.683792	2890.169117
851.997887	2899.293606
852.311938	2901.645304
852.625947	2890.060733
852.939914	2895.948800
853.253837	2895.825292
853.567718	2883.784496
853.881555	2884.369270
854.195350	2898.053482
854.509103	2892.578789
854.822812	2886.206770
855.136479	2882.264588
855.450103	2882.219218
855.763685	2878.927344
856.077224	2873.296375
856.390720	2885.110319
856.704173	2897.929974
857.017584	2888.843294
857.330953	2887.537635
857.644278	2896.896537
857.957561	2901.557084
858.270802	2910.006058
858.584000	2907.651839
858.897155	2892.992163
859.210268	2894.708676
859.523339	2894.955693
859.836367	2890.186761
860.149352	2887.656102
860.462295	2881.468086
860.775195	2890.864797
861.088054	2889.780948
861.400869	2873.636653
861.713642	2870.052393
862.026373	2883.655947
862.339062	2886.877244
862.651708	2892.609036
862.964312	2898.860067
863.276873	2886.647871
863.589392	2900.460633
863.901869	2910.948753
864.214303	2935.809204
864.526696	2949.679938
864.839045	2945.999896
865.151353	2943.973352
865.463619	2940.890687
865.775842	2944.759772
866.088023	2959.558079
866.400162	2968.123000
866.712258	2939.912703
867.024313	2927.524067
867.336325	2936.136879
867.648296	2960.394911
867.960224	2951.315793
868.272110	2936.898093
868.583954	2944.716923
868.895755	2959.454736
869.207515	2943.224741
869.519233	2951.577933
869.830909	2959.283337
870.142542	2971.193062
870.454134	2968.919502
870.765684	2971.750110
871.077191	2971.780357
871.388657	2979.692448
871.700081	2992.469252
872.011463	3002.977538
872.322803	3004.585666
872.634101	3005.026767
872.945357	3022.990918
873.256571	3046.323899
873.567744	3040.140924
873.878874	3032.629604
874.189963	3057.606001
874.501010	3056.018038
874.812015	3048.327757
875.122979	3044.398178
875.433900	3045.295503
875.744780	3053.005948
876.055618	3058.301680
876.366415	3052.136349
876.677169	3065.248390
876.987882	3060.887792
877.298554	3057.394273
877.609183	3078.083168
877.919771	3100.554111
878.230317	3128.913122
878.540822	3181.396575
878.851285	3221.526680
879.161707	3265.160387
879.472087	3368.136037
879.782425	3601.435596
880.092722	4039.756361
880.402977	4579.215275
880.713191	5210.980237
881.023363	6380.790069
881.333494	7664.971079
881.643583	8219.818116
881.953631	7908.194150
882.263637	7276.905577
882.573602	6679.770822
882.883526	6100.990907
883.193408	5525.956570
883.503248	5064.335592
883.813048	4755.285135
884.122806	4447.099236
884.432522	4125.014875
884.742197	3892.927714
885.051831	3699.818754
885.361424	3566.893610
885.670975	3489.768997
885.980485	3406.721028
886.289954	3326.924604
886.599382	3283.810136
886.908768	3244.151379
887.218113	3197.661858
887.527417	3141.773106
887.836680	3091.147318
888.145901	3087.454673
888.455082	3074.836665
888.764221	3026.396218
889.073319	2994.846156
889.382376	2993.472442
889.691392	2999.179028
890.000366	2996.960920
890.309300	2983.806029
890.618193	2995.836743
890.927044	3010.365348
891.235855	3011.340812
891.544625	2998.692557
891.853353	3008.802591
892.162041	3025.448481
892.470687	3067.413566
892.779293	3118.140177
893.087858	3168.486180
893.396381	3241.524937
893.704864	3365.396170
894.013306	3606.443982
894.321707	3913.147782
894.630068	4117.942137
894.938387	4112.530458
895.246665	4067.762491
895.554903	3944.060137
895.863100	3741.768716
896.171256	3574.152871
896.479371	3429.960748
896.787446	3308.935247
897.095480	3204.744679
897.403473	3140.890904
897.711425	3105.164247
898.019336	3095.298708
898.327207	3063.748647
898.635038	3028.090045
898.942827	3015.000689
899.250576	3004.341170
899.558284	2974.079123
899.865952	2951.570371
900.173579	2932.449275
900.481165	2924.542225
900.788711	2906.862898
901.096216	2888.313973
901.403681	2876.187477
901.711105	2884.457490
902.018489	2881.616800
902.325832	2879.872561
902.633135	2890.915208
902.940397	2923.521391
903.247619	3007.277642
903.554800	3204.661500
903.861941	3552.785941
904.169041	3982.612362
904.476101	4287.498826
904.783121	4235.706011
905.090100	3985.574039
905.397039	3710.551371
905.703938	3455.784058
906.010796	3271.257663
906.317614	3162.144408
906.624391	3064.504820
906.931129	2994.727689
907.237826	2931.136054
907.544483	2884.288611
907.851099	2854.533201
908.157675	2832.463029
908.464211	2812.759679
908.770707	2798.896506
909.077163	2786.099537
909.383578	2769.317536
909.689954	2760.004004
909.996289	2757.158273
910.302584	2758.267327
910.608839	2759.671288
910.915054	2754.735999
911.221229	2747.083527
911.527363	2750.735843
911.833458	2756.838160
912.139513	2761.380239
912.445527	2764.674633
912.751502	2773.501694
913.057436	2782.525359
913.363331	2799.685447
913.669186	2816.117088
913.975000	2852.282326
914.280775	2914.013775
914.586510	2986.964312
914.892205	3063.985581
915.197859	3193.586085
915.503475	3390.163359
915.809050	3610.353397
916.114585	3754.588370
916.420081	3775.022687
916.725536	3713.540775
917.030952	3592.507712
917.336328	3463.776808
917.641665	3333.218485
917.946961	3230.535222
918.252218	3160.352278
918.557435	3080.402099
918.862612	3018.688293
919.167750	2971.205665
919.472848	2929.689243
919.777906	2904.105387
920.082925	2879.421377
920.387904	2846.490040
920.692843	2828.215857
920.997743	2818.373004
921.302603	2802.052269
921.607423	2795.062709
921.912204	2781.764145
922.216946	2766.355858
922.521647	2760.825712
922.826310	2751.106368
923.130932	2746.176119
923.435516	2735.370406
923.740059	2730.704818
924.044564	2720.040257
924.349028	2712.440718
924.653454	2708.831252
924.957840	2702.146682
925.262186	2698.759026
925.566493	2693.516226
925.870761	2691.499765
926.174989	2684.326203
926.479178	2679.713547
926.783328	2676.479647
927.087438	2675.834379
927.391509	2675.355470
927.695541	2672.184584
927.999533	2666.689726
928.303486	2665.316012
928.607400	2666.165446
928.911275	2664.285096
929.215110	2664.615291
929.518906	2661.232677
929.822663	2658.669250
930.126381	2661.409117
930.430060	2661.512461
930.733699	2660.516833
931.037299	2665.648728
931.340861	2665.510096
931.644383	2666.178049
931.947866	2664.360713
932.251309	2661.401556
932.554714	2660.942811
932.858080	2660.781494
933.161407	2659.143119
933.464694	2656.141112
933.767943	2652.203971
934.071153	2656.529281
934.374323	2655.160607
934.677455	2655.498365
934.980548	2653.161790
935.283602	2651.409989
935.586617	2654.565751
935.889593	2653.713796
936.192530	2654.860659
936.495428	2652.458549
936.798287	2655.019455
937.101108	2659.196051
937.403890	2664.690909
937.706632	2665.237874
938.009336	2673.525531
938.312002	2683.466686
938.614628	2691.227542
938.917216	2699.941177
939.219765	2698.028059
939.522275	2696.185517
939.824747	2695.031093
940.127179	2691.993798
940.429573	2690.935156
940.731929	2687.764270
941.034246	2681.644309
941.336524	2677.928979
941.638763	2679.650533
941.940964	2677.049297
942.243126	2673.323885
942.545250	2674.944616
942.847335	2670.412618
943.149381	2666.276352
943.451389	2662.344252
943.753359	2659.410300
944.055290	2659.306956
944.357182	2658.144970
944.659036	2659.120434
944.960851	2657.189672
945.262628	2652.430822
945.564367	2654.853097
945.866067	2653.524753
946.167729	2656.720844
946.469352	2655.437871
946.770937	2654.192706
947.072484	2655.768066
947.373992	2654.054074
947.675462	2652.882006
947.976893	2649.509474
948.278286	2646.804895
948.579641	2645.847076
948.880958	2645.196767
949.182236	2648.261788
949.483476	2646.073927
949.784678	2644.700213
950.085841	2647.858496
950.386967	2646.820018
950.688054	2646.366314
950.989103	2649.922848
951.290114	2649.491830
951.591087	2652.514002
951.892021	2654.381749
952.192917	2654.840494
952.493776	2657.035917
952.794596	2657.338386
953.095378	2658.321411
953.396122	2658.339055
953.696828	2656.698159
953.997496	2655.490803
954.298126	2653.789413
954.598718	2652.269506
954.899272	2649.741367
955.199788	2645.988228
955.500266	2642.751807
955.800706	2642.683752
956.101108	2639.482619
956.401472	2636.793163
956.701798	2636.135293
957.002087	2632.697226
957.302337	2634.514562
957.602550	2630.763943
957.902724	2627.081380
958.202861	2628.243366
958.502960	2625.077522
958.803022	2625.972327
959.103045	2622.730865
959.403031	2624.659106
959.702979	2625.022069
960.002889	2625.092645
960.302762	2623.915536
960.602596	2624.946452
960.902393	2623.373612
961.202153	2621.336986
961.501875	2622.118364
961.801559	2621.629372
962.101205	2622.317490
962.400814	2619.484362
962.700385	2618.367746
962.999918	2615.219545
963.299414	2615.169134
963.598873	2619.323045
963.898293	2615.844648
964.197677	2620.227932
964.497022	2618.985287
964.796331	2618.793723
965.095601	2618.108127
965.394835	2618.289608
965.694030	2617.001593
965.993189	2620.059053
966.292309	2619.849845
966.591393	2619.038219
966.890439	2617.737602
967.189447	2619.559979
967.488419	2618.400513
967.787353	2618.397993
968.086249	2618.355143
968.385108	2617.498147
968.683930	2618.206429
968.982714	2618.609721
969.281462	2617.518312
969.580172	2618.677777
969.878844	2616.484875
970.177480	2617.984618
970.476078	2618.314814
970.774639	2616.174844
971.073162	2617.972015
971.371649	2617.740122
971.670098	2618.700462
971.968510	2616.706686
972.266885	2618.952520
972.565223	2619.433950
972.863524	2619.693569
973.161788	2616.883126
973.460014	2618.841614
973.758204	2618.897067
974.056356	2617.883795
974.354471	2620.048971
974.652550	2616.207612
974.950591	2616.711727
975.248595	2619.867489
975.546563	2618.004783
975.844493	2616.847838
976.142386	2619.451594
976.440243	2616.936058
976.738062	2618.191306
977.035845	2616.530245
977.333590	2618.660133
977.631299	2617.031840
977.928971	2613.596294
978.226606	2613.954216
978.524204	2614.579319
978.821765	2614.823815
979.119290	2614.198712
979.416777	2615.438836
979.714228	2615.690893
980.011642	2615.761469
980.309020	2614.589401
980.606360	2614.970008
980.903664	2615.469082
981.200931	2616.668877
981.498162	2616.810029
981.795356	2617.513270
982.092513	2620.847994
982.389633	2623.224898
982.686717	2626.579786
982.983764	2627.948459
983.280775	2630.733696
983.577749	2636.077319
983.874686	2635.111938
984.171587	2631.653707
984.468451	2629.264200
984.765279	2625.833695
985.062070	2625.581637
985.358824	2621.412603
985.655543	2622.854373
985.952224	2618.418157
986.248869	2616.323558
986.545478	2618.899588
986.842050	2613.835749
987.138586	2615.264916
987.435086	2615.935389
987.731549	2613.820625
988.027975	2612.749380
988.324366	2614.244082
988.620719	2613.329113
988.917037	2613.876078
989.213318	2612.716612
989.509563	2612.393979
989.805772	2616.225256
990.101944	2613.596294
990.398080	2613.944133
990.694180	2613.750049
990.990244	2613.331633
991.286271	2612.509925
991.582262	2612.615789
991.878217	2613.311469
992.174136	2612.693927
992.470019	2612.603187
992.765865	2609.752414
993.061676	2608.633278
993.357450	2609.507918
993.653188	2608.555140
993.948890	2610.712754
994.244556	2613.303907
994.540186	2613.112343
994.835780	2611.829369
995.131337	2612.857765
995.426859	2612.101592
995.722345	2614.962447
996.017795	2616.895729
996.313208	2616.399175
996.608586	2615.776593
996.903928	2617.253651
997.199234	2617.735081
997.494504	2617.833384
997.789738	2615.186778
998.084936	2617.256172
998.380099	2616.515122
998.675225	2615.050667
998.970316	2614.072683
999.265371	2614.896912
999.560390	2613.316510
999.855373	2614.927158
1000.150320	2614.788527
1000.445232	2612.656119
1000.740108	2612.774586
1001.034948	2610.586725
1001.329752	2611.385748
1001.624521	2612.580501
1001.919254	2609.787702
1002.213951	2612.706530
1002.508613	2611.731067
1002.803239	2611.320213
1003.097829	2608.582866
1003.392384	2611.836931
1003.686903	2611.907507
1003.981386	2610.561519
1004.275834	2613.949175
1004.570246	2610.349791
1004.864623	2611.017744
1005.158964	2608.650922
1005.453270	2609.545727
1005.747540	2610.289297
1006.041775	2609.064297
1006.335974	2610.140583
1006.630138	2610.286776
1006.924266	2610.697630
1007.218359	2610.092692
1007.512416	2607.357866
1007.806438	2603.095570
1008.100425	2608.804677
1008.394376	2605.250664
1008.688292	2607.768720
1008.982172	2609.828031
1009.276017	2611.635285
1009.569827	2609.512959
1009.863602	2611.922631
1010.157341	2607.972887
1010.451045	2609.787702
1010.744714	2608.252671
1011.038347	2608.701333
1011.331945	2611.637806
1011.625508	2608.449276
1011.919036	2608.129162
1012.212528	2607.367948
1012.505986	2610.032198
1012.799408	2609.255860
1013.092795	2609.308792
1013.386147	2607.521703
1013.679464	2611.713423
1013.972745	2612.204935
1014.265992	2610.143103
1014.559204	2610.221241
1014.852380	2609.200408
1015.145521	2608.247630
1015.438628	2608.514811
1015.731699	2607.357866
1016.024736	2609.880963
1016.317737	2610.049842
1016.610703	2606.636981
1016.903635	2610.327106
1017.196531	2611.428598
1017.489393	2608.819801
1017.782219	2610.223762
1018.075011	2608.459358
1018.367768	2608.315685
1018.660490	2610.783330
1018.953177	2610.783330
1019.245829	2610.783330
