Dividing Wavelength (nm)	Counts (n)	Blue Motor Position (mm): 19.900000	Red Motor Position (mm): 0.000000	
326.493990	2185.844308
326.888308	2185.844308
327.282561	2185.844308
327.676750	2143.874181
328.070874	2141.351084
328.464933	2140.657925
328.858929	2145.671353
329.252859	2152.431540
329.646726	2156.645945
330.040528	2172.245795
330.434265	2182.905315
330.827938	2201.267718
331.221547	2219.909905
331.615091	2237.203583
332.008571	2254.651017
332.401986	2273.457041
332.795338	2292.560493
333.188625	2313.173772
333.581847	2327.866214
333.975006	2346.362208
334.368100	2367.840044
334.761129	2381.753628
335.154095	2402.591238
335.546996	2425.964548
335.939833	2454.857921
336.332606	2469.759572
336.725315	2483.214411
337.117960	2497.400218
337.510540	2509.982938
337.903056	2517.970647
338.295508	2526.180166
338.687896	2536.292720
339.080220	2542.269008
339.472480	2551.083466
339.864676	2556.238045
340.256807	2563.280537
340.648875	2564.694581
341.040879	2567.772205
341.432818	2569.561815
341.824694	2574.547516
342.216506	2574.713874
342.608253	2575.553226
342.999937	2577.834348
343.391557	2580.075141
343.783113	2576.468196
344.174605	2576.080027
344.566033	2574.247567
344.957397	2575.515418
345.348697	2571.807649
345.739934	2568.644325
346.131106	2567.167267
346.522215	2567.225240
346.913260	2566.758933
347.304241	2561.939590
347.695159	2562.907492
348.086012	2562.307595
348.476802	2558.488921
348.867528	2553.505740
349.258191	2548.893084
349.648789	2549.185471
350.039324	2545.651622
350.429796	2549.253527
350.820203	2546.760676
351.210548	2544.086344
351.600828	2544.139276
351.991045	2542.982331
352.381198	2542.568957
352.771288	2542.097609
353.161314	2541.265818
353.551276	2539.894625
353.941175	2540.129038
354.331010	2541.948895
354.720782	2540.766744
355.110490	2540.015612
355.500135	2538.805735
355.889717	2543.257074
356.279235	2542.236241
356.668689	2541.724563
357.058080	2542.110212
357.447408	2540.701209
357.836672	2541.376724
358.225873	2540.839841
358.615010	2541.316230
359.004084	2545.412167
359.393095	2544.572815
359.782043	2543.052907
360.170927	2546.914431
360.559748	2544.398896
360.948505	2548.691438
361.337199	2547.537014
361.725830	2546.974925
362.114398	2546.223793
362.502903	2545.437373
362.891344	2547.842004
363.279722	2547.683207
363.668037	2548.734288
364.056289	2550.297046
364.444478	2549.876109
364.832603	2550.912066
365.220665	2553.601522
365.608665	2550.397869
365.996601	2552.621018
366.384474	2550.208825
366.772284	2553.389793
367.160031	2552.840308
367.547715	2553.871224
367.935336	2554.284598
368.322893	2551.083466
368.710388	2551.590102
369.097820	2551.506922
369.485189	2548.472148
369.872495	2555.781821
370.259738	2555.214691
370.646918	2556.210319
371.034035	2558.181410
371.421090	2554.599670
371.808081	2554.329969
372.195010	2556.853066
372.581875	2555.255020
372.968678	2558.067984
373.355418	2558.405742
373.742096	2557.188303
374.128710	2558.821637
374.515262	2557.311811
374.901751	2558.435988
375.288177	2559.421534
375.674540	2555.993549
376.060841	2558.297357
376.447079	2559.824826
376.833254	2557.112686
377.219367	2560.979251
377.605417	2557.679815
377.991404	2560.684343
378.377329	2560.893551
378.763191	2559.824826
379.148991	2561.667368
379.534727	2561.269117
379.920402	2561.652245
380.306013	2558.158725
380.691563	2562.728531
381.077049	2564.404715
381.462474	2561.241391
381.847835	2564.278686
382.233134	2561.145609
382.618371	2562.239539
383.003545	2564.137533
383.388657	2562.274827
383.773706	2563.164591
384.158693	2564.382029
384.543618	2564.492935
384.928480	2564.540826
385.313280	2562.216854
385.698017	2568.145251
386.082692	2566.010322
386.467305	2565.808676
386.851856	2565.236505
387.236344	2564.003943
387.620770	2564.182904
388.005133	2561.664847
388.389435	2563.222564
388.773674	2557.337017
389.157851	2567.477298
389.541965	2568.750189
389.926018	2567.810014
390.310008	2566.716084
390.693936	2568.379664
391.077802	2569.652556
391.461606	2569.289593
391.845348	2567.449572
392.229027	2570.431414
392.612645	2568.732545
392.996200	2569.617268
393.379694	2568.367062
393.763125	2568.914027
394.146494	2569.166084
394.529801	2569.816393
394.913047	2571.222875
395.296230	2570.368400
395.679351	2571.376630
396.062410	2570.461661
396.445408	2569.932340
396.828343	2570.186918
397.211217	2572.435273
397.594028	2573.882084
397.976778	2573.960222
398.359466	2572.957032
398.742092	2573.897207
399.124656	2571.923596
399.507158	2571.651373
399.889598	2573.526683
400.271977	2572.982238
400.654294	2573.572053
401.036549	2572.221024
401.418742	2575.026426
401.800874	2574.660942
402.182944	2576.115315
402.564952	2574.519790
402.946898	2574.061045
403.328783	2576.085068
403.710606	2573.476271
404.092367	2574.706312
404.474067	2574.245047
404.855705	2575.724626
405.237282	2574.799574
405.618797	2576.969791
406.000250	2577.347877
406.381642	2576.843762
406.762972	2577.393247
407.144240	2574.234965
407.525447	2576.311920
407.906593	2570.186918
408.287677	2574.655901
408.668700	2576.770665
409.049661	2578.681262
409.430560	2576.906776
409.811399	2579.520614
410.192176	2580.672518
410.572891	2579.525656
410.953545	2578.567836
411.334138	2578.444328
411.714669	2580.117991
412.095139	2582.507498
412.475547	2580.430543
412.855894	2581.448856
413.236180	2580.667477
413.616405	2578.018351
413.996568	2578.411561
414.376670	2580.959864
414.756711	2581.879874
415.136691	2581.584967
415.516609	2580.745615
415.896466	2582.182344
416.276262	2583.185533
416.655997	2582.126891
417.035670	2580.657395
417.415283	2585.123857
417.794834	2581.441294
418.174324	2583.034299
418.553753	2582.749473
418.933121	2582.263002
419.312428	2582.326017
419.691674	2582.527663
420.070859	2582.666294
420.449983	2580.785944
420.829045	2584.196285
421.208047	2581.932807
421.586988	2582.159658
421.965867	2583.689649
422.344686	2584.652509
422.723444	2585.144022
423.102141	2588.002356
423.480777	2585.524629
423.859352	2582.731829
424.237866	2584.811305
424.616319	2583.518249
424.994712	2585.602767
425.373044	2585.126378
425.751314	2581.128743
426.129524	2581.302662
426.507673	2583.629155
426.885762	2581.383321
427.263789	2586.061512
427.641756	2586.880699
428.019662	2586.721903
428.397508	2587.296594
428.775292	2588.831626
429.153016	2584.649988
429.530679	2587.692325
429.908282	2586.951275
430.285824	2588.433374
430.663305	2587.425144
431.040726	2585.007910
431.418086	2585.312900
431.795385	2587.664598
432.172624	2587.490679
432.549802	2588.158632
432.926920	2588.582088
433.303977	2591.221132
433.680974	2587.233580
434.057910	2588.592171
434.434786	2588.874475
434.811601	2589.096286
435.188355	2588.554362
435.565050	2590.361616
435.941683	2590.442274
436.318257	2592.277254
436.694770	2590.487645
437.071222	2590.664085
437.447614	2589.121492
437.823946	2591.326997
438.200218	2590.754826
438.576429	2592.456215
438.952580	2587.770463
439.328670	2594.598706
439.704700	2591.274065
440.080670	2593.615681
440.456580	2592.698191
440.832429	2593.610639
441.208218	2592.473859
441.583947	2592.826740
441.959616	2589.890268
442.335224	2592.675505
442.710773	2593.434199
443.086261	2594.704570
443.461689	2591.221132
443.837057	2592.957810
444.212365	2591.848756
444.587612	2590.414548
444.962800	2591.309353
445.337927	2592.579723
445.712995	2587.946903
446.088002	2594.079467
446.462949	2596.839498
446.837837	2594.981833
447.212664	2594.513006
447.587431	2598.172884
447.962139	2598.061978
448.336786	2598.676999
448.711374	2597.651124
449.085901	2598.036772
449.460369	2597.764550
449.834776	2596.741196
450.209124	2597.273038
450.583412	2599.879314
450.957640	2599.498707
451.331808	2602.077257
451.705917	2599.286979
452.079965	2598.566094
452.453954	2597.613316
452.827883	2599.622215
453.201752	2599.828903
453.575562	2600.746393
453.949311	2599.826382
454.323001	2601.288317
454.696632	2600.055755
455.070202	2599.685230
455.443713	2600.721187
455.817164	2600.940477
456.190556	2604.300406
456.563888	2601.477360
456.937160	2604.040787
457.310373	2604.718822
457.683526	2600.675817
458.056619	2601.288317
458.429653	2602.619181
458.802628	2601.207658
459.175542	2601.860488
459.548398	2604.446600
459.921194	2603.894593
460.293930	2605.595983
460.666607	2606.173195
461.039224	2605.275869
461.411782	2608.456837
461.784280	2605.633791
462.156719	2608.633278
462.529099	2609.243257
462.901419	2607.637650
463.273680	2605.086826
463.645882	2603.521548
464.018024	2604.771754
464.390106	2601.550457
464.762130	2608.338370
465.134094	2607.657815
465.505999	2612.361211
465.877845	2616.384052
466.249631	2620.048971
466.621358	2619.980915
466.993026	2621.059722
467.364634	2619.673405
467.736184	2617.147787
468.107674	2617.911522
468.479105	2617.483023
468.850477	2614.879267
469.221790	2615.804319
469.593043	2615.968157
469.964238	2613.041767
470.335373	2615.154010
470.706449	2617.790534
471.077467	2616.759618
471.448425	2619.804475
471.819324	2621.495782
472.190164	2628.807976
472.560945	2620.555607
472.931667	2620.842952
473.302330	2621.342027
473.672934	2616.487396
474.043479	2622.473766
474.413965	2622.292284
474.784393	2621.200874
475.154761	2626.055506
475.525070	2624.991822
475.895321	2626.894858
476.265513	2624.724641
476.635645	2626.972996
477.005719	2627.963582
477.375734	2629.218830
477.745691	2631.540281
478.115588	2633.097997
478.485427	2634.960704
478.855207	2639.822897
479.224928	2645.317754
479.594591	2650.121974
479.964194	2652.539207
480.333739	2654.278405
480.703226	2654.364105
481.072653	2655.808396
481.442022	2655.755463
481.811333	2660.847029
482.180584	2663.687719
482.549777	2664.761485
482.918912	2663.468429
483.287988	2672.802125
483.657005	2674.329595
484.025964	2677.878567
484.394864	2679.171623
484.763706	2680.699093
485.132489	2681.172961
485.501213	2686.977850
485.869879	2692.933973
486.238487	2697.634849
486.607036	2700.843543
486.975527	2702.123997
487.343959	2710.991386
487.712333	2712.521376
488.080648	2723.995043
488.448905	2726.510578
488.817104	2733.280848
489.185244	2748.182499
489.553326	2757.193561
489.921350	2776.546551
490.289315	2808.366314
490.657222	2836.090139
491.025070	2854.901205
491.392861	2871.652959
491.760593	2878.781151
492.128267	2882.418343
492.495883	2888.790362
492.863440	2895.469891
493.230939	2901.620098
493.598380	2926.367123
493.965763	2939.980758
494.333088	2955.202522
494.700354	2977.731439
495.067563	3004.406705
495.434713	3023.439581
495.801805	3052.975701
496.168839	3081.165834
496.535815	3113.656070
496.902733	3144.560864
497.269593	3169.232271
497.636395	3212.180381
498.003139	3253.190168
498.369825	3287.994294
498.736453	3332.028773
499.103023	3376.564846
499.469535	3422.928338
499.835989	3478.963284
500.202385	3533.493445
500.568723	3560.463618
500.935003	3624.047691
501.301226	3670.625432
501.667390	3771.292233
502.033497	3859.812374
502.399546	3892.572313
502.765537	3945.005354
503.131470	4029.641286
503.497345	4109.231023
503.863163	4131.906133
504.228923	4247.930809
504.594625	4342.611240
504.960269	4373.863873
505.325856	4502.020086
505.691385	4547.871901
506.056856	4671.614584
506.422270	4777.226757
506.787625	4811.947704
507.152924	4961.541424
507.518164	5041.635276
507.883347	5110.550370
508.248472	5164.372249
508.613540	5362.913052
508.978550	5462.569102
509.343503	5565.310338
509.708398	5708.232091
510.073236	5829.434032
510.438016	5973.318645
510.802738	6052.716818
511.167403	6201.902204
511.532010	6270.025837
511.896561	6518.776532
512.261053	6668.541651
512.625488	6743.581747
512.989866	6854.656010
513.354186	6939.899401
513.718449	7124.899665
514.082655	7305.337685
514.446803	7422.720952
514.810894	7642.716906
515.174927	7679.663522
515.538904	7831.029208
515.902822	8073.644819
516.266684	8196.452368
516.630488	8297.189745
516.994235	8449.039381
517.357925	8661.886979
517.721558	8881.832521
518.085133	9056.740395
518.448651	9189.380714
518.812112	9286.337226
519.175516	9465.580492
519.538863	9708.047390
519.902152	9785.852558
520.265385	10057.263240
520.628560	10146.017795
520.991678	10325.949178
521.354739	10517.714671
521.717743	10717.750176
522.080690	10784.472367
522.443580	11109.755340
522.806413	11250.786660
523.169189	11484.837351
523.531908	11637.014662
523.894569	11704.404807
524.257174	11896.684497
524.619722	12137.404634
524.982213	12166.693738
525.344647	12407.423957
525.707025	12610.108589
526.069345	12816.926967
526.431608	12986.660096
526.793815	13264.956994
527.155964	13145.481648
527.518057	13412.763625
527.880093	13571.035691
528.242072	13793.995843
528.603995	13842.484182
528.965860	13922.565431
529.327669	14184.140822
529.689421	14290.204178
530.051117	14388.804106
530.412755	14688.321741
530.774337	14711.846286
531.135862	14820.430219
531.497331	15094.711838
531.858743	15020.480848
532.220098	15474.406505
532.581396	15410.772020
532.942638	15617.171982
533.303824	15783.283042
533.664953	15957.863241
534.026025	15948.103567
534.387040	16211.042590
534.747999	16462.994418
535.108902	16673.820513
535.469748	16544.996347
535.830537	16832.463104
536.191270	17026.552568
536.551947	17166.447108
536.912567	17051.566773
537.273131	17407.532729
537.633638	17357.146396
537.994089	17697.729271
538.354483	17506.167945
538.714821	18013.650820
539.075103	18223.143530
539.435328	18212.007621
539.795497	18015.697529
540.155609	18463.541034
540.515665	18803.292118
540.875665	18387.961535
541.235609	18713.105875
541.595496	18864.849647
541.955328	19235.233303
542.315102	19298.698909
542.674821	19138.496081
543.034483	19152.157608
543.394090	19374.366628
543.753640	19338.624848
544.113134	19946.330903
544.472571	19783.350399
544.831953	20142.414143
545.191278	19919.459032
545.550548	20022.089362
545.909761	20252.389435
546.268918	20570.876932
546.628019	20635.625512
546.987064	20541.819721
547.346053	20464.158226
547.704986	20632.227774
548.063863	20878.417563
548.422684	20930.459915
548.781449	20694.042403
549.140158	21115.737442
549.498811	20870.412211
549.857408	20703.318126
550.215949	21191.909277
550.574434	20990.187506
550.932864	21262.324114
551.291237	21464.582768
551.649555	21447.135335
552.007817	21574.217782
552.366022	21548.790202
552.724173	21645.935757
553.082267	21657.111995
553.440305	22150.850165
553.798288	21578.076785
554.156215	22123.663222
554.514086	22259.439139
554.871902	21748.654308
555.229661	22070.693298
555.587365	22028.093027
555.945014	21920.015730
556.302606	22245.044124
556.660143	22216.304506
557.017625	22515.141586
557.375050	22143.048979
557.732421	22544.549157
558.089735	22439.678033
558.446994	22541.390874
558.804197	22596.193257
559.161345	22613.610444
559.518437	22405.677971
559.875474	22671.382067
560.232455	22859.822918
560.589381	22753.134459
560.946251	22740.934866
561.303065	23107.207461
561.659825	23225.145255
562.016528	22880.756309
562.373177	22683.299354
562.729770	23037.271533
563.086307	22955.995531
563.442789	23157.944154
563.799216	23021.338967
564.155587	23057.594945
564.511904	23073.053643
564.868164	23021.374255
565.224370	23046.519530
565.580520	22948.607720
565.936615	23124.803608
566.292654	22808.619918
566.648638	23157.762672
567.004567	22999.767869
567.360441	22966.690338
567.716260	22706.823899
568.072023	23072.612542
568.427732	22838.120751
568.783385	22653.816166
569.138982	22885.069017
569.494525	22949.043779
569.850013	22705.871121
570.205445	22816.547133
570.560823	22630.475624
570.916145	22422.296135
571.271412	22591.583122
571.626625	22363.322196
571.981782	22490.714675
572.336884	22300.287609
572.691931	22440.172066
573.046923	22188.290814
573.401860	22087.548396
573.756743	22081.100760
574.111570	22012.780523
574.466342	21957.337912
574.821059	22053.686965
575.175722	21758.093868
575.530330	21753.307293
575.884882	21793.835649
576.239380	21704.697967
576.593823	21601.944128
576.948211	21587.145821
577.302544	21431.419538
577.656823	21306.865229
578.011047	21409.757699
578.365216	21295.142026
578.719330	21173.950167
579.073389	21084.210066
579.427394	21232.883776
579.781344	21024.283350
580.135239	20904.850854
580.489080	20875.854137
580.842866	20650.950620
581.196597	20826.375212
581.550273	20811.884415
581.903895	20709.254084
582.257463	21037.135772
582.610975	20562.584234
582.964434	20864.960203
583.317837	20574.748538
583.671186	20670.444762
584.024481	20632.610902
584.377721	20421.958727
584.730906	20463.190324
585.084037	20505.591469
585.437113	20403.515665
585.790135	20603.856160
586.143103	20090.132337
586.496016	20094.089642
586.848874	20338.646098
587.201679	20289.620877
587.554428	19943.202867
587.907124	20264.873852
588.259765	20066.055786
588.612352	20146.013527
588.964884	19706.878615
589.317362	19886.739423
589.669786	19928.243242
590.022155	19992.056688
590.374470	20156.690691
590.726731	19968.101125
591.078937	19712.653257
591.431090	19822.860442
591.783188	19569.398788
592.135232	19547.590757
592.487222	19635.901690
592.839157	19671.673718
593.191038	19545.715448
593.542866	19441.635785
593.894639	19162.592796
594.246358	19385.893227
594.598022	19298.434248
594.949633	19050.464932
595.301190	19001.011213
595.652692	19167.762500
596.004141	19407.207225
596.355535	18755.501979
596.706876	18753.621629
597.058162	18649.821751
597.409395	18854.971506
597.760573	18965.279514
598.111698	18743.773735
598.462768	18669.199946
598.813785	18633.412795
599.164748	18461.683368
599.515657	18485.409559
599.866511	18276.320142
600.217312	18649.226894
600.568060	18182.524433
600.918753	18486.339652
601.269392	18392.720384
601.619978	18150.402201
601.970510	18379.373929
602.320988	18315.038724
602.671412	18534.076858
603.021783	18424.872863
603.372100	18178.904885
603.722363	18299.065828
604.072572	18240.124657
604.422728	18367.297845
604.772830	18138.563051
605.122878	18087.193693
605.472872	18079.936952
605.822813	18075.077280
606.172701	18030.488274
606.522534	18229.354232
606.872314	18257.241895
607.222041	18085.709073
607.571714	18300.202608
607.921333	18120.798025
608.270899	18198.784675
608.620411	18389.776350
608.969870	18148.237025
609.319276	18165.152617
609.668627	18186.292696
610.017926	18326.235126
610.367171	18445.171069
610.716362	18483.040217
611.065500	18304.351478
611.414585	18421.628881
611.763616	18414.588909
612.112594	18372.384369
612.461518	18331.946754
612.810389	18531.233648
613.159207	18379.094145
613.507971	18284.136451
613.856682	18565.306806
614.205340	18500.331374
614.553945	18647.049116
614.902496	18388.193428
615.250994	18634.035377
615.599439	18566.292352
615.947830	18548.469352
616.296169	18590.734386
616.644454	18572.200584
616.992686	18539.102889
617.340864	18757.581455
617.688990	18504.336571
618.037063	18681.454991
618.385082	18533.398823
618.733048	18808.877716
619.080961	18667.236417
619.428821	18714.751812
619.776628	18619.932749
620.124382	18534.568371
620.472083	18562.261949
620.819731	18588.972503
621.167326	18288.348335
621.514868	18322.028283
621.862357	18079.364781
622.209793	18097.162575
622.557176	17935.520497
622.904506	17756.902334
623.251783	17654.335018
623.599007	17435.196061
623.946179	17383.882156
624.293297	17322.992579
624.640363	17074.156184
624.987376	17095.823063
625.334336	16882.289868
625.681243	16734.997435
626.028097	16737.898619
626.374899	16681.188159
626.721647	16543.723456
627.068343	16375.409411
627.414987	16300.487782
627.761577	16270.424862
628.108115	16322.686503
628.454600	16037.289140
628.801032	16140.675644
629.147412	16072.385653
629.493739	16087.448621
629.840014	15909.725263
630.186236	15999.223387
630.532405	15764.293015
630.878521	15966.108048
631.224585	15850.219483
631.570597	15677.171795
631.916556	15713.889039
632.262462	15690.608990
632.608316	15611.392299
632.954117	15544.539037
633.299866	15552.796447
633.645562	15472.044724
633.991206	15220.791096
634.336797	15094.900881
634.682336	15065.594133
635.027823	14957.831908
635.373257	14844.436194
635.718639	14727.027721
636.063968	14688.823336
636.409245	14441.756386
636.754470	14467.761178
637.099642	14308.932065
637.444762	14083.552158
637.789829	14126.139826
638.134845	13970.274911
638.479808	13986.890554
638.824719	13945.285911
639.169577	13794.210092
639.514383	13843.482330
639.859137	13653.645079
640.203839	13737.403850
640.548489	13579.172113
640.893086	13570.869333
641.237632	13450.282412
641.582125	13584.361981
641.926566	13419.196137
642.270955	13439.839662
642.615292	13401.229465
642.959576	13405.829518
643.303809	13446.110857
643.647990	13374.420609
643.992118	13428.492025
644.336195	13204.490874
644.680219	13398.116552
645.024192	13320.588647
645.368112	13565.762644
645.711981	13623.504020
646.055797	13797.927943
646.399562	13765.916616
646.743274	14033.702709
647.086935	14308.838803
647.430544	14279.960553
647.774101	14309.998269
648.117606	14465.049037
648.461059	14430.711218
648.804460	14425.284416
649.147810	14153.823322
649.491108	14043.923648
649.834354	14070.372062
650.177548	13779.678966
650.520690	13584.389707
650.863781	13499.232016
651.206820	13539.354560
651.549807	13374.657543
651.892742	13182.982791
652.235626	13117.125158
652.578458	13122.735962
652.921238	12802.728557
653.263967	13007.424609
653.606644	12827.410046
653.949269	12797.044656
654.291843	12613.012293
654.634365	12759.120055
654.976836	12611.976336
655.319255	12636.020120
655.661622	12577.764546
656.003938	12494.056186
656.346203	12423.222933
656.688416	12496.143224
657.030577	12459.529323
657.372687	12382.399670
657.714746	12351.865401
658.056753	12539.832384
658.398708	12364.037267
658.740612	12361.304961
659.082465	12454.624281
659.424266	12416.001481
659.766016	12438.449739
660.107715	12351.371368
660.449362	12416.987026
660.790958	12391.468705
661.132503	12338.294615
661.473996	12396.623285
661.815438	12416.838312
662.156829	12422.222264
662.498168	12406.025037
662.839456	12405.266343
663.180693	12422.542378
663.521879	12510.200481
663.863013	12493.017708
664.204097	12469.374697
664.545129	12580.244793
664.886110	12556.460630
665.227040	12639.185964
665.567918	12639.793423
665.908746	12680.783045
666.249522	12666.077999
666.590248	12705.812374
666.930922	12825.587669
667.271545	12803.976242
667.612118	12893.991085
667.952639	12799.976087
668.293109	12800.802836
668.633528	12764.110798
668.973896	12730.488822
669.314213	12822.469715
669.654480	12559.165209
669.994695	12617.912295
670.334859	12649.361533
670.674973	12599.040736
671.015035	12630.777320
671.355047	12568.261971
671.695008	12545.002087
672.034918	12546.804299
672.374777	12591.910023
672.714585	12502.646312
673.054342	12533.485571
673.394049	12485.024959
673.733705	12575.165831
674.073310	12492.453099
674.412864	12516.345648
674.752368	12387.297151
675.091820	12389.076678
675.431223	12373.403731
675.770574	12261.701844
676.109875	12181.857528
676.449125	12138.624593
676.788324	12070.937020
677.127473	11921.640729
677.466571	11904.500806
677.805619	11814.821199
678.144616	11721.932898
678.483562	11694.866943
678.822458	11566.556975
679.161303	11548.413862
679.500098	11536.899867
679.838842	11488.935809
680.177535	11504.825526
680.516179	11564.548075
680.854771	11509.057574
681.193314	11721.456509
681.531805	11875.322607
681.870247	12275.411262
682.208638	12687.949045
682.546978	13004.551151
682.885268	13072.916759
683.223508	12755.752565
683.561697	12588.726535
683.899836	12496.039880
684.237925	12299.223152
684.575963	12216.069319
684.913951	12147.000470
685.251889	12093.602048
685.589776	12179.657065
685.927614	12118.311264
686.265401	12070.173286
686.603137	12120.640277
686.940824	12263.541865
687.278460	12383.445709
687.616046	12434.668873
687.953582	12610.262344
688.291068	12527.531968
688.628504	12749.307449
688.965889	12769.809822
689.303224	12743.631110
689.640510	12640.549596
689.977745	12329.986793
690.314930	12109.602670
690.652065	12024.069413
690.989150	11737.767163
691.326185	11512.299036
691.663170	11309.634569
692.000105	11056.858513
692.336990	10958.339243
692.673825	10708.078722
693.010610	10585.671945
693.347345	10378.566222
693.684030	10180.663124
694.020665	10123.504002
694.357251	9930.931925
694.693786	9878.781188
695.030272	9714.641219
695.366707	9583.319161
695.703093	9513.453810
696.039429	9518.868009
696.375716	9447.439900
696.711952	9310.239857
697.048139	9349.434828
697.384276	9304.465216
697.720363	9323.767794
698.056400	9266.475080
698.392388	9215.698058
698.728326	9167.532354
699.064214	9111.726781
699.400053	9163.023042
699.735842	8975.565215
700.071581	8930.585520
700.407270	8856.994756
700.742910	8778.861913
701.078501	8686.361781
701.414042	8569.648987
701.749533	8499.092998
702.084974	8363.669961
702.420366	8472.500911
702.755709	8359.049744
703.091002	8225.544867
703.426246	8252.993949
703.761440	8211.394348
704.096584	8158.310998
704.431679	8090.709125
704.766725	8079.484996
705.101721	8024.491048
705.436668	8067.184580
705.771565	7967.773026
706.106413	8044.007875
706.441212	8088.092766
706.775961	8039.102833
707.110661	8069.727842
707.445311	8224.337510
707.779913	8117.160059
708.114465	8245.152434
708.448967	8288.634907
708.783421	8419.911594
709.117825	8600.828523
709.452180	8641.810584
709.786485	8721.599446
710.120742	9010.689455
710.454949	9001.985903
710.789107	9104.545657
711.123216	9315.235641
711.457275	9478.261515
711.791286	9650.553030
712.125247	9631.888158
712.459159	9623.978587
712.793023	9881.702537
713.126837	9456.902146
713.460602	9598.152756
713.794318	9428.709493
714.127985	9465.973702
714.461602	9154.755549
714.795171	9100.031304
715.128691	8856.893933
715.462162	8603.558308
715.795584	8541.557157
716.128957	8403.079182
716.462281	8234.636588
716.795556	8277.314996
717.128782	8078.877537
717.461960	7808.994324
717.795088	7879.020992
718.128167	7787.292157
718.461198	7623.888196
718.794180	7566.935761
719.127113	7558.448978
719.459997	7415.489417
719.792833	7180.601894
720.125619	7243.686894
720.458357	7101.702796
720.791046	7086.763336
721.123686	7089.893893
721.456278	6931.810870
721.788821	6952.973634
722.121315	6842.262333
722.453761	6907.693990
722.786158	6853.743561
723.118506	6868.723350
723.450805	6832.744635
723.783056	6900.533031
724.115259	6804.529297
724.447412	6802.936292
724.779518	6844.830801
725.111574	6843.419278
725.443582	6930.326250
725.775542	6901.984883
726.107453	7097.432938
726.439315	7017.079467
726.771129	7065.966056
727.102895	7231.273052
727.434612	7350.166145
727.766281	7372.551389
728.097901	7464.257539
728.429473	7446.164838
728.760996	7426.254801
729.092471	7401.989207
729.423897	7352.568255
729.755276	7361.435645
730.086606	7288.006198
730.417887	7381.524643
730.749120	7561.304792
731.080305	7761.857015
731.411442	7888.846201
731.742530	7885.166159
732.073570	7986.248855
732.404562	8074.277484
732.735506	7923.307529
733.066401	8064.991678
733.397249	7998.193869
733.728048	7765.302644
734.058798	7437.478930
734.389501	7217.679581
734.720156	7042.428909
735.050762	6803.584081
735.381320	6700.371497
735.711831	6661.244581
736.042293	6549.325925
736.372707	6574.380459
736.703073	6436.159582
737.033391	6473.068390
737.363661	6482.760009
737.693883	6505.230952
738.024056	6593.690599
738.354182	6639.575181
738.684260	6669.249933
739.014290	6784.271420
739.344272	6890.516258
739.674207	6914.560041
740.004093	6984.503530
740.333931	6998.880901
740.663722	7006.697210
740.993464	7082.695125
741.323159	7085.301402
741.652806	6835.358473
741.982405	6831.809501
742.311956	6898.284676
742.641460	6747.896975
742.970915	6550.830709
743.300323	6536.503750
743.629683	6485.305791
743.958996	6356.448858
744.288260	6262.943016
744.617477	6213.002825
744.946647	6222.011367
745.275768	6053.213372
745.604842	6013.204254
745.933869	5993.024515
746.262847	5949.791580
746.591778	5939.021155
746.920662	5897.517335
747.249498	5880.347165
747.578286	5929.919352
747.907027	6009.872052
748.235720	6071.948820
748.564365	6040.179468
748.892963	6058.403240
749.221514	6218.280913
749.550017	6064.044291
749.878473	5935.008396
750.206881	5990.226675
750.535242	5927.970946
750.863555	5856.099215
751.191821	5877.214088
751.520039	5882.540067
751.848210	5791.398526
752.176334	5806.093490
752.504411	5859.149113
752.832440	5785.250839
753.160421	5713.590837
753.488356	5757.952991
753.816243	5798.609897
754.144082	5649.840406
754.471875	5612.772801
754.799620	5658.899359
755.127318	5671.124157
755.454969	5621.589779
755.782572	5585.270787
756.110129	5630.893229
756.437638	5626.212517
756.765100	5564.062652
757.092515	5557.557043
757.419882	5604.817861
757.747203	5582.359520
758.074477	5648.133975
758.401703	5643.183562
758.728882	5587.851857
759.056014	5639.475793
759.383099	5773.270537
759.710138	5784.749244
760.037129	5769.734168
760.364073	5774.588799
760.690970	5854.176015
761.017820	5838.694632
761.344623	5790.470954
761.671379	5887.603906
761.998088	6000.208160
762.324751	6231.869343
762.651366	6810.825698
762.977935	8080.130263
763.304456	9686.267084
763.630931	10607.111972
763.957359	10252.658363
764.283740	9327.568824
764.610074	8514.786110
764.936362	7537.666821
765.262602	6937.850172
765.588796	6395.437142
765.914943	6061.072531
766.241044	5902.981946
766.567097	5708.723603
766.893104	5446.926402
767.219064	5268.479638
767.544978	5202.528743
767.870845	5133.578361
768.196665	5023.466958
768.522438	4952.563129
768.848165	4918.381585
769.173846	4854.863047
769.499479	4815.073220
769.825066	4757.916617
770.150607	4699.230025
770.476101	4674.881252
770.801548	4673.855377
771.126949	4603.211167
771.452303	4551.733425
771.777611	4504.891023
772.102872	4522.114126
772.428087	4484.746573
772.753256	4445.589410
773.078378	4402.348913
773.403453	4336.027493
773.728482	4314.176612
774.053465	4279.135551
774.378401	4262.348509
774.703291	4266.094086
775.028135	4197.753684
775.352932	4143.125221
775.677683	4129.456132
776.002388	4152.826921
776.327046	4162.800844
776.651658	4087.606993
776.976224	4024.564844
777.300743	4028.469217
777.625216	4053.286818
777.949643	4054.574833
778.274024	4004.843850
778.598359	3959.138229
778.922647	3980.963904
779.246889	3974.838902
779.571086	3971.577276
779.895236	3954.883495
780.219339	3939.139971
780.543397	3933.481276
780.867409	3986.347857
781.191374	4002.678674
781.515294	3941.988223
781.839167	3935.694343
782.162995	3952.932568
782.486776	3938.169549
782.810511	3945.133903
783.134201	3946.855457
783.457844	3904.555135
783.781441	3845.626568
784.104993	3850.992876
784.428498	3872.553891
784.751958	3867.396790
785.075372	3847.660673
785.398739	3807.449909
785.722061	3821.814677
786.045337	3859.038557
786.368568	3898.339393
786.691752	3808.654745
787.014891	3854.614945
787.337983	3978.496259
787.661030	4133.378150
787.984031	4292.343374
788.306987	4466.356443
788.629897	4541.850243
788.952760	4501.578985
789.275579	4435.166825
789.598351	4371.081156
789.921078	4239.940580
790.243759	4039.121176
790.566395	4016.267105
790.888984	4020.093340
791.211529	3910.659973
791.534027	3845.906352
791.856480	3843.942822
792.178888	3779.776495
792.501249	3730.602560
792.823566	3737.072881
793.145836	3772.391205
793.468062	3721.573854
793.790241	3673.027542
794.112375	3701.258004
794.434464	3761.807303
794.756507	3788.545583
795.078505	3771.438427
795.400457	3798.441367
795.722364	3933.680402
796.044226	4037.825599
796.366042	4111.665900
796.687812	4096.184517
797.009538	4100.764405
797.331218	4059.673960
797.652852	4035.093294
797.974442	4013.038246
798.295986	4015.437835
798.617484	3934.141667
798.938938	3843.937781
799.260346	3883.780540
799.581709	3884.453534
799.903026	3815.147751
800.224299	3778.430507
800.545526	3772.602933
800.866708	3732.714804
801.187845	3669.871780
801.508936	3702.651883
801.829983	3708.222358
802.150984	3626.608597
802.471940	3611.417080
802.792851	3629.298053
803.113717	3627.722692
803.434538	3631.881644
803.755314	3575.335022
804.076045	3546.290414
804.396731	3563.024524
804.717372	3593.079883
805.037967	3580.116556
805.358518	3568.451326
805.679024	3596.205399
805.999485	3606.723766
806.319901	3610.774333
806.640272	3627.712610
806.960598	3638.861122
807.280879	3615.535703
807.601115	3621.441415
807.921306	3639.909682
808.241453	3682.525076
808.561554	3658.909791
808.881611	3597.500975
809.201623	3626.641365
809.521590	3643.171308
809.841513	3612.763068
810.161390	3642.213489
810.481223	3623.473000
810.801011	3568.594999
811.120755	3555.160324
811.440453	3592.381683
811.760107	3598.511727
812.079716	3560.173752
812.399281	3522.710417
812.718801	3544.581463
813.038276	3518.705220
813.357707	3515.990559
813.677093	3536.555946
813.996434	3484.011999
814.315731	3487.971826
814.634983	3493.988443
814.954191	3509.570649
815.273354	3537.208775
815.592473	3534.133671
815.911547	3537.566697
816.230577	3576.469281
816.549562	3629.877786
816.868502	3666.353054
817.187399	3692.993032
817.506250	3693.081252
817.825058	3661.700069
818.143821	3749.325406
818.462539	3848.918441
818.781213	3897.782345
819.099843	3951.818473
819.418429	4183.272970
819.736970	4424.620731
820.055466	4661.469262
820.373919	5015.781719
820.692327	5419.668883
821.010691	5831.788251
821.329011	7140.134032
821.647286	9767.033931
821.965517	14187.188199
822.283704	18183.759516
822.601847	20418.782800
822.919945	18676.464249
823.237999	16186.454362
823.556010	13742.792844
823.873976	11702.191740
824.191897	9635.573241
824.509775	8290.669013
824.827609	7170.138980
825.145398	6620.272603
825.463144	6505.568709
825.780845	6619.403004
826.098502	6784.485669
826.416116	7616.205478
826.733685	8898.985047
827.051210	10019.124391
827.368692	10111.806004
827.686129	8912.875947
828.003522	7408.701503
828.320872	6400.949643
828.638177	5714.878852
828.955439	5169.113454
829.272656	4678.205893
829.589830	4389.456162
829.906960	4215.052404
830.224046	4039.320301
830.541088	3911.653080
830.858086	3867.994167
831.175041	3793.057415
831.491952	3774.352214
831.808819	3784.011065
832.125642	3850.297197
832.442421	3987.580419
832.759157	4255.479937
833.075849	4783.442500
833.392497	5625.131190
833.709101	6385.521192
834.025662	6737.393731
834.342179	6405.584984
834.658653	5753.637763
834.975083	5122.475219
835.291469	4560.920928
835.607811	4146.510355
835.924110	4007.515662
836.240366	3815.845951
836.556578	3611.868264
836.872746	3503.533868
837.188871	3467.245122
837.504952	3404.273548
837.820990	3319.635096
838.136984	3272.467540
838.452935	3298.406797
838.768842	3291.684418
839.084706	3312.564878
839.400526	3461.530974
839.716303	3785.664563
840.032037	4290.427736
840.347727	4566.960230
840.663373	4311.671158
840.978977	3937.907409
841.294537	3634.331645
841.610054	3404.523085
841.925527	3300.690440
842.240957	3229.509347
842.556344	3179.281811
842.871687	3120.496916
843.186987	3073.851119
843.502244	3037.438865
843.817458	3003.622805
844.132629	2971.563587
844.447756	2981.424084
844.762840	2966.918164
845.077881	2936.817434
845.392879	2917.640885
845.707833	2916.042839
846.022745	2913.015627
846.337613	2914.343971
846.652438	2903.026580
846.967221	2897.998029
847.281960	2887.396483
847.596656	2882.468755
847.911309	2882.393138
848.225919	2874.909545
848.540485	2870.203628
848.855009	2869.707074
849.169490	2863.050230
849.483928	2850.487675
849.798323	2850.790144
850.112675	2845.254957
850.426984	2859.120651
850.741251	2856.852132
851.055474	2847.760411
851.369654	2842.830162
851.683792	2845.141531
851.997887	2853.472038
852.311938	2853.658561
852.625947	2842.192456
852.939914	2849.086234
853.253837	2854.150073
853.567718	2839.505521
853.881555	2833.193997
854.195350	2850.507839
854.509103	2849.819722
854.822812	2841.650532
855.136479	2839.379492
855.450103	2841.365707
855.763685	2832.621826
856.077224	2828.977071
856.390720	2843.084740
856.704173	2852.206708
857.017584	2845.943075
857.330953	2840.788495
857.644278	2849.182016
857.957561	2856.469004
858.270802	2860.101155
858.584000	2859.317256
858.897155	2850.349043
859.210268	2845.620441
859.523339	2845.580112
859.836367	2846.709330
860.149352	2838.131807
860.462295	2833.793894
860.775195	2842.719257
861.088054	2845.370904
861.400869	2826.736278
861.713642	2822.111020
862.026373	2839.336642
862.339062	2840.725480
862.651708	2844.818897
862.964312	2851.969774
863.276873	2842.005933
863.589392	2850.737212
863.901869	2863.574510
864.214303	2884.223076
864.526696	2898.976013
864.839045	2899.142371
865.151353	2896.142885
865.463619	2892.510733
865.775842	2895.396794
866.088023	2915.266502
866.400162	2920.138777
866.712258	2891.812533
867.024313	2879.917931
867.336325	2888.631565
867.648296	2910.739546
867.960224	2900.256466
868.272110	2890.582492
868.583954	2894.877555
868.895755	2909.043197
869.207515	2897.035169
869.519233	2898.711352
869.830909	2906.396592
870.142542	2916.867068
870.454134	2919.261616
870.765684	2923.591967
871.077191	2921.693973
871.388657	2929.051537
871.700081	2943.779268
872.011463	2950.725978
872.322803	2951.890484
872.634101	2953.803602
872.945357	2970.220120
873.256571	2997.810355
873.567744	2987.034888
873.878874	2978.424598
874.189963	3002.359996
874.501010	3006.108094
874.812015	2992.391114
875.122979	2995.151146
875.433900	2990.026813
875.744780	2995.443533
876.055618	3004.053824
876.366415	2999.100890
876.677169	3014.065555
876.987882	3010.980369
877.298554	3000.502331
877.609183	3021.118130
877.919771	3046.386913
878.230317	3070.067733
878.540822	3120.995990
878.851285	3157.355312
879.161707	3196.920808
879.472087	3291.931435
879.782425	3505.542767
880.092722	3920.717075
880.402977	4435.691105
880.713191	5038.736613
881.023363	6140.173276
881.333494	7394.225830
881.643583	7959.127447
881.953631	7677.410127
882.263637	7083.945331
882.573602	6518.436254
882.883526	5953.310305
883.193408	5390.934306
883.503248	4930.324079
883.813048	4636.500427
884.122806	4351.544165
884.432522	4043.665776
884.742197	3815.843431
885.051831	3620.932258
885.361424	3488.995180
885.670975	3418.706372
885.980485	3339.182170
886.289954	3263.209461
886.599382	3220.591546
886.908768	3184.806916
887.218113	3137.299082
887.527417	3083.232707
887.836680	3034.963659
888.145901	3031.994419
888.455082	3022.751463
888.764221	2971.460244
889.073319	2940.174843
889.382376	2940.615944
889.691392	2944.628702
890.000366	2944.966460
890.309300	2930.944490
890.618193	2943.005451
890.927044	2960.538584
891.235855	2962.943214
891.544625	2944.903445
891.853353	2955.353757
892.162041	2974.056438
892.470687	3011.590349
892.779293	3063.040365
893.087858	3105.907817
893.396381	3174.512879
893.704864	3289.136115
894.013306	3515.970394
894.321707	3808.130465
894.630068	4014.714429
894.938387	4008.649921
895.246665	3969.835557
895.554903	3857.107795
895.863100	3660.951458
896.171256	3500.511696
896.479371	3366.071684
896.787446	3247.634816
897.095480	3148.676966
897.403473	3083.588108
897.711425	3047.896739
898.019336	3040.423228
898.327207	3008.981552
898.635038	2976.314875
898.942827	2963.464974
899.250576	2954.315279
899.558284	2921.628438
899.865952	2896.853687
900.173579	2882.493961
900.481165	2876.724360
900.788711	2863.934953
901.096216	2838.588031
901.403681	2827.361382
901.711105	2833.493945
902.018489	2830.043275
902.325832	2832.478153
902.633135	2840.160871
902.940397	2871.842002
903.247619	2947.998714
903.554800	3130.795993
903.861941	3453.848255
904.169041	3867.989126
904.476101	4165.603726
904.783121	4136.276813
905.090100	3901.210330
905.397039	3636.217037
905.703938	3395.423803
906.010796	3213.347408
906.317614	3101.832044
906.624391	3014.057994
906.931129	2942.869340
907.237826	2884.989332
907.544483	2838.467043
907.851099	2809.452682
908.157675	2787.138015
908.464211	2768.236209
908.770707	2754.244486
909.077163	2743.123701
909.383578	2728.431258
909.689954	2717.088662
909.996289	2716.675287
910.302584	2716.766028
910.608839	2718.351471
910.915054	2714.323589
911.221229	2706.227496
911.527363	2708.392671
911.833458	2713.275029
912.139513	2717.307952
912.445527	2721.053529
912.751502	2728.930332
913.057436	2740.721591
913.363331	2751.504619
913.669186	2768.495828
913.975000	2803.947742
914.280775	2859.561752
914.586510	2926.377205
914.892205	3000.588031
915.197859	3124.323152
915.503475	3306.853250
915.809050	3510.881349
916.114585	3655.622958
916.420081	3682.580529
916.725536	3626.855614
917.030952	3515.867050
917.336328	3390.037330
917.641665	3264.356323
917.946961	3161.819254
918.252218	3100.952362
918.557435	3025.135929
918.862612	2966.436734
919.167750	2917.519898
919.472848	2881.067314
919.777906	2855.876668
920.082925	2828.422544
920.387904	2798.226033
920.692843	2783.962088
920.997743	2771.797784
921.302603	2757.685074
921.607423	2748.568147
921.912204	2736.842423
922.216946	2727.380177
922.521647	2715.777962
922.826310	2711.145141
923.130932	2701.468647
923.435516	2697.493697
923.740059	2689.914322
924.044564	2682.720595
924.349028	2675.607527
924.653454	2669.056548
924.957840	2663.564211
925.262186	2660.471463
925.566493	2653.675987
925.870761	2651.742705
926.174989	2648.786068
926.479178	2640.397588
926.783328	2638.630664
927.087438	2639.134779
927.391509	2634.675879
927.695541	2632.553553
927.999533	2630.292595
928.303486	2627.419138
928.607400	2625.508540
928.911275	2623.242542
929.215110	2624.981740
929.518906	2623.968468
929.822663	2623.981071
930.126381	2621.657099
930.430060	2622.052829
930.733699	2624.459980
931.037299	2627.855197
931.340861	2631.530199
931.644383	2626.899899
931.947866	2626.080711
932.251309	2626.536936
932.554714	2623.739095
932.858080	2622.498972
933.161407	2621.793210
933.464694	2619.645678
933.767943	2615.912704
934.071153	2620.074177
934.374323	2618.992849
934.677455	2617.987139
934.980548	2615.499329
935.283602	2617.188116
935.586617	2615.035543
935.889593	2614.697786
936.192530	2615.958074
936.495428	2617.979577
936.798287	2620.248096
937.101108	2620.724485
937.403890	2624.172635
937.706632	2628.439971
938.009336	2635.116980
938.312002	2643.097126
938.614628	2652.327479
938.917216	2660.935249
939.219765	2660.806700
939.522275	2656.856956
939.824747	2656.083138
940.127179	2654.444763
940.429573	2650.076604
940.731929	2647.407313
941.034246	2642.661066
941.336524	2640.790798
941.638763	2640.846251
941.940964	2637.173770
942.243126	2635.860550
942.545250	2633.579428
942.847335	2632.793008
943.149381	2629.571710
943.451389	2626.799076
943.753359	2621.740278
944.055290	2623.252624
944.357182	2619.489403
944.659036	2618.314814
944.960851	2621.258848
945.262628	2614.581839
945.564367	2618.357664
945.866067	2618.768518
946.167729	2617.309104
946.469352	2621.493261
946.770937	2618.949999
947.072484	2617.795575
947.373992	2617.407406
947.675462	2615.917745
947.976893	2611.221910
948.278286	2607.897269
948.579641	2610.685027
948.880958	2607.400716
949.182236	2608.925665
949.483476	2608.534975
949.784678	2607.816611
950.085841	2608.570263
950.386967	2610.533793
950.688054	2610.896756
950.989103	2613.061932
951.290114	2610.432970
951.591087	2613.674432
951.892021	2618.150976
952.192917	2618.332458
952.493776	2618.818929
952.794596	2622.216667
953.095378	2620.578292
953.396122	2622.453601
953.696828	2620.207767
953.997496	2617.122581
954.298126	2615.585029
954.598718	2611.040429
954.899272	2610.669904
955.199788	2609.039091
955.500266	2605.817793
955.800706	2607.073041
956.101108	2603.350149
956.401472	2601.585745
956.701798	2598.747575
957.002087	2597.598192
957.302337	2597.993923
957.602550	2594.621391
957.902724	2595.160794
958.202861	2590.608632
958.502960	2589.925556
958.803022	2589.817171
959.103045	2589.320617
959.403031	2588.887078
959.702979	2587.712489
960.002889	2587.220977
960.302762	2586.109402
960.602596	2586.275761
960.902393	2585.993456
961.202153	2585.575040
961.501875	2585.113775
961.801559	2582.232755
962.101205	2584.710482
962.400814	2583.780389
962.700385	2584.970102
962.999918	2582.101685
963.299414	2578.865264
963.598873	2581.252251
963.898293	2580.377611
964.197677	2582.152097
964.497022	2579.616396
964.796331	2581.791654
965.095601	2585.857345
965.394835	2579.765110
965.694030	2582.772159
965.993189	2583.903898
966.292309	2584.859196
966.591393	2584.168558
966.890439	2581.277457
967.189447	2581.796695
967.488419	2583.125039
967.787353	2582.134453
968.086249	2582.212591
968.385108	2581.852148
968.683930	2581.375759
968.982714	2580.397775
969.281462	2582.053794
969.580172	2582.928434
969.878844	2581.937848
970.177480	2583.447673
970.476078	2583.006572
970.774639	2583.545976
971.073162	2583.588826
971.371649	2585.096131
971.670098	2584.251737
971.968510	2581.012796
972.266885	2584.183682
972.565223	2582.444484
972.863524	2580.014647
973.161788	2584.821388
973.460014	2580.465831
973.758204	2584.012282
974.056356	2581.917683
974.354471	2584.544124
974.652550	2582.187385
974.950591	2582.620924
975.248595	2582.449525
975.546563	2583.530852
975.844493	2584.730647
976.142386	2579.997003
976.440243	2580.896849
976.738062	2578.976170
977.035845	2580.231417
977.333590	2580.183526
977.631299	2580.405337
977.928971	2578.643454
978.226606	2575.364183
978.524204	2578.313258
978.821765	2575.570870
979.119290	2581.506829
979.416777	2580.380131
979.714228	2578.567836
980.011642	2581.027919
980.309020	2580.662436
980.606360	2580.748135
980.903664	2581.993300
981.200931	2582.769638
981.498162	2581.491706
981.795356	2583.982036
982.092513	2583.533373
982.389633	2585.116295
982.686717	2588.256934
982.983764	2591.518561
983.280775	2595.450661
983.577749	2596.191710
983.874686	2595.536360
984.171587	2594.346648
984.468451	2591.440423
984.765279	2589.832295
985.062070	2585.723754
985.358824	2588.635021
985.655543	2586.179979
985.952224	2583.349371
986.248869	2583.210739
986.545478	2581.181675
986.842050	2580.334761
987.138586	2578.950964
987.435086	2578.794688
987.731549	2579.124884
988.027975	2580.145717
988.324366	2577.610017
988.620719	2576.606828
988.917037	2576.881570
989.213318	2576.896694
989.509563	2575.142372
989.805772	2575.863257
990.101944	2575.565829
990.398080	2577.597414
990.694180	2579.175295
990.990244	2576.445511
991.286271	2575.694379
991.582262	2576.490881
991.878217	2576.984914
992.174136	2578.658577
992.470019	2574.769327
992.765865	2574.083730
993.061676	2575.225551
993.357450	2574.391240
993.653188	2574.739080
993.948890	2575.215469
994.244556	2576.085068
994.540186	2576.558937
994.835780	2578.756880
995.131337	2577.494071
995.426859	2577.610017
995.722345	2577.998186
996.017795	2578.441807
996.313208	2582.799885
996.608586	2579.336612
996.903928	2582.023547
997.199234	2582.769638
997.494504	2581.128742
997.789738	2580.765779
998.084936	2580.080183
998.380099	2579.291242
998.675225	2581.181675
998.970316	2577.630182
999.265371	2580.100347
999.560390	2575.953998
999.855373	2576.352249
1000.150320	2575.500294
1000.445232	2578.061200
1000.740108	2575.732187
1001.034948	2576.745459
1001.329752	2573.662794
1001.624521	2576.495922
1001.919254	2577.680593
1002.213951	2574.424008
1002.508613	2575.817887
1002.803239	2574.600448
1003.097829	2575.800243
1003.392384	2578.829976
1003.686903	2572.147927
1003.981386	2577.478947
1004.275834	2574.907959
1004.570246	2574.913000
1004.864623	2575.059193
1005.158964	2573.279666
1005.453270	2574.209759
1005.747540	2573.163719
1006.041775	2572.405026
1006.335974	2575.724626
1006.630138	2573.667835
1006.924266	2575.313772
1007.218359	2575.127249
1007.512416	2570.943091
1007.806438	2570.396126
1008.100425	2572.478122
1008.394376	2570.204562
1008.688292	2574.809656
1008.982172	2576.400140
1009.276017	2574.592887
1009.569827	2572.793195
1009.863602	2577.030284
1010.157341	2574.918041
1010.451045	2573.655232
1010.744714	2572.455437
1011.038347	2575.205387
1011.331945	2573.514080
1011.625508	2576.029615
1011.919036	2574.126580
1012.212528	2574.275294
1012.505986	2573.582135
1012.799408	2573.914851
1013.092795	2573.877043
1013.386147	2571.694223
1013.679464	2573.430901
1013.972745	2577.650346
1014.265992	2575.452403
1014.559204	2572.755386
1014.852380	2571.338822
1015.145521	2572.614234
1015.438628	2574.058524
1015.731699	2573.088102
1016.024736	2570.509552
1016.317737	2573.972825
1016.610703	2573.965263
1016.903635	2574.219841
1017.196531	2574.035839
1017.489393	2574.870150
1017.782219	2570.771692
1018.075011	2573.987948
1018.367768	2572.319326
1018.660490	2574.214800
1018.953177	2574.214800
1019.245829	2574.214800
