Dividing Wavelength (nm)	Counts (n)	Blue Motor Position (mm): 45.000000	Red Motor Position (mm): 0.000000	
326.493990	2154.016983
326.888308	2154.016983
327.282561	2154.016983
327.676750	2129.080915
328.070874	2129.459002
328.464933	2134.631226
328.858929	2143.208749
329.252859	2156.003198
329.646726	2167.728921
330.040528	2184.190809
330.434265	2201.575228
330.827938	2223.259752
331.221547	2241.586866
331.615091	2260.264341
332.008571	2282.137908
332.401986	2301.674900
332.795338	2322.915801
333.188625	2341.126970
333.581847	2361.704960
333.975006	2380.581560
334.368100	2399.347255
334.761129	2417.165214
335.154095	2433.445620
335.546996	2457.035699
335.939833	2489.223467
336.332606	2504.044459
336.725315	2514.966119
337.117960	2522.086749
337.510540	2530.132430
337.903056	2539.690458
338.295508	2546.526262
338.687896	2552.696635
339.080220	2563.406566
339.472480	2565.803635
339.864676	2571.419480
340.256807	2575.520459
340.648875	2574.887794
341.040879	2575.840572
341.432818	2578.903073
341.824694	2580.654874
342.216506	2578.156982
342.608253	2578.414081
342.999937	2579.024061
343.391557	2576.768144
343.783113	2577.539441
344.174605	2573.924934
344.566033	2572.465520
344.957397	2574.015674
345.348697	2570.970817
345.739934	2568.684654
346.131106	2566.370765
346.522215	2563.207441
346.913260	2563.719118
347.304241	2560.966648
347.695159	2561.775753
348.086012	2558.123437
348.476802	2555.098745
348.867528	2555.018086
349.258191	2551.353167
349.648789	2555.209650
350.039324	2550.657488
350.429796	2552.578168
350.820203	2550.639844
351.210548	2548.615821
351.600828	2546.929555
351.991045	2550.367622
352.381198	2545.815460
352.771288	2547.166489
353.161314	2549.621531
353.551276	2547.194215
353.941175	2547.436191
354.331010	2546.211190
354.720782	2548.457024
355.110490	2545.011396
355.500135	2549.447611
355.889717	2547.703372
356.279235	2548.323434
356.668689	2549.180430
357.058080	2549.543393
357.447408	2547.922662
357.836672	2543.836807
358.225873	2546.508618
358.615010	2546.836293
359.004084	2553.752757
359.393095	2553.084804
359.782043	2550.954916
360.170927	2553.906512
360.559748	2551.736295
360.948505	2554.279557
361.337199	2555.365926
361.725830	2555.532284
362.114398	2555.968344
362.502903	2554.884496
362.891344	2556.719476
363.279722	2558.246945
363.668037	2556.384239
364.056289	2556.328786
364.444478	2558.458674
364.832603	2559.025803
365.220665	2555.779300
365.608665	2559.882800
365.996601	2557.581513
366.384474	2560.250804
366.772284	2559.358520
367.160031	2561.558983
367.547715	2561.344734
367.935336	2560.636452
368.322893	2561.737944
368.710388	2561.806000
369.097820	2563.706515
369.485189	2562.400856
369.872495	2564.825651
370.259738	2561.314487
370.646918	2562.932698
371.034035	2562.113510
371.421090	2566.539643
371.808081	2565.357493
372.195010	2562.461350
372.581875	2562.496638
372.968678	2563.940928
373.355418	2564.218192
373.742096	2568.362020
374.128710	2565.854046
374.515262	2567.683985
374.901751	2569.284552
375.288177	2568.230950
375.674540	2569.783626
376.060841	2566.975703
376.447079	2568.999726
376.833254	2568.903944
377.219367	2567.008471
377.605417	2568.533420
377.991404	2564.129972
378.377329	2567.333625
378.763191	2565.360013
379.148991	2572.372258
379.534727	2572.294120
379.920402	2572.578946
380.306013	2573.665314
380.691563	2574.749162
381.077049	2576.014492
381.462474	2575.822928
381.847835	2577.862075
382.233134	2579.172775
382.618371	2583.291397
383.003545	2582.802406
383.388657	2586.379104
383.773706	2586.875658
384.158693	2588.705597
384.543618	2592.186513
384.928480	2595.183479
385.313280	2599.564242
385.698017	2601.757144
386.082692	2605.588421
386.467305	2609.916252
386.851856	2615.756428
387.236344	2620.081738
387.620770	2625.135495
388.005133	2630.519447
388.389435	2637.461116
388.773674	2641.052938
389.157851	2646.449493
389.541965	2654.739671
389.926018	2658.845691
390.310008	2669.298523
390.693936	2676.734225
391.077802	2682.894515
391.461606	2692.308870
391.845348	2699.489994
392.229027	2710.240254
392.612645	2721.577809
392.996200	2731.660117
393.379694	2743.300141
393.763125	2757.395207
394.146494	2767.172525
394.529801	2779.107457
394.913047	2795.992802
395.296230	2803.693164
395.679351	2811.093578
396.062410	2830.381033
396.445408	2833.851867
396.828343	2848.335102
397.211217	2858.634179
397.594028	2860.300281
397.976778	2878.566902
398.359466	2893.705487
398.742092	2896.916702
399.124656	2917.638365
399.507158	2928.665889
399.889598	2939.373299
400.271977	2959.046402
400.654294	2971.026704
401.036549	2986.334168
401.418742	2999.473936
401.800874	3023.593336
402.182944	3035.026673
402.564952	3065.013977
402.946898	3061.417113
403.328783	3073.412539
403.710606	3090.582709
404.092367	3116.738736
404.474067	3146.146307
404.855705	3138.851757
405.237282	3145.601862
405.618797	3176.993127
406.000250	3200.177394
406.381642	3233.748958
406.762972	3240.645256
407.144240	3234.563104
407.525447	3257.444901
407.906593	3263.002773
408.287677	3283.026237
408.668700	3303.125317
409.049661	3303.952066
409.430560	3321.432267
409.811399	3325.596260
410.192176	3346.224662
410.572891	3355.820498
410.953545	3392.903226
411.334138	3364.697970
411.714669	3415.364087
412.095139	3360.483565
412.475547	3414.978438
412.855894	3404.986872
413.236180	3436.242025
413.616405	3417.950199
413.996568	3442.619085
414.376670	3441.449537
414.756711	3440.816873
415.136691	3468.069350
415.516609	3488.680108
415.896466	3497.378619
416.276262	3520.424253
416.655997	3549.166392
417.035670	3557.413720
417.415283	3625.668422
417.794834	3645.941422
418.174324	3629.199751
418.553753	3630.369298
418.933121	3674.514682
419.312428	3666.428672
419.691674	3660.737209
420.070859	3697.260369
420.449983	3678.177081
420.829045	3729.531315
421.208047	3713.447514
421.586988	3759.264040
421.965867	3790.446098
422.344686	3799.074032
422.723444	3835.889579
423.102141	3743.918768
423.480777	3844.996423
423.859352	3812.841423
424.237866	3911.108635
424.616319	3895.402921
424.994712	3954.026499
425.373044	3943.377061
425.751314	4006.043645
426.129524	3942.187349
426.507673	4040.772153
426.885762	4021.663660
427.263789	4040.918347
427.641756	4044.250550
428.019662	4078.580807
428.397508	4077.033173
428.775292	4117.627064
429.153016	4123.353815
429.530679	4137.804283
429.908282	4143.097494
430.285824	4121.433136
430.663305	4190.048281
431.040726	4152.882374
431.418086	4143.462978
431.795385	4219.599524
432.172624	4252.586315
432.549802	4218.709761
432.926920	4237.820775
433.303977	4233.321545
433.680974	4273.502062
434.057910	4294.939569
434.434786	4303.504489
434.811601	4297.437460
435.188355	4403.475611
435.565050	4371.234912
435.941683	4367.680898
436.318257	4459.361843
436.694770	4463.503150
437.071222	4521.100854
437.447614	4454.512252
437.823946	4459.192964
438.200218	4476.022856
438.576429	4458.391420
438.952580	4479.591993
439.328670	4491.083303
439.704700	4535.611815
440.080670	4494.097913
440.456580	4556.986307
440.832429	4591.293880
441.208218	4495.688397
441.583947	4546.921644
441.959616	4558.594435
442.335224	4589.675669
442.710773	4611.042600
443.086261	4666.943955
443.461689	4613.527889
443.837057	4627.756546
444.212365	4705.312177
444.587612	4705.413000
444.962800	4673.699101
445.337927	4713.430955
445.712995	4605.537660
446.088002	4795.231238
446.462949	4816.646060
446.837837	4839.979040
447.212664	4824.033871
447.587431	5048.768509
447.962139	5349.536350
448.336786	5689.620151
448.711374	5667.179454
449.085901	5311.634435
449.460369	5254.629068
449.834776	5191.317216
450.209124	5423.336322
450.583412	5432.836377
450.957640	5560.485954
451.331808	5416.603861
451.705917	5270.286891
452.079965	5260.280201
452.453954	5297.708248
452.827883	5268.378815
453.201752	5268.250265
453.575562	5302.827539
453.949311	5435.987098
454.323001	5436.803765
454.696632	5433.862251
455.070202	5587.133493
455.443713	5614.804386
455.817164	5712.174273
456.190556	5783.279748
456.563888	5756.614565
456.937160	5827.939330
457.310373	5674.002656
457.683526	5734.700669
458.056619	5724.832610
458.429653	5707.538932
458.802628	5753.108442
459.175542	5788.842661
459.548398	5927.169402
459.921194	6109.608760
460.293930	6177.440005
460.666607	6432.532472
461.039224	6644.298743
461.411782	6767.935561
461.784280	6675.604308
462.156719	6685.336255
462.529099	6646.234546
462.901419	6511.547518
463.273680	6378.892075
463.645882	6364.071082
464.018024	6368.822370
464.390106	6438.738133
464.762130	6699.953081
465.134094	7090.287103
465.505999	7727.125986
465.877845	8436.567567
466.249631	8781.891646
466.621358	8704.845171
466.993026	8504.590376
467.364634	8290.916029
467.736184	8004.996906
468.107674	7852.872527
468.479105	7772.319930
468.850477	7703.576236
469.221790	7527.657610
469.593043	7306.350957
469.964238	7207.284722
470.335373	7183.863521
470.706449	7340.058632
471.077467	7541.341823
471.448425	8198.925054
471.819324	8776.926110
472.190164	8804.909555
472.560945	8319.287643
472.931667	7850.684667
473.302330	7662.715163
473.672934	7536.464506
474.043479	7621.057588
474.413965	7517.323245
474.784393	7473.850855
475.154761	7627.016232
475.525070	7640.551730
475.895321	7586.840757
476.265513	7690.544853
476.635645	7853.021241
477.005719	7840.546906
477.375734	7929.795494
477.745691	8043.453348
478.115588	8245.220490
478.485427	8482.116912
478.855207	8959.660375
479.224928	9397.154391
479.594591	9776.632288
479.964194	9784.393144
480.333739	9869.543274
480.703226	9864.565134
481.072653	9965.060536
481.442022	10085.201315
481.811333	10236.796372
482.180584	10069.833357
482.549777	10016.777733
482.918912	9949.516138
483.287988	9936.683881
483.657005	9844.468574
484.025964	9757.528835
484.394864	9826.887550
484.763706	9784.985480
485.132489	9696.971975
485.501213	9684.734574
485.869879	9754.620089
486.238487	9680.023615
486.607036	9761.546635
486.975527	9708.049910
487.343959	9766.494527
487.712333	9805.167739
488.080648	9845.121404
488.448905	9948.845665
488.817104	9964.531215
489.185244	10125.770000
489.553326	10341.233957
489.921350	10816.730711
490.289315	11449.430807
490.657222	11738.689694
491.025070	11914.731827
491.392861	11821.483084
491.760593	11659.329329
492.128267	11409.209961
492.495883	11166.695173
492.863440	10935.913670
493.230939	10706.989833
493.598380	10521.586277
493.965763	10509.512713
494.333088	10370.278565
494.700354	10302.313728
495.067563	10280.218351
495.434713	10283.011150
495.801805	10325.543365
496.168839	10281.859247
496.535815	10249.162323
496.902733	10292.027254
497.269593	10254.032077
497.636395	10254.442932
498.003139	10374.868535
498.369825	10303.463112
498.736453	10398.370394
499.103023	10333.062246
499.469535	10334.002422
499.835989	10394.907122
500.202385	10366.427123
500.568723	10386.357325
500.935003	10447.554412
501.301226	10416.311861
501.667390	10580.542571
502.033497	10677.864567
502.399546	10604.367064
502.765537	10517.845741
503.131470	10617.010278
503.497345	10709.023938
503.863163	10482.862653
504.228923	10616.047418
504.594625	10734.328010
504.960269	10640.612960
505.325856	10791.436722
505.691385	10678.623260
506.056856	10743.197920
506.422270	10842.702736
506.787625	10773.860739
507.152924	10832.643113
507.518164	10890.450024
507.883347	10755.800805
508.248472	10829.111785
508.613540	10940.682602
508.978550	11010.825216
509.343503	10989.233954
509.708398	11047.003057
510.073236	11181.496000
510.438016	11190.807012
510.802738	11103.297622
511.167403	11238.488765
511.532010	11290.765531
511.896561	11387.888401
512.261053	11583.230592
512.625488	11502.070535
512.989866	11493.450162
513.354186	11460.838938
513.718449	11472.889816
514.082655	11617.230654
514.446803	11576.402349
514.810894	11682.657269
515.174927	11677.737103
515.538904	11663.004331
515.902822	11818.917137
516.266684	11692.706809
516.630488	11795.122891
516.994235	11782.227619
517.357925	11903.474931
517.721558	11949.694750
518.085133	12023.618230
518.448651	12055.397664
518.812112	12017.929288
519.175516	12026.995803
519.538863	12115.422682
519.902152	12121.149433
520.265385	12224.578787
520.628560	12248.173907
520.991678	12194.682224
521.354739	12251.886717
521.717743	12322.160402
522.080690	12292.233592
522.443580	12424.044642
522.806413	12439.526025
523.169189	12437.295314
523.531908	12508.065553
523.894569	12460.661063
524.257174	12480.881131
524.619722	12582.604053
524.982213	12557.478943
525.344647	12551.931153
525.707025	12564.733163
526.069345	12664.855520
526.431608	12644.229639
526.793815	12726.793656
527.155964	12622.847585
527.518057	12641.600677
527.880093	12602.725819
528.242072	12716.870145
528.603995	12646.961944
528.965860	12658.581804
529.327669	12691.734952
529.689421	12641.658650
530.051117	12658.856547
530.412755	12695.891383
530.774337	12696.692927
531.135862	12649.149805
531.497331	12716.930639
531.858743	12666.264522
532.220098	12759.775405
532.581396	12686.154395
532.942638	12604.182712
533.303824	12671.550172
533.664953	12650.221050
534.026025	12602.682969
534.387040	12708.784134
534.747999	12675.031089
535.108902	12730.728277
535.469748	12606.335285
535.830537	12623.447482
536.191270	12679.137108
536.551947	12610.186727
536.912567	12659.224551
537.273131	12706.485368
537.633638	12570.711972
537.994089	12636.320068
538.354483	12561.353069
538.714821	12682.902850
539.075103	12755.321546
539.435328	12690.179756
539.795497	12675.260461
540.155609	12667.973473
540.515665	12767.382507
540.875665	12629.123821
541.235609	12715.216647
541.595496	12684.450485
541.955328	12859.890200
542.315102	12712.776728
542.674821	12650.727686
543.034483	12661.654387
543.394090	12659.675734
543.753640	12629.711116
544.113134	12880.213612
544.472571	12633.701189
544.831953	12919.630394
545.191278	12740.049370
545.550548	12669.909276
545.909761	12793.346969
546.268918	12825.817041
546.628019	12900.050552
546.987064	12782.430351
547.346053	12635.994914
547.704986	12830.533041
548.063863	12705.855224
548.422684	12754.751896
548.781449	12711.541645
549.140158	12814.252634
549.498811	12764.569543
549.857408	12630.053914
550.215949	12836.930265
550.574434	12799.683700
550.932864	12749.206626
551.291237	12951.598871
551.649555	12840.509484
552.007817	12893.018143
552.366022	12818.542656
552.724173	12866.292466
553.082267	12951.787914
553.440305	13034.324206
553.798288	12863.474461
554.156215	12926.211620
554.514086	12978.357316
554.871902	12927.265221
555.229661	12942.560082
555.587365	12901.351170
555.945014	12919.307760
556.302606	12892.531671
556.660143	12947.200464
557.017625	12985.964417
557.375050	12951.341772
557.732421	13051.751474
558.089735	13052.583265
558.446994	13025.673586
558.804197	13143.820588
559.161345	13123.930715
559.518437	12944.500926
559.875474	13041.613714
560.232455	13052.343810
560.589381	13101.432046
560.946251	13039.055328
561.303065	13219.942011
561.659825	13164.867405
562.016528	13085.002925
562.373177	13020.201413
562.729770	13158.636539
563.086307	13046.193602
563.442789	13144.417964
563.799216	13184.555631
564.155587	13127.794760
564.511904	13148.009787
564.868164	13157.051096
565.224370	13228.940470
565.580520	13177.215711
565.936615	13227.135737
566.292654	13163.556705
566.648638	13241.349271
567.004567	13246.241710
567.360441	13251.166918
567.716260	13215.835991
568.072023	13290.132516
568.427732	13277.244807
568.783385	13173.843179
569.138982	13290.775263
569.494525	13284.143626
569.850013	13232.597828
570.205445	13229.021129
570.560823	13242.390269
570.916145	13190.105942
571.271412	13196.341849
571.626625	13166.508301
571.981782	13163.854133
572.336884	13110.652316
572.691931	13191.736755
573.046923	13083.598964
573.401860	13067.963825
573.756743	13064.606417
574.111570	13084.208943
574.466342	13061.584245
574.821059	13114.350002
575.175722	12980.396462
575.530330	13001.655008
575.884882	12939.973970
576.239380	12931.588011
576.593823	12916.076380
576.948211	12918.906988
577.302544	12789.011577
577.656823	12806.033033
578.011047	12873.715565
578.365216	12809.433291
578.719330	12749.919950
579.073389	12723.950446
579.427394	12738.721026
579.781344	12723.678223
580.135239	12660.918378
580.489080	12674.370697
580.842866	12543.121737
581.196597	12650.649548
581.550273	12635.669759
581.903895	12597.762803
582.257463	12709.956202
582.610975	12551.442161
582.964434	12611.131943
583.317837	12538.216694
583.671186	12497.395951
584.024481	12552.538612
584.377721	12438.890840
584.730906	12516.005370
585.084037	12526.483408
585.437113	12445.454422
585.790135	12463.842031
586.143103	12382.878579
586.496016	12386.992161
586.848874	12407.365984
587.201679	12408.638875
587.554428	12280.908640
587.907124	12326.430259
588.259765	12266.281732
588.612352	12330.402688
588.964884	12195.690455
589.317362	12242.810120
589.669786	12235.510529
590.022155	12193.726925
590.374470	12298.313223
590.726731	12178.424503
591.078937	12074.206209
591.431090	12086.483939
591.783188	12016.356448
592.135232	11941.213008
592.487222	12005.339006
592.839157	12010.944769
593.191038	11942.281733
593.542866	11898.108623
593.894639	11743.032648
594.246358	11811.352885
594.598022	11810.228708
594.949633	11717.622712
595.301190	11706.181813
595.652692	11665.522387
596.004141	11752.310892
596.355535	11537.754343
596.706876	11509.849036
597.058162	11478.233439
597.409395	11569.677449
597.760573	11602.954106
598.111698	11498.362767
598.462768	11493.281283
598.813785	11506.610094
599.164748	11386.156764
599.515657	11462.988990
599.866511	11336.524084
600.217312	11465.381017
600.568060	11230.705224
600.918753	11392.337219
601.269392	11389.483926
601.619978	11297.976901
601.970510	11332.614669
602.320988	11370.607325
602.671412	11448.548605
603.021783	11371.751667
603.372100	11296.661160
603.722363	11311.376288
604.072572	11310.254631
604.422728	11319.928606
604.772830	11268.097982
605.122878	11278.863366
605.472872	11251.507545
605.822813	11303.375977
606.172701	11271.407500
606.522534	11309.599281
606.872314	11353.792557
607.222041	11289.795108
607.571714	11370.975329
607.921333	11245.354817
608.270899	11293.684359
608.620411	11351.662669
608.969870	11302.420678
609.319276	11290.447938
609.668627	11300.663836
610.017926	11383.406815
610.367171	11395.772765
610.716362	11391.739842
611.065500	11371.933149
611.414585	11380.699715
611.763616	11443.792276
612.112594	11412.711042
612.461518	11432.142170
612.810389	11485.719553
613.159207	11423.236971
613.507971	11420.169429
613.856682	11526.255471
614.205340	11477.192441
614.553945	11621.452620
614.902496	11495.461582
615.250994	11557.520707
615.599439	11547.042669
615.947830	11583.883421
616.296169	11547.650128
616.644454	11567.960937
616.992686	11578.426372
617.340864	11667.586739
617.688990	11558.070193
618.037063	11695.935668
618.385082	11664.269660
618.733048	11705.786083
619.080961	11688.061386
619.428821	11677.220384
619.776628	11674.541011
620.124382	11622.150820
620.472083	11639.504992
620.819731	11668.088334
621.167326	11594.618558
621.514868	11572.175341
621.862357	11474.865948
622.209793	11463.291459
622.557176	11385.554346
622.904506	11326.855151
623.251783	11247.492266
623.599007	11176.500217
623.946179	11129.335182
624.293297	11114.345311
624.640363	10978.329939
624.987376	10960.968205
625.334336	10894.316589
625.681243	10821.240023
626.028097	10790.085692
626.374899	10753.491957
626.721647	10717.150278
627.068343	10683.334218
627.414987	10622.321133
627.761577	10552.917048
628.108115	10605.879410
628.454600	10476.717487
628.801032	10492.307255
629.147412	10470.804213
629.493739	10438.646693
629.840014	10366.764880
630.186236	10416.009392
630.532405	10314.006685
630.878521	10347.343835
631.224585	10298.837853
631.570597	10222.408919
631.916556	10231.727492
632.262462	10216.077230
632.608316	10196.814981
632.954117	10172.985447
633.299866	10155.280915
633.645562	10129.041709
633.991206	10030.207367
634.336797	9924.080997
634.682336	9924.680894
635.027823	9869.056802
635.373257	9827.510133
635.718639	9757.740564
636.063968	9725.998938
636.409245	9611.237071
636.754470	9598.233415
637.099642	9552.714316
637.444762	9446.918141
637.789829	9447.578532
638.134845	9370.524496
638.479808	9360.684163
638.824719	9331.054782
639.169577	9245.587059
639.514383	9241.218899
639.859137	9173.196090
640.203839	9209.774702
640.548489	9130.676478
640.893086	9140.484043
641.237632	9073.789577
641.582125	9074.407119
641.926566	9056.687463
642.270955	9044.876039
642.615292	9037.563846
642.959576	9020.648254
643.303809	9004.879525
643.647990	9021.285960
643.992118	9001.885079
644.336195	8982.090989
644.680219	8980.024116
645.024192	9022.145477
645.368112	9085.938758
645.711981	9064.612157
646.055797	9200.216675
646.399562	9158.594388
646.743274	9321.383328
647.086935	9385.912618
647.430544	9362.168783
647.774101	9380.684941
648.117606	9413.104602
648.461059	9483.519438
648.804460	9408.234847
649.147810	9292.933576
649.491108	9263.344524
649.834354	9190.414151
650.177548	9051.358963
650.520690	8957.167524
650.863781	8950.170403
651.206820	8928.110313
651.549807	8839.426335
651.892742	8743.621727
652.235626	8702.075057
652.578458	8663.933687
652.921238	8554.727172
653.263967	8600.669727
653.606644	8534.620529
653.949269	8507.312599
654.291843	8427.876617
654.634365	8501.200200
654.976836	8424.980474
655.319255	8423.326976
655.661622	8411.069410
656.003938	8370.352011
656.346203	8336.767844
656.688416	8362.739868
657.030577	8320.673960
657.372687	8286.313456
657.714746	8312.608114
658.056753	8337.133328
658.398708	8233.058706
658.740612	8225.607881
659.082465	8268.848378
659.424266	8225.698622
659.766016	8239.917196
660.107715	8204.992082
660.449362	8227.457984
660.790958	8221.917756
661.132503	8226.721976
661.473996	8216.513639
661.815438	8231.168274
662.156829	8263.865198
662.498168	8209.629944
662.839456	8201.546454
663.180693	8230.943942
663.521879	8245.984225
663.863013	8235.826300
664.204097	8226.704332
664.545129	8298.886093
664.886110	8288.990308
665.227040	8293.456771
665.567918	8308.058473
665.908746	8324.331317
666.249522	8344.798402
666.590248	8334.330446
666.930922	8351.089762
667.271545	8344.064914
667.612118	8362.875980
667.952639	8318.569278
668.293109	8320.069022
668.633528	8303.685272
668.973896	8295.828633
669.314213	8296.226885
669.654480	8251.063187
669.994695	8249.245851
670.334859	8229.734065
670.674973	8204.072072
671.015035	8228.385557
671.355047	8216.390131
671.695008	8202.279942
672.034918	8181.182713
672.374777	8190.700411
672.714585	8163.667224
673.054342	8194.342645
673.394049	8154.250348
673.733705	8199.580404
674.073310	8148.029564
674.412864	8157.181779
674.752368	8093.448992
675.091820	8142.428842
675.431223	8074.148934
675.770574	8028.823920
676.109875	8005.269129
676.449125	7964.019887
676.788324	7946.070859
677.127473	7858.138013
677.466571	7840.458686
677.805619	7782.442567
678.144616	7782.823174
678.483562	7764.985051
678.822458	7717.663740
679.161303	7701.579939
679.500098	7675.401227
679.838842	7660.058475
680.177535	7673.445259
680.516179	7707.674694
680.854771	7721.361426
681.193314	7838.868202
681.531805	7992.114238
681.870247	8114.647044
682.208638	8267.981300
682.546978	8345.922579
682.885268	8375.675469
683.223508	8304.602762
683.561697	8259.255062
683.899836	8224.178714
684.237925	8142.852299
684.575963	8115.199050
684.913951	8029.718725
685.251889	8049.107002
685.589776	8045.217752
685.927614	8025.912654
686.265401	8043.004686
686.603137	8049.477527
686.940824	8119.239535
687.278460	8173.797422
687.616046	8181.959050
687.953582	8298.646638
688.291068	8276.145448
688.628504	8340.611724
688.965889	8343.071807
689.303224	8296.806617
689.640510	8262.773788
689.977745	8150.744226
690.314930	8029.935494
690.652065	7955.412117
690.989150	7843.879109
691.326185	7687.683998
691.663170	7578.961433
692.000105	7454.213040
692.336990	7343.405958
692.673825	7268.809484
693.010610	7170.501943
693.347345	7080.245124
693.684030	6965.510983
694.020665	6919.170177
694.357251	6808.884854
694.693786	6795.278780
695.030272	6749.525267
695.366707	6656.770557
695.703093	6605.920438
696.039429	6604.145952
696.375716	6552.373302
696.711952	6546.207971
697.048139	6515.174628
697.384276	6481.348486
697.720363	6506.876889
698.056400	6481.610626
698.392388	6442.942455
698.728326	6439.179234
699.064214	6412.158649
699.400053	6408.471045
699.735842	6351.115317
700.071581	6305.127391
700.407270	6262.630464
700.742910	6227.455813
701.078501	6188.039031
701.414042	6149.693495
701.749533	6095.884218
702.084974	6035.307193
702.420366	6076.677422
702.755709	6001.491133
703.091002	5951.815603
703.426246	5957.139062
703.761440	5938.322955
704.096584	5892.876953
704.431679	5885.128700
704.766725	5866.814188
705.101721	5851.892372
705.436668	5870.610177
705.771565	5812.306712
706.106413	5868.417275
706.441212	5867.892995
706.775961	5889.433845
707.110661	5897.348457
707.445311	5954.033711
707.779913	5922.987765
708.114465	5962.339012
708.448967	6005.191340
708.783421	6119.648218
709.117825	6161.325957
709.452180	6200.740218
709.786485	6260.800525
710.120742	6392.493108
710.454949	6393.937398
710.789107	6475.142825
711.123216	6595.873419
711.457275	6626.518593
711.791286	6726.893007
712.125247	6751.264465
712.459159	6718.078550
712.793023	6846.280133
713.126837	6675.926942
713.460602	6738.258288
713.794318	6689.192738
714.127985	6642.317569
714.461602	6491.503890
714.795171	6497.218038
715.128691	6323.517520
715.462162	6235.993007
715.795584	6167.922307
716.128957	6127.104084
716.462281	6056.515327
716.795556	6024.599783
717.128782	5935.494868
717.461960	5836.290001
717.795088	5824.947405
718.128167	5753.904944
718.461198	5677.629766
718.794180	5648.963245
719.127113	5592.197332
719.459997	5554.572680
719.792833	5492.924410
720.125619	5485.130786
720.458357	5426.476961
720.791046	5399.504267
721.123686	5374.716914
721.456278	5325.011137
721.788821	5317.877904
722.121315	5281.810969
722.453761	5285.299448
722.786158	5272.578096
723.118506	5272.706645
723.450805	5254.787864
723.783056	5283.424138
724.115259	5261.520325
724.447412	5250.160085
724.779518	5289.453358
725.111574	5293.733298
725.443582	5330.962219
725.775542	5322.515766
726.107453	5406.786214
726.439315	5379.760588
726.771129	5448.370692
727.102895	5512.128685
727.434612	5553.952618
727.766281	5582.321712
728.097901	5642.147605
728.429473	5655.380634
728.760996	5669.274054
729.092471	5691.639133
729.423897	5678.701011
729.755276	5643.987626
730.086606	5661.094782
730.417887	5747.212813
730.749120	5840.950548
731.080305	5876.778028
731.411442	5953.310305
731.742530	5973.217822
732.073570	5991.996120
732.404562	6062.451286
732.735506	6056.343928
733.066401	6036.038161
733.397249	5969.900743
733.728048	5877.284664
734.058798	5731.239917
734.389501	5606.355412
734.720156	5520.991034
735.050762	5414.927678
735.381320	5338.831460
735.711831	5284.313902
736.042293	5205.402200
736.372707	5201.470100
736.703073	5157.004603
737.033391	5183.092574
737.363661	5171.205533
737.693883	5179.757851
738.024056	5207.627870
738.354182	5234.953444
738.684260	5285.246515
739.014290	5319.080219
739.344272	5356.147824
739.674207	5409.576493
740.004093	5446.571000
740.333931	5451.138286
740.663722	5471.270133
740.993464	5481.632225
741.323159	5458.153051
741.652806	5412.754940
741.982405	5384.022884
742.311956	5336.999001
742.641460	5327.602290
742.970915	5269.659268
743.300323	5211.973344
743.629683	5183.783212
743.958996	5126.435046
744.288260	5081.213375
744.617477	5017.125186
744.946647	5001.981560
745.275768	4953.357111
745.604842	4919.367131
745.933869	4880.484711
746.262847	4873.296026
746.591778	4858.810270
746.920662	4836.493082
747.249498	4831.386393
747.578286	4846.177139
747.907027	4874.458012
748.235720	4913.773971
748.564365	4928.199232
748.892963	4915.208179
749.221514	4932.590078
749.550017	4904.594030
749.878473	4903.190068
750.206881	4865.696487
750.535242	4852.024877
750.863555	4837.425696
751.191821	4812.734124
751.520039	4815.700843
751.848210	4797.139315
752.176334	4805.563083
752.504411	4788.503818
752.832440	4755.234723
753.160421	4765.921970
753.488356	4746.919340
753.816243	4731.589191
754.144082	4699.224984
754.471875	4685.467675
754.799620	4674.082229
755.127318	4667.236342
755.454969	4661.756608
755.782572	4656.062624
756.110129	4655.014064
756.437638	4642.688443
756.765100	4636.255931
757.092515	4634.771311
757.419882	4642.370851
757.747203	4639.928412
758.074477	4653.572294
758.401703	4640.548473
758.728882	4676.948125
759.056014	4685.250905
759.383099	4706.101118
759.710138	4735.226384
760.037129	4756.295886
760.364073	4766.892392
760.690970	4767.036065
761.017820	4764.346609
761.344623	4799.438081
761.671379	4862.218090
761.998088	4954.599755
762.324751	5185.363614
762.651366	5647.158512
762.977935	6338.290622
763.304456	6902.541931
763.630931	7204.436470
763.957359	7141.979094
764.283740	6851.681729
764.610074	6533.935282
764.936362	6127.020905
765.262602	5807.149611
765.588796	5460.696313
765.914943	5204.000759
766.241044	4978.819979
766.567097	4807.836643
766.893104	4658.825177
767.219064	4559.239703
767.544978	4462.081545
767.870845	4380.465264
768.196665	4330.441895
768.522438	4281.764513
768.848165	4240.124582
769.173846	4197.128581
769.499479	4170.390301
769.825066	4132.206081
770.150607	4093.815174
770.476101	4080.168771
770.801548	4059.313517
771.126949	4027.828991
771.452303	4008.932226
771.777611	3969.744816
772.102872	3968.484528
772.428087	3945.731280
772.753256	3914.816404
773.078378	3899.720669
773.403453	3866.678426
773.728482	3838.591637
774.053465	3825.419102
774.378401	3805.894713
774.703291	3783.408647
775.028135	3759.402672
775.352932	3751.742639
775.677683	3732.576172
776.002388	3708.292934
776.327046	3713.828121
776.651658	3695.498485
776.976224	3676.596679
777.300743	3674.381092
777.625216	3657.210922
777.949643	3649.873522
778.274024	3650.125580
778.598359	3630.286119
778.922647	3630.838126
779.246889	3623.198257
779.571086	3619.835807
779.895236	3621.287660
780.219339	3623.654481
780.543397	3623.977115
780.867409	3634.795431
781.191374	3634.858446
781.515294	3628.040285
781.839167	3646.556443
782.162995	3646.778254
782.486776	3636.360710
782.810511	3628.579689
783.134201	3613.930096
783.457844	3614.688789
783.781441	3604.924074
784.104993	3600.389556
784.428498	3590.526539
784.751958	3587.365735
785.075372	3581.704520
785.398739	3569.951069
785.722061	3582.632092
786.045337	3579.400712
786.368568	3601.942232
786.691752	3598.889813
787.014891	3649.077020
787.337983	3693.403886
787.661030	3781.205663
787.984031	3876.397771
788.306987	3955.619503
788.629897	4002.061133
788.952760	4009.522041
789.275579	3992.737519
789.598351	3942.215075
789.921078	3892.728588
790.243759	3829.759536
790.566395	3782.312196
790.888984	3732.523240
791.211529	3696.118547
791.534027	3648.973677
791.856480	3612.390023
792.178888	3596.033999
792.501249	3576.388623
792.823566	3542.847306
793.145836	3537.851522
793.468062	3529.377343
793.790241	3512.388654
794.112375	3523.028009
794.434464	3543.437121
794.756507	3541.508879
795.078505	3560.607291
795.400457	3597.770677
795.722364	3651.970642
796.044226	3692.486396
796.366042	3738.252511
796.687812	3739.066658
797.009538	3759.879061
797.331218	3751.573760
797.652852	3747.409767
797.974442	3724.815316
798.295986	3709.966597
798.617484	3684.715457
798.938938	3659.023217
799.260346	3643.849344
799.581709	3610.224847
799.903026	3600.467694
800.224299	3578.914241
800.545526	3545.022564
800.866708	3526.403062
801.187845	3513.777492
801.508936	3491.997187
801.829983	3485.899911
802.150984	3460.028710
802.471940	3449.948923
802.792851	3441.157150
803.113717	3432.342693
803.434538	3423.966816
803.755314	3413.269487
804.076045	3408.140113
804.396731	3397.871283
804.717372	3397.757857
805.037967	3398.637538
805.358518	3399.464288
805.679024	3413.977769
805.999485	3410.330495
806.319901	3414.693613
806.640272	3417.798964
806.960598	3426.787341
807.280879	3427.520829
807.601115	3438.722273
807.921306	3431.311777
808.241453	3433.842436
808.561554	3440.191769
808.881611	3438.316460
809.201623	3437.295627
809.521590	3429.234822
809.841513	3426.333638
810.161390	3435.415276
810.481223	3411.389137
810.801011	3414.005496
811.120755	3410.602717
811.440453	3397.629308
811.760107	3390.276785
812.079716	3382.962070
812.399281	3372.526882
812.718801	3371.400184
813.038276	3365.048330
813.357707	3355.976774
813.677093	3366.406921
813.996434	3348.704909
814.315731	3359.306456
814.634983	3358.893081
814.954191	3358.026003
815.273354	3373.882952
815.592473	3386.644633
815.911547	3403.910585
816.230577	3419.026485
816.549562	3444.280145
816.868502	3467.018270
817.187399	3483.054180
817.506250	3511.330012
817.825058	3521.021630
818.143821	3565.235070
818.462539	3610.325671
818.781213	3666.224505
819.099843	3749.937906
819.418429	3905.238212
819.736970	4057.854103
820.055466	4243.050972
820.373919	4480.900172
820.692327	4823.776772
821.010691	5337.578733
821.329011	6422.306492
821.647286	8170.956732
821.965517	10347.618578
822.283704	11980.435706
822.601847	13066.065831
822.919945	12658.700271
823.237999	11970.839870
823.556010	11083.843809
823.873976	10121.994176
824.191897	9148.353284
824.509775	8381.389617
824.827609	7574.285763
825.145398	7018.677512
825.463144	6632.250385
825.780845	6501.765159
826.098502	6563.234468
826.416116	6938.991993
826.733685	7451.745395
827.051210	7742.957729
827.368692	7640.476113
827.686129	7197.346087
828.003522	6644.137426
828.320872	6081.458957
828.638177	5615.880673
828.955439	5248.234364
829.272656	4903.036313
829.589830	4622.276811
829.906960	4358.294270
830.224046	4146.386847
830.541088	3976.179849
830.858086	3856.414637
831.175041	3762.949124
831.491952	3718.226527
831.808819	3697.247766
832.125642	3732.646748
832.442421	3836.282789
832.759157	4056.813105
833.075849	4430.145835
833.392497	4895.895519
833.709101	5289.158451
834.025662	5396.214914
834.342179	5277.687305
834.658653	5002.420141
834.975083	4727.548707
835.291469	4481.384123
835.607811	4258.146707
835.924110	4100.547635
836.240366	3938.479580
836.556578	3778.589304
836.872746	3640.433962
837.188871	3523.643030
837.504952	3429.252466
837.820990	3355.460056
838.136984	3298.298412
838.452935	3269.790687
838.768842	3252.928027
839.084706	3288.798358
839.400526	3424.942279
839.716303	3649.119870
840.032037	3861.634752
840.347727	3925.881737
840.663373	3836.529805
840.978977	3688.433308
841.294537	3555.581260
841.610054	3445.585804
841.925527	3373.209958
842.240957	3304.882159
842.556344	3244.226996
842.871687	3184.393541
843.186987	3121.394241
843.502244	3069.939184
843.817458	3031.177752
844.132629	2998.891682
844.447756	2976.992910
844.762840	2957.859211
845.077881	2937.636622
845.392879	2923.319745
845.707833	2911.856161
846.022745	2900.168246
846.337613	2894.111300
846.652438	2885.901781
846.967221	2880.873230
847.281960	2875.877446
847.596656	2872.086498
847.911309	2863.882021
848.225919	2859.294571
848.540485	2856.083356
848.855009	2850.994311
849.169490	2850.028930
849.483928	2847.818384
849.798323	2846.658918
850.112675	2839.485357
850.426984	2839.374451
850.741251	2836.385047
851.055474	2835.827999
851.369654	2838.207424
851.683792	2834.822289
851.997887	2835.936384
852.311938	2836.637105
852.625947	2836.790860
852.939914	2831.578307
853.253837	2838.300685
853.567718	2832.440344
853.881555	2832.919254
854.195350	2833.723318
854.509103	2833.277176
854.822812	2833.297340
855.136479	2832.127792
855.450103	2831.724500
855.763685	2831.326249
856.077224	2828.742658
856.390720	2834.628205
856.704173	2836.793380
857.017584	2837.325222
857.330953	2841.340501
857.644278	2844.702951
857.957561	2844.695389
858.270802	2842.996520
858.584000	2845.691017
858.897155	2841.312775
859.210268	2840.546519
859.523339	2838.716581
859.836367	2839.598782
860.149352	2837.710870
860.462295	2838.714060
860.775195	2831.117041
861.088054	2831.676609
861.400869	2830.829695
861.713642	2827.426917
862.026373	2829.012359
862.339062	2834.797083
862.651708	2835.205417
862.964312	2842.315964
863.276873	2844.259329
863.589392	2850.936337
863.901869	2853.643437
864.214303	2862.475539
864.526696	2871.471478
864.839045	2879.013044
865.151353	2884.147459
865.463619	2886.272305
865.775842	2890.209447
866.088023	2892.170455
866.400162	2891.315980
866.712258	2894.116341
867.024313	2895.021228
867.336325	2897.506517
867.648296	2902.688823
867.960224	2899.923750
868.272110	2903.205541
868.583954	2902.898031
868.895755	2905.295099
869.207515	2905.201838
869.519233	2913.610483
869.830909	2912.541758
870.142542	2918.349167
870.454134	2922.752615
870.765684	2924.151535
871.077191	2931.020108
871.388657	2935.058072
871.700081	2942.660132
872.011463	2947.093827
872.322803	2953.581792
872.634101	2957.962554
872.945357	2964.417752
873.256571	2977.101295
873.567744	2981.131697
873.878874	2984.350474
874.189963	2993.003615
874.501010	2997.467556
874.812015	2996.318173
875.122979	3005.155316
875.433900	3006.581963
875.744780	3010.962725
876.055618	3017.463293
876.366415	3017.271729
876.677169	3021.145856
876.987882	3027.384284
877.298554	3038.739483
877.609183	3053.270609
877.919771	3069.193093
878.230317	3094.562700
878.540822	3132.792290
878.851285	3182.840866
879.161707	3254.037081
879.472087	3357.804192
879.782425	3519.796630
880.092722	3799.318528
880.402977	4224.073548
880.713191	4772.384729
881.023363	5372.768508
881.333494	5816.122865
881.643583	6101.147183
881.953631	6178.934707
882.263637	6131.510053
882.573602	5989.596531
882.883526	5822.142003
883.193408	5615.500066
883.503248	5397.578547
883.813048	5181.393705
884.122806	4957.987411
884.432522	4719.051842
884.742197	4487.930061
885.051831	4279.080099
885.361424	4074.227771
885.670975	3906.894231
885.980485	3757.481993
886.289954	3637.101759
886.599382	3534.005122
886.908768	3446.707461
887.218113	3364.357692
887.527417	3301.454174
887.836680	3239.853795
888.145901	3193.119778
888.455082	3158.610560
888.764221	3124.063532
889.073319	3091.444746
889.382376	3073.737693
889.691392	3058.311763
890.000366	3050.167779
890.309300	3042.537992
890.618193	3038.840306
890.927044	3034.310829
891.235855	3034.893083
891.544625	3037.716129
891.853353	3044.524207
892.162041	3059.098183
892.470687	3082.461410
892.779293	3117.091617
893.087858	3167.677075
893.396381	3243.337232
893.704864	3348.256247
894.013306	3509.558046
894.321707	3695.914381
894.630068	3850.549254
894.938387	3924.190430
895.246665	3933.408179
895.554903	3877.368193
895.863100	3788.260757
896.171256	3714.246537
896.479371	3640.595279
896.787446	3564.010070
897.095480	3491.946775
897.403473	3439.264197
897.711425	3380.131463
898.019336	3326.730520
898.327207	3275.923251
898.635038	3227.684450
898.942827	3175.505987
899.250576	3134.917137
899.558284	3092.510950
899.865952	3066.112948
900.173579	3037.978269
900.481165	3014.945237
900.788711	2996.078718
901.096216	2981.628251
901.403681	2969.589976
901.711105	2961.882051
902.018489	2951.766976
902.325832	2960.523460
902.633135	2969.547126
902.940397	3010.095647
903.247619	3098.635952
903.554800	3275.288065
903.861941	3553.721075
904.169041	3819.936848
904.476101	3989.717868
904.783121	4015.256353
905.090100	3947.442752
905.397039	3839.496524
905.703938	3733.392839
906.010796	3629.953403
906.317614	3544.490722
906.624391	3458.594502
906.931129	3386.226218
907.237826	3315.871874
907.544483	3252.983480
907.851099	3178.160154
908.157675	3106.782457
908.464211	3034.514996
908.770707	2973.542240
909.077163	2927.365271
909.383578	2889.047461
909.689954	2861.452184
909.996289	2843.664473
910.302584	2828.425065
910.608839	2819.958447
910.915054	2812.552992
911.221229	2806.891776
911.527363	2805.712146
911.833458	2805.054276
912.139513	2810.060142
912.445527	2812.048877
912.751502	2824.692091
913.057436	2838.580469
913.363331	2855.425485
913.669186	2887.661143
913.975000	2927.052719
914.280775	2987.728047
914.586510	3068.043710
914.892205	3179.130576
915.197859	3328.189934
915.503475	3508.711132
915.809050	3684.259233
916.114585	3822.767455
916.420081	3896.292684
916.725536	3929.486162
917.030952	3889.353536
917.336328	3854.632589
917.641665	3807.984272
917.946961	3744.148141
918.252218	3685.829552
918.557435	3610.658387
918.862612	3543.878222
919.167750	3484.077534
919.472848	3408.432500
919.777906	3339.383816
920.082925	3271.454268
920.387904	3198.234029
920.692843	3144.223107
920.997743	3090.345775
921.302603	3037.854760
921.607423	3004.346211
921.912204	2967.301292
922.216946	2942.844134
922.521647	2918.283632
922.826310	2899.893503
923.130932	2877.760317
923.435516	2855.576720
923.740059	2842.840244
924.044564	2829.090497
924.349028	2815.050884
924.653454	2800.265180
924.957840	2784.965278
925.262186	2775.346756
925.566493	2765.919798
925.870761	2750.801378
926.174989	2746.743249
926.479178	2740.915675
926.783328	2733.074161
927.087438	2725.996381
927.391509	2720.289794
927.695541	2714.298383
927.999533	2708.722867
928.303486	2704.155582
928.607400	2701.146013
928.911275	2696.457740
929.215110	2693.004549
929.518906	2689.533715
929.822663	2690.592357
930.126381	2689.763087
930.430060	2690.778880
930.733699	2689.795855
931.037299	2690.892306
931.340861	2690.360464
931.644383	2690.282326
931.947866	2691.426668
932.251309	2689.652182
932.554714	2689.939528
932.858080	2691.149405
933.161407	2687.741585
933.464694	2687.925587
933.767943	2688.449867
934.071153	2684.850483
934.374323	2682.334947
934.677455	2682.193795
934.980548	2679.527024
935.283602	2680.537776
935.586617	2677.074503
935.889593	2679.040553
936.192530	2679.799247
936.495428	2681.856037
936.798287	2683.940555
937.101108	2687.761749
937.403890	2695.373892
937.706632	2702.915458
938.009336	2716.168651
938.312002	2730.387226
938.614628	2738.269070
938.917216	2751.620566
939.219765	2755.358581
939.522275	2764.946856
939.824747	2764.261259
940.127179	2764.011722
940.429573	2765.024994
940.731929	2765.836619
941.034246	2764.846033
941.336524	2763.913419
941.638763	2765.118255
941.940964	2765.927360
942.243126	2760.296391
942.545250	2755.492172
942.847335	2749.341964
943.149381	2740.797208
943.451389	2738.153123
943.753359	2729.207596
944.055290	2726.051833
944.357182	2723.443036
944.659036	2718.018755
944.960851	2713.912735
945.262628	2711.218238
945.564367	2712.027343
945.866067	2709.068186
946.167729	2707.845706
946.469352	2707.404605
946.770937	2705.715819
947.072484	2703.154912
947.373992	2703.079295
947.675462	2703.830427
947.976893	2700.402442
948.278286	2700.110056
948.579641	2696.974458
948.880958	2697.276927
949.182236	2697.115610
949.483476	2692.908767
949.784678	2695.434385
950.085841	2692.008921
950.386967	2694.758871
950.688054	2697.450847
950.989103	2700.984696
951.290114	2703.195242
951.591087	2708.032229
951.892021	2710.421736
952.192917	2719.145452
952.493776	2721.260217
952.794596	2724.239538
953.095378	2725.101576
953.396122	2725.802296
953.696828	2724.050495
953.997496	2724.461349
954.298126	2722.742316
954.598718	2717.796944
954.899272	2712.478527
955.199788	2708.964842
955.500266	2704.710108
955.800706	2694.385825
956.101108	2687.542459
956.401472	2681.699762
956.701798	2676.323371
957.002087	2670.410098
957.302337	2667.360200
957.602550	2663.919612
957.902724	2657.522388
958.202861	2649.338075
958.502960	2647.089720
958.803022	2640.314409
959.103045	2639.517907
959.403031	2635.797535
959.702979	2631.469705
960.002889	2630.857205
960.302762	2624.865793
960.602596	2622.317490
960.902393	2621.238683
961.202153	2622.153652
961.501875	2616.590739
961.801559	2616.363887
962.101205	2616.081583
962.400814	2613.102261
962.700385	2611.370624
962.999918	2612.943464
963.299414	2610.934565
963.598873	2607.065479
963.898293	2608.391302
964.197677	2609.122270
964.497022	2609.056735
964.796331	2605.616147
965.095601	2605.532968
965.394835	2607.650253
965.694030	2604.290324
965.993189	2606.180757
966.292309	2602.654469
966.591393	2603.977772
966.890439	2604.131527
967.189447	2602.437700
967.488419	2605.031373
967.787353	2603.075406
968.086249	2601.633636
968.385108	2605.338884
968.683930	2604.363421
968.982714	2606.311827
969.281462	2604.756631
969.580172	2606.314347
969.878844	2607.924996
970.177480	2609.311313
970.476078	2611.242075
970.774639	2614.148300
971.073162	2610.722836
971.371649	2610.569081
971.670098	2612.603187
971.968510	2611.791561
972.266885	2613.258537
972.565223	2616.845317
972.863524	2618.143415
973.161788	2621.500823
973.460014	2620.384207
973.758204	2620.270782
974.056356	2621.455453
974.354471	2622.864455
974.652550	2620.187602
974.950591	2621.536111
975.248595	2624.855711
975.546563	2620.880761
975.844493	2620.550566
976.142386	2619.262551
976.440243	2619.514608
976.738062	2620.227932
977.035845	2617.828342
977.333590	2616.598301
977.631299	2615.673249
977.928971	2617.571244
978.226606	2610.624534
978.524204	2613.384565
978.821765	2612.807353
979.119290	2614.849021
979.416777	2610.707713
979.714228	2611.831890
980.011642	2611.171499
980.309020	2618.440843
980.606360	2613.515635
980.903664	2618.702983
981.200931	2626.307563
981.498162	2632.193110
981.795356	2642.164513
982.092513	2659.372491
982.389633	2677.374452
982.686717	2692.916329
982.983764	2711.823177
983.280775	2723.947152
983.577749	2730.513254
983.874686	2732.902761
984.171587	2727.518809
984.468451	2722.081925
984.765279	2716.294680
985.062070	2708.077599
985.358824	2703.807742
985.655543	2691.517409
985.952224	2682.201357
986.248869	2669.157371
986.545478	2653.146666
986.842050	2643.570995
987.138586	2631.210085
987.435086	2621.773045
987.731549	2612.772065
988.027975	2612.784668
988.324366	2606.694954
988.620719	2604.023143
988.917037	2599.125662
989.213318	2599.377719
989.509563	2597.875456
989.805772	2594.139961
990.101944	2596.511823
990.398080	2595.208685
990.694180	2594.754981
990.990244	2594.674323
991.286271	2593.736668
991.582262	2593.106524
991.878217	2592.988057
992.174136	2593.013263
992.470019	2597.736824
992.765865	2596.000146
993.061676	2599.493666
993.357450	2598.477873
993.653188	2598.813110
993.948890	2600.063316
994.244556	2607.045314
994.540186	2608.177053
994.835780	2613.571088
995.131337	2620.898405
995.426859	2630.567338
995.722345	2636.263842
996.017795	2646.255409
996.313208	2657.711431
996.608586	2661.978768
996.903928	2665.782318
997.199234	2666.840961
997.494504	2669.172494
997.789738	2665.086639
998.084936	2664.491783
998.380099	2659.311997
998.675225	2654.467449
998.970316	2648.019813
999.265371	2641.118473
999.560390	2635.114459
999.855373	2627.857718
1000.150320	2621.606687
1000.445232	2616.530245
1000.740108	2610.332147
1001.034948	2605.381734
1001.329752	2600.834613
1001.624521	2603.483739
1001.919254	2594.029055
1002.213951	2591.231215
1002.508613	2592.524271
1002.803239	2587.223497
1003.097829	2588.098138
1003.392384	2590.101996
1003.686903	2590.442274
1003.981386	2585.895153
1004.275834	2587.861203
1004.570246	2587.231059
1004.864623	2585.401120
1005.158964	2582.283167
1005.453270	2584.702921
1005.747540	2582.431881
1006.041775	2584.115626
1006.335974	2586.714341
1006.630138	2580.044894
1006.924266	2583.513208
1007.218359	2583.084710
1007.512416	2582.489854
1007.806438	2580.836356
1008.100425	2581.889957
1008.394376	2579.492888
1008.688292	2582.815008
1008.982172	2580.964905
1009.276017	2580.753177
1009.569827	2581.118660
1009.863602	2582.081521
1010.157341	2580.241499
1010.451045	2581.695872
1010.744714	2581.148907
1011.038347	2579.709658
1011.331945	2580.944740
1011.625508	2582.802406
1011.919036	2577.610017
1012.212528	2581.786613
1012.505986	2576.984914
1012.799408	2579.140007
1013.092795	2579.898701
1013.386147	2578.053639
1013.679464	2577.824266
1013.972745	2580.531366
1014.265992	2578.560275
1014.559204	2583.556058
1014.852380	2577.080696
1015.145521	2580.206211
1015.438628	2579.051787
1015.731699	2577.526838
1016.024736	2580.377611
1016.317737	2581.874833
1016.610703	2580.861561
1016.903635	2576.511046
1017.196531	2576.054821
1017.489393	2576.052301
1017.782219	2578.847620
1018.075011	2577.577250
1018.367768	2579.414750
1018.660490	2579.563464
1018.953177	2579.563464
1019.245829	2579.563464
