Dividing Wavelength (nm)	Counts (n)	Blue Motor Position (mm): 11.400000	Red Motor Position (mm): 0.000000	
326.493990	2139.876546
326.888308	2139.876546
327.282561	2139.876546
327.676750	2105.190887
328.070874	2103.799529
328.464933	2106.148707
328.858929	2114.585078
329.252859	2123.086983
329.646726	2135.130300
330.040528	2147.909625
330.434265	2165.578869
330.827938	2182.265088
331.221547	2200.962728
331.615091	2220.570296
332.008571	2236.548233
332.401986	2259.583786
332.795338	2276.464089
333.188625	2296.023766
333.581847	2315.628813
333.975006	2333.945846
334.368100	2355.373270
334.761129	2370.027905
335.154095	2387.790410
335.546996	2406.936713
335.939833	2423.501944
336.332606	2437.768409
336.725315	2451.371963
337.117960	2462.162553
337.510540	2469.729325
337.903056	2479.088227
338.295508	2485.001500
338.687896	2493.805876
339.080220	2502.585045
339.472480	2508.921775
339.864676	2516.095337
340.256807	2518.421830
340.648875	2522.154804
341.040879	2523.649506
341.432818	2525.050947
341.824694	2528.753675
342.216506	2528.347862
342.608253	2527.127902
342.999937	2529.509848
343.391557	2527.231246
343.783113	2525.754188
344.174605	2528.282327
344.566033	2525.726462
344.957397	2521.907788
345.348697	2519.500637
345.739934	2517.416120
346.131106	2517.088445
346.522215	2514.623320
346.913260	2512.710202
347.304241	2513.625172
347.695159	2514.058711
348.086012	2509.773730
348.476802	2507.911024
348.867528	2506.282731
349.258191	2503.744510
349.648789	2503.943636
350.039324	2500.170332
350.429796	2503.401712
350.820203	2498.436175
351.210548	2497.553973
351.600828	2494.720845
351.991045	2497.183449
352.381198	2497.173366
352.771288	2495.071205
353.161314	2493.700011
353.551276	2496.172697
353.941175	2494.055413
354.331010	2493.957110
354.720782	2495.592965
355.110490	2496.316370
355.500135	2491.355875
355.889717	2491.434013
356.279235	2493.344610
356.668689	2494.461226
357.058080	2493.442912
357.447408	2495.741679
357.836672	2493.788232
358.225873	2495.900475
358.615010	2487.388487
359.004084	2496.923829
359.393095	2497.576659
359.782043	2498.511793
360.170927	2497.972389
360.559748	2499.124293
360.948505	2500.137565
361.337199	2501.347442
361.725830	2500.155209
362.114398	2501.402894
362.502903	2499.255363
362.891344	2501.360045
363.279722	2503.593276
363.668037	2505.612258
364.056289	2502.862308
364.444478	2504.808194
364.832603	2503.943636
365.220665	2505.352638
365.608665	2503.777278
365.996601	2503.968842
366.384474	2506.660818
366.772284	2504.331805
367.160031	2505.942453
367.547715	2504.656959
367.935336	2506.262567
368.322893	2508.878926
368.710388	2509.703154
369.097820	2509.007475
369.485189	2508.122752
369.872495	2508.803308
370.259738	2507.391785
370.646918	2506.870026
371.034035	2507.666528
371.421090	2511.633916
371.808081	2509.766169
372.195010	2510.393792
372.581875	2510.116529
372.968678	2510.207270
373.355418	2509.572084
373.742096	2512.425377
374.128710	2511.933865
374.515262	2512.647188
374.901751	2510.809688
375.288177	2512.667353
375.674540	2510.542506
376.060841	2511.580984
376.447079	2512.894205
376.833254	2511.323885
377.219367	2507.752228
377.605417	2513.224400
377.991404	2509.214162
378.377329	2509.156189
378.763191	2511.500326
379.148991	2512.750532
379.534727	2512.579132
379.920402	2513.894874
380.306013	2513.854544
380.691563	2515.898732
381.077049	2512.546365
381.462474	2515.225738
381.847835	2514.709020
382.233134	2517.713548
382.618371	2515.936541
383.003545	2519.750174
383.388657	2515.336644
383.773706	2518.351254
384.158693	2516.183558
384.543618	2517.249762
384.928480	2512.344719
385.313280	2516.281860
385.698017	2517.141377
386.082692	2518.013496
386.467305	2519.727489
386.851856	2516.213804
387.236344	2519.457787
387.620770	2517.287570
388.005133	2518.232787
388.389435	2518.273116
388.773674	2518.711696
389.157851	2518.542818
389.541965	2517.388393
389.926018	2518.666326
390.310008	2520.188754
390.693936	2522.275792
391.077802	2518.842766
391.461606	2522.386697
391.845348	2519.475431
392.229027	2520.828981
392.612645	2518.986439
392.996200	2520.639938
393.379694	2520.463497
393.763125	2521.194464
394.146494	2521.950638
394.529801	2520.942407
394.913047	2524.269568
395.296230	2523.168076
395.679351	2521.239835
396.062410	2523.238652
396.445408	2521.471728
396.828343	2522.462315
397.211217	2519.838394
397.594028	2519.087262
397.976778	2519.929135
398.359466	2521.277643
398.742092	2519.924094
399.124656	2523.634383
399.507158	2523.762932
399.889598	2523.954496
400.271977	2527.001874
400.654294	2526.555732
401.036549	2522.429547
401.418742	2524.871986
401.800874	2524.083046
402.182944	2527.831143
402.564952	2526.132275
402.946898	2526.102028
403.328783	2526.560773
403.710606	2527.218643
404.092367	2525.557583
404.474067	2527.697553
404.855705	2526.124713
405.237282	2525.141688
405.618797	2528.554549
406.000250	2526.777542
406.381642	2525.756709
406.762972	2527.193438
407.144240	2528.299971
407.525447	2527.327028
407.906593	2527.402645
408.287677	2526.749816
408.668700	2527.876514
409.049661	2528.607481
409.430560	2527.233767
409.811399	2526.275948
410.192176	2528.872142
410.572891	2527.687471
410.953545	2529.585465
411.334138	2529.698891
411.714669	2530.563449
412.095139	2528.287368
412.475547	2529.943387
412.855894	2529.285516
413.236180	2532.831968
413.616405	2530.757533
413.996568	2530.719725
414.376670	2529.174611
414.756711	2529.217461
415.136691	2531.894313
415.516609	2530.805424
415.896466	2529.860208
416.276262	2530.702081
416.655997	2527.697553
417.035670	2528.219312
417.415283	2530.145033
417.794834	2526.278468
418.174324	2529.255269
418.553753	2530.984385
418.933121	2531.395239
419.312428	2532.269879
419.691674	2530.981865
420.070859	2533.883049
420.449983	2530.223171
420.829045	2529.945907
421.208047	2534.987061
421.586988	2535.541588
421.965867	2531.695188
422.344686	2531.019673
422.723444	2535.501259
423.102141	2532.315250
423.480777	2533.724252
423.859352	2533.620909
424.237866	2530.586134
424.616319	2533.399098
424.994712	2533.696526
425.373044	2534.568646
425.751314	2534.629139
426.129524	2533.832637
426.507673	2533.454551
426.885762	2533.625950
427.263789	2535.493697
427.641756	2537.127031
428.019662	2532.552184
428.397508	2533.872966
428.775292	2535.791125
429.153016	2533.661238
429.530679	2537.424459
429.908282	2531.743079
430.285824	2535.392874
430.663305	2535.776002
431.040726	2534.329191
431.418086	2533.734335
431.795385	2535.748276
432.172624	2534.974458
432.549802	2538.437731
432.926920	2537.880684
433.303977	2537.671476
433.680974	2537.938657
434.057910	2535.700385
434.434786	2534.167874
434.811601	2535.493697
435.188355	2537.621064
435.565050	2535.707946
435.941683	2536.529654
436.318257	2535.039993
436.694770	2530.681916
437.071222	2537.842875
437.447614	2533.744417
437.823946	2532.743748
438.200218	2536.113759
438.576429	2536.877494
438.952580	2537.535365
439.328670	2537.807587
439.704700	2539.516538
440.080670	2538.273894
440.456580	2538.352032
440.832429	2538.059645
441.208218	2536.290200
441.583947	2539.577032
441.959616	2538.377237
442.335224	2537.391692
442.710773	2539.723225
443.086261	2538.805735
443.461689	2540.943185
443.837057	2537.890766
444.212365	2538.914120
444.587612	2540.373534
444.962800	2538.896476
445.337927	2539.740869
445.712995	2537.913451
446.088002	2541.719522
446.462949	2539.289686
446.837837	2542.069882
447.212664	2539.997968
447.587431	2541.346477
447.962139	2538.914120
448.336786	2538.737680
448.711374	2541.538041
449.085901	2539.819007
449.460369	2538.183153
449.834776	2541.099460
450.209124	2538.664583
450.583412	2541.011240
450.957640	2540.045859
451.331808	2541.316230
451.705917	2542.266487
452.079965	2538.944367
452.453954	2540.991076
452.827883	2542.934440
453.201752	2538.994779
453.575562	2543.483926
453.949311	2540.544933
454.323001	2540.383617
454.696632	2541.878319
455.070202	2544.202291
455.443713	2540.638195
455.817164	2541.341436
456.190556	2539.471168
456.563888	2539.587114
456.937160	2539.486291
457.310373	2541.752290
457.683526	2543.599873
458.056619	2544.315717
458.429653	2541.709440
458.802628	2544.048535
459.175542	2542.763041
459.548398	2542.505942
459.921194	2542.400078
460.293930	2544.691283
460.666607	2541.616179
461.039224	2545.215563
461.411782	2543.630120
461.784280	2541.359080
462.156719	2541.633823
462.529099	2542.841179
462.901419	2543.032743
463.273680	2544.862682
463.645882	2543.783875
464.018024	2544.287990
464.390106	2544.030891
464.762130	2544.343443
465.134094	2545.389482
465.505999	2544.973587
465.877845	2543.816642
466.249631	2545.278577
466.621358	2545.346633
466.993026	2547.748742
467.364634	2548.444422
467.736184	2545.510470
468.107674	2542.258926
468.479105	2544.046015
468.850477	2543.118443
469.221790	2544.882846
469.593043	2544.303114
469.964238	2542.828576
470.335373	2545.039122
470.706449	2546.501057
471.077467	2542.566436
471.448425	2546.627086
471.819324	2544.401416
472.190164	2545.691952
472.560945	2542.626930
472.931667	2546.483413
473.302330	2544.257743
473.672934	2545.243289
474.043479	2546.954761
474.413965	2545.157589
474.784393	2541.124666
475.154761	2543.670449
475.525070	2540.585263
475.895321	2542.271529
476.265513	2540.615510
476.635645	2548.189843
477.005719	2545.139945
477.375734	2547.549617
477.745691	2547.058104
478.115588	2548.386448
478.485427	2546.821170
478.855207	2546.251520
479.224928	2546.644730
479.594591	2548.681356
479.964194	2547.821839
480.333739	2546.639688
480.703226	2546.763197
481.072653	2549.845862
481.442022	2546.939637
481.811333	2549.825698
482.180584	2546.979966
482.549777	2546.445604
482.918912	2549.099772
483.287988	2549.651778
483.657005	2546.765717
484.025964	2546.914431
484.394864	2549.966850
484.763706	2547.857127
485.132489	2546.034750
485.501213	2547.322765
485.869879	2551.093548
486.238487	2544.345963
486.607036	2548.038609
486.975527	2550.773435
487.343959	2547.731098
487.712333	2548.852755
488.080648	2545.593649
488.448905	2550.037426
488.817104	2548.325954
489.185244	2549.984494
489.553326	2548.421736
489.921350	2551.330482
490.289315	2548.411654
490.657222	2549.054401
491.025070	2548.772097
491.392861	2550.803682
491.760593	2549.591284
492.128267	2550.811243
492.495883	2547.287477
492.863440	2551.481717
493.230939	2548.956099
493.598380	2549.228321
493.965763	2543.509132
494.333088	2549.135060
494.700354	2545.263453
495.067563	2547.509288
495.434713	2542.669780
495.801805	2552.621018
496.168839	2549.147662
496.535815	2551.592622
496.902733	2551.879968
497.269593	2551.937941
497.636395	2549.621531
498.003139	2550.244113
498.369825	2549.009031
498.736453	2549.561037
499.103023	2548.935934
499.469535	2549.046839
499.835989	2549.505584
500.202385	2549.550955
500.568723	2550.418033
500.935003	2549.976932
501.301226	2550.516336
501.667390	2550.239072
502.033497	2551.300235
502.399546	2550.392827
502.765537	2548.946016
503.131470	2553.281409
503.497345	2551.753939
503.863163	2550.443239
504.228923	2550.919628
504.594625	2552.799978
504.960269	2552.048847
505.325856	2551.154042
505.691385	2553.525905
506.056856	2551.784186
506.422270	2552.074052
506.787625	2552.986501
507.152924	2551.164124
507.518164	2551.320400
507.883347	2550.234031
508.248472	2550.647406
508.613540	2551.146480
508.978550	2551.839639
509.343503	2549.813095
509.708398	2548.940975
510.073236	2552.157231
510.438016	2554.582026
510.802738	2550.105482
511.167403	2552.986501
511.532010	2552.724361
511.896561	2555.128992
512.261053	2552.061449
512.625488	2550.145811
512.989866	2547.146324
513.354186	2548.149514
513.718449	2547.118598
514.082655	2549.137580
514.446803	2550.327292
514.810894	2551.595143
515.174927	2552.759649
515.538904	2552.046326
515.902822	2551.327962
516.266684	2550.912066
516.630488	2554.062788
516.994235	2552.963816
517.357925	2555.267623
517.721558	2553.276367
518.085133	2554.453477
518.448651	2553.520863
518.812112	2553.677139
519.175516	2553.079762
519.538863	2552.464742
519.902152	2554.748384
520.265385	2557.405072
520.628560	2555.439023
520.991678	2555.968344
521.354739	2555.310473
521.717743	2556.185113
522.080690	2555.623025
522.443580	2556.953889
522.806413	2555.416337
523.169189	2555.151677
523.531908	2555.305432
523.894569	2557.684857
524.257174	2557.808365
524.619722	2556.480021
524.982213	2557.914229
525.344647	2554.690411
525.707025	2557.296688
526.069345	2556.618652
526.431608	2557.616801
526.793815	2557.964641
527.155964	2558.725855
527.518057	2557.752912
527.880093	2559.058571
528.242072	2559.726524
528.603995	2560.220557
528.965860	2561.894220
529.327669	2560.651576
529.689421	2561.243911
530.051117	2560.893551
530.412755	2560.044117
530.774337	2563.278017
531.135862	2562.582337
531.497331	2558.163766
531.858743	2558.970351
532.220098	2559.504713
532.581396	2557.533622
532.942638	2559.008159
533.303824	2565.012174
533.664953	2561.475804
534.026025	2562.186607
534.387040	2564.119889
534.747999	2561.256514
535.108902	2564.611402
535.469748	2561.400187
535.830537	2565.352452
536.191270	2563.005794
536.551947	2564.840774
536.912567	2565.390260
537.273131	2561.967317
537.633638	2566.728687
537.994089	2565.717935
538.354483	2565.239026
538.714821	2566.847154
539.075103	2563.668706
539.435328	2566.098542
539.795497	2564.901268
540.155609	2570.814542
540.515665	2564.066957
540.875665	2569.483677
541.235609	2565.375137
541.595496	2570.529717
541.955328	2567.618450
542.315102	2568.225909
542.674821	2568.702298
543.034483	2568.795560
543.394090	2570.849830
543.753640	2569.907134
544.113134	2568.460323
544.472571	2568.540981
544.831953	2568.999726
545.191278	2571.699264
545.550548	2569.413101
545.909761	2569.828996
546.268918	2567.988975
546.628019	2569.171126
546.987064	2572.084913
547.346053	2572.881415
547.704986	2570.464182
548.063863	2572.498287
548.422684	2569.708008
548.781449	2570.368400
549.140158	2569.244222
549.498811	2570.953173
549.857408	2570.998544
550.215949	2568.324212
550.574434	2565.884293
550.932864	2571.056517
551.291237	2567.371434
551.649555	2573.574573
552.007817	2570.794377
552.366022	2571.220355
552.724173	2569.879408
553.082267	2572.941909
553.440305	2572.021898
553.798288	2571.485015
554.156215	2571.754717
554.514086	2575.671693
554.871902	2568.309088
555.229661	2571.767320
555.587365	2570.486867
555.945014	2570.070972
556.302606	2570.012998
556.660143	2571.149778
557.017625	2572.528534
557.375050	2574.628175
557.732421	2572.294120
558.089735	2570.441496
558.446994	2571.449727
558.804197	2572.321847
559.161345	2572.344532
559.518437	2571.595921
559.875474	2570.806980
560.232455	2572.805797
560.589381	2568.825807
560.946251	2573.020047
561.303065	2571.391754
561.659825	2571.742114
562.016528	2569.771023
562.373177	2567.041238
562.729770	2571.008626
563.086307	2572.583987
563.442789	2568.818245
563.799216	2571.227916
564.155587	2571.971487
564.511904	2572.720098
564.868164	2571.056517
565.224370	2573.602300
565.580520	2571.225396
565.936615	2568.019222
566.292654	2569.841599
566.648638	2569.317319
567.004567	2569.332442
567.360441	2573.902248
567.716260	2570.270097
568.072023	2572.543657
568.427732	2567.260528
568.783385	2569.536609
569.138982	2567.527709
569.494525	2567.694067
569.850013	2566.358162
570.205445	2570.141548
570.560823	2569.655076
570.916145	2569.410580
571.271412	2567.951166
571.626625	2572.427711
571.981782	2570.184397
572.336884	2568.518296
572.691931	2568.735066
573.046923	2571.888308
573.401860	2570.370920
573.756743	2568.661969
574.111570	2570.534758
574.466342	2570.935529
574.821059	2571.525344
575.175722	2572.094995
575.530330	2569.768502
575.884882	2571.512742
576.239380	2569.503842
576.593823	2572.180694
576.948211	2568.835889
577.302544	2571.462330
577.656823	2571.056517
578.011047	2570.754048
578.365216	2571.406877
578.719330	2572.503328
579.073389	2566.685837
579.427394	2571.018708
579.781344	2569.876887
580.135239	2570.703636
580.489080	2570.769171
580.842866	2573.327557
581.196597	2577.736046
581.550273	2573.486353
581.903895	2573.869481
582.257463	2571.946281
582.610975	2570.050807
582.964434	2573.592217
583.317837	2574.988617
583.671186	2573.945098
584.024481	2574.794533
584.377721	2575.013823
584.730906	2575.893504
585.084037	2575.033987
585.437113	2574.098853
585.790135	2574.756724
586.143103	2577.194122
586.496016	2577.451221
586.848874	2572.601631
587.201679	2573.251940
587.554428	2572.505849
587.907124	2576.579101
588.259765	2573.723287
588.612352	2581.043043
588.964884	2580.702765
589.317362	2580.309555
589.669786	2578.557754
590.022155	2581.219483
590.374470	2581.022878
590.726731	2581.282498
591.078937	2582.641089
591.431090	2583.452714
591.783188	2583.608990
592.135232	2582.210070
592.487222	2583.150245
592.839157	2586.331213
593.191038	2585.121336
593.542866	2586.346337
593.894639	2585.887592
594.246358	2588.032603
594.598022	2588.690473
594.949633	2585.315421
595.301190	2589.907912
595.652692	2589.141657
596.004141	2591.377408
596.355535	2591.750454
596.706876	2589.842377
597.058162	2593.040989
597.409395	2592.141143
597.760573	2594.835640
598.111698	2593.751792
598.462768	2595.657348
598.813785	2594.515527
599.164748	2597.298243
599.515657	2598.535847
599.866511	2598.969386
600.217312	2600.539705
600.568060	2598.886207
600.918753	2606.485746
601.269392	2605.565736
601.619978	2604.844851
601.970510	2609.858278
602.320988	2609.129832
602.671412	2612.782147
603.021783	2611.100923
603.372100	2614.707868
603.722363	2617.445215
604.072572	2615.211984
604.422728	2620.185082
604.772830	2615.799278
605.122878	2615.892539
605.472872	2617.929166
605.822813	2619.691049
606.172701	2622.259517
606.522534	2626.110958
606.872314	2631.152112
607.222041	2633.055148
607.571714	2633.581948
607.921333	2636.841054
608.270899	2638.265180
608.620411	2641.383134
608.969870	2644.609472
609.319276	2648.763383
609.668627	2653.043323
610.017926	2657.640855
610.367171	2663.339879
610.716362	2664.953049
611.065500	2666.762823
611.414585	2671.342711
611.763616	2670.800787
612.112594	2672.998730
612.461518	2678.453259
612.810389	2683.159176
613.159207	2686.710669
613.507971	2686.435926
613.856682	2692.026565
614.205340	2694.179138
614.553945	2702.580221
614.902496	2703.633822
615.250994	2708.501056
615.599439	2712.743187
615.947830	2717.955740
616.296169	2721.686194
616.644454	2728.050651
616.992686	2730.155332
617.340864	2743.209400
617.688990	2744.429360
618.037063	2754.176431
618.385082	2755.698859
618.733048	2770.524892
619.080961	2771.089502
619.428821	2781.224742
619.776628	2786.845628
620.124382	2793.900723
620.472083	2794.777884
620.819731	2799.771147
621.167326	2801.270890
621.514868	2808.134421
621.862357	2805.283648
622.209793	2810.602066
622.557176	2813.828404
622.904506	2816.230514
623.251783	2815.529793
623.599007	2822.657985
623.946179	2824.056905
624.293297	2830.000426
624.640363	2834.363544
624.987376	2839.049297
625.334336	2839.787826
625.681243	2846.053980
626.028097	2854.283664
626.374899	2859.203830
626.721647	2865.951414
627.068343	2870.304451
627.414987	2872.199924
627.761577	2877.762838
628.108115	2888.382028
628.454600	2888.923952
628.801032	2902.671179
629.147412	2903.732342
629.493739	2914.066707
629.840014	2916.811615
630.186236	2930.868873
630.532405	2928.055909
630.878521	2944.903445
631.224585	2950.776389
631.570597	2947.837397
631.916556	2962.865076
632.262462	2969.779019
632.608316	2981.373673
632.954117	2986.427429
633.299866	2989.928511
633.645562	3000.172135
633.991206	2999.766323
634.336797	2999.264728
634.682336	3000.177177
635.027823	3006.473578
635.373257	3010.425842
635.718639	3011.005575
636.063968	3019.104189
636.409245	3011.182015
636.754470	3021.002183
637.099642	3025.133409
637.444762	3026.159283
637.789829	3038.000954
638.134845	3038.535316
638.479808	3043.120246
638.824719	3051.395300
639.169577	3048.799105
639.514383	3059.496434
639.859137	3057.704304
640.203839	3066.344841
640.548489	3075.668455
640.893086	3075.915472
641.237632	3081.803540
641.582125	3093.912391
641.926566	3092.536156
642.270955	3109.348404
642.615292	3118.243520
642.959576	3128.933287
643.303809	3137.301602
643.647990	3145.107829
643.992118	3148.155207
644.336195	3149.854075
644.680219	3166.983916
645.024192	3169.166736
645.368112	3198.964996
645.711981	3209.049824
646.055797	3232.849112
646.399562	3242.288672
646.743274	3277.254115
647.086935	3293.852114
647.430544	3308.078251
647.774101	3323.897391
648.117606	3330.957527
648.461059	3339.822396
648.804460	3343.331039
649.147810	3330.246725
649.491108	3335.610512
649.834354	3335.232426
650.177548	3330.536591
650.520690	3323.153821
650.863781	3326.506188
651.206820	3343.051255
651.549807	3331.265038
651.892742	3331.970799
652.235626	3338.229392
652.578458	3345.249198
652.921238	3335.655883
653.263967	3352.233717
653.606644	3341.848940
653.949269	3355.104654
654.291843	3349.471165
654.634365	3369.340873
654.976836	3374.692058
655.319255	3376.668190
655.661622	3385.913666
656.003938	3395.302815
656.346203	3388.557751
656.688416	3414.106319
657.030577	3403.174577
657.372687	3408.498035
657.714746	3413.458531
658.056753	3432.032662
658.398708	3427.112496
658.740612	3428.032506
659.082465	3456.951085
659.424266	3459.653144
659.766016	3466.471304
660.107715	3479.616113
660.449362	3489.138853
660.790958	3496.992970
661.132503	3505.031090
661.473996	3530.335162
661.815438	3530.294833
662.156829	3533.478321
662.498168	3543.106925
662.839456	3539.646173
663.180693	3563.024524
663.521879	3570.757654
663.863013	3575.960125
664.204097	3599.724124
664.545129	3616.138121
664.886110	3631.110348
665.227040	3651.753873
665.567918	3643.647697
665.908746	3666.005215
666.249522	3678.046011
666.590248	3674.991072
666.930922	3699.107952
667.271545	3713.853327
667.612118	3722.806416
667.952639	3718.602093
668.293109	3741.617481
668.633528	3735.144640
668.973896	3736.210844
669.314213	3744.886670
669.654480	3752.871857
669.994695	3755.798247
670.334859	3762.112292
670.674973	3775.476391
671.015035	3778.622071
671.355047	3791.232518
671.695008	3796.528250
672.034918	3787.837300
672.374777	3806.252635
672.714585	3809.000064
673.054342	3819.435253
673.394049	3825.918177
673.733705	3851.988504
674.073310	3861.939741
674.412864	3841.029035
674.752368	3858.650388
675.091820	3870.441647
675.431223	3846.153368
675.770574	3862.826984
676.109875	3843.327801
676.449125	3862.012838
676.788324	3849.906507
677.127473	3840.741689
677.466571	3841.240764
677.805619	3849.218390
678.144616	3852.565716
678.483562	3856.470089
678.822458	3848.051362
679.161303	3856.996890
679.500098	3859.391438
679.838842	3856.959081
680.177535	3869.312429
680.516179	3878.215107
680.854771	3897.003487
681.193314	3940.793470
681.531805	3994.643075
681.870247	4077.837237
682.208638	4131.344044
682.546978	4145.620592
682.885268	4143.941888
683.223508	4116.704533
683.561697	4099.352882
683.899836	4092.328034
684.237925	4082.795212
684.575963	4063.916091
684.913951	4054.012744
685.251889	4103.027883
685.589776	4084.052980
685.927614	4073.131320
686.265401	4119.809884
686.603137	4116.490284
686.940824	4166.848891
687.278460	4181.248947
687.616046	4189.924772
687.953582	4225.449783
688.291068	4226.243765
688.628504	4274.517854
688.965889	4251.580604
689.303224	4229.999425
689.640510	4221.124473
689.977745	4187.247920
690.314930	4146.767454
690.652065	4124.616624
690.989150	4082.850665
691.326185	4055.308321
691.663170	4037.951628
692.000105	4004.987523
692.336990	3970.052327
692.673825	3972.467039
693.010610	3931.759722
693.347345	3895.186151
693.684030	3909.782812
694.020665	3887.115264
694.357251	3840.293027
694.693786	3854.176364
695.030272	3842.634643
695.366707	3828.637879
695.703093	3812.702792
696.039429	3832.408662
696.375716	3837.323787
696.711952	3820.115808
697.048139	3813.947957
697.384276	3811.820590
697.720363	3820.864420
698.056400	3837.089373
698.392388	3807.487718
698.728326	3800.609064
699.064214	3788.772434
699.400053	3794.811737
699.735842	3781.787916
700.071581	3771.851802
700.407270	3761.371243
700.742910	3757.867641
701.078501	3724.165007
701.414042	3736.790577
701.749533	3721.687280
702.084974	3681.773944
702.420366	3727.335893
702.755709	3696.002601
703.091002	3663.522447
703.426246	3702.286399
703.761440	3671.996626
704.096584	3653.412412
704.431679	3677.415867
704.766725	3670.096111
705.101721	3668.430010
705.436668	3692.914894
705.771565	3658.640089
706.106413	3681.105991
706.441212	3713.351732
706.775961	3724.124678
707.110661	3703.435782
707.445311	3723.978484
707.779913	3751.709871
708.114465	3757.484513
708.448967	3772.519754
708.783421	3818.270746
709.117825	3846.380220
709.452180	3847.786702
709.786485	3880.521434
710.120742	3941.511834
710.454949	3928.377108
710.789107	3972.187255
711.123216	4027.125750
711.457275	4014.535468
711.791286	4065.496492
712.125247	4085.446859
712.459159	4011.170498
712.793023	4067.185279
713.126837	4062.305442
713.460602	4057.390317
713.794318	4003.291175
714.127985	4019.881612
714.461602	3971.307574
714.795171	3956.479020
715.128691	3921.846293
715.462162	3889.529976
715.795584	3861.609546
716.128957	3857.251468
716.462281	3822.969102
716.795556	3807.646514
717.128782	3791.514822
717.461960	3747.452617
717.795088	3754.870675
718.128167	3734.161615
718.461198	3692.811550
718.794180	3697.005790
719.127113	3684.612114
719.459997	3675.001154
719.792833	3645.775064
720.125619	3638.714928
720.458357	3617.227010
720.791046	3625.363433
721.123686	3610.981021
721.456278	3578.606731
721.788821	3596.076849
722.121315	3576.249991
722.453761	3553.816857
722.786158	3572.711101
723.118506	3596.137343
723.450805	3550.774520
723.783056	3572.073395
724.115259	3594.193978
724.447412	3598.370574
724.779518	3590.476127
725.111574	3595.476952
725.443582	3620.536528
725.775542	3609.375413
726.107453	3650.327226
726.439315	3654.246723
726.771129	3661.243845
727.102895	3687.873740
727.434612	3725.616859
727.766281	3734.983323
728.097901	3737.536667
728.429473	3742.398860
728.760996	3752.156013
729.092471	3746.058738
729.423897	3743.855754
729.755276	3752.037546
730.086606	3752.907145
730.417887	3783.446455
730.749120	3835.166173
731.080305	3893.643558
731.411442	3915.915376
731.742530	3892.383269
732.073570	3899.793766
732.404562	3948.027526
732.735506	3942.968728
733.066401	3911.975714
733.397249	3868.957027
733.728048	3811.722287
734.058798	3756.224225
734.389501	3706.649518
734.720156	3656.779903
735.050762	3623.951909
735.381320	3625.252527
735.711831	3581.845672
736.042293	3562.283474
736.372707	3581.500353
736.703073	3560.899678
737.033391	3550.219993
737.363661	3568.907551
737.693883	3592.389245
738.024056	3597.286726
738.354182	3590.735747
738.684260	3646.400167
739.014290	3657.457938
739.344272	3650.682628
739.674207	3687.538503
740.004093	3695.768187
740.333931	3687.974563
740.663722	3691.218546
740.993464	3694.671736
741.323159	3674.582738
741.652806	3653.220849
741.982405	3632.385760
742.311956	3609.367851
742.641460	3608.178139
742.970915	3592.414451
743.300323	3561.146694
743.629683	3533.949669
743.958996	3529.599153
744.288260	3510.241123
744.617477	3483.790188
744.946647	3474.229640
745.275768	3457.976960
745.604842	3455.448822
745.933869	3414.630599
746.262847	3408.152716
746.591778	3446.417594
746.920662	3418.479520
747.249498	3391.353071
747.578286	3439.410391
747.907027	3451.436063
748.235720	3445.928603
748.564365	3469.748054
748.892963	3471.819969
749.221514	3457.941672
749.550017	3437.676234
749.878473	3438.056841
750.206881	3410.557347
750.535242	3411.986514
750.863555	3416.573964
751.191821	3406.421080
751.520039	3396.563103
751.848210	3375.274311
752.176334	3410.060793
752.504411	3415.767379
752.832440	3380.370917
753.160421	3365.244935
753.488356	3374.540823
753.816243	3387.526835
754.144082	3349.456041
754.471875	3337.977334
754.799620	3357.100951
755.127318	3346.945547
755.454969	3345.113087
755.782572	3353.809078
756.110129	3332.507682
756.437638	3325.215653
756.765100	3339.169567
757.092515	3348.573839
757.419882	3352.843697
757.747203	3328.321004
758.074477	3332.013649
758.401703	3345.287007
758.728882	3368.143599
759.056014	3369.993702
759.383099	3375.854043
759.710138	3370.230636
760.037129	3386.828635
760.364073	3414.776792
760.690970	3402.582241
761.017820	3382.485681
761.344623	3400.540574
761.671379	3443.672686
761.998088	3487.255982
762.324751	3606.108745
762.651366	3822.457424
762.977935	4228.630752
763.304456	4616.683651
763.630931	4707.106828
763.957359	4387.568250
764.283740	4096.829784
764.610074	3932.420113
764.936362	3759.984925
765.262602	3617.163996
765.588796	3518.357380
765.914943	3438.991975
766.241044	3362.691591
766.567097	3339.318281
766.893104	3292.876651
767.219064	3270.456119
767.544978	3245.928385
767.870845	3196.441899
768.196665	3182.135104
768.522438	3190.117771
768.848165	3187.062832
769.173846	3150.312820
769.499479	3138.355203
769.825066	3120.285188
770.150607	3112.163889
770.476101	3123.952627
770.801548	3118.793006
771.126949	3077.689958
771.452303	3063.060530
771.777611	3071.249884
772.102872	3077.851275
772.428087	3053.008469
772.753256	3045.444218
773.078378	3040.826521
773.403453	3007.365862
773.728482	2996.015704
774.053465	3016.573529
774.378401	3005.367044
774.703291	2976.143476
775.028135	2979.495843
775.352932	2974.426963
775.677683	2963.593523
776.002388	2961.992957
776.327046	2962.406331
776.651658	2951.565330
776.976224	2943.214659
777.300743	2942.418156
777.625216	2935.211827
777.949643	2927.609767
778.274024	2931.720828
778.598359	2921.242790
778.922647	2928.905343
779.246889	2924.464087
779.571086	2912.072931
779.895236	2906.174781
780.219339	2915.518559
780.543397	2928.088677
780.867409	2928.975920
781.191374	2926.319232
781.515294	2920.781524
781.839167	2922.538366
782.162995	2915.510998
782.486776	2926.215888
782.810511	2921.688932
783.134201	2909.184350
783.457844	2916.849424
783.781441	2907.626633
784.104993	2886.564692
784.428498	2889.594426
784.751958	2902.131775
785.075372	2897.582134
785.398739	2881.165617
785.722061	2895.800086
786.045337	2909.048238
786.368568	2892.394787
786.691752	2886.821791
787.014891	2933.422217
787.337983	2959.810137
787.661030	2982.916266
787.984031	3045.668549
788.306987	3089.619849
788.629897	3076.976635
788.952760	3067.879873
789.275579	3056.759087
789.598351	3002.319667
789.921078	2957.450877
790.243759	2952.190433
790.566395	2936.149482
790.888984	2912.140986
791.211529	2900.195972
791.534027	2886.985629
791.856480	2878.443393
792.178888	2865.454861
792.501249	2854.865917
792.823566	2855.238962
793.145836	2852.988087
793.468062	2847.084896
793.790241	2847.959536
794.112375	2854.644106
794.434464	2865.023842
794.756507	2866.873945
795.078505	2874.743187
795.400457	2885.279198
795.722364	2922.424940
796.044226	2944.270780
796.366042	2943.456634
796.687812	2935.768874
797.009538	2955.474745
797.331218	2943.812035
797.652852	2933.573452
797.974442	2913.711306
798.295986	2911.069741
798.617484	2907.387178
798.938938	2890.806823
799.260346	2877.442724
799.581709	2873.797970
799.903026	2865.684233
800.224299	2860.804396
800.545526	2855.357429
800.866708	2836.843792
801.187845	2827.207626
801.508936	2829.889520
801.829983	2837.862105
802.150984	2822.254693
802.471940	2811.103660
802.792851	2810.627271
803.113717	2810.125677
803.434538	2816.338899
803.755314	2809.193063
804.076045	2802.294244
804.396731	2804.174594
804.717372	2804.240129
805.037967	2795.907102
805.358518	2806.259112
805.679024	2816.656491
805.999485	2813.031902
806.319901	2816.313693
806.640272	2808.880512
806.960598	2817.473158
807.280879	2823.744354
807.601115	2830.002946
807.921306	2813.851089
808.241453	2814.448466
808.561554	2819.754280
808.881611	2821.553972
809.201623	2817.009372
809.521590	2814.473672
809.841513	2811.196922
810.161390	2816.971563
810.481223	2807.930254
810.801011	2800.449182
811.120755	2796.461629
811.440453	2802.064872
811.760107	2800.474387
812.079716	2799.186373
812.399281	2790.629014
812.718801	2782.732047
813.038276	2779.677107
813.357707	2786.086934
813.677093	2791.445681
813.996434	2785.529887
814.315731	2780.387910
814.634983	2774.943464
814.954191	2778.852879
815.273354	2791.917029
815.592473	2800.875159
815.911547	2802.584110
816.230577	2809.561067
816.549562	2818.148673
816.868502	2815.229845
817.187399	2827.162256
817.506250	2840.639781
817.825058	2833.582165
818.143821	2847.629341
818.462539	2863.201465
818.781213	2887.431771
819.099843	2919.823705
819.418429	2974.394195
819.736970	3036.208824
820.055466	3103.354472
820.373919	3206.728373
820.692327	3339.313240
821.010691	3498.006242
821.329011	3912.875560
821.647286	4746.369854
821.965517	6016.992681
822.283704	6680.032962
822.601847	6663.598800
822.919945	6088.652683
823.237999	5636.201564
823.556010	5097.188792
823.873976	4576.760233
824.191897	4197.080690
824.509775	3926.214453
824.827609	3675.790094
825.145398	3558.807599
825.463144	3550.139335
825.780845	3638.477994
826.098502	3739.830392
826.416116	4007.223275
826.733685	4302.566834
827.051210	4354.702447
827.368692	4248.964246
827.686129	3998.597860
828.003522	3688.193853
828.320872	3447.229220
828.638177	3263.290119
828.955439	3136.684061
829.272656	3056.998542
829.589830	2993.364057
829.906960	2945.576439
830.224046	2902.106570
830.541088	2876.585728
830.858086	2859.866742
831.175041	2841.181705
831.491952	2843.840913
831.808819	2855.596884
832.125642	2878.405585
832.442421	2923.017276
832.759157	2996.363544
833.075849	3170.774864
833.392497	3438.140020
833.709101	3628.826705
834.025662	3581.480188
834.342179	3423.077052
834.658653	3257.323914
834.975083	3116.337964
835.291469	3027.056609
835.607811	2948.938889
835.924110	2889.470917
836.240366	2841.915193
836.556578	2801.744758
836.872746	2779.790533
837.188871	2759.419231
837.504952	2743.471540
837.820990	2738.874008
838.136984	2722.845659
838.452935	2715.057077
838.768842	2713.960626
839.084706	2732.098697
839.400526	2808.174750
839.716303	2933.323915
840.032037	3009.183198
840.347727	2991.665188
840.663373	2933.301230
840.978977	2864.885210
841.294537	2796.938018
841.610054	2749.944382
841.925527	2730.137688
842.240957	2711.044318
842.556344	2688.112109
842.871687	2675.491581
843.186987	2666.205775
843.502244	2664.010353
843.817458	2657.096410
844.132629	2646.724236
844.447756	2636.460447
844.762840	2629.745630
845.077881	2633.932308
845.392879	2630.935342
845.707833	2627.822430
846.022745	2618.473610
846.337613	2624.301184
846.652438	2623.071142
846.967221	2622.390587
847.281960	2622.743467
847.596656	2619.900257
847.911309	2618.375308
848.225919	2614.586881
848.540485	2612.315841
848.855009	2613.417333
849.169490	2612.963629
849.483928	2612.520007
849.798323	2611.852055
850.112675	2611.405912
850.426984	2613.213166
850.741251	2610.984976
851.055474	2610.226282
851.369654	2615.486727
851.683792	2613.296345
851.997887	2609.651591
852.311938	2611.473968
852.625947	2611.854575
852.939914	2614.516304
853.253837	2615.370780
853.567718	2611.804164
853.881555	2609.976745
854.195350	2613.762652
854.509103	2612.436828
854.822812	2608.890377
855.136479	2609.044132
855.450103	2611.174019
855.763685	2612.978752
856.077224	2610.758124
856.390720	2609.041611
856.704173	2610.201077
857.017584	2617.266254
857.330953	2615.958074
857.644278	2616.177365
857.957561	2619.191975
858.270802	2611.761314
858.584000	2613.296345
858.897155	2618.733230
859.210268	2617.548558
859.523339	2612.784668
859.836367	2608.701333
860.149352	2608.388782
860.462295	2611.736108
860.775195	2606.082454
861.088054	2606.987341
861.400869	2606.072372
861.713642	2604.065992
862.026373	2603.675303
862.339062	2606.863833
862.651708	2613.571088
862.964312	2612.220059
863.276873	2611.463886
863.589392	2614.876747
863.901869	2620.326234
864.214303	2622.740947
864.526696	2626.277316
864.839045	2627.449385
865.151353	2630.058182
865.463619	2630.466515
865.775842	2630.277472
866.088023	2626.915022
866.400162	2630.058182
866.712258	2630.756382
867.024313	2629.274282
867.336325	2622.897223
867.648296	2627.643469
867.960224	2630.489200
868.272110	2628.611371
868.583954	2624.948972
868.895755	2626.234467
869.207515	2629.158336
869.519233	2636.173101
869.830909	2634.754017
870.142542	2630.300157
870.454134	2629.264200
870.765684	2634.814510
871.077191	2637.123359
871.388657	2640.216107
871.700081	2639.044038
872.011463	2637.624954
872.322803	2639.341467
872.634101	2641.589821
872.945357	2650.878147
873.256571	2654.943838
873.567744	2652.100627
873.878874	2651.425112
874.189963	2651.593991
874.501010	2656.337717
874.812015	2659.768222
875.122979	2659.604384
875.433900	2652.400576
875.744780	2650.119453
876.055618	2660.627739
876.366415	2660.451298
876.677169	2661.951042
876.987882	2655.425268
877.298554	2653.933086
877.609183	2663.231495
877.919771	2671.163750
878.230317	2677.530727
878.540822	2685.946934
878.851285	2699.147195
879.161707	2720.476317
879.472087	2759.230187
879.782425	2801.550674
880.092722	2909.345667
880.402977	3089.632452
880.713191	3332.714369
881.023363	3601.256635
881.333494	3775.635188
881.643583	3938.260290
881.953631	3940.392698
882.263637	3766.861059
882.573602	3560.425809
882.883526	3440.572377
883.193408	3338.045390
883.503248	3240.433528
883.813048	3135.809421
884.122806	3027.661547
884.432522	2949.266564
884.742197	2887.633417
885.051831	2855.551514
885.361424	2820.318890
885.670975	2788.776390
885.980485	2759.003335
886.289954	2743.713516
886.599382	2732.202041
886.908768	2719.422716
887.218113	2700.480580
887.527417	2690.022707
887.836680	2680.046263
888.145901	2676.557785
888.455082	2671.103256
888.764221	2660.058088
889.073319	2651.699855
889.382376	2652.856800
889.691392	2651.989722
890.000366	2650.946203
890.309300	2651.657005
890.618193	2653.789413
890.927044	2658.054230
891.235855	2654.258241
891.544625	2653.169352
891.853353	2654.903508
892.162041	2660.927687
892.470687	2679.640450
892.779293	2692.258458
893.087858	2699.376568
893.396381	2719.150494
893.704864	2759.378901
894.013306	2825.531443
894.321707	2911.316758
894.630068	2956.919035
894.938387	2975.498208
895.246665	2969.521920
895.554903	2928.703697
895.863100	2888.777759
896.171256	2835.853205
896.479371	2775.021602
896.787446	2741.402147
897.095480	2722.157542
897.403473	2717.035730
897.711425	2707.497867
898.019336	2685.215967
898.327207	2672.073678
898.635038	2673.439831
898.942827	2668.867505
899.250576	2662.046823
899.558284	2647.740029
899.865952	2646.852786
900.173579	2642.580408
900.481165	2642.313227
900.788711	2634.658235
901.096216	2628.934004
901.403681	2629.054992
901.711105	2625.475773
902.018489	2625.695063
902.325832	2627.091463
902.633135	2630.164046
902.940397	2643.770120
903.247619	2678.538958
903.554800	2741.810480
903.861941	2861.074098
904.169041	2979.168168
904.476101	3033.804193
904.783121	3027.374202
905.090100	2972.244143
905.397039	2903.931467
905.703938	2836.057372
906.010796	2774.499842
906.317614	2731.448388
906.624391	2696.714838
906.931129	2670.558812
907.237826	2650.691624
907.544483	2634.522123
907.851099	2621.389918
908.157675	2612.754421
908.464211	2607.277207
908.770707	2595.546442
909.077163	2592.541915
909.383578	2591.828592
909.689954	2591.437902
909.996289	2584.642427
910.302584	2586.641244
910.608839	2586.147211
910.915054	2582.643609
911.221229	2585.229721
911.527363	2587.082345
911.833458	2586.341296
912.139513	2589.023189
912.445527	2590.003694
912.751502	2594.823037
913.057436	2601.396702
913.363331	2606.790736
913.669186	2615.176696
913.975000	2626.816720
914.280775	2642.537558
914.586510	2658.263437
914.892205	2689.977336
915.197859	2758.158942
915.503475	2833.872032
915.809050	2896.009294
916.114585	2905.063206
916.420081	2912.062848
916.725536	2924.277564
917.030952	2901.708318
917.336328	2858.553521
917.641665	2814.483754
917.946961	2767.598503
918.252218	2732.927967
918.557435	2715.031871
918.862612	2694.746268
919.167750	2679.169103
919.472848	2661.504899
919.777906	2646.457055
920.082925	2635.716877
920.387904	2625.153139
920.692843	2622.914867
920.997743	2616.268105
921.302603	2610.158227
921.607423	2605.853082
921.912204	2602.891404
922.216946	2599.501228
922.521647	2596.244642
922.826310	2594.354210
923.130932	2591.674836
923.435516	2582.550348
923.740059	2583.346850
924.044564	2582.026068
924.349028	2581.022878
924.653454	2572.344532
924.957840	2569.420663
925.262186	2568.946794
925.566493	2567.326063
925.870761	2563.663665
926.174989	2567.626012
926.479178	2562.887327
926.783328	2562.587379
927.087438	2560.623849
927.391509	2562.766340
927.695541	2561.400187
927.999533	2558.781307
928.303486	2557.384908
928.607400	2557.087480
928.911275	2557.478169
929.215110	2557.342058
929.518906	2558.604867
929.822663	2554.788714
930.126381	2554.934907
930.430060	2555.786862
930.733699	2554.700493
931.037299	2554.619835
931.340861	2555.912891
931.644383	2556.674105
931.947866	2556.981616
932.251309	2555.554969
932.554714	2555.905329
932.858080	2560.780125
933.161407	2556.971533
933.464694	2554.793755
933.767943	2554.720658
934.071153	2552.089176
934.374323	2555.393652
934.677455	2554.012376
934.980548	2553.770401
935.283602	2556.038920
935.586617	2553.210832
935.889593	2554.345092
936.192530	2554.009855
936.495428	2552.928528
936.798287	2553.760318
937.101108	2556.989177
937.403890	2557.218550
937.706632	2563.111659
938.009336	2566.743810
938.312002	2569.851681
938.614628	2570.305385
938.917216	2574.592887
939.219765	2575.260839
939.522275	2576.929461
939.824747	2575.515418
940.127179	2569.357648
940.429573	2567.752041
940.731929	2568.964438
941.034246	2562.373130
941.336524	2566.106104
941.638763	2566.242215
941.940964	2566.108625
942.243126	2565.337328
942.545250	2567.278172
942.847335	2560.999415
943.149381	2558.168807
943.451389	2560.457491
943.753359	2558.078067
944.055290	2555.794424
944.357182	2557.256358
944.659036	2557.377346
944.960851	2557.125288
945.262628	2559.272820
945.564367	2555.779300
945.866067	2557.044630
946.167729	2554.786193
946.469352	2558.688046
946.770937	2556.147305
947.072484	2554.960113
947.373992	2554.410627
947.675462	2557.803324
947.976893	2555.600339
948.278286	2553.722510
948.579641	2554.851728
948.880958	2553.427602
949.182236	2553.604043
949.483476	2553.896429
949.784678	2556.661502
950.085841	2555.048333
950.386967	2555.534804
950.688054	2553.137736
950.989103	2554.826522
951.290114	2555.416337
951.591087	2558.274672
951.892021	2555.698642
952.192917	2560.205433
952.493776	2559.146791
952.794596	2563.310784
953.095378	2562.428582
953.396122	2561.314487
953.696828	2564.407235
953.997496	2558.539332
954.298126	2554.501368
954.598718	2558.809034
954.899272	2555.565051
955.199788	2553.679660
955.500266	2556.671585
955.800706	2549.344268
956.101108	2547.075748
956.401472	2547.700851
956.701798	2547.544576
957.002087	2544.744215
957.302337	2548.419216
957.602550	2546.085162
957.902724	2546.042312
958.202861	2546.533824
958.502960	2547.572302
958.803022	2543.983000
959.103045	2544.441745
959.403031	2544.930737
959.702979	2543.735984
960.002889	2547.315203
960.302762	2542.876467
960.602596	2545.200439
960.902393	2540.451672
961.202153	2543.602393
961.501875	2544.204811
961.801559	2542.395037
962.101205	2542.889070
962.400814	2544.628268
962.700385	2543.115922
962.999918	2542.130376
963.299414	2543.166333
963.598873	2542.079965
963.898293	2540.925541
964.197677	2543.073072
964.497022	2541.404450
964.796331	2542.672300
965.095601	2543.297403
965.394835	2540.865047
965.694030	2542.959646
965.993189	2541.336395
966.292309	2538.331867
966.591393	2540.786909
966.890439	2541.822866
967.189447	2543.430994
967.488419	2538.132741
967.787353	2540.454193
968.086249	2540.754141
968.385108	2542.901673
968.683930	2540.315561
968.982714	2541.880839
969.281462	2540.081147
969.580172	2542.982331
969.878844	2540.479398
970.177480	2543.723381
970.476078	2542.672300
970.774639	2543.073072
971.073162	2542.021992
971.371649	2539.256919
971.670098	2539.725746
971.968510	2539.990407
972.266885	2537.177443
972.565223	2544.290511
972.863524	2542.715150
973.161788	2543.776313
973.460014	2540.345808
973.758204	2545.780172
974.056356	2540.113915
974.354471	2542.760521
974.652550	2540.867567
974.950591	2543.599873
975.248595	2541.681714
975.546563	2542.311858
975.844493	2541.066693
976.142386	2543.635161
976.440243	2544.280428
976.738062	2539.740869
977.035845	2544.610624
977.333590	2542.246323
977.631299	2538.662062
977.928971	2540.547454
978.226606	2541.694317
978.524204	2543.080634
978.821765	2541.999306
979.119290	2540.875129
979.416777	2539.060314
979.714228	2540.519728
980.011642	2541.843031
980.309020	2545.535676
980.606360	2540.925541
980.903664	2544.265305
981.200931	2543.390665
981.498162	2541.308668
981.795356	2541.785057
982.092513	2548.063814
982.389633	2548.391489
982.686717	2551.501881
982.983764	2553.170503
983.280775	2556.752243
983.577749	2556.159907
983.874686	2555.020607
984.171587	2551.237221
984.468451	2547.007693
984.765279	2548.517518
985.062070	2545.986859
985.358824	2544.749256
985.655543	2544.363608
985.952224	2542.478216
986.248869	2542.392516
986.545478	2538.402443
986.842050	2540.779347
987.138586	2535.622247
987.435086	2537.966383
987.731549	2536.580066
988.027975	2541.845551
988.324366	2539.264480
988.620719	2541.059131
988.917037	2540.988555
989.213318	2539.035108
989.509563	2538.311702
989.805772	2538.515869
990.101944	2537.918492
990.398080	2539.375386
990.694180	2538.014274
990.990244	2538.142824
991.286271	2536.375899
991.582262	2539.569470
991.878217	2538.402443
992.174136	2538.876312
992.470019	2538.226003
992.765865	2540.335726
993.061676	2542.619368
993.357450	2539.506456
993.653188	2539.965201
993.948890	2538.556198
994.244556	2540.847403
994.540186	2542.079965
994.835780	2540.623071
995.131337	2541.822866
995.426859	2542.475695
995.722345	2540.804553
996.017795	2540.741538
996.313208	2542.745397
996.608586	2545.059287
996.903928	2542.011909
997.199234	2542.594162
997.494504	2541.409491
997.789738	2542.631971
998.084936	2541.016281
998.380099	2541.364121
998.675225	2540.771785
998.970316	2540.063503
999.265371	2541.495191
999.560390	2540.219779
999.855373	2540.328164
1000.150320	2538.289017
1000.445232	2538.639377
1000.740108	2538.089892
1001.034948	2538.006712
1001.329752	2539.597197
1001.624521	2539.216589
1001.919254	2533.948584
1002.213951	2537.142155
1002.508613	2535.980169
1002.803239	2535.718029
1003.097829	2533.956145
1003.392384	2538.745242
1003.686903	2540.676003
1003.981386	2537.091743
1004.275834	2538.135262
1004.570246	2537.116949
1004.864623	2536.275076
1005.158964	2537.036290
1005.453270	2537.479912
1005.747540	2538.977135
1006.041775	2536.706095
1006.335974	2537.729449
1006.630138	2539.203987
1006.924266	2540.980993
1007.218359	2538.679707
1007.512416	2536.643080
1007.806438	2538.594007
1008.100425	2538.369676
1008.394376	2535.922195
1008.688292	2536.512010
1008.982172	2539.854295
1009.276017	2536.532175
1009.569827	2539.763555
1009.863602	2538.183153
1010.157341	2536.494366
1010.451045	2538.503266
1010.744714	2538.599048
1011.038347	2537.903369
1011.331945	2536.794315
1011.625508	2536.194418
1011.919036	2536.748945
1012.212528	2536.028060
1012.505986	2535.944881
1012.799408	2538.914120
1013.092795	2534.631660
1013.386147	2538.936805
1013.679464	2536.141486
1013.972745	2537.616023
1014.265992	2536.922864
1014.559204	2538.636857
1014.852380	2538.493184
1015.145521	2539.798843
1015.438628	2540.285314
1015.731699	2537.913451
1016.024736	2537.006043
1016.317737	2542.649615
1016.610703	2536.706095
1016.903635	2536.688451
1017.196531	2535.440765
1017.489393	2535.370189
1017.782219	2534.692154
1018.075011	2538.815818
1018.367768	2536.078471
1018.660490	2538.694830
1018.953177	2538.694830
1019.245829	2538.694830
