Dividing Wavelength (nm)	Counts (n)	Blue Motor Position (mm): 48.600000	Red Motor Position (mm): 0.000000	
326.493990	2046.476568
326.888308	2046.476568
327.282561	2046.476568
327.676750	2022.846160
328.070874	2023.584689
328.464933	2030.226409
328.858929	2037.369724
329.252859	2047.981353
329.646726	2061.476522
330.040528	2080.395972
330.434265	2097.785432
330.827938	2114.499378
331.221547	2137.648356
331.615091	2159.990750
332.008571	2178.700993
332.401986	2200.854343
332.795338	2219.582230
333.188625	2238.700806
333.581847	2259.387181
333.975006	2274.671959
334.368100	2294.070319
334.761129	2311.500108
335.154095	2324.602067
335.546996	2377.839173
335.939833	2482.609473
336.332606	2492.807727
336.725315	2506.950684
337.117960	2516.183558
337.510540	2528.723428
337.903056	2536.690971
338.295508	2542.586601
338.687896	2550.481048
339.080220	2553.074721
339.472480	2559.232491
339.864676	2562.403377
340.256807	2566.383367
340.648875	2568.404870
341.040879	2571.311095
341.432818	2573.640108
341.824694	2571.200190
342.216506	2572.193297
342.608253	2570.186918
342.999937	2570.764130
343.391557	2569.362689
343.783113	2569.282031
344.174605	2564.586196
344.566033	2562.289951
344.957397	2561.538819
345.348697	2561.004456
345.739934	2560.155022
346.131106	2561.679971
346.522215	2555.565051
346.913260	2556.361554
347.304241	2554.171172
347.695159	2552.094217
348.086012	2547.103475
348.476802	2548.545245
348.867528	2542.516025
349.258191	2543.254554
349.648789	2542.606765
350.039324	2539.680376
350.429796	2543.713299
350.820203	2540.549975
351.210548	2538.064686
351.600828	2538.258770
351.991045	2544.202291
352.381198	2540.764224
352.771288	2540.078627
353.161314	2539.113246
353.551276	2538.619213
353.941175	2536.832124
354.331010	2539.806404
354.720782	2542.974770
355.110490	2543.998124
355.500135	2541.359080
355.889717	2538.778009
356.279235	2540.905376
356.668689	2541.570808
357.058080	2542.158103
357.447408	2540.686086
357.836672	2542.185829
358.225873	2541.008720
358.615010	2542.437887
359.004084	2543.221786
359.393095	2545.384441
359.782043	2546.284287
360.170927	2543.917465
360.559748	2546.808567
360.948505	2546.722868
361.337199	2550.249155
361.725830	2549.087169
362.114398	2547.363094
362.502903	2550.284443
362.891344	2551.078424
363.279722	2549.361912
363.668037	2550.917108
364.056289	2551.887530
364.444478	2552.550441
364.832603	2550.675132
365.220665	2553.863662
365.608665	2554.158569
365.996601	2554.960113
366.384474	2556.651420
366.772284	2551.907694
367.160031	2553.377191
367.547715	2556.240566
367.935336	2555.154197
368.322893	2555.950700
368.710388	2551.403579
369.097820	2554.128323
369.485189	2553.863662
369.872495	2558.420865
370.259738	2557.684857
370.646918	2557.281564
371.034035	2561.022100
371.421090	2561.344734
371.808081	2558.705690
372.195010	2561.952193
372.581875	2564.523182
372.968678	2564.205589
373.355418	2563.391443
373.742096	2565.206258
374.128710	2566.673234
374.515262	2568.518296
374.901751	2569.057700
375.288177	2573.768658
375.674540	2574.245047
376.060841	2577.126066
376.447079	2579.760069
376.833254	2578.935841
377.219367	2584.133270
377.605417	2589.381111
377.991404	2591.001842
378.377329	2595.750609
378.763191	2598.934098
379.148991	2604.991044
379.534727	2611.332816
379.920402	2618.536625
380.306013	2622.864455
380.691563	2636.062196
381.077049	2641.678041
381.462474	2646.318423
381.847835	2659.785866
382.233134	2669.853050
382.618371	2676.517456
383.003545	2687.348375
383.388657	2697.218954
383.773706	2715.132694
384.158693	2723.836246
384.543618	2737.550705
384.928480	2750.602252
385.313280	2765.216557
385.698017	2780.055194
386.082692	2800.509676
386.467305	2813.853610
386.851856	2833.085612
387.236344	2852.007583
387.620770	2869.707074
388.005133	2882.486399
388.389435	2913.406316
388.773674	2924.738830
389.157851	2954.290074
389.541965	2978.442242
389.926018	2987.566730
390.310008	3014.337778
390.693936	3037.854760
391.077802	3066.717887
391.461606	3096.143102
391.845348	3111.962243
392.229027	3139.519710
392.612645	3176.249557
392.996200	3203.565049
393.379694	3240.262128
393.763125	3277.917027
394.146494	3301.464257
394.529801	3333.699915
394.913047	3376.050648
395.296230	3386.342164
395.679351	3410.217069
396.062410	3454.735498
396.445408	3441.895679
396.828343	3480.838593
397.211217	3511.241792
397.594028	3492.105572
397.976778	3539.883107
398.359466	3569.056265
398.742092	3581.782657
399.124656	3603.449537
399.507158	3656.122033
399.889598	3664.155111
400.271977	3721.392372
400.654294	3715.075806
401.036549	3769.752161
401.418742	3775.340280
401.800874	3837.175073
402.182944	3862.191799
402.564952	3942.913275
402.946898	3933.476235
403.328783	3935.470011
403.710606	3984.512877
404.092367	4044.434552
404.474067	4105.992081
404.855705	4096.305504
405.237282	4068.407759
405.618797	4158.619207
406.000250	4233.097214
406.381642	4310.990603
406.762972	4307.310560
407.144240	4271.152884
407.525447	4335.425075
407.906593	4348.947970
408.287677	4427.453859
408.668700	4453.088127
409.049661	4494.160927
409.430560	4528.292060
409.811399	4515.742107
410.192176	4558.123088
410.572891	4625.787975
410.953545	4723.188108
411.334138	4626.776041
411.714669	4739.173607
412.095139	4658.368952
412.475547	4754.849075
412.855894	4760.719499
413.236180	4851.671997
413.616405	4788.226555
413.996568	4882.657449
414.376670	4891.013161
414.756711	4879.622674
415.136691	4948.454589
415.516609	5025.874109
415.896466	5063.879368
416.276262	5138.702694
416.655997	5249.968521
417.035670	5330.942054
417.415283	5459.299914
417.794834	5511.916957
418.174324	5472.023786
418.553753	5475.923118
418.933121	5621.083143
419.312428	5631.611593
419.691674	5579.128141
420.070859	5779.950066
420.449983	5672.432337
420.829045	5859.305389
421.208047	5786.216220
421.586988	5937.808757
421.965867	6001.115567
422.344686	6076.120375
422.723444	6231.748356
423.102141	5884.402773
423.480777	6242.521302
423.859352	6075.190282
424.237866	6414.361633
424.616319	6404.327217
424.994712	6556.696092
425.373044	6481.030893
425.751314	6773.264061
426.129524	6512.863259
426.507673	6763.469099
426.885762	6803.110212
427.263789	6831.796898
427.641756	6917.965341
428.019662	6987.374467
428.397508	7022.856629
428.775292	7018.599374
429.153016	7163.787126
429.530679	7110.739064
429.908282	7158.297309
430.285824	7108.861234
430.663305	7359.956066
431.040726	7267.246726
431.418086	7256.922443
431.795385	7394.820686
432.172624	7574.394148
432.549802	7448.750950
432.926920	7579.042092
433.303977	7537.840741
433.680974	7584.103410
434.057910	7766.870443
434.434786	7810.516753
434.811601	7771.979652
435.188355	8103.309489
435.565050	8003.471957
435.941683	8016.558793
436.318257	8322.234197
436.694770	8266.569777
437.071222	8471.374213
437.447614	8247.728464
437.823946	8223.115030
438.200218	8362.455043
438.576429	8262.332687
438.952580	8412.796006
439.328670	8422.124661
439.704700	8502.251281
440.080670	8404.863750
440.456580	8646.697982
440.832429	8638.992579
441.208218	8375.975418
441.583947	8496.385898
441.959616	8596.823327
442.335224	8636.711457
442.710773	8713.694917
443.086261	8890.304180
443.461689	8629.449674
443.837057	8777.788147
444.212365	8967.358217
444.587612	8972.056572
444.962800	8865.756282
445.337927	8998.557918
445.712995	8561.510044
446.088002	9199.641983
446.462949	9259.782948
446.837837	9260.241693
447.212664	9321.645468
447.587431	10220.498322
447.962139	11175.849908
448.336786	11923.415215
448.711374	11516.268945
449.085901	10386.964784
449.460369	10369.635817
449.834776	10281.135841
450.209124	11202.991480
450.583412	10975.945473
450.957640	11173.581389
451.331808	10771.262024
451.705917	10287.913673
452.079965	10214.229647
452.453954	10404.961703
452.827883	10366.260765
453.201752	10326.909518
453.575562	10357.862203
453.949311	10695.866527
454.323001	10778.309557
454.696632	10696.635303
455.070202	11272.541759
455.443713	11332.375214
455.817164	11481.023718
456.190556	11787.785491
456.563888	11625.989658
456.937160	11837.191319
457.310373	11343.085146
457.683526	11381.871783
458.056619	11419.685478
458.429653	11499.880154
458.802628	11674.848522
459.175542	11744.260169
459.548398	12278.214143
459.921194	12857.815765
460.293930	13193.158360
460.666607	14018.722920
461.039224	14727.284819
461.411782	14981.306041
461.784280	14582.465072
462.156719	14486.552079
462.529099	14381.640627
462.901419	13809.094099
463.273680	13461.108290
463.645882	13699.675855
464.018024	13662.630936
464.390106	14069.192432
464.762130	15234.994547
465.134094	16921.646157
465.505999	19203.705927
465.877845	21181.007782
466.249631	22043.309750
466.621358	21372.874097
466.993026	20535.573732
467.364634	19821.232149
467.736184	19113.580178
468.107674	18579.948838
468.479105	18432.913503
468.850477	18171.549841
469.221790	17755.959639
469.593043	17116.154037
469.964238	16793.126980
470.335373	16901.887354
470.706449	17755.952077
471.077467	18900.266274
471.448425	21225.206098
471.819324	22717.690106
472.190164	22193.924304
472.560945	20524.846156
472.931667	19119.453122
473.302330	18878.838849
473.672934	18432.371579
474.043479	18862.215644
474.413965	18672.890071
474.784393	18524.753244
475.154761	19144.336258
475.525070	19278.161248
475.895321	19129.837899
476.265513	19631.402460
476.635645	20203.649039
477.005719	20280.491347
477.375734	20657.950262
477.745691	21255.591653
478.115588	21920.933220
478.485427	23182.587834
478.855207	25052.271137
479.224928	26767.087674
479.594591	27913.443538
479.964194	27361.777469
480.333739	27715.018681
480.703226	27999.498554
481.072653	28515.208593
481.442022	29004.145063
481.811333	29312.421703
482.180584	28805.110227
482.549777	28595.171375
482.918912	28388.322751
483.287988	28344.242901
483.657005	28165.289502
484.025964	27820.519949
484.394864	28006.588937
484.763706	27955.937944
485.132489	27467.245970
485.501213	27534.608388
485.869879	27729.391011
486.238487	27675.410335
486.607036	27956.673953
486.975527	27676.937805
487.343959	28003.309667
487.712333	28327.271857
488.080648	28303.414596
488.448905	28729.790348
488.817104	28660.938268
489.185244	29548.506500
489.553326	30712.042616
489.921350	32646.396361
490.289315	35011.751116
490.657222	35677.773239
491.025070	36060.220375
491.392861	35664.746897
491.760593	34855.699678
492.128267	33853.447718
492.495883	32903.669127
492.863440	32079.823601
493.230939	31207.121732
493.598380	30703.376872
493.965763	30594.311509
494.333088	30142.666974
494.700354	29969.493257
495.067563	29958.614447
495.434713	29863.399654
495.801805	30160.837813
496.168839	30043.595698
496.535815	29915.890668
496.902733	30056.485929
497.269593	29884.859846
497.636395	30027.456444
498.003139	30331.269143
498.369825	30099.353380
498.736453	30514.721772
499.103023	30362.330212
499.469535	30472.408847
499.835989	30602.100092
500.202385	30468.978342
500.568723	30546.889375
500.935003	30878.483872
501.301226	30786.530705
501.667390	31474.237351
502.033497	31664.510662
502.399546	31463.030866
502.765537	31072.727091
503.131470	31557.827244
503.497345	31981.984887
503.863163	30984.990850
504.228923	31744.717940
504.594625	32131.122383
504.960269	31648.247900
505.325856	32314.108705
505.691385	32011.447911
506.056856	32322.008193
506.422270	32814.254181
506.787625	32367.532333
507.152924	32828.162725
507.518164	33028.591440
507.883347	32605.376492
508.248472	32768.823303
508.613540	33436.090591
508.978550	33689.307748
509.343503	33536.039027
509.708398	33918.740742
510.073236	34514.768964
510.438016	34623.105881
510.802738	34328.601673
511.167403	34874.251124
511.532010	35139.108306
511.896561	35614.093383
512.261053	36365.361418
512.625488	36155.644377
512.989866	36088.740703
513.354186	36147.591133
513.718449	36114.737934
514.082655	36999.447831
514.446803	36708.046453
514.810894	37315.233269
515.174927	37336.325457
515.538904	37353.868673
515.902822	38003.013012
516.266684	37690.312760
516.630488	38060.774553
516.994235	38075.514887
517.357925	38668.364661
517.721558	38909.339377
518.085133	39295.428747
518.448651	39480.615534
518.812112	39386.212366
519.175516	39533.351044
519.538863	39989.557823
519.902152	40062.662116
520.265385	40589.356828
520.628560	40612.268872
520.991678	40568.511657
521.354739	40805.334982
521.717743	41160.176761
522.080690	41086.278486
522.443580	41753.553336
522.806413	41776.293981
523.169189	41935.521346
523.531908	42142.327120
523.894569	42006.412572
524.257174	42209.321534
524.619722	42541.959550
524.982213	42685.798793
525.344647	42712.574882
525.707025	42857.946635
526.069345	43297.976352
526.431608	43195.822410
526.793815	43601.257208
527.155964	43149.181655
527.518057	43412.710493
527.880093	43277.143783
528.242072	43883.718099
528.603995	43624.106238
528.965860	43565.328905
529.327669	43787.926094
529.689421	43833.946787
530.051117	43787.532884
530.412755	44065.418928
530.774337	44139.599507
531.135862	44073.593159
531.497331	44223.461622
531.858743	44236.568622
532.220098	44635.908665
532.581396	44364.734917
532.942638	44121.267351
533.303824	44371.590886
533.664953	44449.393534
534.026025	44128.738341
534.387040	44693.546697
534.747999	44763.381801
535.108902	45068.797587
535.469748	44421.314307
535.830537	44655.491027
536.191270	44912.859575
536.551947	44648.289738
536.912567	44931.842039
537.273131	45082.141521
537.633638	44700.135485
537.994089	44895.649075
538.354483	44666.465619
538.714821	45302.800386
539.075103	45561.096507
539.435328	45436.537157
539.795497	45193.266196
540.155609	45307.002188
540.515665	45905.649290
540.875665	45211.739504
541.235609	45499.044944
541.595496	45618.013654
541.955328	46193.852055
542.315102	45627.843904
542.674821	45511.980545
543.034483	45409.206541
543.394090	45420.372697
543.753640	45398.852011
544.113134	46459.369628
544.472571	45570.652014
544.831953	46704.838532
545.191278	45963.768752
545.550548	45642.790925
545.909761	46298.912222
546.268918	46432.543128
546.628019	46847.044441
546.987064	46283.206507
547.346053	45571.430872
547.704986	46471.327245
548.063863	46120.634337
548.422684	46331.775504
548.781449	45919.656136
549.140158	46466.548231
549.498811	46228.956130
549.857408	45620.582122
550.215949	46456.523897
550.574434	46292.706561
550.932864	46239.686226
551.291237	46946.019935
551.649555	46698.083386
552.007817	46881.732621
552.366022	46550.218782
552.724173	46636.908984
553.082267	47042.434523
553.440305	47366.157258
553.798288	46615.279914
554.156215	47011.363371
554.514086	47219.028663
554.871902	46845.499327
555.229661	47002.521187
555.587365	46701.844087
555.945014	46830.766555
556.302606	46842.913216
556.660143	46932.887729
557.017625	47164.248965
557.375050	46865.666463
557.732421	47262.654808
558.089735	47331.073348
558.446994	47191.894652
558.804197	47671.787293
559.161345	47548.526040
559.518437	46894.317861
559.875474	47148.223137
560.232455	47371.369812
560.589381	47433.325592
560.946251	47231.785303
561.303065	47886.018687
561.659825	47575.937314
562.016528	47385.084271
562.373177	46971.477762
562.729770	47582.503417
563.086307	47107.233515
563.442789	47655.663162
563.799216	47515.851801
564.155587	47390.485867
564.511904	47385.774909
564.868164	47417.571987
565.224370	47724.973986
565.580520	47469.657188
565.936615	47672.561110
566.292654	47311.017118
566.648638	47667.777055
567.004567	47634.011406
567.360441	47718.990137
567.716260	47427.044315
568.072023	47801.380235
568.427732	47730.216786
568.783385	47280.462684
569.138982	47685.612657
569.494525	47814.293150
569.850013	47406.851973
570.205445	47538.181592
570.560823	47316.085998
570.916145	47190.722584
571.271412	47437.187116
571.626625	47081.722756
571.981782	47149.322108
572.336884	46746.690192
572.691931	47084.812983
573.046923	46749.001561
573.401860	46586.499966
573.756743	46612.391333
574.111570	46743.058040
574.466342	46644.165725
574.821059	46794.056873
575.175722	46304.830536
575.530330	46410.362051
575.884882	46047.898048
576.239380	45942.585824
576.593823	46046.781433
576.948211	45967.199257
577.302544	45516.991452
577.656823	45519.857347
578.011047	45779.330577
578.365216	45599.000942
578.719330	45322.246637
579.073389	45302.586137
579.427394	45374.049534
579.781344	45295.909129
580.135239	45054.909208
580.489080	45122.692562
580.842866	44604.419097
581.196597	45102.091887
581.550273	45105.814779
581.903895	45031.966917
582.257463	45468.051930
582.610975	44895.026493
582.964434	45240.146406
583.317837	44745.967135
583.671186	44700.871494
584.024481	44983.604607
584.377721	44522.979257
584.730906	44739.927833
585.084037	44866.566659
585.437113	44569.161267
585.790135	44686.824318
586.143103	44240.127676
586.496016	44410.344756
586.848874	44528.519485
587.201679	44545.354418
587.554428	44037.707705
587.907124	44321.688504
588.259765	44084.053553
588.612352	44246.877781
588.964884	43700.661200
589.317362	44016.880178
589.669786	44030.277044
590.022155	43871.742838
590.374470	44320.768494
590.726731	43893.528185
591.078937	43233.585693
591.431090	43569.820573
591.783188	43114.062456
592.135232	42890.194896
592.487222	43157.376050
592.839157	43301.779902
593.191038	42939.555354
593.542866	42760.987603
593.894639	42156.235664
594.246358	42462.067344
594.598022	42444.819036
594.949633	42029.506097
595.301190	42009.654033
595.652692	41955.423821
596.004141	42424.752723
596.355535	41339.636796
596.706876	41367.070756
597.058162	41091.201173
597.409395	41575.043557
597.760573	41777.004783
598.111698	41401.648030
598.462768	41327.149858
598.813785	41342.217867
599.164748	40942.222474
599.515657	41207.982022
599.866511	40713.817876
600.217312	41408.841756
600.568060	40358.938289
600.918753	41179.736438
601.269392	41087.700092
601.619978	40817.413587
601.970510	41027.511235
602.320988	41155.110401
602.671412	41422.042018
603.021783	41283.692592
603.372100	40849.034225
603.722363	40958.104629
604.072572	40997.871771
604.422728	40985.830975
604.772830	40777.802721
605.122878	40929.133118
605.472872	40791.653291
605.822813	41057.453169
606.172701	40803.250465
606.522534	41125.654939
606.872314	41327.651453
607.222041	41166.299242
607.571714	41501.384738
607.921333	40987.302992
608.270899	41220.746224
608.620411	41591.999478
608.969870	41342.346417
609.319276	41350.752541
609.668627	41378.761191
610.017926	41794.472382
610.367171	41918.265476
610.716362	41958.229223
611.065500	41847.996832
611.414585	42077.356730
611.763616	42256.557146
612.112594	42146.213850
612.461518	42266.299176
612.810389	42662.581759
613.159207	42461.747231
613.507971	42434.973663
613.856682	42928.096812
614.205340	42770.238120
614.553945	43436.928196
614.902496	42775.546455
615.250994	43194.060527
615.599439	43251.068415
615.947830	43372.517373
616.296169	43355.929456
616.644454	43410.439453
616.992686	43585.357409
617.340864	44038.897417
617.688990	43566.891662
618.037063	44251.308955
618.385082	44067.339608
618.733048	44399.148354
619.080961	44244.924334
619.428821	44272.978355
619.776628	44300.503055
620.124382	44110.655722
620.472083	44216.167072
620.819731	44305.685361
621.167326	43867.099936
621.514868	43859.240777
621.862357	43324.238243
622.209793	43404.339657
622.557176	42972.242196
622.904506	42726.352355
623.251783	42340.003366
623.599007	42047.636607
623.946179	41961.629481
624.293297	41696.230375
624.640363	41161.210197
624.987376	41009.214368
625.334336	40802.181741
625.681243	40398.914639
626.028097	40316.774078
626.374899	40140.447119
626.721647	40101.983116
627.068343	39888.210466
627.414987	39613.578487
627.761577	39344.262404
628.108115	39663.528760
628.454600	38927.522819
628.801032	39176.150006
629.147412	39065.587420
629.493739	38967.625198
629.840014	38539.164929
630.186236	38963.569589
630.532405	38411.167513
630.878521	38650.413113
631.224585	38413.690610
631.570597	38075.048580
631.916556	38240.864733
632.262462	38140.301275
632.608316	38073.919362
632.954117	37934.430635
633.299866	37882.710917
633.645562	37800.978689
633.991206	37269.489839
634.336797	36856.659669
634.682336	36740.095589
635.027823	36520.576024
635.373257	36382.682822
635.718639	36050.886679
636.063968	35931.131549
636.409245	35287.189680
636.754470	35257.371255
637.099642	35029.037233
637.444762	34464.206191
637.789829	34612.895024
638.134845	34246.367851
638.479808	34147.011750
638.824719	34100.234883
639.169577	33603.701394
639.514383	33681.723332
639.859137	33305.146619
640.203839	33472.026456
640.548489	33185.172199
640.893086	33172.246681
641.237632	32905.413366
641.582125	33006.019674
641.926566	32797.837664
642.270955	32841.138655
642.615292	32760.719648
642.959576	32657.716272
643.303809	32660.030162
643.647990	32753.145314
643.992118	32698.899978
644.336195	32555.471590
644.680219	32646.567760
645.024192	32849.217104
645.368112	33379.153278
645.711981	33404.066661
646.055797	34135.018845
646.399562	33954.807677
646.743274	34829.589022
647.086935	35220.656532
647.430544	35181.353176
647.774101	35217.929267
648.117606	35500.075086
648.461059	35620.384743
648.804460	35210.002053
649.147810	34699.088672
649.491108	34331.807847
649.834354	34192.351888
650.177548	33352.104968
650.520690	32883.076014
650.863781	32858.840667
651.206820	32674.442821
651.549807	32266.179935
651.892742	31700.166743
652.235626	31606.756683
652.578458	31486.961223
652.921238	30800.257767
653.263967	31116.965737
653.606644	30817.243935
653.949269	30726.840923
654.291843	30342.548724
654.634365	30699.336388
654.976836	30249.194117
655.319255	30327.969707
655.661622	30194.512721
656.003938	30071.579143
656.346203	29874.223011
656.688416	30118.824837
657.030577	29876.935152
657.372687	29708.923577
657.714746	29873.209739
658.056753	30056.014581
658.398708	29445.339286
658.740612	29517.992395
659.082465	29728.752955
659.424266	29619.460740
659.766016	29631.332657
660.107715	29482.540481
660.449362	29590.108622
660.790958	29569.938965
661.132503	29503.554531
661.473996	29581.155532
661.815438	29657.249229
662.156829	29768.013462
662.498168	29581.311808
662.839456	29570.259078
663.180693	29692.837255
663.521879	29766.460786
663.863013	29730.882843
664.204097	29699.090806
664.545129	30120.803490
664.886110	30062.991538
665.227040	30156.126855
665.567918	30153.623922
665.908746	30233.410264
666.249522	30317.501751
666.590248	30334.377014
666.930922	30435.583218
667.271545	30441.214187
667.612118	30499.668887
667.952639	30313.877162
668.293109	30330.840644
668.633528	30199.896673
668.973896	30158.874284
669.314213	30135.379986
669.654480	29964.608379
669.994695	29942.452508
670.334859	29848.717293
670.674973	29694.173161
671.015035	29872.181344
671.355047	29805.295315
671.695008	29748.884803
672.034918	29657.486163
672.374777	29762.460631
672.714585	29619.390164
673.054342	29767.128739
673.394049	29626.344436
673.733705	29836.802526
674.073310	29551.876511
674.412864	29615.510996
674.752368	29306.039603
675.091820	29524.669404
675.431223	29111.062895
675.770574	28919.221786
676.109875	28765.978270
676.449125	28553.576815
676.788324	28451.637122
677.127473	27963.766856
677.466571	27879.577066
677.805619	27609.388864
678.144616	27531.724848
678.483562	27488.164238
678.822458	27175.426176
679.161303	27115.428884
679.500098	27039.889714
679.838842	26959.001880
680.177535	27062.695894
680.516179	27288.035471
680.854771	27442.262011
681.193314	28216.646256
681.531805	29251.280069
681.870247	29998.167340
682.208638	30726.190614
682.546978	31002.324857
682.885268	31120.454215
683.223508	30672.260350
683.561697	30389.076054
683.899836	30237.556613
684.237925	29820.842233
684.575963	29678.843012
684.913951	29313.127465
685.251889	29475.361878
685.589776	29519.706388
685.927614	29520.727221
686.265401	29720.263652
686.603137	29827.824231
686.940824	30330.797795
687.278460	30680.449705
687.616046	30860.439062
687.953582	31513.230676
688.291068	31435.365014
688.628504	31750.467376
688.965889	31732.946846
689.303224	31463.701340
689.640510	31161.098518
689.977745	30516.201351
690.314930	29774.597208
690.652065	29328.636575
690.989150	28658.004317
691.326185	27808.038052
691.663170	27174.483481
692.000105	26437.111387
692.336990	25837.090571
692.673825	25420.023310
693.010610	24925.534009
693.347345	24428.750983
693.684030	23812.452281
694.020665	23608.179686
694.357251	22945.116721
694.693786	22942.480197
695.030272	22726.040777
695.366707	22230.807906
695.703093	21962.842853
696.039429	22033.998739
696.375716	21804.162453
696.711952	21805.516003
697.048139	21673.475581
697.384276	21506.830158
697.720363	21617.601952
698.056400	21523.062673
698.392388	21364.725072
698.728326	21361.234073
699.064214	21190.250738
699.400053	21195.443126
699.735842	20807.894342
700.071581	20606.681727
700.407270	20366.989985
700.742910	20189.627069
701.078501	19939.147258
701.414042	19735.174612
701.749533	19428.654814
702.084974	19119.488410
702.420366	19344.175158
702.755709	18948.116906
703.091002	18629.982290
703.426246	18710.466831
703.761440	18634.521849
704.096584	18405.124143
704.431679	18331.389706
704.766725	18293.364283
705.101721	18229.371876
705.436668	18354.498355
705.771565	18074.124502
706.106413	18398.079130
706.441212	18470.515470
706.775961	18576.006655
707.110661	18660.105704
707.445311	19019.648358
707.779913	18902.134021
708.114465	19207.204487
708.448967	19518.878865
708.783421	20148.874382
709.117825	20518.811895
709.452180	20742.460165
709.786485	21202.404959
710.120742	21967.861321
710.454949	22081.372982
710.789107	22587.756886
711.123216	23303.383963
711.457275	23527.354866
711.791286	24075.419030
712.125247	24217.579569
712.459159	23940.220325
712.793023	24665.292003
713.126837	23643.929028
713.460602	23881.543815
713.794318	23526.248333
714.127985	23263.337037
714.461602	22364.693390
714.795171	22329.901867
715.128691	21345.677072
715.462162	20839.457006
715.795584	20396.276568
716.128957	20135.046497
716.462281	19771.087792
716.795556	19495.429938
717.128782	19014.682822
717.461960	18422.029652
717.795088	18375.104072
718.128167	18035.718471
718.461198	17585.480418
718.794180	17460.487529
719.127113	17129.263557
719.459997	16942.685412
719.792833	16580.289465
720.125619	16621.548789
720.458357	16290.607121
720.791046	16153.255843
721.123686	16014.314082
721.456278	15785.722960
721.788821	15787.348733
722.121315	15518.950140
722.453761	15631.730834
722.786158	15515.370921
723.118506	15590.731130
723.450805	15477.166536
723.783056	15660.155380
724.115259	15557.688887
724.447412	15550.091868
724.779518	15770.705363
725.111574	15813.282948
725.443582	16080.930409
725.775542	16047.479833
726.107453	16558.431022
726.439315	16483.378323
726.771129	16900.168321
727.102895	17327.320409
727.434612	17597.836287
727.766281	17763.780989
728.097901	18078.593485
728.429473	18162.180857
728.760996	18163.179005
729.092471	18295.073234
729.423897	18181.536367
729.755276	18048.943938
730.086606	18159.604827
730.417887	18743.564527
730.749120	19307.097471
731.080305	19519.375419
731.411442	19915.433671
731.742530	20023.780670
732.073570	20187.439209
732.404562	20503.091057
732.735506	20343.682210
733.066401	20120.565782
733.397249	19611.792372
733.728048	18992.297578
734.058798	18134.409140
734.389501	17375.619704
734.720156	16857.336157
735.050762	16293.294056
735.381320	15925.347798
735.711831	15647.643236
736.042293	15286.011024
736.372707	15331.552807
736.703073	15120.217556
737.033391	15324.711962
737.363661	15324.762373
737.693883	15456.853207
738.024056	15658.189330
738.354182	15876.957763
738.684260	16246.582724
739.014290	16530.838266
739.344272	16750.347749
739.674207	17099.246007
740.004093	17274.612625
740.333931	17319.027711
740.663722	17400.976708
740.993464	17424.791119
741.323159	17264.850431
741.652806	16963.651571
741.982405	16787.836289
742.311956	16434.393432
742.641460	16328.768656
742.970915	15977.551467
743.300323	15639.196783
743.629683	15419.682259
743.958996	15108.131390
744.288260	14800.212672
744.617477	14492.102390
744.946647	14462.689778
745.275768	14152.908353
745.604842	13949.979226
745.933869	13772.117236
746.262847	13745.129418
746.591778	13664.405422
746.920662	13548.179099
747.249498	13565.747521
747.578286	13726.509917
747.907027	13900.061720
748.235720	14167.898224
748.564365	14242.978649
748.892963	14163.928315
749.221514	14271.093164
749.550017	14127.226195
749.878473	14104.009161
750.206881	13880.706210
750.535242	13808.789109
750.863555	13727.500503
751.191821	13616.431281
751.520039	13642.844407
751.848210	13572.437132
752.176334	13618.765336
752.504411	13536.269373
752.832440	13365.422149
753.160421	13482.737361
753.488356	13367.310061
753.816243	13273.189198
754.144082	13115.756484
754.471875	13068.185636
754.799620	13037.656408
755.127318	13005.602232
755.454969	12989.510868
755.782572	12961.918113
756.110129	12972.202067
756.437638	12879.243190
756.765100	12893.766754
757.092515	12922.055189
757.419882	12963.024646
757.747203	12976.315648
758.074477	13070.880133
758.401703	13052.185014
758.728882	13247.048295
759.056014	13289.744348
759.383099	13459.648876
759.710138	13587.487497
760.037129	13707.698851
760.364073	13773.589253
760.690970	13793.161532
761.017820	13812.887567
761.344623	14040.485581
761.671379	14418.055401
761.998088	15114.926865
762.324751	16889.050056
762.651366	20305.674431
762.977935	24788.830520
763.304456	27752.371111
763.630931	28783.771023
763.957359	27543.558957
764.283740	25248.500571
764.610074	22989.478874
764.936362	20362.032010
765.262602	18488.361155
765.588796	16576.294351
765.914943	15292.922446
766.241044	14197.303274
766.567097	13414.114654
766.893104	12698.681662
767.219064	12248.549473
767.544978	11769.932245
767.870845	11389.544420
768.196665	11164.345995
768.522438	10936.175810
768.848165	10738.315563
769.173846	10530.062977
769.499479	10403.514892
769.825066	10234.530374
770.150607	10007.441517
770.476101	9926.407489
770.801548	9802.589189
771.126949	9648.178647
771.452303	9535.594558
771.777611	9338.833282
772.102872	9325.161673
772.428087	9183.764869
772.753256	9033.465388
773.078378	8942.464999
773.403453	8761.482535
773.728482	8651.678642
774.053465	8576.794822
774.378401	8476.367476
774.703291	8353.746450
775.028135	8231.654745
775.352932	8201.672483
775.677683	8091.117458
776.002388	7987.453691
776.327046	8001.188315
776.651658	7902.908500
776.976224	7794.614433
777.300743	7808.142369
777.625216	7715.266671
777.949643	7669.208169
778.274024	7684.351795
778.598359	7597.732169
778.922647	7616.523070
779.246889	7569.428611
779.571086	7572.556647
779.895236	7591.100532
780.219339	7602.491019
780.543397	7602.301975
780.867409	7683.031013
781.191374	7697.055503
781.515294	7656.688464
781.839167	7749.559120
782.162995	7720.963175
782.486776	7664.976121
782.810511	7616.613811
783.134201	7528.885131
783.457844	7524.998402
783.781441	7472.252809
784.104993	7407.678149
784.428498	7379.044395
784.751958	7369.889660
785.075372	7337.412026
785.398739	7283.640558
785.722061	7330.407343
786.045337	7335.282138
786.368568	7487.726631
786.691752	7519.697628
787.014891	7854.450408
787.337983	8220.501192
787.661030	8816.022778
787.984031	9446.018295
788.306987	9843.132669
788.629897	10051.246623
788.952760	9996.466925
789.275579	9768.735320
789.598351	9372.785453
789.921078	9017.162296
790.243759	8596.770395
790.566395	8314.783372
790.888984	8057.203096
791.211529	7844.652926
791.534027	7626.794421
791.856480	7426.237157
792.178888	7358.105962
792.501249	7258.712053
792.823566	7099.174657
793.145836	7107.762262
793.468062	7082.211174
793.790241	7035.736777
794.112375	7097.722805
794.434464	7257.056034
794.756507	7301.821480
795.078505	7460.191848
795.400457	7776.836804
795.722364	8126.062737
796.044226	8416.105523
796.366042	8690.283798
796.687812	8634.919326
797.009538	8713.664670
797.331218	8603.366744
797.652852	8524.959158
797.974442	8365.378912
798.295986	8278.484544
798.617484	8083.165038
798.938938	7940.538193
799.260346	7835.369641
799.581709	7638.762121
799.903026	7558.627939
800.224299	7456.153884
800.545526	7284.255579
800.866708	7189.350817
801.187845	7117.143850
801.508936	7016.527460
801.829983	6977.524053
802.150984	6832.059038
802.471940	6786.171935
802.792851	6773.080059
803.113717	6736.851807
803.434538	6710.300049
803.755314	6652.667058
804.076045	6655.079250
804.396731	6603.157886
804.717372	6636.500078
805.037967	6634.655015
805.358518	6676.383166
805.679024	6760.940960
805.999485	6775.318331
806.319901	6818.813406
806.640272	6839.101530
806.960598	6925.847185
807.280879	6927.987155
807.601115	7002.991962
807.921306	6943.879392
808.241453	6956.744417
808.561554	6983.371791
808.881611	6941.464679
809.201623	6951.799045
809.521590	6891.363172
809.841513	6867.876436
810.161390	6910.272540
810.481223	6782.940556
810.801011	6761.911382
811.120755	6738.843062
811.440453	6654.234857
811.760107	6621.671523
812.079716	6595.868378
812.399281	6531.291197
812.718801	6520.097315
813.038276	6474.162321
813.357707	6415.435399
813.677093	6455.159691
813.996434	6356.874835
814.315731	6402.338481
814.634983	6392.961935
814.954191	6404.866620
815.273354	6512.195306
815.592473	6576.321303
815.911547	6704.346447
816.230577	6783.704290
816.549562	6928.125786
816.868502	7030.355345
817.187399	7126.369161
817.506250	7274.644619
817.825058	7307.863303
818.143821	7576.193840
818.462539	7848.401024
818.781213	8215.951551
819.099843	8771.282538
819.418429	9769.045351
819.736970	10750.648746
820.055466	11920.677868
820.373919	13441.354529
820.692327	15780.800274
821.010691	19908.807074
821.329011	28891.719771
821.647286	41949.780249
821.965517	55451.371525
822.283704	60879.600287
822.601847	62840.289020
822.919945	60095.862181
823.237999	55853.355654
823.556010	49611.892994
823.873976	42851.040254
824.191897	36314.186144
824.509775	31474.736425
824.827609	26968.537222
825.145398	24374.808116
825.463144	23023.965408
825.780845	23327.697448
826.098502	25113.735406
826.416116	28922.102805
826.733685	32628.686788
827.051210	33824.841690
827.368692	32054.842163
827.686129	28056.912256
828.003522	23927.294807
828.320872	20195.316012
828.638177	17336.439857
828.955439	15191.486868
829.272656	13372.603273
829.589830	11902.665826
829.906960	10639.889555
830.224046	9693.763280
830.541088	8946.283673
830.858086	8488.756112
831.175041	8114.604194
831.491952	7998.191349
831.808819	8047.047691
832.125642	8448.142056
832.442421	9334.994443
832.759157	11129.186467
833.075849	14080.966047
833.392497	17315.297257
833.709101	19507.894191
834.025662	19343.797071
834.342179	17633.225187
834.658653	15424.516726
834.975083	13489.570645
835.291469	11868.872451
835.607811	10545.670389
835.924110	9642.106577
836.240366	8773.936705
836.556578	7970.306206
836.872746	7321.872669
837.188871	6829.122566
837.504952	6409.789307
837.820990	6102.309169
838.136984	5882.671137
838.452935	5791.597652
838.768842	5823.669473
839.084706	6243.499285
839.400526	7455.417876
839.716303	9040.959063
840.032037	10137.276434
840.347727	10069.286392
840.663373	9083.884488
840.978977	8038.636526
841.294537	7227.797177
841.610054	6634.917155
841.925527	6199.731988
842.240957	5840.393500
842.556344	5506.797665
842.871687	5224.455241
843.186987	4944.605668
843.502244	4723.566195
843.817458	4558.178540
844.132629	4421.774999
844.447756	4334.684026
844.762840	4257.070421
845.077881	4179.877753
845.392879	4120.785347
845.707833	4067.470104
846.022745	4027.884444
846.337613	3997.526615
846.652438	3953.096406
846.967221	3940.115435
847.281960	3905.593613
847.596656	3891.478382
847.911309	3870.368551
848.225919	3844.341073
848.540485	3829.588137
848.855009	3816.685303
849.169490	3794.862148
849.483928	3782.629788
849.798323	3776.923202
850.112675	3757.025768
850.426984	3763.022221
850.741251	3748.191146
851.055474	3742.938264
851.369654	3751.830859
851.683792	3747.936568
851.997887	3753.212135
852.311938	3757.734050
852.625947	3761.308228
852.939914	3749.169130
853.253837	3757.476951
853.567718	3755.785644
853.881555	3746.779623
854.195350	3758.757404
854.509103	3754.737084
854.822812	3755.435284
855.136479	3743.951536
855.450103	3756.733381
855.763685	3741.423397
856.077224	3749.640478
856.390720	3761.305708
856.704173	3780.288173
857.017584	3794.403403
857.330953	3806.250115
857.644278	3832.322962
857.957561	3835.025021
858.270802	3835.501410
858.584000	3839.617512
858.897155	3826.024041
859.210268	3807.603665
859.523339	3790.158752
859.836367	3792.681849
860.149352	3783.164151
860.462295	3778.639715
860.775195	3762.555914
861.088054	3758.739760
861.400869	3756.718258
861.713642	3757.287908
862.026373	3773.394395
862.339062	3776.555198
862.651708	3796.913898
862.964312	3832.055781
863.276873	3841.903675
863.589392	3898.946852
863.901869	3948.188842
864.214303	3995.414372
864.526696	4027.065256
864.839045	4073.257349
865.151353	4097.906071
865.463619	4109.215899
865.775842	4110.887042
866.088023	4128.100062
866.400162	4118.844503
866.712258	4129.703148
867.024313	4127.777428
867.336325	4127.711893
867.648296	4132.596771
867.960224	4130.429075
868.272110	4143.659583
868.583954	4147.468175
868.895755	4159.108199
869.207515	4155.065193
869.519233	4200.206206
869.830909	4214.729770
870.142542	4237.024273
870.454134	4249.823762
870.765684	4282.666880
871.077191	4314.383299
871.388657	4340.894727
871.700081	4381.113053
872.011463	4424.938323
872.322803	4459.903767
872.634101	4487.708251
872.945357	4525.708468
873.256571	4577.856684
873.567744	4609.905820
873.878874	4631.232421
874.189963	4669.222557
874.501010	4680.570194
874.812015	4680.071120
875.122979	4718.729208
875.433900	4713.761151
875.744780	4731.969798
876.055618	4759.008027
876.366415	4754.647429
876.677169	4780.387561
876.987882	4821.934230
877.298554	4873.391808
877.609183	4953.122697
877.919771	5063.579419
878.230317	5209.621646
878.540822	5422.771713
878.851285	5741.221401
879.161707	6201.347677
879.472087	6959.393543
879.782425	8196.964045
880.092722	10376.927847
880.402977	13702.950084
880.713191	17505.918408
881.023363	21269.848036
881.333494	23521.925544
881.643583	24751.042030
881.953631	24715.781680
882.263637	23853.273024
882.573602	22337.761026
882.883526	20768.364134
883.193408	19073.863448
883.503248	17360.581943
883.813048	15807.523430
884.122806	14370.666035
884.432522	12894.732135
884.742197	11620.920778
885.051831	10534.973061
885.361424	9537.913488
885.670975	8709.495636
885.980485	8013.645006
886.289954	7448.821526
886.599382	6978.393652
886.908768	6597.557164
887.218113	6235.236834
887.527417	5950.698988
887.836680	5683.643863
888.145901	5464.391479
888.455082	5301.562210
888.764221	5147.983458
889.073319	5019.081154
889.382376	4944.923260
889.691392	4890.501484
890.000366	4866.495509
890.309300	4845.710832
890.618193	4854.547975
890.927044	4835.583154
891.235855	4858.767421
891.544625	4890.932503
891.853353	4950.997851
892.162041	5067.438422
892.470687	5253.641001
892.779293	5507.783211
893.087858	5874.378439
893.396381	6452.984433
893.704864	7260.242043
894.013306	8419.818333
894.321707	9612.245302
894.630068	10449.301172
894.938387	10659.335806
895.246665	10413.599720
895.554903	9804.159508
895.863100	9094.100386
896.171256	8526.050568
896.479371	8018.076180
896.787446	7516.577154
897.095480	7087.612771
897.403473	6766.292145
897.711425	6452.636594
898.019336	6184.295975
898.327207	5907.760960
898.635038	5677.586916
898.942827	5429.713382
899.250576	5236.969906
899.558284	5044.662489
899.865952	4918.242954
900.173579	4767.119244
900.481165	4660.065301
900.788711	4567.602977
901.096216	4495.917770
901.403681	4430.796144
901.711105	4411.836365
902.018489	4389.859454
902.325832	4461.285043
902.633135	4582.204679
902.940397	4933.963792
903.247619	5728.366459
903.554800	7181.844539
903.861941	9105.977345
904.169041	10636.012907
904.476101	11276.526792
904.783121	10912.910885
905.090100	10156.712602
905.397039	9309.541658
905.703938	8550.076707
906.010796	7860.378805
906.317614	7299.648742
906.624391	6763.121259
906.931129	6339.850859
907.237826	5939.076608
907.544483	5562.361263
907.851099	5192.975756
908.157675	4837.917208
908.464211	4511.837733
908.770707	4275.964666
909.077163	4075.505703
909.383578	3932.546142
909.689954	3814.376455
909.996289	3747.414808
910.302584	3680.846372
910.608839	3647.809170
910.915054	3620.009727
911.221229	3606.164198
911.527363	3617.463944
911.833458	3630.182776
912.139513	3659.441632
912.445527	3691.092517
912.751502	3770.704939
913.057436	3872.659755
913.363331	4005.083305
913.669186	4206.066547
913.975000	4466.180003
914.280775	4889.301689
914.586510	5471.696111
914.892205	6270.691269
915.197859	7318.764798
915.503475	8550.028816
915.809050	9635.059044
916.114585	10291.971801
916.420081	10553.902593
916.725536	10515.758703
917.030952	10065.596267
917.336328	9653.202156
917.641665	9232.979133
917.946961	8744.277077
918.252218	8320.593302
918.557435	7806.977863
918.862612	7371.223045
919.167750	6994.180025
919.472848	6566.763276
919.777906	6192.550864
920.082925	5831.085010
920.387904	5459.244461
920.692843	5196.008010
920.997743	4946.143220
921.302603	4712.800811
921.607423	4549.096902
921.912204	4382.723701
922.216946	4267.243469
922.521647	4146.159995
922.826310	4039.209396
923.130932	3944.733132
923.435516	3848.608410
923.740059	3778.513686
924.044564	3701.701625
924.349028	3641.243067
924.653454	3579.443562
924.957840	3510.392357
925.262186	3458.891930
925.566493	3400.550656
925.870761	3346.005372
926.174989	3306.568425
926.479178	3271.678599
926.783328	3228.309553
927.087438	3200.540357
927.391509	3167.641787
927.695541	3134.334883
927.999533	3111.006944
928.303486	3091.618666
928.607400	3077.130390
928.911275	3064.875345
929.215110	3044.264588
929.518906	3036.826365
929.822663	3037.559853
930.126381	3035.069523
930.430060	3040.095553
930.733699	3044.803991
931.037299	3053.046278
931.340861	3051.899415
931.644383	3062.251424
931.947866	3060.144222
932.251309	3053.353788
932.554714	3053.961247
932.858080	3046.137376
933.161407	3040.012374
933.464694	3029.390663
933.767943	3023.767256
934.071153	3018.484127
934.374323	3009.198321
934.677455	3006.738238
934.980548	2996.338338
935.283602	2991.045126
935.586617	2989.101762
935.889593	2997.165087
936.192530	2999.652897
936.495428	3018.186699
936.798287	3041.600338
937.101108	3071.869946
937.403890	3125.701907
937.706632	3189.069211
938.009336	3267.249946
938.312002	3341.947243
938.614628	3407.482243
938.917216	3463.159266
939.219765	3490.729337
939.522275	3524.641179
939.824747	3524.394162
940.127179	3527.522198
940.429573	3516.998789
940.731929	3512.744056
941.034246	3501.663599
941.336524	3488.377638
941.638763	3469.039772
941.940964	3456.704069
942.243126	3412.702358
942.545250	3389.082031
942.847335	3353.705734
943.149381	3317.485044
943.451389	3285.382976
943.753359	3250.316710
944.055290	3223.023903
944.357182	3199.212013
944.659036	3189.139787
944.960851	3176.123528
945.262628	3162.280520
945.564367	3161.156342
945.866067	3157.635096
946.167729	3157.141063
946.469352	3150.912718
946.770937	3150.300217
947.072484	3133.571148
947.373992	3137.210862
947.675462	3129.107207
947.976893	3114.891153
948.278286	3103.649380
948.579641	3095.487752
948.880958	3088.843511
949.182236	3095.308791
949.483476	3086.897626
949.784678	3087.989035
950.085841	3087.850404
950.386967	3095.878441
950.688054	3115.115484
950.989103	3134.556694
951.290114	3157.327586
951.591087	3185.921011
951.892021	3216.861092
952.192917	3242.802870
952.493776	3271.247581
952.794596	3274.030298
953.095378	3280.510701
953.396122	3275.328395
953.696828	3269.558794
953.997496	3258.395159
954.298126	3233.794328
954.598718	3213.123077
954.899272	3189.091896
955.199788	3157.899757
955.500266	3127.783904
955.800706	3089.821495
956.101108	3050.981925
956.401472	3019.905732
956.701798	2986.669405
957.002087	2947.247582
957.302337	2917.512336
957.602550	2889.327245
957.902724	2860.383460
958.202861	2835.636436
958.502960	2814.231696
958.803022	2794.994653
959.103045	2773.829369
959.403031	2757.427975
959.702979	2745.392220
960.002889	2729.772205
960.302762	2717.040771
960.602596	2705.057948
960.902393	2696.487987
961.202153	2688.507840
961.501875	2682.042560
961.801559	2676.015861
962.101205	2669.016219
962.400814	2665.152174
962.700385	2656.985505
962.999918	2650.928559
963.299414	2642.003196
963.598873	2640.523617
963.898293	2633.118162
964.197677	2633.864253
964.497022	2633.539098
964.796331	2630.542132
965.095601	2628.147584
965.394835	2625.891668
965.694030	2623.207254
965.993189	2622.231790
966.292309	2622.158694
966.591393	2621.594084
966.890439	2622.824126
967.189447	2618.098044
967.488419	2620.500154
967.787353	2622.816564
968.086249	2623.252624
968.385108	2624.303705
968.683930	2627.593057
968.982714	2631.323511
969.281462	2635.696712
969.580172	2642.784575
969.878844	2647.372025
970.177480	2656.373005
970.476078	2662.465239
970.774639	2668.673420
971.073162	2679.774041
971.371649	2683.542303
971.670098	2688.296112
971.968510	2694.789118
972.266885	2699.603420
972.565223	2702.640715
972.863524	2703.583411
973.161788	2709.927703
973.460014	2710.333516
973.758204	2715.566233
974.056356	2715.553630
974.354471	2718.994218
974.652550	2717.683518
974.950591	2715.803167
975.248595	2714.996583
975.546563	2714.333671
975.844493	2710.356201
976.142386	2707.152547
976.440243	2698.648121
976.738062	2694.504292
977.035845	2687.393745
977.333590	2679.824452
977.631299	2674.765655
977.928971	2671.075530
978.226606	2663.959941
978.524204	2661.000784
978.821765	2655.074908
979.119290	2659.674961
979.416777	2658.465084
979.714228	2662.450116
980.011642	2664.249808
980.309020	2673.061745
980.606360	2690.700742
980.903664	2710.935933
981.200931	2744.963722
981.498162	2794.974489
981.795356	2871.531972
982.092513	2961.544294
982.389633	3069.349369
982.686717	3163.122392
982.983764	3238.953949
983.280775	3289.385652
983.577749	3298.419400
983.874686	3282.970784
984.171587	3247.211359
984.468451	3207.610575
984.765279	3164.362516
985.062070	3117.073972
985.358824	3074.090574
985.655543	3016.757532
985.952224	2964.637042
986.248869	2899.591034
986.545478	2835.283555
986.842050	2782.371604
987.138586	2738.536251
987.435086	2699.210210
987.731549	2669.527896
988.027975	2642.419091
988.324366	2626.617594
988.620719	2611.627723
988.917037	2599.244129
989.213318	2593.214909
989.509563	2584.130750
989.805772	2580.969946
990.101944	2574.056004
990.398080	2572.614234
990.694180	2568.790518
990.990244	2571.510221
991.286271	2570.696075
991.582262	2573.619944
991.878217	2575.006261
992.174136	2580.375090
992.470019	2582.489854
992.765865	2584.357602
993.061676	2587.954465
993.357450	2599.070209
993.653188	2605.893411
993.948890	2621.805813
994.244556	2641.904893
994.540186	2665.084119
994.835780	2699.971424
995.131337	2734.798235
995.426859	2776.791047
995.722345	2825.702842
996.017795	2872.356200
996.313208	2914.754825
996.608586	2943.522169
996.903928	2955.338634
997.199234	2957.004735
997.494504	2953.314610
997.789738	2936.903134
998.084936	2909.517066
998.380099	2882.241903
998.675225	2854.573530
998.970316	2819.232521
999.265371	2781.552417
999.560390	2748.686614
999.855373	2718.386759
1000.150320	2688.921215
1000.445232	2662.601350
1000.740108	2640.158133
1001.034948	2620.348919
1001.329752	2603.768564
1001.624521	2592.690629
1001.919254	2584.090420
1002.213951	2574.754203
1002.508613	2567.086608
1002.803239	2558.650237
1003.097829	2554.214022
1003.392384	2550.465924
1003.686903	2545.752445
1003.981386	2543.980480
1004.275834	2538.619213
1004.570246	2532.670651
1004.864623	2534.417411
1005.158964	2530.485311
1005.453270	2529.386339
1005.747540	2528.761236
1006.041775	2523.100021
1006.335974	2522.081707
1006.630138	2525.497089
1006.924266	2520.362674
1007.218359	2520.012314
1007.512416	2517.685821
1007.806438	2517.610204
1008.100425	2518.580626
1008.394376	2512.846314
1008.688292	2517.937879
1008.982172	2516.780934
1009.276017	2518.421830
1009.569827	2515.392096
1009.863602	2519.114988
1010.157341	2515.603825
1010.451045	2516.382683
1010.744714	2513.867147
1011.038347	2514.588032
1011.331945	2511.623834
1011.625508	2510.582836
1011.919036	2506.801970
1012.212528	2511.270953
1012.505986	2507.883298
1012.799408	2510.182064
1013.092795	2505.541682
1013.386147	2505.922289
1013.679464	2503.550426
1013.972745	2506.847341
1014.265992	2507.666528
1014.559204	2503.487412
1014.852380	2506.300375
1015.145521	2506.002947
1015.438628	2504.238543
1015.731699	2506.340705
1016.024736	2506.491939
1016.317737	2506.814573
1016.610703	2509.148627
1016.903635	2512.483351
1017.196531	2511.190295
1017.489393	2512.523680
1017.782219	2513.806653
1018.075011	2514.570388
1018.367768	2517.111130
1018.660490	2517.143897
1018.953177	2517.143897
1019.245829	2517.143897
