Dividing Wavelength (nm)	Counts (n)	Blue Motor Position (mm): 26.500000	Red Motor Position (mm): 0.000000	
326.493990	2203.768130
326.888308	2203.768130
327.282561	2203.768130
327.676750	2160.366316
328.070874	2161.568631
328.464933	2160.535195
328.858929	2163.887562
329.252859	2168.976607
329.646726	2176.508091
330.040528	2189.584844
330.434265	2200.871987
330.827938	2218.974771
331.221547	2237.266598
331.615091	2254.711510
332.008571	2272.413522
332.401986	2290.725513
332.795338	2312.130253
333.188625	2327.682212
333.581847	2346.594101
333.975006	2364.984230
334.368100	2385.549617
334.761129	2404.360683
335.154095	2423.355751
335.546996	2444.276539
335.939833	2484.399082
336.332606	2499.119252
336.725315	2509.204080
337.117960	2525.741585
337.510540	2532.320291
337.903056	2545.775131
338.295508	2555.524722
338.687896	2562.960424
339.080220	2570.726322
339.472480	2579.235789
339.864676	2581.002714
340.256807	2590.114599
340.648875	2593.766915
341.040879	2594.729776
341.432818	2599.914602
341.824694	2603.703029
342.216506	2602.034407
342.608253	2604.585231
342.999937	2599.985178
343.391557	2603.438369
343.783113	2603.327463
344.174605	2601.842844
344.566033	2600.726228
344.957397	2599.657503
345.348697	2598.515682
345.739934	2595.775815
346.131106	2594.797831
346.522215	2591.760536
346.913260	2593.179621
347.304241	2590.648962
347.695159	2586.457242
348.086012	2587.021851
348.476802	2586.938672
348.867528	2581.131263
349.258191	2577.978021
349.648789	2574.431570
350.039324	2573.463668
350.429796	2575.717064
350.820203	2575.107084
351.210548	2572.568863
351.600828	2573.224213
351.991045	2572.851168
352.381198	2569.836558
352.771288	2569.035014
353.161314	2565.170970
353.551276	2568.346897
353.941175	2568.306568
354.331010	2566.743810
354.720782	2568.039387
355.110490	2568.735066
355.500135	2568.321691
355.889717	2564.923953
356.279235	2566.345559
356.668689	2569.816393
357.058080	2567.918399
357.447408	2568.520817
357.836672	2567.671382
358.225873	2567.051320
358.615010	2570.348235
359.004084	2570.622978
359.393095	2571.548030
359.782043	2572.150447
360.170927	2573.340160
360.559748	2572.563822
360.948505	2574.189594
361.337199	2575.827969
361.725830	2573.188925
362.114398	2577.181519
362.502903	2574.131621
362.891344	2573.564491
363.279722	2575.061714
363.668037	2576.160685
364.056289	2577.552044
364.444478	2577.486509
364.832603	2577.496591
365.220665	2579.313927
365.608665	2577.375603
365.996601	2577.161354
366.384474	2578.366190
366.772284	2580.889288
367.160031	2577.544482
367.547715	2581.053125
367.935336	2580.349884
368.322893	2579.434915
368.710388	2578.530028
369.097820	2579.409709
369.485189	2577.453741
369.872495	2584.405493
370.259738	2578.711509
370.646918	2584.163517
371.034035	2584.143353
371.421090	2585.292736
371.808081	2582.993969
372.195010	2585.998497
372.581875	2585.935483
372.968678	2586.389187
373.355418	2584.070256
373.742096	2587.238621
374.128710	2586.510174
374.515262	2585.060842
374.901751	2586.237952
375.288177	2586.006059
375.674540	2584.014803
376.060841	2586.323652
376.447079	2585.799372
376.833254	2588.279619
377.219367	2587.510843
377.605417	2585.317941
377.991404	2588.294743
378.377329	2589.507140
378.763191	2586.386666
379.148991	2591.435382
379.534727	2589.212233
379.920402	2587.117633
380.306013	2589.539908
380.691563	2591.969744
381.077049	2591.241297
381.462474	2590.253231
381.847835	2592.551997
382.233134	2592.441092
382.618371	2590.785073
383.003545	2591.800865
383.388657	2590.565782
383.773706	2593.824888
384.158693	2591.100145
384.543618	2591.631987
384.928480	2589.963365
385.313280	2594.081987
385.698017	2592.118458
386.082692	2592.935125
386.467305	2593.562748
386.851856	2596.899992
387.236344	2594.071905
387.620770	2592.746082
388.005133	2592.289857
388.389435	2592.267172
388.773674	2591.410176
389.157851	2595.170877
389.541965	2596.295054
389.926018	2597.320929
390.310008	2596.504262
390.693936	2598.876125
391.077802	2599.387802
391.461606	2598.251022
391.845348	2598.946701
392.229027	2599.949890
392.612645	2599.944849
392.996200	2598.041814
393.379694	2598.644232
393.763125	2599.997781
394.146494	2601.560539
394.529801	2599.302102
394.913047	2599.017277
395.296230	2601.691609
395.679351	2601.343769
396.062410	2599.965014
396.445408	2600.375868
396.828343	2601.830241
397.211217	2603.508945
397.594028	2603.617330
397.976778	2601.900817
398.359466	2601.545416
398.742092	2601.192535
399.124656	2602.979624
399.507158	2603.458533
399.889598	2606.581528
400.271977	2604.265118
400.654294	2604.116404
401.036549	2603.907196
401.418742	2603.834099
401.800874	2603.680344
402.182944	2603.824017
402.564952	2604.078595
402.946898	2607.231837
403.328783	2605.769902
403.710606	2605.631271
404.092367	2606.271497
404.474067	2606.417691
404.855705	2608.550099
405.237282	2606.389964
405.618797	2607.471292
406.000250	2606.432814
406.381642	2609.800305
406.762972	2607.216714
407.144240	2605.535489
407.525447	2607.693103
407.906593	2606.233689
408.287677	2609.346601
408.668700	2609.391972
409.049661	2611.385748
409.430560	2613.699637
409.811399	2610.508587
410.192176	2612.656119
410.572891	2612.267950
410.953545	2611.854575
411.334138	2616.704165
411.714669	2612.920779
412.095139	2613.762652
412.475547	2613.190481
412.855894	2613.563526
413.236180	2612.441870
413.616405	2612.913217
413.996568	2612.986314
414.376670	2612.698968
414.756711	2613.649226
415.136691	2615.307766
415.516609	2619.005452
415.896466	2616.247941
416.276262	2616.202570
416.655997	2616.333640
417.035670	2616.731892
417.415283	2618.944958
417.794834	2617.041922
418.174324	2617.440174
418.553753	2614.644854
418.933121	2618.264402
419.312428	2619.101234
419.691674	2623.164404
420.070859	2620.364043
420.449983	2618.665174
420.829045	2621.631893
421.208047	2620.878241
421.586988	2620.477469
421.965867	2620.089300
422.344686	2623.882768
422.723444	2622.796400
423.102141	2623.119033
423.480777	2622.415792
423.859352	2622.418313
424.237866	2621.533591
424.616319	2622.733385
424.994712	2629.349900
425.373044	2623.572737
425.751314	2625.135495
426.129524	2619.391100
426.507673	2624.371760
426.885762	2622.937552
427.263789	2627.487193
427.641756	2629.503655
428.019662	2626.078191
428.397508	2628.596247
428.775292	2629.362502
429.153016	2631.925929
429.530679	2631.623460
429.908282	2627.159518
430.285824	2632.097328
430.663305	2632.354427
431.040726	2634.159160
431.418086	2636.064717
431.795385	2633.584469
432.172624	2634.103708
432.549802	2634.696043
432.926920	2635.217803
433.303977	2635.051445
433.680974	2638.063534
434.057910	2638.461785
434.434786	2640.180819
434.811601	2639.359111
435.188355	2642.482105
435.565050	2643.097126
435.941683	2643.802888
436.318257	2644.619555
436.694770	2644.105357
437.071222	2645.088382
437.447614	2648.839000
437.823946	2650.434526
438.200218	2655.306801
438.576429	2650.784886
438.952580	2654.752274
439.328670	2658.545742
439.704700	2661.512461
440.080670	2664.310302
440.456580	2666.694767
440.832429	2671.859429
441.208218	2674.095181
441.583947	2681.697241
441.959616	2687.721420
442.335224	2690.572192
442.710773	2697.614684
443.086261	2708.480892
443.461689	2712.980121
443.837057	2727.029817
444.212365	2741.497929
444.587612	2748.558065
444.962800	2762.098604
445.337927	2778.220214
445.712995	2785.056018
446.088002	2823.920794
446.462949	2840.367558
446.837837	2862.402442
447.212664	2888.986967
447.587431	2933.565890
447.962139	2986.984477
448.336786	3121.668984
448.711374	3202.516489
449.085901	3141.579021
449.460369	3161.857063
449.834776	3180.146369
450.209124	3287.747277
450.583412	3378.674569
450.957640	3515.496526
451.331808	3516.214890
451.705917	3496.574555
452.079965	3499.790811
452.453954	3659.471879
452.827883	3699.720452
453.201752	3806.986123
453.575562	3830.669464
453.949311	3958.601346
454.323001	4039.988254
454.696632	4162.379908
455.070202	4305.175632
455.443713	4438.776291
455.817164	4627.857369
456.190556	4733.885437
456.563888	4919.835958
456.937160	5070.397580
457.310373	5034.673443
457.683526	5150.652749
458.056619	5168.647148
458.429653	5308.682840
458.802628	5302.525070
459.175542	5512.302605
459.548398	5876.914139
459.921194	6125.513600
460.293930	6273.612618
460.666607	6705.105140
461.039224	7184.145826
461.411782	7608.691638
461.784280	7741.982266
462.156719	7932.202645
462.529099	7943.769572
462.901419	7723.035089
463.273680	7798.927140
463.645882	7887.260758
464.018024	7925.684433
464.390106	8188.134464
464.762130	8676.977673
465.134094	9142.397161
465.505999	10188.003044
465.877845	11907.969119
466.249631	13572.200197
466.621358	13708.573491
466.993026	13261.539092
467.364634	13221.812279
467.736184	12710.238507
468.107674	12455.486318
468.479105	12731.333215
468.850477	12646.178045
469.221790	12588.305598
469.593043	12374.565717
469.964238	12264.802153
470.335373	12231.926268
470.706449	12666.209069
471.077467	12518.856143
471.448425	13857.615205
471.819324	16660.920200
472.190164	18367.902783
472.560945	16267.072494
472.931667	14767.142702
473.302330	14474.100429
473.672934	14241.710799
474.043479	14702.469740
474.413965	14725.785076
474.784393	14614.602428
475.154761	15250.286887
475.525070	15422.081848
475.895321	15271.888231
476.265513	15871.672113
476.635645	16460.738502
477.005719	16458.870754
477.375734	16747.328098
477.745691	17293.758928
478.115588	17823.939598
478.485427	18436.119677
478.855207	19436.902142
479.224928	21011.892194
479.594591	23039.179610
479.964194	23295.333240
480.333739	23712.581982
480.703226	23470.117606
481.072653	23321.499349
481.442022	23916.499176
481.811333	24822.709594
482.180584	24927.432003
482.549777	24183.645042
482.918912	23976.340192
483.287988	24185.278375
483.657005	24001.803061
484.025964	23817.672396
484.394864	23891.653849
484.763706	23706.154511
485.132489	23251.205500
485.501213	23468.499395
485.869879	23487.406243
486.238487	23323.029339
486.607036	23561.002048
486.975527	23294.493888
487.343959	23683.766747
487.712333	23716.630029
488.080648	23430.625206
488.448905	23925.227934
488.817104	23716.319998
489.185244	24392.119438
489.553326	24422.875518
489.921350	25371.487081
490.289315	27583.008506
490.657222	29415.818289
491.025070	29946.480390
491.392861	29787.709250
491.760593	28997.647016
492.128267	28157.664756
492.495883	27181.248709
492.863440	26324.819685
493.230939	25474.929037
493.598380	25353.399421
493.965763	24960.645646
494.333088	24551.883686
494.700354	24474.814526
495.067563	24401.546396
495.434713	24166.341281
495.801805	24305.109123
496.168839	24134.130828
496.535815	23960.095074
496.902733	24182.719990
497.269593	23856.776626
497.636395	24063.595004
498.003139	24061.981835
498.369825	23809.167969
498.736453	24001.792978
499.103023	23898.386310
499.469535	23923.886987
499.835989	24107.143011
500.202385	24151.076667
500.568723	23642.777125
500.935003	23936.152114
501.301226	23516.750799
501.667390	24337.715306
502.033497	24597.133083
502.399546	24315.395597
502.765537	23922.919085
503.131470	24295.694768
503.497345	24428.141003
503.863163	23637.340240
504.228923	24274.655513
504.594625	24451.050527
504.960269	23960.468120
505.325856	24470.975687
505.691385	23879.693712
506.056856	24482.265351
506.422270	24448.159425
506.787625	24051.987747
507.152924	24458.090498
507.518164	24465.579132
507.883347	24283.822851
508.248472	23977.529905
508.613540	24771.252016
508.978550	24531.202352
509.343503	24518.344889
509.708398	24797.521469
510.073236	24960.249915
510.438016	25158.200903
510.802738	24842.176010
511.167403	25106.531597
511.532010	24783.587720
511.896561	25558.682767
512.261053	25533.401381
512.625488	25375.754418
512.989866	25279.531394
513.354186	25129.554546
513.718449	25211.886671
514.082655	25604.083399
514.446803	25348.499420
514.810894	25801.615971
515.174927	25293.961697
515.538904	25313.717979
515.902822	25804.801981
516.266684	25544.456631
516.630488	25454.225019
516.994235	25451.848115
517.357925	25732.277421
517.721558	25928.645487
518.085133	26005.331519
518.448651	25941.810460
518.812112	25658.732027
519.175516	25852.430802
519.538863	26027.905806
519.902152	25786.875638
520.265385	26100.049758
520.628560	25880.353753
520.991678	25891.817337
521.354739	25962.653110
521.717743	26018.902305
522.080690	25814.148280
522.443580	26152.021534
522.806413	26156.873645
523.169189	26234.457002
523.531908	26285.904498
523.894569	25896.729942
524.257174	25976.788506
524.619722	26169.728587
524.982213	25854.306111
525.344647	25920.441009
525.707025	26052.231894
526.069345	26036.294286
526.431608	25989.635886
526.793815	26189.177358
527.155964	25627.136596
527.518057	25800.879963
527.880093	25724.017490
528.242072	25958.773942
528.603995	25665.651011
528.965860	25464.355217
529.327669	25519.218095
529.689421	25507.454562
530.051117	25337.217317
530.412755	25521.272365
530.774337	25311.860313
531.135862	25184.856004
531.497331	25395.064558
531.858743	24936.133035
532.220098	25426.279382
532.581396	25095.269659
532.942638	25052.878596
533.303824	25137.811956
533.664953	25156.292826
534.026025	24821.903009
534.387040	25062.686161
534.747999	25115.842608
535.108902	25284.055829
535.469748	24775.204281
535.830537	24953.945952
536.191270	25087.034934
536.551947	24972.106709
536.912567	24636.751511
537.273131	24941.998418
537.633638	24671.134701
537.994089	24871.621389
538.354483	24424.327370
538.714821	24924.636684
539.075103	24963.493897
539.435328	24735.371604
539.795497	24301.270284
540.155609	24705.165010
540.515665	24990.398536
540.875665	24242.049329
541.235609	24510.732747
541.595496	24492.143492
541.955328	24840.325906
542.315102	24760.532003
542.674821	24325.735004
543.034483	24209.727972
543.394090	24374.936665
543.753640	24151.139682
544.113134	24785.757936
544.472571	24388.396546
544.831953	24670.746532
545.191278	24288.735455
545.550548	24218.066040
545.909761	24431.294245
546.268918	24644.335927
546.628019	24621.930519
546.987064	24336.414688
547.346053	24084.757768
547.704986	24202.577095
548.063863	24369.729153
548.422684	24359.253636
548.781449	23913.204782
549.140158	24312.532222
549.498811	23887.066399
549.857408	23632.644406
550.215949	24065.818153
550.574434	23747.867538
550.932864	23965.453821
551.291237	24109.139308
551.649555	23981.741789
552.007817	24028.561505
552.366022	23899.092072
552.724173	23945.606798
553.082267	23893.299786
553.440305	24365.802095
553.798288	23622.325164
554.156215	24143.459484
554.514086	24233.040787
554.871902	23594.097223
555.229661	23896.137955
555.587365	23759.104270
555.945014	23601.258182
556.302606	23859.282080
556.660143	23802.806033
557.017625	24055.297265
557.375050	23590.293672
557.732421	23982.568538
558.089735	23792.587614
558.446994	23856.073385
558.804197	23868.424212
559.161345	23833.851979
559.518437	23575.596188
559.875474	23775.430047
560.232455	23951.028559
560.589381	23794.225989
560.946251	23755.149485
561.303065	24077.982457
561.659825	24172.073073
562.016528	23774.099183
562.373177	23507.618749
562.729770	23876.132136
563.086307	23732.534869
563.442789	23903.016610
563.799216	23732.020671
564.155587	23749.233691
564.511904	23718.255801
564.868164	23654.906141
565.224370	23636.707576
565.580520	23546.216343
565.936615	23680.613505
566.292654	23355.272559
566.648638	23668.965919
567.004567	23489.652077
567.360441	23427.020781
567.716260	23164.555627
568.072023	23492.759948
568.427732	23249.655345
568.783385	23045.160939
569.138982	23265.356019
569.494525	23303.517553
569.850013	23062.885636
570.205445	23152.504749
570.560823	22959.607517
570.916145	22721.105488
571.271412	22899.708527
571.626625	22645.977172
571.981782	22764.950923
572.336884	22564.181930
572.691931	22708.618550
573.046923	22432.375922
573.401860	22320.253098
573.756743	22323.063542
574.111570	22233.451991
574.466342	22174.984689
574.821059	22259.424016
575.175722	21962.389149
575.530330	21950.290379
575.884882	21972.375674
576.239380	21873.337166
576.593823	21772.405704
576.948211	21747.525089
577.302544	21595.030186
577.656823	21467.768777
578.011047	21557.284546
578.365216	21430.708735
578.719330	21327.639824
579.073389	21218.173689
579.427394	21367.767408
579.781344	21135.503807
580.135239	21025.818381
580.489080	20997.872745
580.842866	20753.507853
581.196597	20948.784509
581.550273	20932.108372
581.903895	20815.519087
582.257463	21126.490224
582.610975	20664.360089
582.964434	20964.747323
583.317837	20678.349291
583.671186	20766.660224
584.024481	20733.958259
584.377721	20508.142293
584.730906	20559.635159
585.084037	20591.318811
585.437113	20491.503965
585.790135	20696.711694
586.143103	20160.542132
586.496016	20174.717857
586.848874	20413.817263
587.201679	20357.058912
587.554428	20026.853253
587.907124	20353.870382
588.259765	20133.713112
588.612352	20212.725636
588.964884	19773.048801
589.317362	19958.298602
589.669786	20001.957515
590.022155	20054.990453
590.374470	20238.354863
590.726731	20036.897752
591.078937	19800.576021
591.431090	19896.128572
591.783188	19639.327154
592.135232	19619.482652
592.487222	19708.285097
592.839157	19747.948896
593.191038	19616.664647
593.542866	19502.190125
593.894639	19232.672397
594.246358	19439.737791
594.598022	19363.722232
594.949633	19109.549776
595.301190	19067.501511
595.652692	19226.600327
596.004141	19474.569643
596.355535	18811.327717
596.706876	18810.445515
597.058162	18703.782261
597.409395	18930.382127
597.760573	19018.055354
598.111698	18791.636970
598.462768	18736.123784
598.813785	18692.359007
599.164748	18514.305453
599.515657	18543.612201
599.866511	18341.235080
600.217312	18701.112970
600.568060	18221.532882
600.918753	18537.411582
601.269392	18439.978681
601.619978	18210.593578
601.970510	18431.660777
602.320988	18370.859420
602.671412	18580.581502
603.021783	18478.528384
603.372100	18217.366368
603.722363	18352.895268
604.072572	18293.795301
604.422728	18428.545344
604.772830	18198.525055
605.122878	18144.123444
605.472872	18128.392523
605.822813	18121.549157
606.172701	18087.854084
606.522534	18291.431000
606.872314	18309.674936
607.222041	18145.608063
607.571714	18360.096557
607.921333	18183.131892
608.270899	18263.051825
608.620411	18444.659392
608.969870	18206.961426
609.319276	18214.908805
609.668627	18239.376046
610.017926	18379.946100
610.367171	18488.656062
610.716362	18530.691723
611.065500	18357.901134
611.414585	18484.043406
611.763616	18472.012693
612.112594	18427.524510
612.461518	18383.948776
612.810389	18579.943797
613.159207	18432.704296
613.507971	18337.497064
613.856682	18622.813769
614.205340	18545.227891
614.553945	18696.424697
614.902496	18434.025078
615.250994	18669.494853
615.599439	18612.292881
615.947830	18607.836501
616.296169	18644.084918
616.644454	18619.945352
616.992686	18582.963448
617.340864	18798.823135
617.688990	18567.605572
618.037063	18735.733094
618.385082	18576.185616
618.733048	18871.151090
619.080961	18721.554849
619.428821	18768.341798
619.776628	18655.162853
620.124382	18575.258044
620.472083	18618.387636
620.819731	18644.578951
621.167326	18333.383483
621.514868	18372.712044
621.862357	18125.660218
622.209793	18151.594434
622.557176	17975.184296
622.904506	17801.571999
623.251783	17719.766675
623.599007	17487.306468
623.946179	17427.921676
624.293297	17366.129732
624.640363	17126.690048
624.987376	17144.424827
625.334336	16931.080676
625.681243	16778.792459
626.028097	16797.492620
626.374899	16715.485649
626.721647	16583.568736
627.068343	16418.929692
627.414987	16356.154724
627.761577	16328.536763
628.108115	16369.891868
628.454600	16092.383911
628.801032	16186.000658
629.147412	16117.869464
629.493739	16137.356044
629.840014	15943.047290
630.186236	16053.239351
630.532405	15806.237936
630.878521	16010.318967
631.224585	15896.245217
631.570597	15723.373970
631.916556	15768.472132
632.262462	15740.319808
632.608316	15654.771427
632.954117	15605.428614
633.299866	15603.003819
633.645562	15519.736560
633.991206	15268.959321
634.336797	15132.167611
634.682336	15112.721360
635.027823	14996.613505
635.373257	14876.873498
635.718639	14773.759217
636.063968	14726.740375
636.409245	14487.698942
636.754470	14507.755172
637.099642	14356.293705
637.444762	14132.249705
637.789829	14172.289069
638.134845	14011.060366
638.479808	14033.385116
638.824719	13981.088186
639.169577	13836.437318
639.514383	13880.517167
639.859137	13703.270197
640.203839	13781.443370
640.548489	13626.357313
640.893086	13606.704375
641.237632	13484.766425
641.582125	13633.722439
641.926566	13466.653559
642.270955	13474.180002
642.615292	13440.384107
642.959576	13448.225622
643.303809	13476.808964
643.647990	13418.810489
643.992118	13474.638747
644.336195	13242.070156
644.680219	13449.039768
645.024192	13374.062687
645.368112	13609.408954
645.711981	13675.279191
646.055797	13849.503988
646.399562	13817.873268
646.743274	14079.340274
647.086935	14361.118089
647.430544	14334.289068
647.774101	14364.561197
648.117606	14510.628630
648.461059	14470.508607
648.804460	14463.665241
649.147810	14192.587275
649.491108	14093.712604
649.834354	14114.424185
650.177548	13812.222135
650.520690	13620.161735
650.863781	13542.003686
651.206820	13589.819030
651.549807	13408.866813
651.892742	13219.027041
652.235626	13153.865087
652.578458	13159.281807
652.921238	12844.844877
653.263967	13047.199313
653.606644	12869.118032
653.949269	12849.036596
654.291843	12648.035710
654.634365	12807.139566
654.976836	12657.424859
655.319255	12666.879543
655.661622	12625.267338
656.003938	12542.554607
656.346203	12467.816980
656.688416	12544.477807
657.030577	12501.396106
657.372687	12418.312850
657.714746	12393.268397
658.056753	12587.241915
658.398708	12399.965570
658.740612	12403.514543
659.082465	12503.911642
659.424266	12464.278090
659.766016	12493.602482
660.107715	12398.231413
660.449362	12480.770225
660.790958	12439.747836
661.132503	12374.923638
661.473996	12446.455091
661.815438	12465.734984
662.156829	12476.686891
662.498168	12455.912296
662.839456	12454.311729
663.180693	12469.014254
663.521879	12565.789285
663.863013	12545.569217
664.204097	12515.627283
664.545129	12635.337043
664.886110	12599.638112
665.227040	12699.392465
665.567918	12698.837938
665.908746	12733.271539
666.249522	12713.822767
666.590248	12763.107608
666.930922	12871.454607
667.271545	12859.345756
667.612118	12937.917179
667.952639	12843.577026
668.293109	12862.720808
668.633528	12818.794714
668.973896	12782.611832
669.314213	12870.040563
669.654480	12605.695059
669.994695	12682.665916
670.334859	12699.437835
670.674973	12647.040082
671.015035	12680.911595
671.355047	12626.928399
671.695008	12588.938263
672.034918	12602.415788
672.374777	12643.276861
672.714585	12553.027604
673.054342	12586.871390
673.394049	12545.281871
673.733705	12635.387455
674.073310	12552.215978
674.412864	12570.848083
674.752368	12438.779934
675.091820	12446.369391
675.431223	12434.878081
675.770574	12305.917804
676.109875	12233.060528
676.449125	12185.681244
676.788324	12132.676032
677.127473	11970.759211
677.466571	11959.638426
677.805619	11859.994979
678.144616	11780.614450
678.483562	11745.298647
678.822458	11620.083947
679.161303	11598.321286
679.500098	11577.554252
679.838842	11537.688808
680.177535	11560.774772
680.516179	11623.668207
680.854771	11568.167624
681.193314	11787.868670
681.531805	11934.041967
681.870247	12351.273065
682.208638	12764.647681
682.546978	13084.937390
682.885268	13132.407415
683.223508	12819.510558
683.561697	12662.937361
683.899836	12564.523955
684.237925	12368.780993
684.575963	12284.505503
684.913951	12210.760984
685.251889	12158.063282
685.589776	12245.968403
685.927614	12176.282012
686.265401	12140.522588
686.603137	12189.570494
686.940824	12334.322185
687.278460	12456.214765
687.616046	12509.925738
687.953582	12677.496213
688.291068	12601.775562
688.628504	12839.324813
688.965889	12848.202285
689.303224	12815.069301
689.640510	12714.657078
689.977745	12393.626319
690.314930	12171.883606
690.652065	12081.578896
690.989150	11794.893518
691.326185	11580.364696
691.663170	11367.045750
692.000105	11124.694799
692.336990	11012.531647
692.673825	10757.880281
693.010610	10645.709567
693.347345	10430.346433
693.684030	10238.313760
694.020665	10180.617754
694.357251	9987.589453
694.693786	9922.377087
695.030272	9761.135781
695.366707	9640.221185
695.703093	9573.909847
696.039429	9574.184590
696.375716	9497.848918
696.711952	9368.477787
697.048139	9403.037417
697.384276	9361.231128
697.720363	9378.406340
698.056400	9314.509715
698.392388	9267.606819
698.728326	9230.917302
699.064214	9164.232918
699.400053	9208.774033
699.735842	9028.885499
700.071581	8985.647523
700.407270	8909.876460
700.742910	8825.948810
701.078501	8736.874142
701.414042	8615.523487
701.749533	8545.529586
702.084974	8410.814832
702.420366	8527.078963
702.755709	8410.149400
703.091002	8274.224769
703.426246	8309.122156
703.761440	8251.789113
704.096584	8213.390645
704.431679	8137.460785
704.766725	8128.207747
705.101721	8080.100016
705.436668	8125.528374
705.771565	8021.201695
706.106413	8100.488963
706.441212	8140.908935
706.775961	8101.257739
707.110661	8132.800239
707.445311	8280.148124
707.779913	8175.029984
708.114465	8302.528327
708.448967	8341.579625
708.783421	8483.616655
709.117825	8662.708687
709.452180	8707.043114
709.786485	8788.775342
710.120742	9065.935460
710.454949	9070.023835
710.789107	9174.327829
711.123216	9385.043019
711.457275	9553.331857
711.791286	9704.634528
712.125247	9708.443120
712.459159	9694.695894
712.793023	9947.855078
713.126837	9515.795426
713.460602	9665.270679
713.794318	9501.546605
714.127985	9524.274647
714.461602	9206.198004
714.795171	9154.838728
715.128691	8904.517713
715.462162	8653.586719
715.795584	8607.790357
716.128957	8457.939538
716.462281	8290.137171
716.795556	8330.138727
717.128782	8134.483984
717.461960	7865.913992
717.795088	7936.906041
718.128167	7843.616969
718.461198	7678.093203
718.794180	7619.187320
719.127113	7617.523739
719.459997	7462.399874
719.792833	7234.302786
720.125619	7297.186139
720.458357	7155.867473
720.791046	7137.396685
721.123686	7141.575802
721.456278	6982.784497
721.788821	7004.884915
722.121315	6897.117649
722.453761	6959.693492
722.786158	6902.448669
723.118506	6919.389467
723.450805	6883.325052
723.783056	6951.794004
724.115259	6856.932091
724.447412	6856.085177
724.779518	6900.104533
725.111574	6897.752834
725.443582	6984.425393
725.775542	6961.246167
726.107453	7159.270252
726.439315	7061.555046
726.771129	7128.304964
727.102895	7295.580531
727.434612	7407.166472
727.766281	7434.794515
728.097901	7514.757298
728.429473	7514.016248
728.760996	7489.934656
729.092471	7461.447096
729.423897	7403.491471
729.755276	7420.923781
730.086606	7348.041299
730.417887	7444.922193
730.749120	7638.189950
731.080305	7834.212696
731.411442	7952.256355
731.742530	7950.189482
732.073570	8051.088176
732.404562	8141.279459
732.735506	7991.592478
733.066401	8133.445506
733.397249	8063.096204
733.728048	7827.969227
734.058798	7493.418093
734.389501	7267.173629
734.720156	7093.417659
735.050762	6858.693974
735.381320	6760.154540
735.711831	6710.121088
736.042293	6603.815757
736.372707	6624.141689
736.703073	6484.675647
737.033391	6523.003540
737.363661	6535.518204
737.693883	6561.079375
738.024056	6645.987529
738.354182	6690.692481
738.684260	6728.929633
739.014290	6838.736046
739.344272	6950.420289
739.674207	6979.396842
740.004093	7050.799745
740.333931	7067.491005
740.663722	7076.953251
740.993464	7145.061760
741.323159	7141.351471
741.652806	6887.456278
741.982405	6901.868937
742.311956	6960.933616
742.641460	6797.844727
742.970915	6598.560354
743.300323	6592.541216
743.629683	6543.490789
743.958996	6413.799545
744.288260	6323.620864
744.617477	6270.887874
744.946647	6272.853924
745.275768	6106.052226
745.604842	6061.027160
745.933869	6046.727927
746.262847	6003.217728
746.591778	5992.608620
746.920662	5950.116734
747.249498	5944.510971
747.578286	5989.737683
747.907027	6063.323406
748.235720	6121.445389
748.564365	6094.787767
748.892963	6120.958918
749.221514	6278.855418
749.550017	6112.903154
749.878473	5988.013608
750.206881	6041.230549
750.535242	5986.249205
750.863555	5913.780098
751.191821	5931.398930
751.520039	5935.247851
751.848210	5842.593964
752.176334	5862.216655
752.504411	5915.146250
752.832440	5840.083469
753.160421	5763.203353
753.488356	5813.851825
753.816243	5851.610068
754.144082	5699.742787
754.471875	5670.252037
754.799620	5710.913984
755.127318	5725.810594
755.454969	5678.738820
755.782572	5644.879910
756.110129	5687.858267
756.437638	5672.850752
756.765100	5616.871259
757.092515	5613.163491
757.419882	5661.261140
757.747203	5643.415455
758.074477	5706.588674
758.401703	5695.077200
758.728882	5645.986443
759.056014	5695.546027
759.383099	5830.505277
759.710138	5840.335527
760.037129	5824.337425
760.364073	5832.887222
760.690970	5911.027628
761.017820	5895.117746
761.344623	5853.014029
761.671379	5945.095745
761.998088	6068.402368
762.324751	6307.673174
762.651366	6901.654688
762.977935	8201.372534
763.304456	9833.534312
763.630931	10736.931766
763.957359	10351.253250
764.283740	9406.243591
764.610074	8578.798681
764.936362	7585.900581
765.262602	6996.675396
765.588796	6452.288754
765.914943	6112.862825
766.241044	5958.061593
766.567097	5759.964411
766.893104	5498.545296
767.219064	5317.262883
767.544978	5257.023616
767.870845	5178.958828
768.196665	5078.178601
768.522438	5004.229915
768.848165	4969.125840
769.173846	4900.878699
769.499479	4857.870095
769.825066	4807.571983
770.150607	4746.485801
770.476101	4722.131987
770.801548	4719.742480
771.126949	4644.722549
771.452303	4594.076597
771.777611	4545.870563
772.102872	4569.526178
772.428087	4533.940672
772.753256	4492.313345
773.078378	4447.237867
773.403453	4378.892424
773.728482	4361.775186
774.053465	4316.530831
774.378401	4300.338644
774.703291	4307.671003
775.028135	4234.576793
775.352932	4183.323381
775.677683	4172.507586
776.002388	4189.551727
776.327046	4201.809293
776.651658	4126.224752
776.976224	4065.277202
777.300743	4070.809869
777.625216	4088.385852
777.949643	4084.582301
778.274024	4045.664593
778.598359	3999.313704
778.922647	4019.722816
779.246889	4014.626209
779.571086	4009.148995
779.895236	3993.193743
780.219339	3981.110098
780.543397	3973.218171
780.867409	4025.832694
781.191374	4038.841392
781.515294	3977.619099
781.839167	3969.830516
782.162995	3988.974298
782.486776	3976.870487
782.810511	3987.235100
783.134201	3984.338957
783.457844	3937.418417
783.781441	3882.268194
784.104993	3889.361098
784.428498	3907.358017
784.751958	3906.541350
785.075372	3884.609810
785.398739	3844.469623
785.722061	3858.887323
786.045337	3901.737130
786.368568	3935.749795
786.691752	3845.901310
787.014891	3895.075246
787.337983	4020.499153
787.661030	4184.008978
787.984031	4343.601827
788.306987	4509.312115
788.629897	4593.605249
788.952760	4550.246285
789.275579	4481.121983
789.598351	4420.040842
789.921078	4280.935243
790.243759	4078.941250
790.566395	4055.441911
790.888984	4054.736150
791.211529	3949.902835
791.534027	3890.374370
791.856480	3881.774161
792.178888	3816.665139
792.501249	3769.174949
792.823566	3776.545116
793.145836	3808.100218
793.468062	3756.098196
793.790241	3709.921227
794.112375	3739.212851
794.434464	3803.527892
794.756507	3824.650326
795.078505	3812.211279
795.400457	3843.342925
795.722364	3978.929799
796.044226	4083.069955
796.366042	4157.484947
796.687812	4136.213799
797.009538	4147.112773
797.331218	4102.664920
797.652852	4071.908840
797.974442	4053.740522
798.295986	4058.572468
798.617484	3973.951659
798.938938	3888.373032
799.260346	3923.141870
799.581709	3922.668001
799.903026	3852.439687
800.224299	3811.787822
800.545526	3804.069816
800.866708	3769.885752
801.187845	3711.746124
801.508936	3742.182091
801.829983	3744.410281
802.150984	3663.595543
802.471940	3653.828308
802.792851	3664.147550
803.113717	3664.079494
803.434538	3663.656037
803.755314	3609.314919
804.076045	3581.744849
804.396731	3603.404166
804.717372	3627.508443
805.037967	3613.262143
805.358518	3601.670009
805.679024	3629.537508
805.999485	3643.224241
806.319901	3647.879746
806.640272	3662.221829
806.960598	3676.896628
807.280879	3652.295797
807.601115	3660.477590
807.921306	3679.447452
808.241453	3718.985221
808.561554	3695.667364
808.881611	3627.677322
809.201623	3666.610153
809.521590	3676.006864
809.841513	3650.160868
810.161390	3681.252185
810.481223	3656.371570
810.801011	3604.606482
811.120755	3594.476283
811.440453	3632.136223
811.760107	3634.606388
812.079716	3591.539811
812.399281	3558.258113
812.718801	3582.775765
813.038276	3553.133780
813.357707	3551.248389
813.677093	3571.745720
813.996434	3518.304448
814.315731	3527.174358
814.634983	3530.945142
814.954191	3542.877553
815.273354	3570.316553
815.592473	3569.739341
815.911547	3575.340063
816.230577	3614.015795
816.549562	3668.039320
816.868502	3705.399312
817.187399	3732.377046
817.506250	3730.131212
817.825058	3701.036193
818.143821	3790.541879
818.462539	3895.276892
818.781213	3942.388995
819.099843	3995.973940
819.418429	4237.972010
819.736970	4481.643742
820.055466	4721.920258
820.373919	5083.683541
820.692327	5496.264174
821.010691	5931.169558
821.329011	7294.158926
821.647286	10011.234985
821.965517	14537.586200
822.283704	18565.899142
822.601847	20743.745659
822.919945	18946.055074
823.237999	16386.469702
823.556010	13898.231781
823.873976	11820.036273
824.191897	9733.666533
824.509775	8382.904484
824.827609	7256.637618
825.145398	6714.554783
825.463144	6597.027843
825.780845	6711.401541
826.098502	6892.416773
826.416116	7763.323991
826.733685	9076.675638
827.051210	10196.898160
827.368692	10252.156768
827.686129	9010.298765
828.003522	7493.319791
828.320872	6479.107693
828.638177	5777.159787
828.955439	5220.772678
829.272656	4723.125094
829.589830	4437.823513
829.906960	4272.297226
830.224046	4083.195984
830.541088	3956.826860
830.858086	3908.714087
831.175041	3832.388498
831.491952	3816.397958
831.808819	3828.504288
832.125642	3895.939803
832.442421	4047.827248
832.759157	4314.985717
833.075849	4862.868399
833.392497	5720.913113
833.709101	6497.674262
834.025662	6840.654205
834.342179	6483.841336
834.658653	5819.956663
834.975083	5174.620915
835.291469	4604.592444
835.607811	4190.096172
835.924110	4047.376065
836.240366	3854.191488
836.556578	3648.008296
836.872746	3541.019887
837.188871	3501.343486
837.504952	3435.894186
837.820990	3351.459900
838.136984	3306.235709
838.452935	3332.946263
838.768842	3327.605160
839.084706	3350.902853
839.400526	3504.106038
839.716303	3840.184642
840.032037	4362.327193
840.347727	4632.011279
840.663373	4357.356615
840.978977	3973.855877
841.294537	3669.561749
841.610054	3441.999023
841.925527	3333.490707
842.240957	3262.516302
842.556344	3209.233827
842.871687	3153.138387
843.186987	3101.227105
843.502244	3065.321487
843.817458	3031.076929
844.132629	3001.394615
844.447756	3007.217148
844.762840	2994.967144
845.077881	2962.766774
845.392879	2944.127108
845.707833	2942.178702
846.022745	2939.171653
846.337613	2937.679472
846.652438	2929.162442
846.967221	2927.098090
847.281960	2911.772982
847.596656	2907.858526
847.911309	2907.848444
848.225919	2902.593041
848.540485	2894.645662
848.855009	2896.518451
849.169490	2887.494785
849.483928	2877.571274
849.798323	2877.041953
850.112675	2874.463403
850.426984	2885.090155
850.741251	2881.624362
851.055474	2874.382744
851.369654	2868.557691
851.683792	2871.330325
851.997887	2880.664022
852.311938	2882.491440
852.625947	2871.594986
852.939914	2873.122456
853.253837	2877.596480
853.567718	2863.970241
853.881555	2859.443285
854.195350	2878.115718
854.509103	2874.314688
854.822812	2868.494676
855.136479	2861.248018
855.450103	2864.807072
855.763685	2859.864221
856.077224	2855.077645
856.390720	2869.606251
856.704173	2875.738814
857.017584	2870.513658
857.330953	2867.289841
857.644278	2877.450286
857.957561	2884.129815
858.270802	2888.477810
858.584000	2886.897408
858.897155	2874.753269
859.210268	2872.252857
859.523339	2871.070706
859.836367	2872.293186
860.149352	2870.538864
860.462295	2860.328007
860.775195	2869.528113
861.088054	2869.157588
861.400869	2851.931965
861.713642	2850.966584
862.026373	2866.016949
862.339062	2867.932588
862.651708	2872.676313
862.964312	2875.968187
863.276873	2868.345962
863.589392	2880.721995
863.901869	2891.278171
864.214303	2911.329361
864.526696	2930.939449
864.839045	2923.319745
865.151353	2924.438881
865.463619	2922.039292
865.775842	2922.084662
866.088023	2939.166612
866.400162	2949.828653
866.712258	2919.105340
867.024313	2908.876839
867.336325	2917.199784
867.648296	2937.533278
867.960224	2932.020777
868.272110	2919.596853
868.583954	2923.677667
868.895755	2936.285593
869.207515	2922.261103
869.519233	2929.648914
869.830909	2938.241560
870.142542	2946.624999
870.454134	2944.976542
870.765684	2952.034157
871.077191	2951.582974
871.388657	2955.570527
871.700081	2969.269862
872.011463	2977.665904
872.322803	2982.026502
872.634101	2981.272850
872.945357	2999.221878
873.256571	3024.049561
873.567744	3017.226359
873.878874	3010.393075
874.189963	3033.098432
874.501010	3037.025491
874.812015	3024.626773
875.122979	3024.024355
875.433900	3023.772297
875.744780	3026.305477
876.055618	3034.888041
876.366415	3029.216743
876.677169	3042.941285
876.987882	3039.588917
877.298554	3030.683719
877.609183	3052.549724
877.919771	3074.819021
878.230317	3104.844133
878.540822	3154.375990
878.851285	3194.054912
879.161707	3236.899679
879.472087	3334.037672
879.782425	3563.999987
880.092722	3994.070904
880.402977	4516.132797
880.713191	5138.886696
881.023363	6286.081912
881.333494	7566.340904
881.643583	8120.777087
881.953631	7832.087850
882.263637	7206.894032
882.573602	6619.246728
882.883526	6042.110230
883.193408	5471.149146
883.503248	5014.092932
883.813048	4712.427766
884.122806	4407.702618
884.432522	4096.849949
884.742197	3863.991491
885.051831	3667.111748
885.361424	3533.737941
885.670975	3463.305460
885.980485	3376.476626
886.289954	3302.076757
886.599382	3257.457504
886.908768	3217.612224
887.218113	3174.102025
887.527417	3117.862913
887.836680	3068.938515
888.145901	3062.347206
888.455082	3054.341854
888.764221	3000.847650
889.073319	2974.661376
889.382376	2970.048721
889.691392	2978.676655
890.000366	2972.289513
890.309300	2962.595375
890.618193	2974.968887
890.927044	2990.296515
891.235855	2990.664519
891.544625	2976.932416
891.853353	2987.029847
892.162041	3005.409894
892.470687	3043.934392
892.779293	3098.532609
893.087858	3143.361069
893.396381	3213.395299
893.704864	3332.507682
894.013306	3569.918302
894.321707	3868.163046
894.630068	4079.987289
894.938387	4077.615426
895.246665	4028.156666
895.554903	3913.170467
895.863100	3712.492215
896.171256	3547.626320
896.479371	3407.487284
896.787446	3283.709313
897.095480	3183.889426
897.403473	3119.776031
897.711425	3083.063828
898.019336	3070.526478
898.327207	3042.016233
898.635038	3006.655059
898.942827	2992.449088
899.250576	2981.101450
899.558284	2949.874023
899.865952	2933.538164
900.173579	2910.512694
900.481165	2905.998340
900.788711	2890.471587
901.096216	2865.737165
901.403681	2856.068232
901.711105	2862.041999
902.018489	2861.119468
902.325832	2859.473532
902.633135	2868.303113
902.940397	2901.569687
903.247619	2982.896101
903.554800	3173.721418
903.861941	3515.355373
904.169041	3944.241619
904.476101	4240.550560
904.783121	4196.243859
905.090100	3956.292497
905.397039	3680.909386
905.703938	3432.335131
906.010796	3250.886360
906.317614	3138.912251
906.624391	3044.322561
906.931129	2972.670121
907.237826	2912.312386
907.544483	2866.450488
907.851099	2833.481342
908.157675	2815.910401
908.464211	2793.966258
908.770707	2781.875050
909.077163	2764.843512
909.383578	2752.228025
909.689954	2742.564133
909.996289	2742.478433
910.302584	2740.683782
910.608839	2744.328537
910.915054	2734.626836
911.221229	2729.255487
911.527363	2727.980075
911.833458	2739.229409
912.139513	2740.857702
912.445527	2744.915831
912.751502	2753.707603
913.057436	2764.823347
913.363331	2775.669390
913.669186	2797.366516
913.975000	2831.394305
914.280775	2890.320352
914.586510	2962.910447
914.892205	3037.617826
915.197859	3166.104235
915.503475	3356.969881
915.809050	3571.183632
916.114585	3718.065211
916.420081	3737.929877
916.725536	3677.186494
917.030952	3560.163669
917.336328	3433.832354
917.641665	3305.310657
917.946961	3205.316850
918.252218	3134.019811
918.557435	3054.737585
918.862612	2996.585354
919.167750	2946.884619
919.472848	2912.692993
919.777906	2879.416336
920.082925	2855.619569
920.387904	2826.491782
920.692843	2809.508135
920.997743	2795.460960
921.302603	2785.663477
921.607423	2775.492950
921.912204	2762.716145
922.216946	2749.271388
922.521647	2743.400964
922.826310	2732.975858
923.130932	2727.944787
923.435516	2719.972202
923.740059	2713.398537
924.044564	2703.550643
924.349028	2699.104345
924.653454	2694.461443
924.957840	2687.202181
925.262186	2682.319824
925.566493	2677.213135
925.870761	2671.723318
926.174989	2667.617298
926.479178	2665.663851
926.783328	2658.855773
927.087438	2657.078766
927.391509	2658.873417
927.695541	2654.235556
927.999533	2651.767911
928.303486	2650.651295
928.607400	2647.697179
928.911275	2648.092910
929.215110	2647.382107
929.518906	2643.749956
929.822663	2644.128042
930.126381	2642.580408
930.430060	2645.710964
930.733699	2643.913793
931.037299	2643.266005
931.340861	2650.510143
931.644383	2649.227169
931.947866	2643.729791
932.251309	2645.000162
932.554714	2644.995121
932.858080	2641.652836
933.161407	2642.431694
933.464694	2639.434728
933.767943	2636.954480
934.071153	2639.603607
934.374323	2638.708802
934.677455	2637.700571
934.980548	2637.682927
935.283602	2636.639408
935.586617	2636.397433
935.889593	2639.873308
936.192530	2638.429018
936.495428	2637.700571
936.798287	2637.337608
937.101108	2642.068731
937.403890	2646.562919
937.706632	2650.225318
938.009336	2657.086328
938.312002	2665.011022
938.614628	2674.795902
938.917216	2681.712365
939.219765	2680.994000
939.522275	2682.276974
939.824747	2675.973011
940.127179	2673.722136
940.429573	2672.224913
940.731929	2670.168122
941.034246	2666.372133
941.336524	2664.678306
941.638763	2663.594458
941.940964	2658.873417
942.243126	2658.540701
942.545250	2656.342758
942.847335	2653.360915
943.149381	2652.405617
943.451389	2646.540234
943.753359	2642.623258
944.055290	2643.918834
944.357182	2641.970428
944.659036	2638.499594
944.960851	2640.513535
945.262628	2638.640746
945.564367	2638.479429
945.866067	2640.155613
946.167729	2639.512866
946.469352	2640.745428
946.770937	2638.547485
947.072484	2636.518420
947.373992	2639.611168
947.675462	2637.597227
947.976893	2632.495580
948.278286	2629.874180
948.579641	2629.937194
948.880958	2627.164559
949.182236	2628.137502
949.483476	2629.302009
949.784678	2631.376443
950.085841	2629.594396
950.386967	2630.322842
950.688054	2631.177318
950.989103	2632.997174
951.290114	2632.304016
951.591087	2635.341311
951.892021	2635.467340
952.192917	2640.178298
952.493776	2642.739204
952.794596	2639.674183
953.095378	2640.321971
953.396122	2641.620068
953.696828	2640.354738
953.997496	2637.148565
954.298126	2635.492546
954.598718	2635.263173
954.899272	2633.309726
955.199788	2627.638428
955.500266	2625.788324
955.800706	2625.606843
956.101108	2622.846811
956.401472	2622.854373
956.701798	2620.260699
957.002087	2615.983280
957.302337	2614.581839
957.602550	2617.674587
957.902724	2612.895573
958.202861	2611.479009
958.502960	2610.218721
958.803022	2609.170161
959.103045	2609.954060
959.403031	2606.077413
959.702979	2608.018257
960.002889	2608.575305
960.302762	2607.511621
960.602596	2603.193873
960.902393	2603.607247
961.202153	2606.316868
961.501875	2604.822166
961.801559	2601.371496
962.101205	2606.092536
962.400814	2605.580859
962.700385	2601.217741
962.999918	2604.048348
963.299414	2600.275045
963.598873	2600.264962
963.898293	2599.939808
964.197677	2602.777978
964.497022	2603.027515
964.796331	2602.049531
965.095601	2604.638163
965.394835	2602.616661
965.694030	2601.283276
965.993189	2601.817638
966.292309	2602.740169
966.591393	2602.684716
966.890439	2603.955087
967.189447	2600.035590
967.488419	2601.696650
967.787353	2599.758327
968.086249	2599.581886
968.385108	2603.093050
968.683930	2603.052721
968.982714	2600.416197
969.281462	2602.518358
969.580172	2601.096753
969.878844	2604.081116
970.177480	2602.384768
970.476078	2602.415015
970.774639	2601.384099
971.073162	2603.483739
971.371649	2602.079778
971.670098	2599.970055
971.968510	2601.605909
972.266885	2601.522730
972.565223	2603.113214
972.863524	2602.029366
973.161788	2601.537854
973.460014	2600.111207
973.758204	2602.472988
974.056356	2600.277565
974.354471	2600.653131
974.652550	2602.646908
974.950591	2601.840323
975.248595	2602.604058
975.546563	2603.415684
975.844493	2601.497525
976.142386	2599.959973
976.440243	2601.285796
976.738062	2599.261773
977.035845	2599.760847
977.333590	2602.364603
977.631299	2600.025508
977.928971	2599.725559
978.226606	2596.312698
978.524204	2596.660537
978.821765	2595.611977
979.119290	2599.619695
979.416777	2599.607092
979.714228	2599.294540
980.011642	2596.605085
980.309020	2599.516351
980.606360	2599.425610
980.903664	2602.689758
981.200931	2596.877307
981.498162	2598.654314
981.795356	2600.766557
982.092513	2602.977103
982.389633	2603.987855
982.686717	2609.152517
982.983764	2613.140069
983.280775	2615.489247
983.577749	2616.099227
983.874686	2616.293311
984.171587	2613.528238
984.468451	2610.768207
984.765279	2607.055397
985.062070	2607.322578
985.358824	2604.300406
985.655543	2606.281580
985.952224	2601.610951
986.248869	2601.127000
986.545478	2601.018615
986.842050	2599.047524
987.138586	2599.763368
987.435086	2599.173553
987.731549	2596.766402
988.027975	2597.404108
988.324366	2597.940991
988.620719	2597.988882
988.917037	2596.244642
989.213318	2594.528129
989.509563	2594.540732
989.805772	2594.623911
990.101944	2596.259766
990.398080	2599.322267
990.694180	2597.832606
990.990244	2594.134919
991.286271	2595.445619
991.582262	2592.367995
991.878217	2598.155240
992.174136	2595.339755
992.470019	2595.362440
992.765865	2591.710124
993.061676	2590.709455
993.357450	2594.119796
993.653188	2592.335228
993.948890	2596.622729
994.244556	2594.578541
994.540186	2595.624580
994.835780	2595.954776
995.131337	2598.026690
995.426859	2597.323449
995.722345	2598.911413
996.017795	2600.877463
996.313208	2599.513831
996.608586	2599.261773
996.903928	2599.826382
997.199234	2603.667741
997.494504	2598.792946
997.789738	2602.480550
998.084936	2600.494335
998.380099	2598.717328
998.675225	2602.198245
998.970316	2597.550301
999.265371	2598.545929
999.560390	2596.342945
999.855373	2596.201793
1000.150320	2597.656165
1000.445232	2596.390836
1000.740108	2596.335383
1001.034948	2595.243973
1001.329752	2593.580392
1001.624521	2595.498552
1001.919254	2594.626432
1002.213951	2595.702718
1002.508613	2593.313211
1002.803239	2596.428644
1003.097829	2593.540063
1003.392384	2591.513519
1003.686903	2595.049889
1003.981386	2592.856987
1004.275834	2596.337904
1004.570246	2593.766915
1004.864623	2595.120465
1005.158964	2592.952769
1005.453270	2592.650300
1005.747540	2593.330855
1006.041775	2592.657861
1006.335974	2592.562079
1006.630138	2593.943356
1006.924266	2592.345310
1007.218359	2590.918663
1007.512416	2587.646954
1007.806438	2590.041502
1008.100425	2588.118302
1008.394376	2586.578230
1008.688292	2592.700711
1008.982172	2592.481421
1009.276017	2594.996957
1009.569827	2595.201123
1009.863602	2595.427975
1010.157341	2593.812286
1010.451045	2593.943356
1010.744714	2592.700711
1011.038347	2593.454364
1011.331945	2591.576534
1011.625508	2592.284816
1011.919036	2591.906729
1012.212528	2592.030238
1012.505986	2592.864549
1012.799408	2592.284816
1013.092795	2591.095104
1013.386147	2595.992585
1013.679464	2593.527460
1013.972745	2592.115937
1014.265992	2594.676843
1014.559204	2595.485949
1014.852380	2592.277254
1015.145521	2591.296750
1015.438628	2590.797676
1015.731699	2591.541246
1016.024736	2593.109045
1016.317737	2590.782552
1016.610703	2592.499065
1016.903635	2593.156936
1017.196531	2593.124168
1017.489393	2592.156267
1017.782219	2591.090062
1018.075011	2596.116093
1018.367768	2592.574682
1018.660490	2591.974785
1018.953177	2591.974785
1019.245829	2591.974785
