Dividing Wavelength (nm)	Counts (n)	Blue Motor Position (mm): 44.600000	Red Motor Position (mm): 0.000000	
326.493990	2051.026210
326.888308	2051.026210
327.282561	2051.026210
327.676750	2024.852539
328.070874	2027.053003
328.464933	2032.346214
328.858929	2039.063552
329.252859	2052.709955
329.646726	2063.160267
330.040528	2083.085428
330.434265	2096.951121
330.827938	2122.507251
331.221547	2140.108439
331.615091	2161.651810
332.008571	2182.900274
332.401986	2204.695703
332.795338	2222.858980
333.188625	2242.017885
333.581847	2260.869280
333.975006	2276.708585
334.368100	2296.648869
334.761129	2314.418937
335.154095	2330.091884
335.546996	2380.332023
335.939833	2485.755153
336.332606	2495.759323
336.725315	2512.271622
337.117960	2524.801410
337.510540	2532.952956
337.903056	2538.606610
338.295508	2545.870913
338.687896	2553.679660
339.080220	2560.341545
339.472480	2562.930177
339.864676	2567.154664
340.256807	2571.777402
340.648875	2574.885273
341.040879	2573.216652
341.432818	2572.215983
341.824694	2576.397620
342.216506	2574.552557
342.608253	2575.651529
342.999937	2572.203380
343.391557	2573.259501
343.783113	2571.595921
344.174605	2569.345045
344.566033	2569.942422
344.957397	2564.737431
345.348697	2564.513099
345.739934	2565.440672
346.131106	2561.455640
346.522215	2560.674261
346.913260	2560.979251
347.304241	2555.973385
347.695159	2555.393652
348.086012	2556.464897
348.476802	2552.230328
348.867528	2547.937786
349.258191	2546.617003
349.648789	2545.689431
350.039324	2543.483926
350.429796	2549.563558
350.820203	2544.366128
351.210548	2545.074410
351.600828	2542.692465
351.991045	2544.388813
352.381198	2543.461241
352.771288	2544.628268
353.161314	2542.052238
353.551276	2541.475026
353.941175	2539.836651
354.331010	2540.983514
354.720782	2547.385779
355.110490	2544.721529
355.500135	2541.608617
355.889717	2544.131714
356.279235	2543.889739
356.668689	2542.619368
357.058080	2542.120294
357.447408	2546.367466
357.836672	2545.003834
358.225873	2543.899821
358.615010	2547.000131
359.004084	2546.692621
359.393095	2548.230173
359.782043	2550.544062
360.170927	2552.618497
360.559748	2547.080789
360.948505	2548.812426
361.337199	2551.544731
361.725830	2552.983981
362.114398	2551.459032
362.502903	2549.540872
362.891344	2555.769218
363.279722	2551.839639
363.668037	2555.446584
364.056289	2552.361398
364.444478	2557.818447
364.832603	2557.745350
365.220665	2557.878941
365.608665	2557.019424
365.996601	2558.372974
366.384474	2558.869528
366.772284	2558.496482
367.160031	2559.860114
367.547715	2557.780638
367.935336	2557.720145
368.322893	2556.495144
368.710388	2556.401883
369.097820	2557.826009
369.485189	2555.953220
369.872495	2563.023438
370.259738	2562.231977
370.646918	2562.090825
371.034035	2562.405897
371.421090	2561.256514
371.808081	2561.649724
372.195010	2564.230795
372.581875	2562.105948
372.968678	2565.715415
373.355418	2565.402863
373.742096	2565.102914
374.128710	2565.657441
374.515262	2569.856722
374.901751	2566.595096
375.288177	2569.864284
375.674540	2567.026115
376.060841	2570.922927
376.447079	2569.193811
376.833254	2569.166084
377.219367	2566.907647
377.605417	2569.486198
377.991404	2570.708677
378.377329	2572.589028
378.763191	2571.588359
379.148991	2573.647670
379.534727	2575.417115
379.920402	2574.630695
380.306013	2576.798391
380.691563	2576.906776
381.077049	2577.746128
381.462474	2580.584298
381.847835	2581.471541
382.233134	2583.861048
382.618371	2583.921542
383.003545	2588.952613
383.388657	2588.587130
383.773706	2595.400249
384.158693	2595.047368
384.543618	2603.219079
384.928480	2607.657815
385.313280	2615.670729
385.698017	2621.760442
386.082692	2628.039200
386.467305	2636.951960
386.851856	2641.221817
387.236344	2651.122643
387.620770	2659.334683
388.005133	2666.437668
388.389435	2677.903773
388.773674	2686.012469
389.157851	2703.608616
389.541965	2715.992211
389.926018	2725.267934
390.310008	2740.318299
390.693936	2753.039650
391.077802	2768.712598
391.461606	2790.969292
391.845348	2803.141158
392.229027	2821.972388
392.612645	2843.195646
392.996200	2867.562063
393.379694	2891.149622
393.763125	2920.027872
394.146494	2943.504525
394.529801	2965.196610
394.913047	2999.418483
395.296230	3013.014475
395.679351	3040.400543
396.062410	3074.317426
396.445408	3080.205494
396.828343	3116.166565
397.211217	3148.089672
397.594028	3152.639313
397.976778	3195.121116
398.359466	3228.032289
398.742092	3252.557503
399.124656	3276.795370
399.507158	3327.983247
399.889598	3350.847400
400.271977	3406.451327
400.654294	3418.950868
401.036549	3475.346256
401.418742	3491.740088
401.800874	3556.980181
402.182944	3596.903598
402.564952	3668.137623
402.946898	3682.615817
403.328783	3700.799259
403.710606	3755.304214
404.092367	3824.592353
404.474067	3892.136253
404.855705	3894.697159
405.237282	3886.928741
405.618797	3979.517093
406.000250	4056.467786
406.381642	4139.760250
406.762972	4155.483609
407.144240	4134.151967
407.525447	4201.864745
407.906593	4228.655957
408.287677	4311.005726
408.668700	4350.457796
409.049661	4391.258375
409.430560	4433.616670
409.811399	4434.181279
410.192176	4480.333042
410.572891	4560.782296
410.953545	4660.952544
411.334138	4572.649172
411.714669	4682.926933
412.095139	4615.060400
412.475547	4718.804825
412.855894	4727.886464
413.236180	4822.508922
413.616405	4763.666053
413.996568	4855.152913
414.376670	4872.940625
414.756711	4865.109192
415.136691	4934.246097
415.516609	5020.021329
415.896466	5053.386206
416.276262	5133.023834
416.655997	5248.340228
417.035670	5334.367518
417.415283	5458.274039
417.794834	5518.924161
418.174324	5476.104600
418.553753	5485.987782
418.933121	5628.470954
419.312428	5643.934694
419.691674	5586.382361
420.070859	5791.249812
420.449983	5682.229819
420.829045	5861.548703
421.208047	5797.359691
421.586988	5949.579852
421.965867	6018.507548
422.344686	6090.512869
422.723444	6250.924905
423.102141	5900.615124
423.480777	6257.954794
423.859352	6093.151913
424.237866	6432.139262
424.616319	6427.582059
424.994712	6575.776859
425.373044	6505.495612
425.751314	6790.746782
426.129524	6535.916455
426.507673	6784.304188
426.885762	6824.772050
427.263789	6860.912082
427.641756	6947.158663
428.019662	7015.017635
428.397508	7048.541308
428.775292	7049.224384
429.153016	7191.226126
429.530679	7145.810371
429.908282	7196.360541
430.285824	7136.128835
430.663305	7385.093780
431.040726	7294.156405
431.418086	7290.526775
431.795385	7429.042559
432.172624	7605.578725
432.549802	7480.790003
432.926920	7609.427646
433.303977	7571.273673
433.680974	7616.742361
434.057910	7802.123232
434.434786	7841.741660
434.811601	7805.105074
435.188355	8140.916496
435.565050	8037.164509
435.941683	8049.860655
436.318257	8356.314918
436.694770	8305.530334
437.071222	8514.723095
437.447614	8286.573075
437.823946	8262.340248
438.200218	8406.421467
438.576429	8301.205024
438.952580	8450.713044
439.328670	8468.626784
439.704700	8546.563023
440.080670	8442.455634
440.456580	8690.470321
440.832429	8673.516921
441.208218	8425.782018
441.583947	8540.067496
441.959616	8630.039489
442.335224	8675.026746
442.710773	8755.269313
443.086261	8936.040048
443.461689	8671.019029
443.837057	8821.573089
444.212365	9015.879322
444.587612	9010.392027
444.962800	8907.149196
445.337927	9045.647336
445.712995	8604.127959
446.088002	9238.582376
446.462949	9300.311305
446.837837	9315.540631
447.212664	9366.297488
447.587431	10267.204613
447.962139	11227.022661
448.336786	11973.184006
448.711374	11571.426730
449.085901	10428.511453
449.460369	10420.415360
449.834776	10332.485034
450.209124	11253.899573
450.583412	11024.217042
450.957640	11228.998793
451.331808	10818.323716
451.705917	10337.092649
452.079965	10259.451318
452.453954	10457.956833
452.827883	10407.313401
453.201752	10378.160409
453.575562	10399.668492
453.949311	10752.173695
454.323001	10825.310755
454.696632	10742.582900
455.070202	11323.873308
455.443713	11379.908254
455.817164	11529.743949
456.190556	11843.548214
456.563888	11673.860455
456.937160	11884.847867
457.310373	11388.200952
457.683526	11428.126891
458.056619	11474.626494
458.429653	11551.370499
458.802628	11726.951367
459.175542	11780.017073
459.548398	12323.670227
459.921194	12906.951892
460.293930	13226.654307
460.666607	14061.416452
461.039224	14779.138128
461.411782	15042.898859
461.784280	14634.462054
462.156719	14549.818560
462.529099	14446.348877
462.901419	13871.974932
463.273680	13525.594730
463.645882	13756.330862
464.018024	13714.484244
464.390106	14127.155619
464.762130	15296.975533
465.134094	16980.073130
465.505999	19258.195758
465.877845	21259.042323
466.249631	22129.810909
466.621358	21469.707101
466.993026	20633.412445
467.364634	19913.356715
467.736184	19211.151711
468.107674	18677.754784
468.479105	18531.510911
468.850477	18274.656561
469.221790	17839.678081
469.593043	17213.445785
469.964238	16875.890124
470.335373	16988.292731
470.706449	17848.210233
471.077467	18997.963835
471.448425	21330.329279
471.819324	22821.384120
472.190164	22300.320376
472.560945	20627.342896
472.931667	19229.685513
473.302330	18983.992277
473.672934	18542.001552
474.043479	18963.026118
474.413965	18783.971896
474.784393	18618.869066
475.154761	19249.320807
475.525070	19381.663698
475.895321	19235.180371
476.265513	19745.466128
476.635645	20328.352062
477.005719	20390.403624
477.375734	20782.060949
477.745691	21378.994058
478.115588	22038.697094
478.485427	23306.459067
478.855207	25182.889954
479.224928	26905.550526
479.594591	28063.463235
479.964194	27517.965018
480.333739	27889.913952
480.703226	28183.767851
481.072653	28682.695888
481.442022	29187.811942
481.811333	29474.525046
482.180584	28986.652259
482.549777	28780.801783
482.918912	28567.734895
483.287988	28529.974133
483.657005	28358.842083
484.025964	28003.614657
484.394864	28208.345997
484.763706	28138.047106
485.132489	27645.337332
485.501213	27729.217091
485.869879	27919.583663
486.238487	27874.392239
486.607036	28152.202666
486.975527	27860.700466
487.343959	28188.995528
487.712333	28516.688172
488.080648	28493.617331
488.448905	28917.593493
488.817104	28851.942546
489.185244	29740.435829
489.553326	30907.064694
489.921350	32841.035311
490.289315	35224.472685
490.657222	35898.568216
491.025070	36287.170601
491.392861	35884.546246
491.760593	35087.605358
492.128267	34065.934873
492.495883	33123.518888
492.863440	32294.884265
493.230939	31402.836969
493.598380	30908.808933
493.965763	30802.911935
494.333088	30351.542143
494.700354	30174.106130
495.067563	30156.557874
495.434713	30073.346068
495.801805	30364.588649
496.168839	30232.636447
496.535815	30096.127042
496.902733	30249.904919
497.269593	30075.181048
497.636395	30232.994369
498.003139	30524.793998
498.369825	30290.098039
498.736453	30706.424250
499.103023	30554.556970
499.469535	30654.833082
499.835989	30786.898709
500.202385	30649.653296
500.568723	30734.258981
500.935003	31068.936144
501.301226	30981.255355
501.667390	31656.439775
502.033497	31858.209437
502.399546	31668.203307
502.765537	31267.842430
503.131470	31738.058576
503.497345	32168.857940
503.863163	31167.510866
504.228923	31936.241457
504.594625	32340.494105
504.960269	31843.716119
505.325856	32501.725328
505.691385	32195.908771
506.056856	32506.060720
506.422270	33007.456402
506.787625	32543.859292
507.152924	33023.903167
507.518164	33222.310379
507.883347	32791.836170
508.248472	32963.948724
508.613540	33643.463495
508.978550	33891.964653
509.343503	33751.442490
509.708398	34110.763333
510.073236	34715.714398
510.438016	34840.795507
510.802738	34523.288514
511.167403	35079.741158
511.532010	35332.255075
511.896561	35819.316236
512.261053	36573.712306
512.625488	36385.087453
512.989866	36311.385783
513.354186	36355.856322
513.718449	36325.672413
514.082655	37226.347645
514.446803	36917.939935
514.810894	37545.535862
515.174927	37572.344718
515.538904	37571.482681
515.902822	38218.552586
516.266684	37927.367978
516.630488	38289.378277
516.994235	38295.107548
517.357925	38906.193697
517.721558	39154.682252
518.085133	39537.331035
518.448651	39727.896733
518.812112	39627.469386
519.175516	39787.604159
519.538863	40218.776568
519.902152	40296.879164
520.265385	40840.902843
520.628560	40868.233459
520.991678	40836.156597
521.354739	41057.916955
521.717743	41421.028746
522.080690	41340.428258
522.443580	42017.150229
522.806413	42041.055381
523.169189	42191.783360
523.531908	42420.399687
523.894569	42275.647996
524.257174	42482.615087
524.619722	42820.851305
524.982213	42964.408243
525.344647	43007.817618
525.707025	43132.122390
526.069345	43571.274946
526.431608	43481.136594
526.793815	43868.723187
527.155964	43437.349132
527.518057	43696.139285
527.880093	43551.490937
528.242072	44180.163151
528.603995	43923.891054
528.965860	43843.545144
529.327669	44065.308022
529.689421	44123.044358
530.051117	44083.730919
530.412755	44369.098036
530.774337	44426.761274
531.135862	44370.617943
531.497331	44517.902815
531.858743	44520.897260
532.220098	44936.812617
532.581396	44666.344631
532.942638	44439.885918
533.303824	44664.013097
533.664953	44753.579278
534.026025	44412.648564
534.387040	44987.206512
534.747999	45059.872224
535.108902	45386.216359
535.469748	44706.326022
535.830537	44969.312936
536.191270	45213.135903
536.551947	44936.999140
536.912567	45235.574079
537.273131	45387.728705
537.633638	45013.291962
537.994089	45217.743518
538.354483	44946.499194
538.714821	45598.156549
539.075103	45881.381175
539.435328	45748.652635
539.795497	45505.792528
540.155609	45630.414893
540.515665	46216.386013
540.875665	45526.942689
541.235609	45804.314536
541.595496	45924.112516
541.955328	46497.616862
542.315102	45937.000225
542.674821	45831.572054
543.034483	45709.639146
543.394090	45731.116982
543.753640	45718.057873
544.113134	46786.734597
544.472571	45877.660803
544.831953	47015.678599
545.191278	46268.519105
545.550548	45952.360621
545.909761	46602.785414
546.268918	46753.231089
546.628019	47165.423553
546.987064	46612.046013
547.346053	45884.405867
547.704986	46794.878581
548.063863	46451.220603
548.422684	46653.232240
548.781449	46247.144613
549.140158	46765.181144
549.498811	46541.618574
549.857408	45923.540345
550.215949	46753.054648
550.574434	46590.374093
550.932864	46531.740433
551.291237	47261.455014
551.649555	47021.551543
552.007817	47184.118673
552.366022	46854.573404
552.724173	46928.738860
553.082267	47340.331427
553.440305	47670.642951
553.798288	46918.999351
554.156215	47315.226481
554.514086	47516.091256
554.871902	47148.107190
555.229661	47307.072415
555.587365	46994.039446
555.945014	47131.690672
556.302606	47143.665933
556.660143	47232.806136
557.017625	47456.441803
557.375050	47149.949732
557.732421	47550.655927
558.089735	47629.187022
558.446994	47490.444386
558.804197	47976.293150
559.161345	47852.542905
559.518437	47172.902105
559.875474	47443.390256
560.232455	47651.390784
560.589381	47708.401193
560.946251	47517.102008
561.303065	48173.349333
561.659825	47861.430459
562.016528	47675.134619
562.373177	47262.067514
562.729770	47884.687823
563.086307	47404.522960
563.442789	47937.405689
563.799216	47783.572359
564.155587	47677.708128
564.511904	47648.666041
564.868164	47700.683187
565.224370	48007.228190
565.580520	47735.820029
565.936615	47928.593752
566.292654	47605.657437
566.648638	47934.222200
567.004567	47876.924446
567.360441	47987.928133
567.716260	47699.566571
568.072023	48066.040812
568.427732	47992.714708
568.783385	47550.996205
569.138982	47933.647509
569.494525	48067.154907
569.850013	47673.372736
570.205445	47794.723391
570.560823	47584.386288
570.916145	47443.924618
571.271412	47673.551697
571.626625	47339.161880
571.981782	47400.200170
572.336884	46996.663367
572.691931	47327.695775
573.046923	46989.124321
573.401860	46819.713826
573.756743	46844.654934
574.111570	46994.132708
574.466342	46912.299657
574.821059	47049.600523
575.175722	46545.114614
575.530330	46647.455078
575.884882	46268.856862
576.239380	46194.489761
576.593823	46263.987108
576.948211	46221.706951
577.302544	45752.279746
577.656823	45756.957936
578.011047	46018.903852
578.365216	45839.834506
578.719330	45563.985088
579.073389	45542.431634
579.427394	45591.194716
579.781344	45518.067738
580.135239	45279.026305
580.489080	45323.363253
580.842866	44824.906563
581.196597	45327.600343
581.550273	45330.350292
581.903895	45252.892963
582.257463	45696.219594
582.610975	45113.807529
582.964434	45455.930476
583.317837	44961.312625
583.671186	44929.001349
584.024481	45189.641606
584.377721	44736.320888
584.730906	44942.960304
585.084037	45079.313433
585.437113	44769.988233
585.790135	44898.146967
586.143103	44453.741529
586.496016	44622.350481
586.848874	44725.316049
587.201679	44756.175472
587.554428	44257.769194
587.907124	44523.052353
588.259765	44294.395697
588.612352	44469.230474
588.964884	43900.437086
589.317362	44226.556890
589.669786	44230.320111
590.022155	44057.743771
590.374470	44529.676430
590.726731	44106.496770
591.078937	43443.945482
591.431090	43784.893840
591.783188	43313.790451
592.135232	43109.099440
592.487222	43372.111560
592.839157	43521.488510
593.191038	43146.381294
593.542866	42957.217037
593.894639	42367.797767
594.246358	42656.648321
594.598022	42649.658761
594.949633	42248.771084
595.301190	42209.001421
595.652692	42151.595282
596.004141	42648.242197
596.355535	41542.197920
596.706876	41557.212996
597.058162	41295.070476
597.409395	41776.233487
597.760573	41988.997906
598.111698	41595.180447
598.462768	41514.171625
598.813785	41535.626776
599.164748	41145.643114
599.515657	41407.110120
599.866511	40920.122056
600.217312	41605.804678
600.568060	40538.602491
600.918753	41373.649461
601.269392	41279.042127
601.619978	41015.092353
601.970510	41225.396688
602.320988	41345.056037
602.671412	41618.732717
603.021783	41488.663386
603.372100	41058.295041
603.722363	41163.713130
604.072572	41199.248223
604.422728	41184.497807
604.772830	40974.095169
605.122878	41127.235341
605.472872	40989.143013
605.822813	41245.415110
606.172701	40986.493887
606.522534	41320.699702
606.872314	41533.292721
607.222041	41364.771989
607.571714	41693.296424
607.921333	41187.255318
608.270899	41416.796697
608.620411	41787.878552
608.969870	41527.361804
609.319276	41544.960472
609.668627	41565.924110
610.017926	41979.230670
610.367171	42101.521501
610.716362	42149.397339
611.065500	42036.326778
611.414585	42275.761422
611.763616	42449.547639
612.112594	42343.869931
612.461518	42466.523724
612.810389	42856.809855
613.159207	42644.461332
613.507971	42625.007519
613.856682	43115.363074
614.205340	42934.352883
614.553945	43643.297911
614.902496	42961.701143
615.250994	43388.777615
615.599439	43445.709886
615.947830	43558.911516
616.296169	43560.191969
616.644454	43591.487452
616.992686	43765.676961
617.340864	44227.900358
617.688990	43743.226183
618.037063	44436.508345
618.385082	44237.576852
618.733048	44578.424387
619.080961	44458.054236
619.428821	44470.084950
619.776628	44483.602804
620.124382	44310.855065
620.472083	44409.472637
620.819731	44507.528120
621.167326	44068.400770
621.514868	44035.403898
621.862357	43521.879200
622.209793	43596.505921
622.557176	43153.196934
622.904506	42923.030452
623.251783	42541.011813
623.599007	42243.508119
623.946179	42160.329081
624.293297	41889.334294
624.640363	41346.094514
624.987376	41184.122241
625.334336	40994.622748
625.681243	40586.012023
626.028097	40483.981589
626.374899	40312.060599
626.721647	40287.616044
627.068343	40066.087580
627.414987	39787.712544
627.761577	39538.361951
628.108115	39843.548364
628.454600	39103.368347
628.801032	39344.970687
629.147412	39235.693595
629.493739	39147.768310
629.840014	38706.042245
630.186236	39117.468455
630.532405	38584.174872
630.878521	38821.459462
631.224585	38594.804144
631.570597	38254.130529
631.916556	38416.841331
632.262462	38308.713622
632.608316	38237.366172
632.954117	38092.332176
633.299866	38049.880619
633.645562	37958.179510
633.991206	37421.372243
634.336797	37029.886318
634.682336	36909.914418
635.027823	36683.380087
635.373257	36544.410599
635.718639	36215.041772
636.063968	36113.205423
636.409245	35461.979087
636.754470	35413.326911
637.099642	35186.626223
637.444762	34639.555166
637.789829	34783.452382
638.134845	34391.802619
638.479808	34311.020649
638.824719	34267.331489
639.169577	33755.929117
639.514383	33839.072867
639.859137	33462.624704
640.203839	33641.295799
640.548489	33340.512834
640.893086	33330.788448
641.237632	33061.316090
641.582125	33166.101514
641.926566	32958.557210
642.270955	32991.748167
642.615292	32914.900818
642.959576	32802.427634
643.303809	32804.623057
643.647990	32903.480084
643.992118	32851.379759
644.336195	32698.945349
644.680219	32796.658034
645.024192	32989.467045
645.368112	33514.354504
645.711981	33550.219793
646.055797	34285.817401
646.399562	34085.653346
646.743274	34971.116896
647.086935	35362.055856
647.430544	35313.875028
647.774101	35361.539137
648.117606	35637.605325
648.461059	35766.411847
648.804460	35369.355447
649.147810	34864.062952
649.491108	34485.381558
649.834354	34347.402657
650.177548	33519.937582
650.520690	33021.306973
650.863781	33013.858668
651.206820	32842.666124
651.549807	32425.586261
651.892742	31845.488085
652.235626	31760.469025
652.578458	31628.093367
652.921238	30947.338472
653.263967	31259.635432
653.606644	30945.599274
653.949269	30859.503928
654.291843	30472.623096
654.634365	30833.766317
654.976836	30361.518586
655.319255	30452.163573
655.661622	30335.143269
656.003938	30188.417966
656.346203	30009.976243
656.688416	30250.207389
657.030577	30030.055159
657.372687	29857.221720
657.714746	30019.085608
658.056753	30185.554591
658.398708	29582.430944
658.740612	29662.958336
659.082465	29864.947288
659.424266	29759.687996
659.766016	29757.086761
660.107715	29623.234044
660.449362	29731.316382
660.790958	29712.585975
661.132503	29630.710075
661.473996	29697.575939
661.815438	29780.144998
662.156829	29895.226979
662.498168	29714.244515
662.839456	29689.036225
663.180693	29813.280502
663.521879	29897.432484
663.863013	29865.290087
664.204097	29846.456336
664.545129	30252.669992
664.886110	30198.611179
665.227040	30299.013320
665.567918	30303.096654
665.908746	30375.112057
666.249522	30459.705140
666.590248	30485.404942
666.930922	30579.966906
667.271545	30581.549828
667.612118	30634.537396
667.952639	30442.766863
668.293109	30490.730921
668.633528	30341.616111
668.973896	30307.694187
669.314213	30277.016245
669.654480	30076.932849
669.994695	30069.305583
670.334859	29983.089249
670.674973	29831.181640
671.015035	30023.466371
671.355047	29954.768047
671.695008	29877.219977
672.034918	29799.225766
672.374777	29889.732121
672.714585	29768.852814
673.054342	29899.204449
673.394049	29756.262532
673.733705	29974.519288
674.073310	29695.657780
674.412864	29739.039430
674.752368	29443.705952
675.091820	29660.939354
675.431223	29260.787685
675.770574	29068.132429
676.109875	28909.525126
676.449125	28702.288333
676.788324	28596.797147
677.127473	28119.346946
677.466571	28018.221400
677.805619	27740.887362
678.144616	27661.436257
678.483562	27634.173697
678.822458	27303.479046
679.161303	27251.507270
679.500098	27179.265015
679.838842	27103.930012
680.177535	27184.298607
680.516179	27432.787163
680.854771	27568.437051
681.193314	28341.203086
681.531805	29371.698111
681.870247	30121.007657
682.208638	30841.088593
682.546978	31112.287546
682.885268	31248.320562
683.223508	30794.334411
683.561697	30533.346315
683.899836	30351.829488
684.237925	29957.230651
684.575963	29812.468877
684.913951	29439.776373
685.251889	29610.595871
685.589776	29651.772016
685.927614	29653.652366
686.265401	29849.712921
686.603137	29969.858741
686.940824	30474.258951
687.278460	30808.290846
687.616046	30986.510758
687.953582	31639.851858
688.291068	31558.636349
688.628504	31890.833264
688.965889	31890.084653
689.303224	31617.388476
689.640510	31314.339513
689.977745	30679.675888
690.314930	29938.545614
690.652065	29491.498611
690.989150	28821.022629
691.326185	27961.392472
691.663170	27328.190782
692.000105	26594.347496
692.336990	25989.151936
692.673825	25574.055766
693.010610	25071.104888
693.347345	24576.910494
693.684030	23950.698363
694.020665	23751.734103
694.357251	23085.386826
694.693786	23083.975303
695.030272	22854.587680
695.366707	22361.164582
695.703093	22087.508067
696.039429	22166.205519
696.375716	21929.987132
696.711952	21929.944283
697.048139	21790.294239
697.384276	21627.928756
697.720363	21755.827870
698.056400	21632.589302
698.392388	21489.964978
698.728326	21485.344760
699.064214	21321.532466
699.400053	21306.918161
699.735842	20930.906057
700.071581	20735.954556
700.407270	20479.125411
700.742910	20302.856426
701.078501	20059.058664
701.414042	19853.369505
701.749533	19553.151149
702.084974	19236.027284
702.420366	19470.682914
702.755709	19060.537157
703.091002	18769.443290
703.426246	18830.360593
703.761440	18760.243184
704.096584	18512.132716
704.431679	18459.377041
704.766725	18407.241427
705.101721	18347.788580
705.436668	18455.414694
705.771565	18188.576338
706.106413	18506.620214
706.441212	18582.708869
706.775961	18677.679167
707.110661	18772.024361
707.445311	19134.755545
707.779913	19007.342902
708.114465	19306.603438
708.448967	19618.643300
708.783421	20243.663197
709.117825	20619.695466
709.452180	20845.435814
709.786485	21305.637708
710.120742	22084.924475
710.454949	22189.067152
710.789107	22699.196633
711.123216	23415.773967
711.457275	23630.771617
711.791286	24198.975190
712.125247	24351.475135
712.459159	24064.222628
712.793023	24811.117461
713.126837	23790.278766
713.460602	24033.670715
713.794318	23688.805380
714.127985	23418.473505
714.461602	22513.664527
714.795171	22492.100992
715.128691	21504.233964
715.462162	20968.699588
715.795584	20551.828932
716.128957	20276.823908
716.462281	19898.757534
716.795556	19627.256111
717.128782	19145.420106
717.461960	18549.749806
717.795088	18500.386827
718.128167	18163.718409
718.461198	17714.614615
718.794180	17589.276407
719.127113	17248.035662
719.459997	17065.760142
719.792833	16699.147270
720.125619	16743.421203
720.458357	16403.838998
720.791046	16272.211951
721.123686	16123.555885
721.456278	15895.322686
721.788821	15896.101544
722.121315	15623.896881
722.453761	15729.209105
722.786158	15618.943947
723.118506	15694.031934
723.450805	15576.726804
723.783056	15760.186996
724.115259	15658.343085
724.447412	15651.514842
724.779518	15869.668254
725.111574	15914.267342
725.443582	16186.734146
725.775542	16150.402550
726.107453	16664.484296
726.439315	16587.369766
726.771129	17013.125455
727.102895	17436.743695
727.434612	17704.577678
727.766281	17865.503912
728.097901	18196.715281
728.429473	18279.208723
728.760996	18289.946380
729.092471	18404.078103
729.423897	18300.754614
729.755276	18174.955141
730.086606	18291.730949
730.417887	18872.222335
730.749120	19434.421894
731.080305	19649.848042
731.411442	20043.655419
731.742530	20161.688995
732.073570	20320.152625
732.404562	20644.044239
732.735506	20481.441822
733.066401	20272.312075
733.397249	19767.253994
733.728048	19150.315066
734.058798	18273.875182
734.389501	17521.578752
734.720156	16991.554358
735.050762	16426.987977
735.381320	16037.536157
735.711831	15773.901455
736.042293	15401.085443
736.372707	15432.549804
736.703073	15225.267640
737.033391	15436.484425
737.363661	15431.823878
737.693883	15552.935079
738.024056	15751.014616
738.354182	15984.379710
738.684260	16345.422107
739.014290	16632.596477
739.344272	16855.186105
739.674207	17200.333744
740.004093	17386.432979
740.333931	17433.182120
740.663722	17511.982916
740.993464	17555.162919
741.323159	17382.450468
741.652806	17088.551199
741.982405	16925.626148
742.311956	16558.708285
742.641460	16443.994309
742.970915	16114.897704
743.300323	15759.360246
743.629683	15546.563060
743.958996	15234.634104
744.288260	14912.085958
744.617477	14610.413229
744.946647	14577.698661
745.275768	14254.238066
745.604842	14057.570052
745.933869	13886.430440
746.262847	13860.990257
746.591778	13768.190177
746.920662	13655.177590
747.249498	13662.204958
747.578286	13823.471470
747.907027	14002.051824
748.235720	14264.481691
748.564365	14342.412888
748.892963	14268.249953
749.221514	14369.892218
749.550017	14231.275610
749.878473	14207.534296
750.206881	13973.468482
750.535242	13905.793512
750.863555	13828.031193
751.191821	13722.240059
751.520039	13743.594387
751.848210	13670.527903
752.176334	13715.394172
752.504411	13646.789110
752.832440	13464.916882
753.160421	13579.769490
753.488356	13460.412611
753.816243	13373.266184
754.144082	13218.081825
754.471875	13162.147702
754.799620	13126.887352
755.127318	13101.220317
755.454969	13087.647010
755.782572	13066.897621
756.110129	13074.837438
756.437638	12987.680930
756.765100	12990.307371
757.092515	13014.585568
757.419882	13057.639542
757.747203	13077.514291
758.074477	13158.873473
758.401703	13144.433088
758.728882	13342.351308
759.056014	13379.481927
759.383099	13553.409297
759.710138	13674.961598
760.037129	13801.068582
760.364073	13859.762736
760.690970	13885.409607
761.017820	13912.352053
761.344623	14135.914623
761.671379	14521.880485
761.998088	15214.522421
762.324751	16993.424626
762.651366	20427.503996
762.977935	24925.561735
763.304456	27908.903979
763.630931	28953.161354
763.957359	27747.771058
764.283740	25462.026204
764.610074	23181.592206
764.936362	20533.421159
765.262602	18644.304208
765.588796	16714.273252
765.914943	15422.573361
766.241044	14323.256503
766.567097	13532.425494
766.893104	12816.569045
767.219064	12346.234432
767.544978	11861.046059
767.870845	11475.259158
768.196665	11259.306210
768.522438	11026.911538
768.848165	10810.966152
769.173846	10608.589030
769.499479	10480.309309
769.825066	10315.387961
770.150607	10080.964225
770.476101	9996.154373
770.801548	9879.857474
771.126949	9727.012210
771.452303	9608.638356
771.777611	9406.054548
772.102872	9398.334021
772.428087	9258.179862
772.753256	9102.929967
773.078378	9010.916307
773.403453	8825.212802
773.728482	8713.652067
774.053465	8639.589955
774.378401	8539.545737
774.703291	8415.666943
775.028135	8290.883262
775.352932	8262.627594
775.677683	8155.533322
776.002388	8048.907877
776.327046	8058.949855
776.651658	7957.869680
776.976224	7855.894699
777.300743	7862.231429
777.625216	7771.077286
777.949643	7723.163639
778.274024	7744.051660
778.598359	7658.720049
778.922647	7675.640682
779.246889	7624.246118
779.571086	7635.026626
779.895236	7637.378324
780.219339	7650.026579
780.543397	7655.332393
780.867409	7738.987821
781.191374	7740.515290
781.515294	7711.997483
781.839167	7802.307234
782.162995	7775.662215
782.486776	7720.690953
782.810511	7672.943664
783.134201	7583.619459
783.457844	7578.381700
783.781441	7526.251128
784.104993	7454.633976
784.428498	7438.593025
784.751958	7425.521313
785.075372	7392.037969
785.398739	7335.105698
785.722061	7383.218470
786.045337	7390.407156
786.368568	7543.696041
786.691752	7567.044145
787.014891	7910.306393
787.337983	8276.268957
787.661030	8871.578814
787.984031	9505.377882
788.306987	9918.228217
788.629897	10122.619279
788.952760	10065.871010
789.275579	9844.355148
789.598351	9435.313405
789.921078	9082.538500
790.243759	8662.713728
790.566395	8366.588789
790.888984	8116.413968
791.211529	7906.220538
791.534027	7689.587034
791.856480	7492.951787
792.178888	7412.326093
792.501249	7313.466545
792.823566	7158.178842
793.145836	7161.803432
793.468062	7131.455686
793.790241	7086.556649
794.112375	7149.445043
794.434464	7310.366236
794.756507	7346.372677
795.078505	7510.875609
795.400457	7820.856159
795.722364	8184.134308
796.044226	8471.701888
796.366042	8748.453673
796.687812	8692.764046
797.009538	8769.888659
797.331218	8659.663830
797.652852	8577.361952
797.974442	8427.581710
798.295986	8331.164601
798.617484	8146.176940
798.938938	8003.655959
799.260346	7895.719814
799.581709	7696.500976
799.903026	7615.161959
800.224299	7506.411668
800.545526	7332.201993
800.866708	7240.193374
801.187845	7169.314751
801.508936	7065.872795
801.829983	7028.603544
802.150984	6877.429423
802.471940	6828.169788
802.792851	6818.939435
803.113717	6783.394259
803.434538	6746.974443
803.755314	6697.392175
804.076045	6697.734973
804.396731	6640.767414
804.717372	6678.858373
805.037967	6677.005749
805.358518	6720.984775
805.679024	6806.374359
805.999485	6821.200393
806.319901	6852.828592
806.640272	6882.601647
806.960598	6963.096271
807.280879	6961.944367
807.601115	7042.144083
807.921306	6984.506051
808.241453	6999.843762
808.561554	7022.105497
808.881611	6983.467573
809.201623	6990.600806
809.521590	6938.409740
809.841513	6915.129692
810.161390	6953.891124
810.481223	6821.671741
810.801011	6808.360574
811.120755	6783.366533
811.440453	6703.343257
811.760107	6673.093813
812.079716	6640.122147
812.399281	6573.520943
812.718801	6567.267391
813.038276	6521.753334
813.357707	6454.700946
813.677093	6498.193501
813.996434	6402.787144
814.315731	6450.660462
814.634983	6438.460869
814.954191	6455.565504
815.273354	6560.855043
815.592473	6624.393747
815.911547	6747.473518
816.230577	6833.236147
816.549562	6981.194013
816.868502	7083.794097
817.187399	7178.330855
817.506250	7329.923392
817.825058	7358.766354
818.143821	7636.584342
818.462539	7910.107267
818.781213	8281.408413
819.099843	8827.413265
819.418429	9836.296864
819.736970	10813.030504
820.055466	11999.178716
820.373919	13537.247357
820.692327	15888.930503
821.010691	20048.925945
821.329011	29039.060095
821.647286	42082.564242
821.965517	55537.613065
822.283704	60921.809868
822.601847	62912.143107
822.919945	60222.163250
823.237999	56055.838639
823.556010	49903.826214
823.873976	43147.543280
824.191897	36599.701975
824.509775	31741.768865
824.827609	27203.681844
825.145398	24594.365489
825.463144	23233.339651
825.780845	23542.712742
826.098502	25323.356665
826.416116	29128.316244
826.733685	32826.179031
827.051210	34004.626880
827.368692	32236.603486
827.686129	28254.868285
828.003522	24093.763789
828.320872	20354.059426
828.638177	17491.478023
828.955439	15321.843545
829.272656	13492.393691
829.589830	12013.997188
829.906960	10725.989942
830.224046	9785.275346
830.541088	9032.444554
830.858086	8569.018843
831.175041	8187.559772
831.491952	8069.299344
831.808819	8106.248481
832.125642	8514.826439
832.442421	9405.416842
832.759157	11212.925074
833.075849	14154.531605
833.392497	17410.348213
833.709101	19615.149780
834.025662	19457.855698
834.342179	17752.773629
834.658653	15541.622729
834.975083	13595.472684
835.291469	11966.176802
835.607811	10633.777156
835.924110	9717.474347
836.240366	8845.324485
836.556578	8041.467134
836.872746	7383.929273
837.188871	6880.796913
837.504952	6460.851154
837.820990	6149.917826
838.136984	5929.296769
838.452935	5832.688097
838.768842	5863.489547
839.084706	6286.873373
839.400526	7498.469330
839.716303	9096.726827
840.032037	10206.995592
840.347727	10134.052616
840.663373	9149.893356
840.978977	8101.557688
841.294537	7280.126874
841.610054	6676.052971
841.925527	6250.229226
842.240957	5883.291199
842.556344	5548.228388
842.871687	5260.993524
843.186987	4980.004650
843.502244	4751.935288
843.817458	4588.226338
844.132629	4450.547385
844.447756	4355.977859
844.762840	4279.443062
845.077881	4204.334911
845.392879	4140.607164
845.707833	4089.056325
846.022745	4047.252557
846.337613	4018.674256
846.652438	3972.754385
846.967221	3957.850214
847.281960	3923.562806
847.596656	3906.417842
847.911309	3890.959143
848.225919	3864.485524
848.540485	3845.825693
848.855009	3834.316739
849.169490	3813.201866
849.483928	3800.840957
849.798323	3793.059936
850.112675	3775.892286
850.426984	3781.573667
850.741251	3766.019187
851.055474	3762.974330
851.369654	3766.674537
851.683792	3763.954834
851.997887	3767.256790
852.311938	3767.347531
852.625947	3774.279117
852.939914	3761.709000
853.253837	3774.253911
853.567718	3771.400618
853.881555	3762.785286
854.195350	3773.696864
854.509103	3772.038324
854.822812	3769.300978
855.136479	3761.618259
855.450103	3771.934981
855.763685	3757.620624
856.077224	3763.352416
856.390720	3779.058131
856.704173	3800.137716
857.017584	3809.907472
857.330953	3823.246365
857.644278	3844.716639
857.957561	3847.693441
858.270802	3851.716281
858.584000	3851.686034
858.897155	3846.085312
859.210268	3828.733661
859.523339	3806.020742
859.836367	3804.435299
860.149352	3797.985143
860.462295	3792.308804
860.775195	3780.152061
861.088054	3774.929426
861.400869	3773.260804
861.713642	3775.630146
862.026373	3782.115591
862.339062	3789.231179
862.651708	3807.638953
862.964312	3849.420036
863.276873	3859.920759
863.589392	3916.240530
863.901869	3964.781800
864.214303	4009.685878
864.526696	4042.728121
864.839045	4087.617076
865.151353	4117.133031
865.463619	4126.428919
865.775842	4129.335144
866.088023	4148.279800
866.400162	4137.358141
866.712258	4144.529182
867.024313	4147.536230
867.336325	4144.488853
867.648296	4152.196777
867.960224	4150.787774
868.272110	4161.974095
868.583954	4164.194723
868.895755	4180.384389
869.207515	4174.277031
869.519233	4219.307138
869.830909	4230.566555
870.142542	4255.210235
870.454134	4267.805558
870.765684	4301.530877
871.077191	4335.046989
871.388657	4358.112788
871.700081	4396.780959
872.011463	4441.881642
872.322803	4477.293227
872.634101	4509.107949
872.945357	4549.694278
873.256571	4605.058750
873.567744	4633.747957
873.878874	4654.162109
874.189963	4686.163354
874.501010	4702.232032
874.812015	4699.287998
875.122979	4742.825923
875.433900	4735.806117
875.744780	4752.436883
876.055618	4778.739103
876.366415	4782.267911
876.677169	4797.925735
876.987882	4844.379967
877.298554	4898.718565
877.609183	4979.939115
877.919771	5086.045321
878.230317	5233.463783
878.540822	5453.966373
878.851285	5774.417399
879.161707	6237.079376
879.472087	7001.134297
879.782425	8235.362514
880.092722	10424.972563
880.402977	13745.489861
880.713191	17522.304678
881.023363	21259.324628
881.333494	23499.247913
881.643583	24737.841769
881.953631	24721.127823
882.263637	23879.925605
882.573602	22388.500239
882.883526	20822.299439
883.193408	19138.551534
883.503248	17433.265299
883.813048	15875.687392
884.122806	14448.325010
884.432522	12966.747538
884.742197	11689.233454
885.051831	10596.134860
885.361424	9592.052960
885.670975	8770.334801
885.980485	8072.301351
886.289954	7492.064544
886.599382	7022.407966
886.908768	6640.565768
887.218113	6279.803155
887.527417	5984.431869
887.836680	5714.188214
888.145901	5496.407847
888.455082	5330.090099
888.764221	5180.216596
889.073319	5044.460843
889.382376	4971.260769
889.691392	4914.530144
890.000366	4886.629878
890.309300	4871.697980
890.618193	4874.316860
890.927044	4859.896639
891.235855	4880.144433
891.544625	4912.657355
891.853353	4973.720852
892.162041	5094.428760
892.470687	5281.596720
892.779293	5528.386407
893.087858	5905.656278
893.396381	6486.465257
893.704864	7292.157588
894.013306	8452.427037
894.321707	9645.302668
894.630068	10467.547628
894.938387	10684.544095
895.246665	10448.053486
895.554903	9838.278038
895.863100	9134.230491
896.171256	8560.600116
896.479371	8051.748567
896.787446	7550.652834
897.095480	7119.833305
897.403473	6799.523431
897.711425	6484.058106
898.019336	6211.903854
898.327207	5935.623417
898.635038	5703.621955
898.942827	5454.931754
899.250576	5259.856744
899.558284	5065.283329
899.865952	4941.938897
900.173579	4790.550527
900.481165	4685.906255
900.788711	4589.965536
901.096216	4517.438455
901.403681	4452.752890
901.711105	4429.848407
902.018489	4411.556581
902.325832	4483.030060
902.633135	4604.879789
902.940397	4953.412563
903.247619	5745.135857
903.554800	7195.450613
903.861941	9127.790417
904.169041	10659.925621
904.476101	11295.791561
904.783121	10942.119331
905.090100	10192.373725
905.397039	9350.594294
905.703938	8590.239580
906.010796	7896.443220
906.317614	7338.153076
906.624391	6801.408823
906.931129	6372.910746
907.237826	5969.774714
907.544483	5588.915541
907.851099	5215.237491
908.157675	4858.502760
908.464211	4531.200805
908.770707	4295.403355
909.077163	4094.904063
909.383578	3949.514666
909.689954	3833.900844
909.996289	3761.202364
910.302584	3700.012839
910.608839	3667.046213
910.915054	3634.119917
911.221229	3623.568782
911.527363	3632.284937
911.833458	3643.740959
912.139513	3670.587624
912.445527	3699.682643
912.751502	3785.571302
913.057436	3886.016292
913.363331	4020.388248
913.669186	4224.784351
913.975000	4486.387468
914.280775	4910.461933
914.586510	5492.591694
914.892205	6294.475433
915.197859	7336.960843
915.503475	8574.014626
915.809050	9635.278334
916.114585	10293.085896
916.420081	10560.854345
916.725536	10531.910560
917.030952	10080.114790
917.336328	9665.295884
917.641665	9252.765662
917.946961	8769.747507
918.252218	8345.320161
918.557435	7826.726583
918.862612	7398.256232
919.167750	7017.238263
919.472848	6589.839158
919.777906	6210.767073
920.082925	5848.103945
920.387904	5483.159695
920.692843	5217.453078
920.997743	4968.659533
921.302603	4728.498964
921.607423	4570.665478
921.912204	4403.881424
922.216946	4285.673928
922.521647	4157.207684
922.826310	4056.422416
923.130932	3959.513795
923.435516	3862.206922
923.740059	3792.003814
924.044564	3717.298955
924.349028	3655.373421
924.653454	3589.815736
924.957840	3522.995242
925.262186	3475.918427
925.566493	3411.036256
925.870761	3356.697659
926.174989	3316.207111
926.479178	3281.715537
926.783328	3238.936305
927.087438	3208.901110
927.391509	3176.299968
927.695541	3147.005823
927.999533	3118.916514
928.303486	3099.112341
928.607400	3084.825711
928.911275	3072.210224
929.215110	3054.261196
929.518906	3045.298024
929.822663	3045.968497
930.126381	3039.399874
930.430060	3049.988818
930.733699	3052.259858
931.037299	3061.301167
931.340861	3055.556772
931.644383	3069.556056
931.947866	3068.504976
932.251309	3060.671023
932.554714	3056.547359
932.858080	3053.550393
933.161407	3044.509083
933.464694	3039.195707
933.767943	3030.020807
934.071153	3026.623070
934.374323	3015.880371
934.677455	3011.045904
934.980548	2999.736076
935.283602	2995.521671
935.586617	2995.549397
935.889593	3004.865450
936.192530	3007.234792
936.495428	3023.116947
936.798287	3045.729043
937.101108	3076.381779
937.403890	3130.072588
937.706632	3193.361754
938.009336	3275.068775
938.312002	3346.080989
938.614628	3412.351997
938.917216	3464.222950
939.219765	3495.387363
939.522275	3529.147970
939.824747	3535.280534
940.127179	3531.303063
940.429573	3525.856097
940.731929	3520.812422
941.034246	3506.777850
941.336524	3492.622290
941.638763	3480.354642
941.940964	3467.262766
942.243126	3421.037905
942.545250	3397.946900
942.847335	3358.262937
943.149381	3328.187413
943.451389	3292.962351
943.753359	3257.046650
944.055290	3229.738720
944.357182	3210.662994
944.659036	3193.797813
944.960851	3183.917152
945.262628	3166.568021
945.564367	3173.537416
945.866067	3164.208761
946.167729	3158.451763
946.469352	3160.095179
946.770937	3156.793224
947.072484	3139.121459
947.373992	3144.253353
947.675462	3138.687920
947.976893	3116.433746
948.278286	3109.844958
948.579641	3104.047631
948.880958	3095.540684
949.182236	3101.761468
949.483476	3092.526074
949.784678	3091.464911
950.085841	3093.042792
950.386967	3102.810028
950.688054	3121.195116
950.989103	3140.419556
951.290114	3163.921415
951.591087	3190.160621
951.892021	3218.287739
952.192917	3247.622213
952.493776	3272.396964
952.794596	3279.764610
953.095378	3286.330713
953.396122	3279.573046
953.696828	3272.462499
953.997496	3262.435644
954.298126	3238.747262
954.598718	3217.271946
954.899272	3194.526260
955.199788	3163.664316
955.500266	3132.625932
955.800706	3094.126640
956.101108	3058.641958
956.401472	3025.435878
956.701798	2991.927328
957.002087	2953.627162
957.302337	2925.999118
957.602550	2895.568193
957.902724	2865.762371
958.202861	2840.269256
958.502960	2818.904846
958.803022	2798.800724
959.103045	2778.436983
959.403031	2760.737492
959.702979	2748.041346
960.002889	2734.994840
960.302762	2724.675598
960.602596	2706.585418
960.902393	2702.418904
961.202153	2693.664940
961.501875	2683.950637
961.801559	2680.809998
962.101205	2670.405057
962.400814	2667.702998
962.700385	2661.981288
962.999918	2653.018117
963.299414	2648.506284
963.598873	2646.845224
963.898293	2636.634367
964.197677	2640.306847
964.497022	2636.117649
964.796331	2635.495066
965.095601	2632.094808
965.394835	2630.307719
965.694030	2628.465177
965.993189	2627.845115
966.292309	2626.269755
966.591393	2626.352934
966.890439	2627.315794
967.189447	2626.035341
967.488419	2626.673047
967.787353	2626.473921
968.086249	2629.571710
968.385108	2629.221350
968.683930	2631.764612
968.982714	2634.930457
969.281462	2638.731487
969.580172	2645.098464
969.878844	2651.490647
970.177480	2658.661689
970.476078	2666.851043
970.774639	2672.424039
971.073162	2682.962571
971.371649	2687.459280
971.670098	2693.574200
971.968510	2697.665096
972.266885	2704.248843
972.565223	2709.221941
972.863524	2704.059800
973.161788	2713.693445
973.460014	2716.602190
973.758204	2719.286605
974.056356	2719.266440
974.354471	2724.037892
974.652550	2723.536297
974.950591	2723.742985
975.248595	2720.844321
975.546563	2717.353322
975.844493	2712.975080
976.142386	2710.290666
976.440243	2704.170705
976.738062	2697.745754
977.035845	2692.480269
977.333590	2682.743281
977.631299	2679.597601
977.928971	2672.789522
978.226606	2670.321877
978.524204	2664.307781
978.821765	2661.676299
979.119290	2662.818120
979.416777	2662.109838
979.714228	2667.826506
980.011642	2667.657628
980.309020	2676.945954
980.606360	2690.184024
980.903664	2713.083465
981.200931	2751.219794
981.498162	2797.663944
981.795356	2875.300234
982.092513	2965.274748
982.389633	3068.358782
982.686717	3164.808658
982.983764	3240.181470
983.280775	3291.944038
983.577749	3299.788073
983.874686	3284.863737
984.171587	3252.396186
984.468451	3214.017882
984.765279	3169.534740
985.062070	3119.899539
985.358824	3075.469330
985.655543	3017.884229
985.952224	2967.429841
986.248869	2902.787125
986.545478	2841.648012
986.842050	2788.826802
987.138586	2742.226375
987.435086	2704.276569
987.731549	2671.536796
988.027975	2645.302631
988.324366	2628.278654
988.620719	2616.315996
988.917037	2603.413163
989.213318	2595.301947
989.509563	2588.740885
989.805772	2584.619742
990.101944	2579.334092
990.398080	2576.329564
990.694180	2574.597928
990.990244	2575.031467
991.286271	2575.003741
991.582262	2573.907290
991.878217	2578.109091
992.174136	2583.402303
992.470019	2581.499267
992.765865	2589.194589
993.061676	2590.601071
993.357450	2601.411825
993.653188	2610.279215
993.948890	2625.926956
994.244556	2644.123001
994.540186	2667.750889
994.835780	2699.938656
995.131337	2736.111456
995.426859	2778.439504
995.722345	2827.918429
996.017795	2878.907180
996.313208	2916.136101
996.608586	2945.528548
996.903928	2955.452060
997.199234	2958.985908
997.494504	2953.312090
997.789738	2937.969338
998.084936	2914.089392
998.380099	2884.157541
998.675225	2853.530011
998.970316	2825.470949
999.265371	2787.107768
999.560390	2749.425143
999.855373	2719.329455
1000.150320	2689.846266
1000.445232	2667.816424
1000.740108	2645.791623
1001.034948	2627.446864
1001.329752	2611.113526
1001.624521	2597.371340
1001.919254	2587.790627
1002.213951	2580.274267
1002.508613	2569.203893
1002.803239	2567.542833
1003.097829	2558.602347
1003.392384	2553.747715
1003.686903	2548.827549
1003.981386	2548.610780
1004.275834	2541.285983
1004.570246	2537.752134
1004.864623	2536.683410
1005.158964	2531.576721
1005.453270	2532.831968
1005.747540	2530.021525
1006.041775	2528.420958
1006.335974	2528.768798
1006.630138	2525.393746
1006.924266	2526.699404
1007.218359	2521.648168
1007.512416	2522.643796
1007.806438	2517.763959
1008.100425	2520.813857
1008.394376	2515.760101
1008.688292	2523.175638
1008.982172	2522.222860
1009.276017	2521.043230
1009.569827	2519.901408
1009.863602	2516.982580
1010.157341	2519.989629
1010.451045	2516.196160
1010.744714	2518.530215
1011.038347	2516.115502
1011.331945	2515.061901
1011.625508	2515.051818
1011.919036	2512.506036
1012.212528	2513.234483
1012.505986	2510.343381
1012.799408	2509.899759
1013.092795	2511.412105
1013.386147	2511.545696
1013.679464	2508.420181
1013.972745	2509.130983
1014.265992	2510.265243
1014.559204	2513.053001
1014.852380	2508.238699
1015.145521	2510.658453
1015.438628	2509.539317
1015.731699	2509.940088
1016.024736	2511.525531
1016.317737	2512.690038
1016.610703	2510.126611
1016.903635	2511.729698
1017.196531	2516.468383
1017.489393	2515.871006
1017.782219	2518.625997
1018.075011	2520.067767
1018.367768	2520.551717
1018.660490	2520.327386
1018.953177	2520.327386
1019.245829	2520.327386
