Dividing Wavelength (nm)	Counts (n)	Blue Motor Position (mm): 42.100000	Red Motor Position (mm): 0.000000	
326.493990	2131.591410
326.888308	2131.591410
327.282561	2131.591410
327.676750	2095.705956
328.070874	2092.638414
328.464933	2100.666452
328.858929	2106.390682
329.252859	2114.103647
329.646726	2128.821296
330.040528	2138.076854
330.434265	2157.550832
330.827938	2173.748059
331.221547	2192.380164
331.615091	2211.372711
332.008571	2231.602861
332.401986	2249.743453
332.795338	2267.034611
333.188625	2288.081428
333.581847	2307.323513
333.975006	2324.178610
334.368100	2344.754080
334.761129	2361.687316
335.154095	2380.679863
335.546996	2400.771381
335.939833	2423.819537
336.332606	2438.534665
336.725315	2451.581171
337.117960	2462.696915
337.510540	2469.613378
337.903056	2481.150059
338.295508	2489.241111
338.687896	2500.495487
339.080220	2505.113184
339.472480	2513.635254
339.864676	2516.216325
340.256807	2520.413086
340.648875	2526.870804
341.040879	2524.730834
341.432818	2527.722759
341.824694	2529.275434
342.216506	2529.580424
342.608253	2531.372554
342.999937	2530.492873
343.391557	2530.991947
343.783113	2530.785260
344.174605	2523.858714
344.566033	2524.725793
344.957397	2524.884589
345.348697	2519.765297
345.739934	2522.195133
346.131106	2519.079700
346.522215	2517.464011
346.913260	2515.603825
347.304241	2514.456962
347.695159	2513.128618
348.086012	2507.979080
348.476802	2508.752897
348.867528	2507.631240
349.258191	2503.076558
349.648789	2504.672083
350.039324	2503.910868
350.429796	2501.939777
350.820203	2501.854078
351.210548	2501.133193
351.600828	2497.536329
351.991045	2498.995743
352.381198	2497.506083
352.771288	2498.552122
353.161314	2495.819817
353.551276	2495.550115
353.941175	2499.167143
354.331010	2496.364261
354.720782	2496.104642
355.110490	2497.269148
355.500135	2495.756802
355.889717	2498.048007
356.279235	2496.036586
356.668689	2498.968017
357.058080	2496.805362
357.447408	2496.412152
357.836672	2495.126658
358.225873	2494.693119
358.615010	2496.787718
359.004084	2500.238388
359.393095	2499.368789
359.782043	2502.307782
360.170927	2500.727380
360.559748	2500.795435
360.948505	2500.445075
361.337199	2504.241064
361.725830	2505.009840
362.114398	2505.574449
362.502903	2507.101919
362.891344	2505.382885
363.279722	2506.365910
363.668037	2507.462361
364.056289	2507.951353
364.444478	2508.596621
364.832603	2509.715757
365.220665	2508.125273
365.608665	2510.471930
365.996601	2510.446724
366.384474	2511.568381
366.772284	2513.277332
367.160031	2513.017713
367.547715	2512.773217
367.935336	2511.364214
368.322893	2510.615603
368.710388	2513.957888
369.097820	2514.557785
369.485189	2515.583660
369.872495	2514.492250
370.259738	2513.877230
370.646918	2515.805471
371.034035	2514.676252
371.421090	2517.496778
371.808081	2515.460152
372.195010	2517.993332
372.581875	2519.697242
372.968678	2515.417302
373.355418	2515.571057
373.742096	2519.969464
374.128710	2520.551717
374.515262	2522.845442
374.901751	2520.092972
375.288177	2522.777387
375.674540	2520.844104
376.060841	2523.067253
376.447079	2520.438291
376.833254	2522.696728
377.219367	2517.048115
377.605417	2522.348889
377.991404	2517.131294
378.377329	2521.257479
378.763191	2518.681449
379.148991	2524.952645
379.534727	2521.915349
379.920402	2527.871473
380.306013	2527.228726
380.691563	2526.041534
381.077049	2528.090763
381.462474	2531.362472
381.847835	2535.607123
382.233134	2539.082999
382.618371	2541.283463
383.003545	2549.956768
383.388657	2554.254351
383.773706	2565.551577
384.158693	2574.360993
384.543618	2582.431881
384.928480	2592.030238
385.313280	2609.318875
385.698017	2622.246914
386.082692	2639.462454
386.467305	2653.628097
386.851856	2671.377999
387.236344	2688.555731
387.620770	2711.573639
388.005133	2732.227247
388.389435	2757.662388
388.773674	2776.468413
389.157851	2806.927064
389.541965	2834.139213
389.926018	2843.775378
390.310008	2891.462173
390.693936	2913.950761
391.077802	2954.247224
391.461606	2980.831749
391.845348	3028.107689
392.229027	3056.900240
392.612645	3089.854262
392.996200	3152.064621
393.379694	3202.128320
393.763125	3260.353647
394.146494	3276.180350
394.529801	3344.271215
394.913047	3405.387643
395.296230	3413.466092
395.679351	3477.445896
396.062410	3527.252496
396.445408	3550.794685
396.828343	3602.567335
397.211217	3650.400323
397.594028	3625.809575
397.976778	3705.618602
398.359466	3753.665839
398.742092	3802.683498
399.124656	3767.914660
399.507158	3856.568392
399.889598	3903.723345
400.271977	3977.223368
400.654294	3978.145899
401.036549	4005.899972
401.418742	4000.180783
401.800874	4109.440231
402.182944	4148.665449
402.564952	4226.410123
402.946898	4232.192327
403.328783	4245.362341
403.710606	4176.671579
404.092367	4376.429821
404.474067	4350.178012
404.855705	4376.117269
405.237282	4314.995799
405.618797	4427.779014
406.000250	4470.845591
406.381642	4556.255340
406.762972	4526.378942
407.144240	4545.144637
407.525447	4550.541192
407.906593	4613.021253
408.287677	4658.792409
408.668700	4595.873768
409.049661	4648.664731
409.430560	4694.319941
409.811399	4620.968632
410.192176	4784.959887
410.572891	4731.017020
410.953545	4828.268440
411.334138	4710.060944
411.714669	4778.658445
412.095139	4679.438455
412.475547	4818.959949
412.855894	4801.668792
413.236180	4812.121624
413.616405	4767.109161
413.996568	4853.554867
414.376670	4794.212925
414.756711	4750.682562
415.136691	4781.448723
415.516609	4862.397051
415.896466	4894.655395
416.276262	4933.046302
416.655997	4915.341770
417.035670	5094.295169
417.415283	5186.724725
417.794834	5127.980159
418.174324	5081.704888
418.553753	4989.716433
418.933121	5177.882541
419.312428	5244.768571
419.691674	5182.429662
420.070859	5311.594106
420.449983	5222.736208
420.829045	5333.964226
421.208047	5244.748406
421.586988	5315.669879
421.965867	5329.772507
422.344686	5464.220080
422.723444	5311.841122
423.102141	5134.024503
423.480777	5431.089617
423.859352	5201.414648
424.237866	5456.239933
424.616319	5448.373213
424.994712	5559.210542
425.373044	5434.641110
425.751314	5578.155198
426.129524	5379.498448
426.507673	5575.014559
426.885762	5658.407847
427.263789	5590.624492
427.641756	5470.753415
428.019662	5598.261840
428.397508	5601.115133
428.775292	5547.610847
429.153016	5647.072812
429.530679	5571.982305
429.908282	5661.210728
430.285824	5527.794071
430.663305	5801.460669
431.040726	5536.222880
431.418086	5540.984250
431.795385	5648.678420
432.172624	5660.131921
432.549802	5652.217310
432.926920	5663.144011
433.303977	5671.368653
433.680974	5712.849788
434.057910	5727.731274
434.434786	5735.900463
434.811601	5703.231266
435.188355	5941.244304
435.565050	5812.503317
435.941683	5792.139576
436.318257	6007.638820
436.694770	5994.446121
437.071222	6026.119690
437.447614	5956.952539
437.823946	5867.414085
438.200218	6026.228075
438.576429	5888.405450
438.952580	5985.341797
439.328670	6031.218818
439.704700	5940.457884
440.080670	5929.526142
440.456580	6199.457245
440.832429	6077.766312
441.208218	5932.034116
441.583947	6082.444502
441.959616	6083.959369
442.335224	6014.761971
442.710773	6149.537219
443.086261	6173.034037
443.461689	5973.621114
443.837057	6117.104956
444.212365	6276.884327
444.587612	6162.283776
444.962800	6320.434855
445.337927	6302.228728
445.712995	5910.952010
446.088002	6484.063147
446.462949	6322.340411
446.837837	6250.382981
447.212664	6423.065185
447.587431	6568.507515
447.962139	7104.152796
448.336786	8033.088736
448.711374	7776.988038
449.085901	6852.755495
449.460369	6768.719461
449.834776	6705.886519
450.209124	7099.177177
450.583412	7246.535146
450.957640	7392.731128
451.331808	7156.409397
451.705917	6707.305604
452.079965	6631.524459
452.453954	6844.518250
452.827883	6719.865639
453.201752	6815.171173
453.575562	6611.909329
453.949311	6818.962120
454.323001	6706.869544
454.696632	6784.992305
455.070202	6921.539519
455.443713	7072.930410
455.817164	7173.836666
456.190556	7253.822133
456.563888	7327.559091
456.937160	7373.473920
457.310373	7029.934409
457.683526	7056.246711
458.056619	6940.068280
458.429653	6932.514111
458.802628	6867.286621
459.175542	6975.613456
459.548398	7328.844585
459.921194	7492.714853
460.293930	7495.643763
460.666607	8023.959207
461.039224	8333.735590
461.411782	8452.822767
461.784280	8477.128690
462.156719	8365.313378
462.529099	8237.399140
462.901419	7831.407294
463.273680	7723.274544
463.645882	7743.482009
464.018024	7607.585105
464.390106	7772.491329
464.762130	8165.993716
465.134094	8631.899675
465.505999	9647.387185
465.877845	10875.646676
466.249631	11515.686692
466.621358	11129.879626
466.993026	10504.184214
467.364634	10254.019475
467.736184	9890.229648
468.107674	9558.030213
468.479105	9591.309390
468.850477	9349.233182
469.221790	9123.177762
469.593043	8793.138460
469.964238	8657.123088
470.335373	8669.267228
470.706449	8728.833502
471.077467	8709.258702
471.448425	10022.214618
471.819324	11090.407392
472.190164	11114.559560
472.560945	9862.624290
472.931667	9078.394671
473.302330	8941.683620
473.672934	8587.303108
474.043479	8946.260988
474.413965	8882.991987
474.784393	8769.550902
475.154761	8924.984798
475.525070	9015.995269
475.895321	8843.630657
476.265513	9016.365794
476.635645	9188.647227
477.005719	9187.371815
477.375734	9298.441037
477.745691	9541.533037
478.115588	9667.566924
478.485427	9919.080172
478.855207	10454.985073
479.224928	11269.282653
479.594591	11888.641336
479.964194	11708.704911
480.333739	11643.744602
480.703226	11556.469626
481.072653	11648.228709
481.442022	11888.490101
481.811333	12076.194944
482.180584	11877.124820
482.549777	11587.765109
482.918912	11409.658623
483.287988	11438.713314
483.657005	11444.374529
484.025964	11132.017075
484.394864	11261.247054
484.763706	11231.758825
485.132489	10988.203038
485.501213	10948.808942
485.869879	11029.727023
486.238487	10872.977385
486.607036	10980.018725
486.975527	10761.991342
487.343959	10948.740886
487.712333	10996.377269
488.080648	10928.908987
488.448905	10977.107459
488.817104	10917.329457
489.185244	11179.860146
489.553326	11334.971409
489.921350	11874.279088
490.289315	12932.422322
490.657222	13275.026699
491.025070	13181.220908
491.392861	13056.928739
491.760593	12677.407993
492.128267	12328.111484
492.495883	12002.359684
492.863440	11665.245123
493.230939	11325.163844
493.598380	11255.437124
493.965763	11128.052208
494.333088	11032.696262
494.700354	10950.626278
495.067563	11018.359221
495.434713	10839.337765
495.801805	10964.494492
496.168839	10890.812987
496.535815	10826.049284
496.902733	10828.466517
497.269593	10759.407751
497.636395	10863.058915
498.003139	10843.615184
498.369825	10715.622809
498.736453	10876.796059
499.103023	10804.636983
499.469535	10828.761425
499.835989	10822.147431
500.202385	10780.326018
500.568723	10637.389142
500.935003	10853.493325
501.301226	10665.710345
501.667390	10914.617316
502.033497	11012.347645
502.399546	10877.731193
502.765537	10785.369693
503.131470	10861.818791
503.497345	11032.691221
503.863163	10643.655297
504.228923	10947.979672
504.594625	11017.829900
504.960269	10764.771538
505.325856	10980.805145
505.691385	10782.052614
506.056856	10936.092631
506.422270	10955.836310
506.787625	10843.350524
507.152924	10964.736467
507.518164	10938.073805
507.883347	10867.565706
508.248472	10779.451378
508.613540	11014.139775
508.978550	10904.575337
509.343503	10874.580472
509.708398	10997.599749
510.073236	11111.658376
510.438016	11117.685075
510.802738	11068.768239
511.167403	11114.650300
511.532010	11012.203972
511.896561	11239.764177
512.261053	11318.718729
512.625488	11185.402895
512.989866	11167.448825
513.354186	11153.792339
513.718449	11058.096116
514.082655	11253.128276
514.446803	11148.577266
514.810894	11270.469845
515.174927	11135.873558
515.538904	11161.323823
515.902822	11306.085597
516.266684	11198.431757
516.630488	11141.736420
516.994235	11191.903462
517.357925	11253.808832
517.721558	11346.926505
518.085133	11363.983249
518.448651	11367.141532
518.812112	11254.116342
519.175516	11260.604307
519.538863	11385.390509
519.902152	11298.788527
520.265385	11458.575460
520.628560	11371.769311
520.991678	11353.500170
521.354739	11413.958728
521.717743	11348.653100
522.080690	11320.757875
522.443580	11465.980915
522.806413	11414.896382
523.169189	11458.827518
523.531908	11512.515806
523.894569	11333.864875
524.257174	11338.464928
524.619722	11447.197576
524.982213	11401.562530
525.344647	11451.621188
525.707025	11406.855742
526.069345	11489.843217
526.431608	11408.476473
526.793815	11525.022909
527.155964	11313.554067
527.518057	11359.786488
527.880093	11307.683643
528.242072	11383.116948
528.603995	11287.521548
528.965860	11209.933149
529.327669	11261.390727
529.689421	11203.735051
530.051117	11176.036431
530.412755	11285.361414
530.774337	11176.437203
531.135862	11155.864254
531.497331	11176.429641
531.858743	11023.274346
532.220098	11196.911849
532.581396	11070.993908
532.942638	11053.289376
533.303824	11010.200113
533.664953	11025.111846
534.026025	10941.663106
534.387040	11043.174301
534.747999	11039.811851
535.108902	11096.653381
535.469748	10861.919614
535.830537	10962.906528
536.191270	10936.258989
536.551947	10962.140273
536.912567	10963.695469
537.273131	10885.739066
537.633638	10866.814574
537.994089	10863.242917
538.354483	10801.917280
538.714821	10948.473705
539.075103	10958.346805
539.435328	10923.401526
539.795497	10749.653118
540.155609	10907.269834
540.515665	10991.837710
540.875665	10728.084541
541.235609	10806.718979
541.595496	10793.783379
541.955328	10950.338932
542.315102	10833.369039
542.674821	10784.474888
543.034483	10782.009764
543.394090	10786.839189
543.753640	10711.819258
544.113134	10942.172263
544.472571	10792.760024
544.831953	10935.061715
545.191278	10746.996430
545.550548	10768.743968
545.909761	10905.313866
546.268918	10876.896882
546.628019	10960.998452
546.987064	10830.004069
547.346053	10750.500032
547.704986	10856.097081
548.063863	10837.921201
548.422684	10824.105919
548.781449	10748.317212
549.140158	10843.305153
549.498811	10725.722761
549.857408	10586.029867
550.215949	10809.355503
550.574434	10666.776549
550.932864	10763.624676
551.291237	10824.834366
551.649555	10760.683163
552.007817	10779.413570
552.366022	10739.666592
552.724173	10741.367982
553.082267	10721.992307
553.440305	10861.155879
553.798288	10660.205405
554.156215	10817.045783
554.514086	10785.019333
554.871902	10631.853955
555.229661	10671.895840
555.587365	10650.561677
555.945014	10547.507890
556.302606	10668.840901
556.660143	10562.845600
557.017625	10712.784639
557.375050	10616.231420
557.732421	10752.939950
558.089735	10662.037864
558.446994	10668.926601
558.804197	10699.637310
559.161345	10701.147136
559.518437	10549.294979
559.875474	10641.265790
560.232455	10672.941880
560.589381	10620.665114
560.946251	10618.079002
561.303065	10722.657739
561.659825	10663.542648
562.016528	10587.988355
562.373177	10475.074071
562.729770	10586.589435
563.086307	10499.891671
563.442789	10590.939951
563.799216	10469.632145
564.155587	10516.714002
564.511904	10465.808430
564.868164	10463.940682
565.224370	10484.289300
565.580520	10403.804758
565.936615	10411.613506
566.292654	10275.303226
566.648638	10417.178939
567.004567	10371.196055
567.360441	10352.816008
567.716260	10263.738819
568.072023	10351.938847
568.427732	10308.920161
568.783385	10219.590914
569.138982	10286.040884
569.494525	10300.501434
569.850013	10184.733856
570.205445	10266.987843
570.560823	10158.933231
570.916145	10074.607330
571.271412	10143.759358
571.626625	10088.566285
571.981782	10071.660775
572.336884	10041.207165
572.691931	10041.348317
573.046923	9991.420730
573.401860	9943.174367
573.756743	9886.272343
574.111570	9925.800030
574.466342	9910.500128
574.821059	9942.307288
575.175722	9836.047327
575.530330	9840.259211
575.884882	9832.876441
576.239380	9751.459286
576.593823	9736.628211
576.948211	9751.527342
577.302544	9638.786977
577.656823	9652.854317
578.011047	9649.365838
578.365216	9621.881467
578.719330	9545.487822
579.073389	9557.475686
579.427394	9508.163119
579.781344	9486.586981
580.135239	9436.193086
580.489080	9445.577194
580.842866	9341.454682
581.196597	9343.503911
581.550273	9386.749449
581.903895	9359.809523
582.257463	9424.595912
582.610975	9298.506572
582.964434	9328.100665
583.317837	9254.058718
583.671186	9231.469308
584.024481	9229.084842
584.377721	9148.307913
584.730906	9123.419737
585.084037	9156.593050
585.437113	9091.504192
585.790135	9112.054456
586.143103	9011.881688
586.496016	8981.884302
586.848874	9042.453765
587.201679	9028.252835
587.554428	8913.324609
587.907124	8960.401424
588.259765	8928.584182
588.612352	8938.386706
588.964884	8814.732243
589.317362	8829.326383
589.669786	8824.227256
590.022155	8872.939926
590.374470	8889.991629
590.726731	8827.408224
591.078937	8683.674846
591.431090	8794.136609
591.783188	8670.913165
592.135232	8656.581164
592.487222	8656.687029
592.839157	8710.075368
593.191038	8640.986355
593.542866	8587.517357
593.894639	8487.740319
594.246358	8541.242085
594.598022	8560.290085
594.949633	8458.317625
595.301190	8433.099253
595.652692	8455.771842
596.004141	8565.091784
596.355535	8342.991148
596.706876	8324.704363
597.058162	8261.062316
597.409395	8339.003596
597.760573	8394.325218
598.111698	8312.862692
598.462768	8294.039024
598.813785	8256.346317
599.164748	8224.680309
599.515657	8218.298208
599.866511	8134.115980
600.217312	8258.577027
600.568060	8112.423895
600.918753	8215.339051
601.269392	8183.214298
601.619978	8100.383099
601.970510	8162.550608
602.320988	8159.974578
602.671412	8214.356026
603.021783	8149.267168
603.372100	8124.928477
603.722363	8120.444371
604.072572	8105.013399
604.422728	8115.967826
604.772830	8044.701034
605.122878	8051.458701
605.472872	8045.699182
605.822813	8076.626661
606.172701	8020.518619
606.522534	8091.296419
606.872314	8096.629960
607.222041	8067.658449
607.571714	8120.036037
607.921333	8075.716733
608.270899	8083.878361
608.620411	8161.859970
608.969870	8076.218328
609.319276	8071.222544
609.668627	8090.237777
610.017926	8119.211808
610.367171	8162.870721
610.716362	8141.513873
611.065500	8138.569839
611.414585	8161.663365
611.763616	8148.664750
612.112594	8132.825444
612.461518	8148.949575
612.810389	8208.432670
613.159207	8147.911097
613.507971	8098.023839
613.856682	8213.776293
614.205340	8170.606372
614.553945	8247.912466
614.902496	8154.056264
615.250994	8199.981175
615.599439	8180.328237
615.947830	8194.846760
616.296169	8169.187287
616.644454	8190.798714
616.992686	8182.490892
617.340864	8241.154799
617.688990	8150.071232
618.037063	8235.964932
618.385082	8179.541817
618.733048	8267.169674
619.080961	8209.400571
619.428821	8227.941935
619.776628	8228.768684
620.124382	8177.210283
620.472083	8165.741658
620.819731	8195.461781
621.167326	8086.872807
621.514868	8095.316739
621.862357	7980.171744
622.209793	7996.938622
622.557176	7933.866226
622.904506	7900.506390
623.251783	7835.261256
623.599007	7792.678630
623.946179	7790.747868
624.293297	7753.460973
624.640363	7665.628950
624.987376	7647.415261
625.334336	7598.198476
625.681243	7547.078656
626.028097	7541.858541
626.374899	7512.818974
626.721647	7507.172882
627.068343	7434.809639
627.414987	7415.343223
627.761577	7368.526028
628.108115	7406.501039
628.454600	7296.636653
628.801032	7351.252514
629.147412	7308.125443
629.493739	7298.811911
629.840014	7233.551654
630.186236	7294.955428
630.532405	7174.812129
630.878521	7226.622588
631.224585	7179.656678
631.570597	7103.673887
631.916556	7134.561036
632.262462	7138.215873
632.608316	7093.823472
632.954117	7080.325783
633.299866	7060.723256
633.645562	7052.695218
633.991206	6968.066848
634.336797	6914.708755
634.682336	6871.143104
635.027823	6841.178485
635.373257	6829.563667
635.718639	6759.403408
636.063968	6777.521315
636.409245	6670.739594
636.754470	6669.454100
637.099642	6627.426001
637.444762	6572.878195
637.789829	6579.348516
638.134845	6523.074116
638.479808	6507.370922
638.824719	6511.539956
639.169577	6438.055056
639.514383	6464.921886
639.859137	6391.510083
640.203839	6394.396143
640.548489	6381.745368
640.893086	6360.690989
641.237632	6326.973231
641.582125	6351.523651
641.926566	6324.392161
642.270955	6335.843142
642.615292	6327.931051
642.959576	6347.064750
643.303809	6337.171486
643.647990	6343.614080
643.992118	6332.468089
644.336195	6282.734586
644.680219	6301.311238
645.024192	6292.390916
645.368112	6391.961266
645.711981	6408.491210
646.055797	6487.594475
646.399562	6445.694925
646.743274	6572.071611
647.086935	6624.643284
647.430544	6615.964937
647.774101	6639.605428
648.117606	6652.092366
648.461059	6639.479399
648.804460	6598.721671
649.147810	6507.680953
649.491108	6475.737681
649.834354	6452.185411
650.177548	6371.584922
650.520690	6284.672909
650.863781	6266.171875
651.206820	6283.858763
651.549807	6203.374221
651.892742	6148.087887
652.235626	6154.590976
652.578458	6139.475076
652.921238	6050.942332
653.263967	6084.108083
653.606644	6027.148086
653.949269	6030.954157
654.291843	5971.327389
654.634365	6020.917220
654.976836	5974.120188
655.319255	5972.741433
655.661622	5949.363082
656.003938	5944.919305
656.346203	5909.064098
656.688416	5941.743378
657.030577	5890.401747
657.372687	5862.498960
657.714746	5848.817268
658.056753	5889.645573
658.398708	5831.979815
658.740612	5825.733825
659.082465	5867.993818
659.424266	5866.652871
659.766016	5862.067941
660.107715	5838.797975
660.449362	5857.399833
660.790958	5843.506413
661.132503	5833.552655
661.473996	5870.186720
661.815438	5857.911510
662.156829	5857.578794
662.498168	5847.955231
662.839456	5824.546633
663.180693	5857.351942
663.521879	5855.751376
663.863013	5849.460016
664.204097	5869.307038
664.545129	5903.511267
664.886110	5904.310290
665.227040	5936.026709
665.567918	5898.704527
665.908746	5927.827273
666.249522	5934.411020
666.590248	5917.351755
666.930922	5943.500220
667.271545	5963.001924
667.612118	5964.090813
667.952639	5939.999139
668.293109	5961.542510
668.633528	5915.806641
668.973896	5919.703453
669.314213	5911.446043
669.654480	5891.102467
669.994695	5886.464605
670.334859	5876.848604
670.674973	5864.530545
671.015035	5870.360639
671.355047	5871.633531
671.695008	5857.853537
672.034918	5830.795143
672.374777	5840.673284
672.714585	5832.897305
673.054342	5832.395710
673.394049	5821.852137
673.733705	5856.235326
674.073310	5840.847204
674.412864	5803.290608
674.752368	5790.050018
675.091820	5801.039733
675.431223	5735.166976
675.770574	5733.589094
676.109875	5685.473802
676.449125	5689.320202
676.788324	5656.565305
677.127473	5600.477427
677.466571	5594.407878
677.805619	5579.876752
678.144616	5570.515329
678.483562	5549.758378
678.822458	5515.786042
679.161303	5512.050547
679.500098	5503.742726
679.838842	5481.228933
680.177535	5494.613196
680.516179	5505.068549
680.854771	5513.078943
681.193314	5599.338126
681.531805	5707.541452
681.870247	5855.854719
682.208638	5958.704340
682.546978	5967.347398
682.885268	5949.158915
683.223508	5857.825810
683.561697	5808.929139
683.899836	5775.828923
684.237925	5734.428447
684.575963	5699.399989
684.913951	5656.182177
685.251889	5714.669644
685.589776	5690.068813
685.927614	5657.374410
686.265401	5732.112036
686.603137	5712.874993
686.940824	5787.093381
687.278460	5815.838040
687.616046	5822.376417
687.953582	5889.595162
688.291068	5876.669643
688.628504	5938.443943
688.965889	5898.558333
689.303224	5841.575651
689.640510	5795.978414
689.977745	5715.645107
690.314930	5619.613647
690.652065	5567.057098
690.989150	5472.994208
691.326185	5395.793978
691.663170	5343.068550
692.000105	5269.074494
692.336990	5185.356052
692.673825	5165.950130
693.010610	5093.738122
693.347345	5029.990211
693.684030	5011.103528
694.020665	4970.280264
694.357251	4880.945977
694.693786	4891.323192
695.030272	4857.547461
695.366707	4823.698634
695.703093	4787.220845
696.039429	4811.499042
696.375716	4792.105723
696.711952	4767.588071
697.048139	4754.365124
697.384276	4733.855190
697.720363	4746.856326
698.056400	4751.501749
698.392388	4707.928536
698.728326	4687.519424
699.064214	4664.272143
699.400053	4658.308458
699.735842	4623.559785
700.071581	4600.085652
700.407270	4572.523143
700.742910	4554.932037
701.078501	4499.504551
701.414042	4495.867358
701.749533	4470.522957
702.084974	4405.270262
702.420366	4461.958037
702.755709	4403.619284
703.091002	4348.143906
703.426246	4393.731061
703.761440	4356.691183
704.096584	4314.690809
704.431679	4338.706866
704.766725	4318.459072
705.101721	4309.145540
705.436668	4339.021938
705.771565	4283.251653
706.106413	4309.064882
706.441212	4348.834544
706.775961	4351.428218
707.110661	4332.143284
707.445311	4359.476420
707.779913	4382.017940
708.114465	4396.549066
708.448967	4422.730298
708.783421	4478.480418
709.117825	4522.903066
709.452180	4523.926420
709.786485	4573.392743
710.120742	4658.089168
710.454949	4640.936642
710.789107	4707.903330
711.123216	4785.083395
711.457275	4770.136374
711.791286	4847.639073
712.125247	4866.487948
712.459159	4767.908184
712.793023	4842.212271
713.126837	4800.993277
713.460602	4793.870127
713.794318	4717.221903
714.127985	4717.431111
714.461602	4639.081498
714.795171	4610.256180
715.128691	4542.482908
715.462162	4483.929906
715.795584	4435.386115
716.128957	4420.129063
716.462281	4368.031258
716.795556	4342.954038
717.128782	4303.549859
717.461960	4238.937391
717.795088	4246.194132
718.128167	4202.525136
718.461198	4144.188904
718.794180	4138.288233
719.127113	4118.904997
719.459997	4098.483283
719.792833	4057.851583
720.125619	4050.504101
720.458357	4011.236033
720.791046	4017.350953
721.123686	3989.579236
721.456278	3950.883339
721.788821	3962.634269
722.121315	3937.042851
722.453761	3908.850198
722.786158	3923.595573
723.118506	3948.919810
723.450805	3900.139085
723.783056	3919.010644
724.115259	3936.412707
724.447412	3944.841516
724.779518	3936.269034
725.111574	3938.577883
725.443582	3967.251966
725.775542	3954.472641
726.107453	4005.030373
726.439315	4006.313346
726.771129	4022.439997
727.102895	4056.036767
727.434612	4101.570989
727.766281	4112.472485
728.097901	4119.807363
728.429473	4121.836428
728.760996	4129.279692
729.092471	4124.611583
729.423897	4106.707925
729.755276	4112.285962
730.086606	4113.299234
730.417887	4155.307169
730.749120	4212.730952
731.080305	4281.061272
731.411442	4305.145385
731.742530	4274.280920
732.073570	4277.668576
732.404562	4335.485569
732.735506	4326.517356
733.066401	4290.021923
733.397249	4226.906677
733.728048	4145.544974
734.058798	4062.002973
734.389501	3994.887571
734.720156	3930.391049
735.050762	3888.788927
735.381320	3878.557905
735.711831	3827.037313
736.042293	3801.685350
736.372707	3823.276612
736.703073	3794.733599
737.033391	3788.164975
737.363661	3803.394301
737.693883	3828.824402
738.024056	3834.084846
738.354182	3832.544773
738.684260	3898.777973
739.014290	3915.507042
739.344272	3911.007812
739.674207	3956.587405
740.004093	3962.291470
740.333931	3952.226807
740.663722	3956.083289
740.993464	3952.183957
741.323159	3927.046243
741.652806	3899.987850
741.982405	3872.490876
742.311956	3840.971062
742.641460	3832.093590
742.970915	3807.044097
743.300323	3766.162859
743.629683	3731.744382
743.958996	3721.571333
744.288260	3694.923794
744.617477	3663.562776
744.946647	3650.181033
745.275768	3620.919655
745.604842	3618.184829
745.933869	3574.825865
746.262847	3565.499731
746.591778	3600.117334
746.920662	3572.380906
747.249498	3542.522151
747.578286	3585.624017
747.907027	3605.821400
748.235720	3604.672017
748.564365	3626.485089
748.892963	3628.453660
749.221514	3613.854478
749.550017	3583.965477
749.878473	3588.757094
750.206881	3554.504974
750.535242	3555.563616
750.863555	3558.681570
751.191821	3550.847617
751.520039	3530.917415
751.848210	3508.910258
752.176334	3539.215154
752.504411	3550.303172
752.832440	3509.346318
753.160421	3488.261692
753.488356	3499.183352
753.816243	3511.819004
754.144082	3470.300061
754.471875	3453.583595
754.799620	3474.262408
755.127318	3466.647745
755.454969	3464.802683
755.782572	3470.968014
756.110129	3446.014302
756.437638	3436.219340
756.765100	3452.088892
757.092515	3461.959472
757.419882	3469.322077
757.747203	3442.477933
758.074477	3442.326698
758.401703	3462.302270
758.728882	3484.475785
759.056014	3487.238338
759.383099	3489.595077
759.710138	3488.077690
760.037129	3509.406812
760.364073	3533.054864
760.690970	3521.974408
761.017820	3498.845594
761.344623	3515.977956
761.671379	3561.184503
761.998088	3610.187039
762.324751	3740.962131
762.651366	3986.491529
762.977935	4462.850321
763.304456	4904.422630
763.630931	5003.309904
763.957359	4638.894975
764.283740	4297.492913
764.610074	4106.838995
764.936362	3905.923809
765.262602	3747.066969
765.588796	3636.494300
765.914943	3548.831155
766.241044	3459.607773
766.567097	3430.449740
766.893104	3381.290928
767.219064	3349.723223
767.544978	3324.761949
767.870845	3268.553084
768.196665	3249.305958
768.522438	3258.609408
768.848165	3256.635796
769.173846	3217.846638
769.499479	3200.585727
769.825066	3182.036802
770.150607	3167.626663
770.476101	3181.797347
770.801548	3178.203004
771.126949	3134.718011
771.452303	3113.739249
771.777611	3122.170579
772.102872	3126.632000
772.428087	3103.049483
772.753256	3090.902822
773.078378	3087.326124
773.403453	3049.709034
773.728482	3037.534647
774.053465	3060.194634
774.378401	3050.213149
774.703291	3015.497243
775.028135	3018.287522
775.352932	3010.125894
775.677683	3001.071981
776.002388	2997.616270
776.327046	2997.825478
776.651658	2988.501864
776.976224	2973.887559
777.300743	2978.056593
777.625216	2965.257104
777.949643	2960.899026
778.274024	2965.882207
778.598359	2953.740588
778.922647	2958.683439
779.246889	2956.490537
779.571086	2944.071655
779.895236	2936.555294
780.219339	2947.693724
780.543397	2960.548666
780.867409	2961.705611
781.191374	2956.929118
781.515294	2953.138170
781.839167	2953.271761
782.162995	2944.306068
782.486776	2952.931483
782.810511	2951.517439
783.134201	2936.822476
783.457844	2943.247426
783.781441	2934.392639
784.104993	2913.807088
784.428498	2914.510329
784.751958	2927.761002
785.075372	2921.517533
785.398739	2907.606468
785.722061	2922.964344
786.045337	2934.130499
786.368568	2918.248344
786.691752	2912.904721
787.014891	2958.549849
787.337983	2987.569251
787.661030	3017.586801
787.984031	3083.598190
788.306987	3131.181642
788.629897	3124.366002
788.952760	3106.288424
789.275579	3094.663523
789.598351	3032.052392
789.921078	2989.333655
790.243759	2978.981645
790.566395	2962.202165
790.888984	2939.940429
791.211529	2921.250351
791.534027	2910.316089
791.856480	2902.598082
792.178888	2888.538304
792.501249	2879.635626
792.823566	2876.827704
793.145836	2875.292672
793.468062	2871.844523
793.790241	2866.226157
794.112375	2874.501211
794.434464	2885.395145
794.756507	2893.014849
795.078505	2896.604150
795.400457	2912.178795
795.722364	2944.706840
796.044226	2971.770275
796.366042	2974.028712
796.687812	2961.133440
797.009538	2984.020278
797.331218	2970.935964
797.652852	2953.899384
797.974442	2936.824996
798.295986	2931.748554
798.617484	2926.049530
798.938938	2914.601069
799.260346	2898.234963
799.581709	2889.982595
799.903026	2887.547717
800.224299	2877.790564
800.545526	2869.689430
800.866708	2856.978160
801.187845	2844.551716
801.508936	2843.871160
801.829983	2852.284846
802.150984	2842.099195
802.471940	2825.339879
802.792851	2828.667040
803.113717	2827.192503
803.434538	2832.064778
803.755314	2827.363902
804.076045	2819.078766
804.396731	2815.577684
804.717372	2820.460042
805.037967	2812.424443
805.358518	2822.468942
805.679024	2832.858760
805.999485	2826.078408
806.319901	2831.631239
806.640272	2823.784683
806.960598	2828.533450
807.280879	2841.650532
807.601115	2846.066583
807.921306	2832.689881
808.241453	2829.345076
808.561554	2835.964111
808.881611	2838.890500
809.201623	2830.277689
809.521590	2830.108810
809.841513	2827.104283
810.161390	2829.382884
810.481223	2824.135043
810.801011	2816.515339
811.120755	2812.195070
811.440453	2816.348981
811.760107	2814.816470
812.079716	2812.197591
812.399281	2801.923719
812.718801	2796.436423
813.038276	2791.017183
813.357707	2798.009263
813.677093	2803.168884
813.996434	2796.691002
814.315731	2794.309056
814.634983	2788.700773
814.954191	2790.311421
815.273354	2805.160140
815.592473	2812.227838
815.911547	2813.392344
816.230577	2822.536997
816.549562	2834.093842
816.868502	2832.926815
817.187399	2841.101046
817.506250	2859.155939
817.825058	2850.205370
818.143821	2864.829757
818.462539	2878.093033
818.781213	2906.396592
819.099843	2944.374124
819.418429	3001.490397
819.736970	3063.887279
820.055466	3136.537867
820.373919	3241.600555
820.692327	3384.063563
821.010691	3553.048081
821.329011	3997.529136
821.647286	4907.724586
821.965517	6294.488036
822.283704	7048.765639
822.601847	7037.516304
822.919945	6396.601648
823.237999	5885.642897
823.556010	5298.557682
823.873976	4738.528340
824.191897	4322.796985
824.509775	4025.384031
824.827609	3756.085593
825.145398	3628.148670
825.463144	3619.268677
825.780845	3707.166236
826.098502	3811.747493
826.416116	4096.129064
826.733685	4417.502622
827.051210	4484.620544
827.368692	4368.547977
827.686129	4100.784569
828.003522	3773.792646
828.320872	3509.396729
828.638177	3312.907676
828.955439	3176.441121
829.272656	3091.298553
829.589830	3024.294057
829.906960	2973.176757
830.224046	2925.923501
830.541088	2892.409910
830.858086	2879.509597
831.175041	2858.462780
831.491952	2860.224663
831.808819	2872.981303
832.125642	2894.960734
832.442421	2945.268929
832.759157	3027.958975
833.075849	3207.943291
833.392497	3489.499295
833.709101	3695.818599
834.025662	3642.394971
834.342179	3484.753049
834.658653	3308.975576
834.975083	3154.446567
835.291469	3058.682288
835.607811	2970.051241
835.924110	2910.943712
836.240366	2863.304808
836.556578	2818.375525
836.872746	2792.446350
837.188871	2774.061262
837.504952	2755.587954
837.820990	2745.692169
838.136984	2731.730693
838.452935	2725.411607
838.768842	2723.644682
839.084706	2742.659915
839.400526	2820.495330
839.716303	2954.804271
840.032037	3034.681354
840.347727	3022.451515
840.663373	2960.420117
840.978977	2883.928169
841.294537	2810.476037
841.610054	2762.083480
841.925527	2740.880387
842.240957	2716.009855
842.556344	2694.474046
842.871687	2682.004752
843.186987	2670.584017
843.502244	2667.760971
843.817458	2661.719148
844.132629	2648.501243
844.447756	2642.567805
844.762840	2634.620426
845.077881	2636.331898
845.392879	2635.500107
845.707833	2629.150774
846.022745	2625.710187
846.337613	2628.243366
846.652438	2625.193468
846.967221	2625.884106
847.281960	2623.948303
847.596656	2619.897736
847.911309	2622.244393
848.225919	2618.430760
848.540485	2615.146449
848.855009	2613.344236
849.169490	2617.972015
849.483928	2616.527725
849.798323	2616.142077
850.112675	2613.727364
850.426984	2616.444546
850.741251	2613.757611
851.055474	2612.605707
851.369654	2617.581326
851.683792	2614.531428
851.997887	2613.757611
852.311938	2612.577981
852.625947	2613.198043
852.939914	2617.493106
853.253837	2613.135028
853.567718	2613.218207
853.881555	2613.508074
854.195350	2614.523866
854.509103	2613.810543
854.822812	2611.796602
855.136479	2611.874740
855.450103	2615.635441
855.763685	2617.203239
856.077224	2613.646705
856.390720	2609.523042
856.704173	2612.245265
857.017584	2615.269957
857.330953	2618.992849
857.644278	2618.264402
857.957561	2619.799434
858.270802	2616.472272
858.584000	2616.739453
858.897155	2619.421347
859.210268	2621.089969
859.523339	2613.825666
859.836367	2613.893722
860.149352	2610.569081
860.462295	2612.678804
860.775195	2610.927003
861.088054	2608.512290
861.400869	2608.799636
861.713642	2608.305603
862.026373	2608.628237
862.339062	2606.997423
862.651708	2618.271964
862.964312	2616.941099
863.276873	2613.497991
863.589392	2615.161572
863.901869	2623.028293
864.214303	2629.004581
864.526696	2630.297637
864.839045	2630.874849
865.151353	2633.776033
865.463619	2634.605302
865.775842	2634.441465
866.088023	2631.164715
866.400162	2635.086733
866.712258	2632.351907
867.024313	2633.539098
867.336325	2628.258490
867.648296	2630.874849
867.960224	2638.197125
868.272110	2636.268883
868.583954	2626.894858
868.895755	2629.869138
869.207515	2633.864253
869.519233	2640.420273
869.830909	2637.914820
870.142542	2633.370220
870.454134	2632.898872
870.765684	2640.170736
871.077191	2643.752476
871.388657	2647.046870
871.700081	2641.279790
872.011463	2644.611993
872.322803	2644.662404
872.634101	2648.241624
872.945357	2654.868220
873.256571	2664.721156
873.567744	2657.577841
873.878874	2655.523570
874.189963	2658.157573
874.501010	2661.754437
874.812015	2668.050838
875.122979	2667.118224
875.433900	2661.671257
875.744780	2655.584064
876.055618	2665.484890
876.366415	2669.754748
876.677169	2666.977072
876.987882	2662.107317
877.298554	2664.385919
877.609183	2671.803977
877.919771	2678.362518
878.230317	2688.822912
878.540822	2697.072760
878.851285	2712.309648
879.161707	2734.342011
879.472087	2775.634102
879.782425	2827.031186
880.092722	2941.200718
880.402977	3131.640387
880.713191	3399.754154
881.023363	3696.688198
881.333494	3889.499729
881.643583	4066.613108
881.953631	4065.350299
882.263637	3883.531003
882.573602	3663.346006
882.883526	3529.941952
883.193408	3411.280752
883.503248	3308.025318
883.813048	3189.134746
884.122806	3071.907755
884.432522	2987.778459
884.742197	2922.218253
885.051831	2882.932541
885.361424	2846.474916
885.670975	2809.545944
885.980485	2778.505039
886.289954	2759.830085
886.599382	2745.755183
886.908768	2733.187587
887.218113	2712.665049
887.527417	2704.516024
887.836680	2690.670495
888.145901	2687.734023
888.455082	2678.546520
888.764221	2666.863646
889.073319	2658.306287
889.382376	2660.514313
889.691392	2657.487100
890.000366	2656.849394
890.309300	2656.118427
890.618193	2659.652275
890.927044	2662.145126
891.235855	2663.435661
891.544625	2661.918274
891.853353	2661.509941
892.162041	2670.611744
892.470687	2689.417768
892.779293	2700.173070
893.087858	2713.489278
893.396381	2736.847464
893.704864	2776.826335
894.013306	2850.066738
894.321707	2945.639454
894.630068	2997.086949
894.938387	3016.664270
895.246665	3010.559433
895.554903	2963.228039
895.863100	2921.290681
896.171256	2864.181969
896.479371	2803.128555
896.787446	2760.440064
897.095480	2742.811149
897.403473	2734.092474
897.711425	2716.317365
898.019336	2697.216433
898.327207	2683.595236
898.635038	2685.281502
898.942827	2682.793692
899.250576	2671.473781
899.558284	2661.509941
899.865952	2654.664054
900.173579	2651.004176
900.481165	2650.656336
900.788711	2643.064359
901.096216	2636.697381
901.403681	2632.977010
901.711105	2637.186373
902.018489	2630.489200
902.325832	2635.432052
902.633135	2634.799387
902.940397	2651.029382
903.247619	2689.795855
903.554800	2762.454005
903.861941	2893.904612
904.169041	3022.214581
904.476101	3087.764704
904.783121	3081.150710
905.090100	3021.087883
905.397039	2944.550564
905.703938	2867.771271
906.010796	2802.556384
906.317614	2750.909763
906.624391	2713.007848
906.931129	2686.806451
907.237826	2660.821823
907.544483	2647.009062
907.851099	2630.252266
908.157675	2620.447222
908.464211	2612.270470
908.770707	2603.067844
909.077163	2597.414190
909.383578	2594.139961
909.689954	2592.420927
909.996289	2591.904209
910.302584	2587.636872
910.608839	2585.877509
910.915054	2588.183837
911.221229	2588.566965
911.527363	2592.980495
911.833458	2590.858169
912.139513	2591.102665
912.445527	2593.272882
912.751502	2601.404263
913.057436	2602.399891
913.363331	2611.247116
913.669186	2619.433950
913.975000	2636.359624
914.280775	2655.715134
914.586510	2673.507887
914.892205	2711.631613
915.197859	2777.640481
915.503475	2864.481918
915.809050	2934.874070
916.114585	2948.890998
916.420081	2965.267186
916.725536	2972.375213
917.030952	2945.450410
917.336328	2899.162536
917.641665	2849.073631
917.946961	2796.567493
918.252218	2761.816299
918.557435	2731.904613
918.862612	2710.905687
919.167750	2693.796010
919.472848	2675.804132
919.777906	2657.383756
920.082925	2644.375059
920.387904	2634.554891
920.692843	2632.992133
920.997743	2626.506689
921.302603	2619.144084
921.607423	2611.405912
921.912204	2605.167485
922.216946	2605.303596
922.521647	2603.297217
922.826310	2597.013418
923.130932	2593.963520
923.435516	2589.756677
923.740059	2585.771645
924.044564	2584.317272
924.349028	2584.705441
924.653454	2574.141703
924.957840	2572.213462
925.262186	2568.903944
925.566493	2572.412588
925.870761	2562.610064
926.174989	2565.289437
926.479178	2563.507389
926.783328	2563.550239
927.087438	2562.637790
927.391509	2560.238201
927.695541	2559.290464
927.999533	2554.433312
928.303486	2557.210988
928.607400	2557.760474
928.911275	2556.235525
929.215110	2555.388611
929.518906	2556.497665
929.822663	2557.324414
930.126381	2556.263251
930.430060	2556.762325
930.733699	2555.726368
931.037299	2560.644014
931.340861	2556.797613
931.644383	2557.160577
931.947866	2556.800134
932.251309	2558.219219
932.554714	2554.327448
932.858080	2560.437327
933.161407	2555.312994
933.464694	2557.082439
933.767943	2555.275185
934.071153	2552.852911
934.374323	2552.870555
934.677455	2553.457849
934.980548	2555.045812
935.283602	2552.847869
935.586617	2554.143446
935.889593	2553.558672
936.192530	2551.713610
936.495428	2554.650082
936.798287	2554.415668
937.101108	2556.724517
937.403890	2560.018911
937.706632	2561.914385
938.009336	2567.111814
938.312002	2568.470405
938.614628	2570.315468
938.917216	2575.651529
939.219765	2576.095150
939.522275	2576.374934
939.824747	2579.228227
940.127179	2570.844789
940.429573	2569.224058
940.731929	2568.089798
941.034246	2566.211968
941.336524	2568.132648
941.638763	2567.741958
941.940964	2565.465877
942.243126	2563.462019
942.545250	2565.236505
942.847335	2560.800290
943.149381	2561.780794
943.451389	2562.690722
943.753359	2559.928170
944.055290	2558.325083
944.357182	2557.828529
944.659036	2554.808878
944.960851	2559.562686
945.262628	2556.764846
945.564367	2555.083621
945.866067	2556.169990
946.167729	2557.427758
946.469352	2556.714434
946.770937	2558.030176
947.072484	2556.094372
947.373992	2556.467418
947.675462	2554.166131
947.976893	2556.714434
948.278286	2554.277037
948.579641	2555.103786
948.880958	2554.047664
949.182236	2553.414999
949.483476	2555.050854
949.784678	2552.132026
950.085841	2552.694114
950.386967	2554.171172
950.688054	2554.375339
950.989103	2556.301060
951.290114	2554.733261
951.591087	2559.653427
951.892021	2557.679815
952.192917	2558.146122
952.493776	2560.477656
952.794596	2561.750547
953.095378	2560.580999
953.396122	2560.497820
953.696828	2560.147460
953.997496	2557.936914
954.298126	2556.341389
954.598718	2554.811399
954.899272	2552.132026
955.199788	2553.339382
955.500266	2551.801830
955.800706	2548.923331
956.101108	2544.958464
956.401472	2544.986190
956.701798	2542.954605
957.002087	2541.172557
957.302337	2544.910573
957.602550	2543.420912
957.902724	2541.278421
958.202861	2541.870757
958.502960	2542.926879
958.803022	2544.300593
959.103045	2539.312371
959.403031	2544.908052
959.702979	2539.713143
960.002889	2539.330015
960.302762	2539.466127
960.602596	2538.304141
960.902393	2538.334387
961.202153	2538.909079
961.501875	2539.897145
961.801559	2538.294058
962.101205	2540.116435
962.400814	2538.178112
962.700385	2539.342618
962.999918	2538.402443
963.299414	2537.162319
963.598873	2536.759027
963.898293	2536.456558
964.197677	2538.621733
964.497022	2537.147196
964.796331	2536.461599
965.095601	2537.958822
965.394835	2537.058976
965.694030	2535.954963
965.993189	2539.249357
966.292309	2535.140817
966.591393	2536.504449
966.890439	2536.252391
967.189447	2537.996630
967.488419	2537.144675
967.787353	2538.208359
968.086249	2537.424459
968.385108	2537.762217
968.683930	2538.162988
968.982714	2540.156765
969.281462	2540.282793
969.580172	2537.273225
969.878844	2538.052083
970.177480	2537.064017
970.476078	2539.264480
970.774639	2539.705581
971.073162	2539.345139
971.371649	2533.764582
971.670098	2534.356917
971.968510	2537.729449
972.266885	2535.123173
972.565223	2536.774150
972.863524	2538.263811
973.161788	2538.291538
973.460014	2538.001671
973.758204	2541.994265
974.056356	2538.220962
974.354471	2537.273225
974.652550	2538.223482
974.950591	2539.952598
975.248595	2536.869932
975.546563	2537.636188
975.844493	2538.674665
976.142386	2539.221631
976.440243	2537.074099
976.738062	2536.600231
977.035845	2536.466640
977.333590	2535.402957
977.631299	2534.503111
977.928971	2538.059645
978.226606	2535.972607
978.524204	2538.525951
978.821765	2535.733152
979.119290	2539.231713
979.416777	2534.228368
979.714228	2536.615354
980.011642	2535.728111
980.309020	2539.239275
980.606360	2536.461599
980.903664	2538.294058
981.200931	2535.302133
981.498162	2534.850950
981.795356	2538.508307
982.092513	2544.499719
982.389633	2546.828732
982.686717	2551.375852
982.983764	2550.765873
983.280775	2555.368446
983.577749	2551.743857
983.874686	2551.723692
984.171587	2551.368291
984.468451	2547.264792
984.765279	2544.265305
985.062070	2540.605427
985.358824	2544.237579
985.655543	2540.376055
985.952224	2537.749614
986.248869	2539.032587
986.545478	2530.770136
986.842050	2533.976310
987.138586	2529.391381
987.435086	2533.073943
987.731549	2529.797193
988.027975	2535.037473
988.324366	2534.840868
988.620719	2532.743748
988.917037	2534.001516
989.213318	2534.422452
989.509563	2533.139478
989.805772	2532.262318
990.101944	2533.986392
990.398080	2532.610157
990.694180	2532.335414
990.990244	2535.566794
991.286271	2532.768954
991.582262	2532.337935
991.878217	2533.555374
992.174136	2534.286341
992.470019	2535.198790
992.765865	2532.779036
993.061676	2535.067720
993.357450	2533.666279
993.653188	2533.449509
993.948890	2533.361289
994.244556	2535.932278
994.540186	2534.732483
994.835780	2536.317926
995.131337	2536.615354
995.426859	2536.257432
995.722345	2534.520755
996.017795	2536.322967
996.313208	2539.027546
996.608586	2537.396733
996.903928	2537.978986
997.199234	2539.297248
997.494504	2536.156609
997.789738	2534.684592
998.084936	2535.173584
998.380099	2535.599562
998.675225	2534.440096
998.970316	2535.274407
999.265371	2535.765920
999.560390	2534.883718
999.855373	2536.985879
1000.150320	2533.618388
1000.445232	2534.271218
1000.740108	2532.456402
1001.034948	2533.610826
1001.329752	2532.330373
1001.624521	2529.305681
1001.919254	2527.072450
1002.213951	2529.305681
1002.508613	2529.645959
1002.803239	2531.554036
1003.097829	2528.050434
1003.392384	2530.359282
1003.686903	2531.483459
1003.981386	2532.237112
1004.275834	2528.710825
1004.570246	2531.354910
1004.864623	2533.807431
1005.158964	2531.952287
1005.453270	2532.121165
1005.747540	2529.711494
1006.041775	2531.087729
1006.335974	2534.961856
1006.630138	2532.579910
1006.924266	2531.231402
1007.218359	2531.735517
1007.512416	2533.535209
1007.806438	2530.397091
1008.100425	2532.358100
1008.394376	2532.206865
1008.688292	2530.079498
1008.982172	2532.647966
1009.276017	2534.929088
1009.569827	2527.795855
1009.863602	2531.574200
1010.157341	2529.882893
1010.451045	2531.987575
1010.744714	2531.470857
1011.038347	2530.913809
1011.331945	2530.127389
1011.625508	2530.805424
1011.919036	2531.712832
1012.212528	2528.846936
1012.505986	2530.137471
1012.799408	2530.918850
1013.092795	2528.128572
1013.386147	2532.128727
1013.679464	2533.336083
1013.972745	2530.334076
1014.265992	2530.616381
1014.559204	2532.043028
1014.852380	2529.421627
1015.145521	2529.953469
1015.438628	2528.373068
1015.731699	2531.601927
1016.024736	2529.691329
1016.317737	2530.729807
1016.610703	2531.480939
1016.903635	2530.197965
1017.196531	2528.615043
1017.489393	2529.930784
1017.782219	2528.733510
1018.075011	2528.541946
1018.367768	2527.884076
1018.660490	2531.758202
1018.953177	2531.758202
1019.245829	2531.758202
