Dividing Wavelength (nm)	Counts (n)	Blue Motor Position (mm): 8.100000	Red Motor Position (mm): 0.000000	
326.493990	2140.264715
326.888308	2140.264715
327.282561	2140.264715
327.676750	2109.044849
328.070874	2109.349839
328.464933	2109.339757
328.858929	2117.216560
329.252859	2125.693260
329.646726	2139.062400
330.040528	2151.624955
330.434265	2170.907369
330.827938	2185.267096
331.221547	2204.272246
331.615091	2221.681870
332.008571	2239.361197
332.401986	2263.147881
332.795338	2280.134049
333.188625	2299.212296
333.581847	2316.994966
333.975006	2336.000116
334.368100	2354.150791
334.761129	2370.960518
335.154095	2389.839639
335.546996	2405.683986
335.939833	2423.499423
336.332606	2437.619695
336.725315	2450.250306
337.117960	2459.939404
337.510540	2468.436269
337.903056	2480.761890
338.295508	2485.651809
338.687896	2494.027686
339.080220	2503.537823
339.472480	2508.702485
339.864676	2514.948475
340.256807	2517.330420
340.648875	2520.589526
341.040879	2523.828467
341.432818	2525.164373
341.824694	2528.201668
342.216506	2525.297964
342.608253	2527.750485
342.999937	2528.426000
343.391557	2528.189065
343.783113	2523.989784
344.174605	2524.733354
344.566033	2522.129598
344.957397	2521.691018
345.348697	2518.598270
345.739934	2518.436953
346.131106	2515.823115
346.522215	2513.753721
346.913260	2510.189626
347.304241	2511.666684
347.695159	2507.318688
348.086012	2507.583349
348.476802	2503.421877
348.867528	2505.443379
349.258191	2503.920951
349.648789	2500.984479
350.039324	2498.254694
350.429796	2499.116731
350.820203	2496.018942
351.210548	2497.201093
351.600828	2494.264621
351.991045	2493.795793
352.381198	2494.055413
352.771288	2493.639518
353.161314	2491.771770
353.551276	2495.769405
353.941175	2493.994919
354.331010	2493.911740
354.720782	2492.774960
355.110490	2493.415186
355.500135	2491.897799
355.889717	2495.272851
356.279235	2490.700525
356.668689	2497.024652
357.058080	2493.639518
357.447408	2491.544918
357.836672	2490.791266
358.225873	2495.051041
358.615010	2492.250680
359.004084	2495.487100
359.393095	2495.784528
359.782043	2498.400887
360.170927	2498.206803
360.559748	2495.935763
360.948505	2499.454488
361.337199	2501.748213
361.725830	2497.748058
362.114398	2496.979282
362.502903	2500.455158
362.891344	2500.434993
363.279722	2502.302740
363.668037	2502.388440
364.056289	2501.740652
364.444478	2503.520179
364.832603	2504.099912
365.220665	2502.252329
365.608665	2506.083606
365.996601	2504.160406
366.384474	2506.101250
366.772284	2506.355828
367.160031	2505.791219
367.547715	2505.229130
367.935336	2505.803822
368.322893	2507.303565
368.710388	2505.657628
369.097820	2508.906652
369.485189	2507.953874
369.872495	2506.237361
370.259738	2508.737773
370.646918	2508.437825
371.034035	2509.146107
371.421090	2508.800788
371.808081	2507.681652
372.195010	2506.076044
372.581875	2510.539986
372.968678	2508.521004
373.355418	2509.836745
373.742096	2510.355984
374.128710	2508.878926
374.515262	2513.398320
374.901751	2508.117711
375.288177	2511.588546
375.674540	2509.887156
376.060841	2509.476302
376.447079	2512.639626
376.833254	2510.787002
377.219367	2506.234840
377.605417	2510.608041
377.991404	2509.118380
378.377329	2509.945130
378.763191	2508.480674
379.148991	2516.276819
379.534727	2514.678773
379.920402	2516.677591
380.306013	2514.114164
380.691563	2513.499143
381.077049	2515.364370
381.462474	2515.533249
381.847835	2513.484020
382.233134	2515.729854
382.618371	2515.308917
383.003545	2515.079545
383.388657	2515.838238
383.773706	2515.392096
384.158693	2514.414113
384.543618	2513.143742
384.928480	2515.104751
385.313280	2516.435615
385.698017	2516.604494
386.082692	2517.859741
386.467305	2517.955523
386.851856	2514.976201
387.236344	2517.471572
387.620770	2517.002745
388.005133	2515.964267
388.389435	2520.072808
388.773674	2516.377642
389.157851	2518.142046
389.541965	2517.716068
389.926018	2517.378311
390.310008	2520.098013
390.693936	2518.477283
391.077802	2518.956192
391.461606	2518.578106
391.845348	2521.275123
392.229027	2518.043743
392.612645	2518.137005
392.996200	2521.456604
393.379694	2520.622293
393.763125	2520.970133
394.146494	2522.616070
394.529801	2522.101872
394.913047	2523.508354
395.296230	2521.116327
395.679351	2521.791841
396.062410	2523.803262
396.445408	2522.951307
396.828343	2522.411903
397.211217	2518.106758
397.594028	2519.810668
397.976778	2517.045595
398.359466	2524.657737
398.742092	2518.666326
399.124656	2522.149763
399.507158	2524.216636
399.889598	2523.367202
400.271977	2523.465504
400.654294	2524.745957
401.036549	2522.752181
401.418742	2525.638242
401.800874	2524.652696
402.182944	2524.695546
402.564952	2525.053468
402.946898	2524.824095
403.328783	2524.395597
403.710606	2522.600946
404.092367	2525.539939
404.474067	2525.222346
404.855705	2525.703777
405.237282	2525.073632
405.618797	2526.747295
406.000250	2525.355937
406.381642	2525.918026
406.762972	2526.205371
407.144240	2524.650175
407.525447	2528.241997
407.906593	2527.853829
408.287677	2526.996833
408.668700	2527.211082
409.049661	2528.042872
409.430560	2525.350896
409.811399	2525.587830
410.192176	2528.494055
410.572891	2530.092101
410.953545	2527.644621
411.334138	2529.877852
411.714669	2528.660413
412.095139	2529.522451
412.475547	2526.994312
412.855894	2526.848118
413.236180	2527.047244
413.616405	2529.109076
413.996568	2529.542615
414.376670	2530.528161
414.756711	2529.028418
415.136691	2532.174098
415.516609	2528.481452
415.896466	2529.444313
416.276262	2531.032276
416.655997	2531.412883
417.035670	2526.820392
417.415283	2526.885927
417.794834	2527.294261
418.174324	2528.390712
418.553753	2531.901875
418.933121	2529.456916
419.312428	2534.177956
419.691674	2530.061854
420.070859	2532.136289
420.449983	2533.177287
420.829045	2534.535878
421.208047	2533.691485
421.586988	2533.331042
421.965867	2530.490352
422.344686	2536.106197
422.723444	2533.419262
423.102141	2531.249046
423.480777	2533.179808
423.859352	2532.912627
424.237866	2531.715353
424.616319	2533.520086
424.994712	2533.051258
425.373044	2534.155271
425.751314	2532.668131
426.129524	2532.932791
426.507673	2533.484797
426.885762	2536.370858
427.263789	2534.954294
427.641756	2531.853984
428.019662	2538.846065
428.397508	2532.960518
428.775292	2536.015457
429.153016	2532.738707
429.530679	2535.279448
429.908282	2533.560415
430.285824	2536.948070
430.663305	2535.135775
431.040726	2534.235929
431.418086	2534.437576
431.795385	2534.210724
432.172624	2535.254242
432.549802	2535.985210
432.926920	2535.526465
433.303977	2534.951773
433.680974	2535.816331
434.057910	2536.809438
434.434786	2533.066382
434.811601	2536.305323
435.188355	2533.958666
435.565050	2534.359438
435.941683	2537.870601
436.318257	2533.068902
436.694770	2532.461443
437.071222	2536.131403
437.447614	2533.273069
437.823946	2532.796680
438.200218	2538.876312
438.576429	2537.217772
438.952580	2536.408667
439.328670	2536.809438
439.704700	2537.036290
440.080670	2537.563091
440.456580	2537.449665
440.832429	2537.091743
441.208218	2539.708102
441.583947	2538.815818
441.959616	2537.648791
442.335224	2537.144675
442.710773	2539.536703
443.086261	2540.539892
443.461689	2538.586445
443.837057	2538.783050
444.212365	2537.779861
444.587612	2540.209697
444.962800	2538.536034
445.337927	2538.462937
445.712995	2539.156096
446.088002	2538.399923
446.462949	2540.134079
446.837837	2538.546116
447.212664	2536.615354
447.587431	2540.408822
447.962139	2542.238761
448.336786	2538.200797
448.711374	2539.551826
449.085901	2538.513348
449.460369	2537.109387
449.834776	2540.257588
450.209124	2538.077289
450.583412	2540.244985
450.957640	2541.588452
451.331808	2539.599717
451.705917	2541.734646
452.079965	2540.325643
452.453954	2539.892104
452.827883	2539.758513
453.201752	2541.195242
453.575562	2541.933771
453.949311	2540.328164
454.323001	2542.047197
454.696632	2540.401261
455.070202	2541.003678
455.443713	2538.790612
455.817164	2538.566281
456.190556	2534.598892
456.563888	2538.924203
456.937160	2536.759027
457.310373	2540.524769
457.683526	2540.048380
458.056619	2542.773123
458.429653	2540.703730
458.802628	2543.952753
459.175542	2538.896476
459.548398	2541.462423
459.921194	2541.238092
460.293930	2544.358566
460.666607	2541.245654
461.039224	2541.114584
461.411782	2544.464431
461.784280	2539.632485
462.156719	2543.645243
462.529099	2540.287835
462.901419	2542.289173
463.273680	2543.877136
463.645882	2545.278577
464.018024	2545.187836
464.390106	2544.282949
464.762130	2541.293545
465.134094	2543.355377
465.505999	2544.615665
465.877845	2542.218597
466.249631	2542.924358
466.621358	2542.498381
466.993026	2545.386962
467.364634	2548.943496
467.736184	2543.617517
468.107674	2541.616179
468.479105	2544.575336
468.850477	2544.724050
469.221790	2545.069369
469.593043	2546.836293
469.964238	2541.805222
470.335373	2543.151210
470.706449	2543.783875
471.077467	2543.448638
471.448425	2544.517363
471.819324	2545.061807
472.190164	2544.527445
472.560945	2542.604245
472.931667	2543.869574
473.302330	2543.274718
473.672934	2544.401416
474.043479	2546.954761
474.413965	2546.692621
474.784393	2539.471168
475.154761	2543.143648
475.525070	2539.849254
475.895321	2547.733619
476.265513	2540.731456
476.635645	2542.705068
477.005719	2542.992414
477.375734	2543.393185
477.745691	2545.286139
478.115588	2543.872095
478.485427	2543.219266
478.855207	2545.875954
479.224928	2542.364790
479.594591	2543.252033
479.964194	2544.701365
480.333739	2541.790098
480.703226	2545.598690
481.072653	2545.845707
481.442022	2544.933258
481.811333	2546.758156
482.180584	2546.211190
482.549777	2547.103475
482.918912	2542.994934
483.287988	2548.414175
483.657005	2545.694472
484.025964	2545.933927
484.394864	2546.032229
484.763706	2548.078938
485.132489	2546.097764
485.501213	2546.811088
485.869879	2545.717157
486.238487	2545.079451
486.607036	2545.543238
486.975527	2546.780841
487.343959	2546.291849
487.712333	2546.319575
488.080648	2545.480223
488.448905	2547.436191
488.817104	2544.655994
489.185244	2547.068187
489.553326	2545.195398
489.921350	2545.626417
490.289315	2546.470810
490.657222	2547.831921
491.025070	2546.964843
491.392861	2547.708413
491.760593	2543.466282
492.128267	2546.720347
492.495883	2545.321427
492.863440	2548.756973
493.230939	2544.358566
493.598380	2546.954761
493.965763	2541.822866
494.333088	2543.620037
494.700354	2541.444779
495.067563	2545.298742
495.434713	2541.631302
495.801805	2548.948537
496.168839	2547.007693
496.535815	2546.962322
496.902733	2547.542055
497.269593	2547.673125
497.636395	2547.025337
498.003139	2549.596325
498.369825	2546.369987
498.736453	2547.163968
499.103023	2545.996941
499.469535	2545.250851
499.835989	2547.632796
500.202385	2550.518856
500.568723	2549.429967
500.935003	2545.694472
501.301226	2548.265461
501.667390	2546.226314
502.033497	2547.342929
502.399546	2546.783361
502.765537	2547.073228
503.131470	2550.599515
503.497345	2547.534493
503.863163	2548.603218
504.228923	2548.444422
504.594625	2547.705893
504.960269	2547.436191
505.325856	2549.054401
505.691385	2545.749925
506.056856	2547.237065
506.422270	2548.668753
506.787625	2548.094061
507.152924	2549.109854
507.518164	2548.333516
507.883347	2548.106664
508.248472	2548.676315
508.613540	2544.114070
508.978550	2550.634803
509.343503	2547.935265
509.708398	2548.421736
510.073236	2547.794113
510.438016	2550.208825
510.802738	2550.465924
511.167403	2548.167158
511.532010	2547.355532
511.896561	2548.809905
512.261053	2546.793444
512.625488	2546.710265
512.989866	2546.173382
513.354186	2546.921993
513.718449	2545.051725
514.082655	2548.139432
514.446803	2547.509287
514.810894	2546.795964
515.174927	2550.685214
515.538904	2546.107847
515.902822	2548.099102
516.266684	2549.805533
516.630488	2549.669422
516.994235	2550.932231
517.357925	2550.465924
517.721558	2549.777807
518.085133	2549.576161
518.448651	2549.326623
518.812112	2550.654967
519.175516	2548.424257
519.538863	2547.461397
519.902152	2547.438711
520.265385	2550.851572
520.628560	2551.106151
520.991678	2547.073228
521.354739	2550.972560
521.717743	2547.683207
522.080690	2548.293187
522.443580	2552.429454
522.806413	2549.966850
523.169189	2547.794113
523.531908	2549.800492
523.894569	2547.201777
524.257174	2549.440049
524.619722	2551.330482
524.982213	2549.210677
525.344647	2551.176727
525.707025	2552.656306
526.069345	2549.770245
526.431608	2548.777138
526.793815	2549.835780
527.155964	2553.392314
527.518057	2549.210677
527.880093	2553.344423
528.242072	2547.514329
528.603995	2553.072201
528.965860	2549.893753
529.327669	2550.949875
529.689421	2550.793599
530.051117	2551.701007
530.412755	2547.350491
530.774337	2551.912735
531.135862	2551.690925
531.497331	2548.068856
531.858743	2546.526262
532.220098	2550.765873
532.581396	2545.160110
532.942638	2546.556509
533.303824	2551.224618
533.664953	2550.455842
534.026025	2550.748229
534.387040	2551.469114
534.747999	2551.683363
535.108902	2552.767211
535.469748	2550.511295
535.830537	2550.728064
536.191270	2550.380225
536.551947	2552.558003
536.912567	2552.479865
537.273131	2553.462890
537.633638	2552.089176
537.994089	2552.505071
538.354483	2551.373332
538.714821	2553.117571
539.075103	2550.239072
539.435328	2552.535318
539.795497	2549.803013
540.155609	2553.760318
540.515665	2554.246790
540.875665	2551.484237
541.235609	2552.255534
541.595496	2553.472972
541.955328	2555.222253
542.315102	2550.372663
542.674821	2554.173693
543.034483	2554.607232
543.394090	2554.156049
543.753640	2553.518343
544.113134	2555.186965
544.472571	2553.369629
544.831953	2552.232849
545.191278	2556.290977
545.550548	2554.599670
545.909761	2555.512119
546.268918	2553.730071
546.628019	2555.219732
546.987064	2553.553631
547.346053	2555.680998
547.704986	2556.175031
548.063863	2555.237376
548.422684	2555.645710
548.781449	2556.699311
549.140158	2554.944989
549.498811	2557.475649
549.857408	2556.739640
550.215949	2554.466080
550.574434	2550.697817
550.932864	2552.734443
551.291237	2551.269988
551.649555	2555.991029
552.007817	2554.534135
552.366022	2556.258210
552.724173	2555.607901
553.082267	2558.970351
553.440305	2556.177552
553.798288	2558.383056
554.156215	2555.522202
554.514086	2558.330124
554.871902	2556.159908
555.229661	2556.212840
555.587365	2556.306101
555.945014	2559.938252
556.302606	2556.273333
556.660143	2557.256358
557.017625	2556.364074
557.375050	2555.512119
557.732421	2556.434650
558.089735	2554.655123
558.446994	2558.075546
558.804197	2559.124106
559.161345	2556.636297
559.518437	2555.764177
559.875474	2556.056564
560.232455	2558.856925
560.589381	2553.878785
560.946251	2560.875907
561.303065	2556.207798
561.659825	2556.810216
562.016528	2557.826009
562.373177	2553.868703
562.729770	2558.824157
563.086307	2557.185782
563.442789	2554.884496
563.799216	2559.003118
564.155587	2555.194527
564.511904	2553.498178
564.868164	2553.268806
565.224370	2560.396997
565.580520	2557.856256
565.936615	2553.777962
566.292654	2558.589744
566.648638	2558.206616
567.004567	2555.471790
567.360441	2554.874413
567.716260	2555.262582
568.072023	2558.746019
568.427732	2551.852242
568.783385	2553.188147
569.138982	2553.876265
569.494525	2556.679146
569.850013	2553.394835
570.205445	2557.029507
570.560823	2553.891388
570.916145	2555.597819
571.271412	2554.919784
571.626625	2559.255176
571.981782	2555.638148
572.336884	2555.723848
572.691931	2555.439023
573.046923	2556.883313
573.401860	2555.328117
573.756743	2555.446584
574.111570	2556.311142
574.466342	2557.989846
574.821059	2554.735782
575.175722	2557.105124
575.530330	2556.812737
575.884882	2555.055895
576.239380	2555.922973
576.593823	2556.386759
576.948211	2554.024979
577.302544	2557.198385
577.656823	2553.757798
578.011047	2558.882131
578.365216	2556.409445
578.719330	2553.873744
579.073389	2555.655792
579.427394	2554.115720
579.781344	2555.189485
580.135239	2557.546225
580.489080	2553.651933
580.842866	2554.892057
581.196597	2559.688715
581.550273	2555.408776
581.903895	2553.709907
582.257463	2555.834753
582.610975	2554.594629
582.964434	2553.861141
583.317837	2554.713096
583.671186	2551.471634
584.024481	2554.214022
584.377721	2555.645710
584.730906	2554.939948
585.084037	2555.249979
585.437113	2553.553631
585.790135	2555.217212
586.143103	2553.372149
586.496016	2551.927859
586.848874	2548.822508
587.201679	2548.787220
587.554428	2549.734957
587.907124	2551.559855
588.259765	2550.496171
588.612352	2555.144115
588.964884	2554.529094
589.317362	2556.422048
589.669786	2552.605894
590.022155	2551.769063
590.374470	2557.021945
590.726731	2554.196378
591.078937	2555.318035
591.431090	2554.042623
591.783188	2555.194527
592.135232	2555.204609
592.487222	2554.942469
592.839157	2550.458363
593.191038	2555.330638
593.542866	2553.283929
593.894639	2553.846018
594.246358	2554.844166
594.598022	2554.027499
594.949633	2553.351985
595.301190	2550.783517
595.652692	2556.263251
596.004141	2553.732592
596.355535	2554.735782
596.706876	2554.952551
597.058162	2555.494475
597.409395	2550.901984
597.760573	2551.990873
598.111698	2553.722510
598.462768	2553.795606
598.813785	2553.455328
599.164748	2556.041440
599.515657	2555.189485
599.866511	2554.597150
600.217312	2551.149001
600.568060	2554.955072
600.918753	2555.018086
601.269392	2554.947510
601.619978	2556.469938
601.970510	2553.326779
602.320988	2552.530277
602.671412	2555.764177
603.021783	2552.409289
603.372100	2553.024310
603.722363	2552.056408
604.072572	2554.271995
604.422728	2555.023127
604.772830	2550.589433
605.122878	2547.413506
605.472872	2552.192519
605.822813	2546.617003
606.172701	2555.839794
606.522534	2553.699824
606.872314	2555.315514
607.222041	2553.120092
607.571714	2552.454659
607.921333	2551.688404
608.270899	2555.096224
608.620411	2554.617314
608.969870	2557.883982
609.319276	2557.465566
609.668627	2558.292316
610.017926	2560.530588
610.367171	2560.684343
610.716362	2560.175187
611.065500	2559.076215
611.414585	2559.340876
611.763616	2556.810216
612.112594	2557.153015
612.461518	2556.696790
612.810389	2555.504557
613.159207	2555.877603
613.507971	2553.752757
613.856682	2559.255176
614.205340	2555.093703
614.553945	2556.336348
614.902496	2553.125133
615.250994	2559.424055
615.599439	2554.224104
615.947830	2556.006152
616.296169	2555.486913
616.644454	2555.038251
616.992686	2554.544218
617.340864	2557.609239
617.688990	2556.091852
618.037063	2554.430792
618.385082	2555.035730
618.733048	2554.360216
619.080961	2555.449105
619.428821	2556.336348
619.776628	2552.782334
620.124382	2554.375339
620.472083	2556.994218
620.819731	2552.366439
621.167326	2555.935576
621.514868	2554.660164
621.862357	2553.861141
622.209793	2555.776780
622.557176	2557.130330
622.904506	2553.082283
623.251783	2550.753270
623.599007	2553.548590
623.946179	2551.514484
624.293297	2550.559186
624.640363	2558.551935
624.987376	2554.110678
625.334336	2552.225287
625.681243	2552.147149
626.028097	2554.864331
626.374899	2554.148487
626.721647	2555.718807
627.068343	2554.271995
627.414987	2555.008004
627.761577	2557.750392
628.108115	2554.642520
628.454600	2555.433981
628.801032	2554.637479
629.147412	2554.650082
629.493739	2555.222253
629.840014	2554.864331
630.186236	2558.284754
630.532405	2556.785011
630.878521	2555.857438
631.224585	2555.549928
631.570597	2556.036399
631.916556	2556.603529
632.262462	2556.613611
632.608316	2557.014383
632.954117	2554.496327
633.299866	2555.101265
633.645562	2554.708055
633.991206	2558.690567
634.336797	2555.736451
634.682336	2557.687377
635.027823	2554.869372
635.373257	2553.893909
635.718639	2555.479352
636.063968	2556.931204
636.409245	2554.219063
636.754470	2556.815258
637.099642	2555.638148
637.444762	2556.001111
637.789829	2554.448436
638.134845	2556.404403
638.479808	2556.575803
638.824719	2554.516491
639.169577	2556.154866
639.514383	2553.546069
639.859137	2557.286605
640.203839	2559.751730
640.548489	2554.786193
640.893086	2552.063970
641.237632	2553.362067
641.582125	2554.524053
641.926566	2553.127653
642.270955	2556.212840
642.615292	2556.379198
642.959576	2558.907336
643.303809	2554.912222
643.647990	2557.452963
643.992118	2556.089331
644.336195	2560.260886
644.680219	2555.812068
645.024192	2557.949517
645.368112	2558.166287
645.711981	2556.298539
646.055797	2556.424568
646.399562	2557.773077
646.743274	2558.216698
647.086935	2556.994218
647.430544	2561.226267
647.774101	2559.103941
648.117606	2561.138047
648.461059	2560.855742
648.804460	2560.006308
649.147810	2560.916236
649.491108	2561.259035
649.834354	2559.214847
650.177548	2557.039589
650.520690	2557.021945
650.863781	2557.972202
651.206820	2561.495969
651.549807	2556.560679
651.892742	2558.239383
652.235626	2560.344065
652.578458	2559.696277
652.921238	2559.255176
653.263967	2561.674930
653.606644	2559.295505
653.949269	2560.870866
654.291843	2557.032027
654.634365	2561.848850
654.976836	2561.828685
655.319255	2561.904302
655.661622	2561.984961
656.003938	2565.420507
656.346203	2564.707184
656.688416	2562.060578
657.030577	2562.574776
657.372687	2562.337842
657.714746	2561.838767
658.056753	2563.136864
658.398708	2559.986143
658.740612	2558.597305
659.082465	2558.771225
659.424266	2559.061092
659.766016	2559.345917
660.107715	2567.207596
660.449362	2565.843964
660.790958	2564.480332
661.132503	2565.385219
661.473996	2565.884293
661.815438	2566.980744
662.156829	2569.241702
662.498168	2567.131979
662.839456	2568.540981
663.180693	2570.549881
663.521879	2568.808163
663.863013	2569.506362
664.204097	2568.598955
664.545129	2570.265056
664.886110	2569.516445
665.227040	2572.788153
665.567918	2573.133472
665.908746	2574.852506
666.249522	2575.369224
666.590248	2576.695048
666.930922	2573.577094
667.271545	2577.368042
667.612118	2579.631520
667.952639	2579.520614
668.293109	2579.591191
668.633528	2577.065572
668.973896	2577.909966
669.314213	2578.772003
669.654480	2581.373238
669.994695	2580.785944
670.334859	2578.265367
670.674973	2581.637899
671.015035	2583.074628
671.355047	2582.862899
671.695008	2585.416244
672.034918	2583.147725
672.374777	2585.814495
672.714585	2585.320462
673.054342	2586.767273
673.394049	2588.624938
673.733705	2591.949579
674.073310	2593.217429
674.412864	2593.794642
674.752368	2594.447471
675.091820	2594.402101
675.431223	2591.647110
675.770574	2594.505444
676.109875	2593.955958
676.449125	2591.810947
676.788324	2593.338417
677.127473	2594.190372
677.466571	2589.406317
677.805619	2599.927205
678.144616	2600.829572
678.483562	2600.428800
678.822458	2597.706577
679.161303	2600.743872
679.500098	2601.782350
679.838842	2599.791094
680.177535	2600.232195
680.516179	2602.566249
680.854771	2605.512804
681.193314	2609.124790
681.531805	2614.334823
681.870247	2620.338837
682.208638	2621.982253
682.546978	2621.495782
682.885268	2621.546193
683.223508	2624.326390
683.561697	2623.736575
683.899836	2624.210443
684.237925	2623.918056
684.575963	2623.832357
684.913951	2629.531381
685.251889	2630.983233
685.589776	2630.287554
685.927614	2632.876187
686.265401	2638.396250
686.603137	2636.205869
686.940824	2643.200470
687.278460	2645.468989
687.616046	2650.918476
687.953582	2655.087511
688.291068	2657.343427
688.628504	2664.259890
688.965889	2661.419200
689.303224	2661.678819
689.640510	2662.034221
689.977745	2661.711587
690.314930	2658.172697
690.652065	2658.235711
690.989150	2653.464259
691.326185	2649.859834
691.663170	2651.238590
692.000105	2649.217087
692.336990	2644.838845
692.673825	2649.320431
693.010610	2646.038639
693.347345	2637.488842
693.684030	2644.879174
694.020665	2642.547640
694.357251	2637.975314
694.693786	2640.067393
695.030272	2641.567136
695.366707	2643.283649
695.703093	2638.381127
696.039429	2646.048722
696.375716	2644.675007
696.711952	2644.301962
697.048139	2641.304996
697.384276	2646.953609
697.720363	2648.680204
698.056400	2653.897798
698.392388	2652.357726
698.728326	2650.391676
699.064214	2649.363280
699.400053	2652.481234
699.735842	2654.681698
700.071581	2650.636172
700.407270	2651.089876
700.742910	2648.541572
701.078501	2649.131387
701.414042	2651.720020
701.749533	2653.923004
702.084974	2643.099647
702.420366	2653.575164
702.755709	2651.188178
703.091002	2644.380100
703.426246	2654.903508
703.761440	2648.168527
704.096584	2643.558392
704.431679	2651.470483
704.766725	2652.982829
705.101721	2653.696152
705.436668	2658.286123
705.771565	2646.998979
706.106413	2652.118271
706.441212	2660.768891
706.775961	2663.833912
707.110661	2657.368633
707.445311	2661.333500
707.779913	2672.229954
708.114465	2673.515448
708.448967	2675.110974
708.783421	2680.910821
709.117825	2686.302335
709.452180	2690.168900
709.786485	2690.453725
710.120742	2699.202648
710.454949	2697.017308
710.789107	2705.342773
711.123216	2710.583053
711.457275	2710.840152
711.791286	2723.997563
712.125247	2733.661455
712.459159	2715.528425
712.793023	2721.623180
713.126837	2732.144068
713.460602	2733.979048
713.794318	2721.590412
714.127985	2724.852039
714.461602	2720.360371
714.795171	2714.005996
715.128691	2713.227138
715.462162	2710.673793
715.795584	2708.979966
716.128957	2711.082127
716.462281	2699.989068
716.795556	2698.257432
717.128782	2704.518545
717.461960	2697.793645
717.795088	2701.798842
718.128167	2697.004705
718.461198	2686.675381
718.794180	2691.204857
719.127113	2695.089066
719.459997	2695.323480
719.792833	2686.193950
720.125619	2681.908970
720.458357	2686.496420
720.791046	2690.831812
721.123686	2686.236800
721.456278	2684.553055
721.788821	2689.170752
722.121315	2688.490196
722.453761	2681.304031
722.786158	2692.518078
723.118506	2693.927080
723.450805	2683.081038
723.783056	2685.284022
724.115259	2695.273068
724.447412	2695.141998
724.779518	2693.385156
725.111574	2697.236598
725.443582	2700.508307
725.775542	2702.479398
726.107453	2709.360573
726.439315	2716.324927
726.771129	2715.893908
727.102895	2717.348281
727.434612	2730.301526
727.766281	2730.268758
728.097901	2726.160218
728.429473	2727.019735
728.760996	2731.128275
729.092471	2726.939076
729.423897	2733.071640
729.755276	2740.167064
730.086606	2737.023905
730.417887	2736.507186
730.749120	2750.889598
731.080305	2769.922475
731.411442	2770.350973
731.742530	2760.014087
732.073570	2764.306629
732.404562	2777.108639
732.735506	2779.483023
733.066401	2772.942126
733.397249	2762.199427
733.728048	2752.023858
734.058798	2752.767428
734.389501	2744.270563
734.720156	2726.535784
735.050762	2724.826833
735.381320	2734.609192
735.711831	2718.785010
736.042293	2719.241234
736.372707	2729.177349
736.703073	2723.012017
737.033391	2716.289639
737.363661	2722.124774
737.693883	2731.687843
738.024056	2734.306723
738.354182	2725.973695
738.684260	2742.027250
739.014290	2742.155799
739.344272	2739.126066
739.674207	2749.785586
740.004093	2752.717017
740.333931	2751.330699
740.663722	2755.325814
740.993464	2757.773294
741.323159	2754.481420
741.652806	2750.103178
741.982405	2749.591501
742.311956	2746.120667
742.641460	2744.784761
742.970915	2740.656056
743.300323	2737.704460
743.629683	2728.915209
743.958996	2731.042576
744.288260	2730.961917
744.617477	2725.313304
744.946647	2720.927500
745.275768	2720.045298
745.604842	2724.544528
745.933869	2709.781509
746.262847	2707.034080
746.591778	2727.430589
746.920662	2718.049002
747.249498	2708.823690
747.578286	2725.701473
747.907027	2725.948490
748.235720	2715.649412
748.564365	2733.903430
748.892963	2738.919378
749.221514	2732.139027
749.550017	2726.913871
749.878473	2730.117524
750.206881	2724.700804
750.535242	2727.296998
750.863555	2727.198696
751.191821	2727.203737
751.520039	2720.229301
751.848210	2713.453990
752.176334	2728.506875
752.504411	2732.943091
752.832440	2723.702656
753.160421	2716.491285
753.488356	2723.347254
753.816243	2734.218502
754.144082	2718.074207
754.471875	2712.443238
754.799620	2725.666185
755.127318	2716.365256
755.454969	2719.823488
755.782572	2727.702811
756.110129	2714.459700
756.437638	2716.697972
756.765100	2724.957903
757.092515	2728.887482
757.419882	2732.116341
757.747203	2721.718962
758.074477	2720.025134
758.401703	2727.972513
758.728882	2735.798904
759.056014	2735.196486
759.383099	2734.243708
759.710138	2729.966289
760.037129	2731.498800
760.364073	2747.406161
760.690970	2745.198136
761.017820	2735.607340
761.344623	2742.685120
761.671379	2751.658374
761.998088	2763.074067
762.324751	2796.010446
762.651366	2831.621157
762.977935	2915.788261
763.304456	3012.608662
763.630931	3055.564334
763.957359	2977.701192
764.283740	2912.420770
764.610074	2885.609394
764.936362	2853.930783
765.262602	2811.622899
765.588796	2790.969292
765.914943	2771.717125
766.241044	2747.254926
766.567097	2744.716705
766.893104	2735.400653
767.219064	2728.910167
767.544978	2726.760115
767.870845	2707.238247
768.196665	2699.290868
768.522438	2712.087837
768.848165	2712.652446
769.173846	2705.927547
769.499479	2700.011753
769.825066	2695.268027
770.150607	2691.393901
770.476101	2699.527802
770.801548	2702.376054
771.126949	2684.643796
771.452303	2678.768331
771.777611	2687.522294
772.102872	2691.083870
772.428087	2685.150432
772.753256	2685.077335
773.078378	2680.338650
773.403453	2674.203566
773.728482	2669.815242
774.053465	2678.909483
774.378401	2676.802281
774.703291	2663.443223
775.028135	2669.419511
775.352932	2664.973213
775.677683	2662.603871
776.002388	2666.835920
776.327046	2666.394819
776.651658	2661.278047
776.976224	2655.727737
777.300743	2661.003305
777.625216	2656.183962
777.949643	2656.995587
778.274024	2658.291164
778.598359	2652.428302
778.922647	2655.052222
779.246889	2654.875782
779.571086	2650.139618
779.895236	2649.262457
780.219339	2654.260761
780.543397	2661.630928
780.867409	2659.155722
781.191374	2660.088335
781.515294	2659.942142
781.839167	2657.025834
782.162995	2653.423930
782.486776	2659.090187
782.810511	2658.994405
783.134201	2654.916111
783.457844	2660.257214
783.781441	2658.507933
784.104993	2647.198105
784.428498	2648.624751
784.751958	2656.146153
785.075372	2653.590288
785.398739	2648.773465
785.722061	2656.990546
786.045337	2663.249139
786.368568	2652.304794
786.691752	2650.215235
787.014891	2671.143586
787.337983	2676.812363
787.661030	2674.006961
787.984031	2693.571679
788.306987	2707.800336
788.629897	2705.078113
788.952760	2704.319419
789.275579	2704.382433
789.598351	2688.986750
789.921078	2672.736590
790.243759	2677.608865
790.566395	2674.163237
790.888984	2664.842143
791.211529	2659.899292
791.534027	2658.016421
791.856480	2657.658499
792.178888	2651.399907
792.501249	2647.490492
792.823566	2650.066521
793.145836	2649.701038
793.468062	2648.211377
793.790241	2647.200625
794.112375	2650.568116
794.434464	2653.897798
794.756507	2651.493168
795.078505	2657.035917
795.400457	2656.350320
795.722364	2667.892041
796.044226	2676.983762
796.366042	2672.910510
796.687812	2669.583348
797.009538	2682.085410
797.331218	2680.704134
797.652852	2674.354801
797.974442	2670.359686
798.295986	2670.591579
798.617484	2672.169460
798.938938	2669.517813
799.260346	2659.737975
799.581709	2662.344252
799.903026	2660.589930
800.224299	2656.390649
800.545526	2656.688077
800.866708	2649.234731
801.187845	2644.438073
801.508936	2647.729947
801.829983	2652.546769
802.150984	2647.089720
802.471940	2637.831641
802.792851	2640.057310
803.113717	2639.633853
803.434538	2644.538896
803.755314	2639.651497
804.076045	2635.379120
804.396731	2638.489512
804.717372	2638.118987
805.037967	2636.321815
805.358518	2638.237454
805.679024	2643.729791
805.999485	2643.444966
806.319901	2641.559574
806.640272	2639.038997
806.960598	2641.352887
807.280879	2644.987559
807.601115	2651.036943
807.921306	2644.627116
808.241453	2639.240643
808.561554	2645.516880
808.881611	2643.979328
809.201623	2644.574184
809.521590	2645.675676
809.841513	2643.553351
810.161390	2648.304638
810.481223	2642.419091
810.801011	2640.609317
811.120755	2638.837351
811.440453	2642.708957
811.760107	2643.999493
812.079716	2641.887249
812.399281	2637.970273
812.718801	2634.834675
813.038276	2632.379633
813.357707	2637.637557
813.677093	2645.090903
813.996434	2640.470685
814.315731	2640.243833
814.634983	2637.950108
814.954191	2637.493884
815.273354	2646.877992
815.592473	2650.628610
815.911547	2650.676501
816.230577	2652.866882
816.549562	2655.848725
816.868502	2655.153046
817.187399	2658.613798
817.506250	2667.370282
817.825058	2664.083450
818.143821	2671.579645
818.462539	2677.616427
818.781213	2687.381142
819.099843	2698.822041
819.418429	2717.015565
819.736970	2737.407032
820.055466	2764.432658
820.373919	2806.944708
820.692327	2864.789428
821.010691	2917.708941
821.329011	3042.709392
821.647286	3261.845829
821.965517	3614.862709
822.283704	3806.837409
822.601847	3828.005214
822.919945	3717.351887
823.237999	3660.966582
823.556010	3512.038294
823.873976	3345.702902
824.191897	3214.385886
824.509775	3118.490537
824.827609	3013.332068
825.145398	2970.716673
825.463144	2964.327011
825.780845	3004.510048
826.098502	3027.424613
826.416116	3119.029940
826.733685	3205.384906
827.051210	3226.615725
827.368692	3211.643498
827.686129	3144.502891
828.003522	3029.652803
828.320872	2930.836105
828.638177	2855.586802
828.955439	2797.525312
829.272656	2770.008174
829.589830	2743.993300
829.906960	2727.896896
830.224046	2709.080789
830.541088	2694.998326
830.858086	2688.628828
831.175041	2680.855368
831.491952	2682.660102
831.808819	2689.019517
832.125642	2699.023687
832.442421	2718.149825
832.759157	2743.133783
833.075849	2807.297589
833.392497	2910.535379
833.709101	2997.071826
834.025662	2979.311841
834.342179	2924.411155
834.658653	2862.709952
834.975083	2805.991930
835.291469	2771.732249
835.607811	2735.282186
835.924110	2707.313864
836.240366	2689.339630
836.556578	2668.643173
836.872746	2658.487769
837.188871	2651.102478
837.504952	2643.555871
837.820990	2639.873308
838.136984	2631.668830
838.452935	2629.362502
838.768842	2626.962913
839.084706	2637.269552
839.400526	2667.692916
839.716303	2711.135059
840.032037	2743.239647
840.347727	2745.367014
840.663373	2726.855897
840.978977	2701.488811
841.294537	2669.232988
841.610054	2648.778507
841.925527	2639.931282
842.240957	2627.688839
842.556344	2618.907149
842.871687	2614.107971
843.186987	2608.298041
843.502244	2606.760489
843.817458	2603.445931
844.132629	2598.014087
844.447756	2590.711976
844.762840	2588.584609
845.077881	2590.714497
845.392879	2590.112079
845.707833	2586.752150
846.022745	2581.237127
846.337613	2586.457242
846.652438	2587.543611
846.967221	2586.399269
847.281960	2583.767787
847.596656	2584.350040
847.911309	2583.823239
848.225919	2579.807960
848.540485	2583.445153
848.855009	2581.640420
849.169490	2579.623958
849.483928	2582.772159
849.798323	2582.580595
850.112675	2581.209401
850.426984	2582.736871
850.741251	2580.778382
851.055474	2579.669328
851.369654	2582.182344
851.683792	2580.995152
851.997887	2581.015317
852.311938	2578.651015
852.625947	2583.271233
852.939914	2581.247210
853.253837	2582.073959
853.567718	2581.055646
853.881555	2577.768813
854.195350	2583.871130
854.509103	2582.182344
854.822812	2580.249061
855.136479	2583.367015
855.450103	2581.849628
855.763685	2582.956161
856.077224	2578.421643
856.390720	2579.036664
856.704173	2581.471541
857.017584	2582.676377
857.330953	2586.016141
857.644278	2583.876171
857.957561	2586.386666
858.270802	2580.990111
858.584000	2582.079000
858.897155	2586.852973
859.210268	2585.489341
859.523339	2584.168558
859.836367	2578.988773
860.149352	2584.201326
860.462295	2583.901377
860.775195	2580.077662
861.088054	2579.303845
861.400869	2579.318968
861.713642	2575.344018
862.026373	2578.751838
862.339062	2581.549679
862.651708	2584.024885
862.964312	2584.045050
863.276873	2582.694021
863.589392	2582.212591
863.901869	2588.007397
864.214303	2588.947572
864.526696	2589.418920
864.839045	2592.448653
865.151353	2592.352872
865.463619	2593.474528
865.775842	2592.607450
866.088023	2592.904878
866.400162	2595.001998
866.712258	2594.601226
867.024313	2590.979157
867.336325	2587.896492
867.648296	2592.423448
867.960224	2596.766402
868.272110	2594.329004
868.583954	2587.145360
868.895755	2594.628952
869.207515	2596.438727
869.519233	2599.289499
869.830909	2598.926536
870.142542	2595.508634
870.454134	2592.990577
870.765684	2598.855960
871.077191	2598.319077
871.388657	2602.185642
871.700081	2597.595672
872.011463	2599.796135
872.322803	2598.671958
872.634101	2601.842844
872.945357	2604.428956
873.256571	2606.442897
873.567744	2606.606734
873.878874	2608.509770
874.189963	2606.405088
874.501010	2610.662342
874.812015	2615.663167
875.122979	2610.813577
875.433900	2609.265943
875.744780	2609.432301
876.055618	2613.029164
876.366415	2616.081583
876.677169	2613.941613
876.987882	2611.602517
877.298554	2607.957763
877.609183	2617.765328
877.919771	2623.227418
878.230317	2626.945269
878.540822	2632.843419
878.851285	2641.705768
879.161707	2653.108858
879.472087	2680.847807
879.782425	2700.838502
880.092722	2758.773963
880.402977	2847.314268
880.713191	2937.024122
881.023363	3019.840197
881.333494	3068.018504
881.643583	3152.883809
881.953631	3185.053932
882.263637	3132.739358
882.573602	3050.855896
882.883526	3007.680934
883.193408	2968.569142
883.503248	2931.529264
883.813048	2878.271994
884.122806	2818.834270
884.432522	2777.557302
884.742197	2745.331726
885.051831	2728.900085
885.361424	2711.571119
885.670975	2692.603777
885.980485	2673.303720
886.289954	2666.359531
886.599382	2659.092707
886.908768	2653.257572
887.218113	2641.718371
887.527417	2634.171763
887.836680	2630.635394
888.145901	2627.532564
888.455082	2620.974023
888.764221	2619.635596
889.073319	2613.629061
889.382376	2611.201746
889.691392	2613.218207
890.000366	2612.351129
890.309300	2610.317023
890.618193	2611.511777
890.927044	2614.894391
891.235855	2615.940430
891.544625	2612.154524
891.853353	2612.275512
892.162041	2616.068980
892.470687	2630.839561
892.779293	2634.267545
893.087858	2638.839872
893.396381	2649.713641
893.704864	2674.082578
894.013306	2706.419060
894.321707	2756.354209
894.630068	2777.058228
894.938387	2788.060546
895.246665	2793.409210
895.554903	2776.748197
895.863100	2754.199116
896.171256	2726.641648
896.479371	2690.186544
896.787446	2666.324242
897.095480	2659.851401
897.403473	2656.947696
897.711425	2647.339257
898.019336	2638.824748
898.327207	2626.993160
898.635038	2627.330917
898.942827	2624.558283
899.250576	2621.200874
899.558284	2612.968670
899.865952	2610.611931
900.173579	2608.756786
900.481165	2607.844337
900.788711	2602.276383
901.096216	2597.822523
901.403681	2596.995774
901.711105	2598.462750
902.018489	2597.240270
902.325832	2597.028542
902.633135	2598.992071
902.940397	2608.461879
903.247619	2630.211937
903.554800	2666.520847
903.861941	2729.910837
904.169041	2790.215639
904.476101	2818.988025
904.783121	2823.353664
905.090100	2800.285344
905.397039	2762.764036
905.703938	2728.428737
906.010796	2693.695187
906.317614	2663.433141
906.624391	2642.217445
906.931129	2626.801596
907.237826	2613.709720
907.544483	2604.076075
907.851099	2594.177769
908.157675	2589.791965
908.464211	2585.257447
908.770707	2577.176478
909.077163	2576.364852
909.383578	2573.781261
909.689954	2569.818914
909.996289	2571.641291
910.302584	2572.790674
910.608839	2571.888307
910.915054	2572.740262
911.221229	2570.275138
911.527363	2572.273956
911.833458	2571.031311
912.139513	2572.445355
912.445527	2574.078689
912.751502	2577.693196
913.057436	2582.467169
913.363331	2586.623600
913.669186	2591.876482
913.975000	2600.390991
914.280775	2607.249481
914.586510	2616.648712
914.892205	2637.221661
915.197859	2675.168947
915.503475	2720.007490
915.809050	2754.620052
916.114585	2757.352357
916.420081	2763.079108
916.725536	2773.945315
917.030952	2763.734458
917.336328	2741.981879
917.641665	2715.160420
917.946961	2685.720082
918.252218	2667.367761
918.557435	2653.098775
918.862612	2639.217958
919.167750	2631.623460
919.472848	2622.415792
919.777906	2611.201746
920.082925	2605.633791
920.387904	2598.092225
920.692843	2594.518047
920.997743	2592.793972
921.302603	2590.003694
921.607423	2584.468507
921.912204	2582.497416
922.216946	2582.023547
922.521647	2580.995152
922.826310	2574.686148
923.130932	2573.977866
923.435516	2569.115673
923.740059	2566.350600
924.044564	2570.988462
924.349028	2569.324881
924.653454	2561.508572
924.957840	2561.133006
925.262186	2558.481359
925.566493	2559.451781
925.870761	2556.109496
926.174989	2559.063612
926.479178	2557.909188
926.783328	2556.129661
927.087438	2556.197716
927.391509	2552.787376
927.695541	2553.949362
927.999533	2555.060936
928.303486	2550.483568
928.607400	2555.660833
928.911275	2551.655637
929.215110	2550.733105
929.518906	2552.288301
929.822663	2554.050185
930.126381	2553.664536
930.430060	2553.417520
930.733699	2550.768393
931.037299	2552.152190
931.340861	2553.084804
931.644383	2555.623025
931.947866	2553.142777
932.251309	2553.793086
932.554714	2552.852911
932.858080	2551.219577
933.161407	2551.766542
933.464694	2552.865513
933.767943	2554.471121
934.071153	2553.969526
934.374323	2550.528939
934.677455	2552.580688
934.980548	2550.032385
935.283602	2551.990873
935.586617	2552.817623
935.889593	2550.463404
936.192530	2549.024154
936.495428	2550.561706
936.798287	2549.732436
937.101108	2550.476007
937.403890	2553.445246
937.706632	2553.898950
938.009336	2556.994218
938.312002	2560.018911
938.614628	2560.843139
938.917216	2565.007133
939.219765	2565.778429
939.522275	2565.541495
939.824747	2564.142575
940.127179	2558.740978
940.429573	2554.892057
940.731929	2560.270968
941.034246	2556.684187
941.336524	2560.245763
941.638763	2559.166956
941.940964	2560.391956
942.243126	2556.091852
942.545250	2556.618652
942.847335	2554.985319
943.149381	2554.324928
943.451389	2552.986501
943.753359	2551.302756
944.055290	2554.070349
944.357182	2552.600853
944.659036	2550.899463
944.960851	2551.287632
945.262628	2553.795606
945.564367	2554.834084
945.866067	2554.980278
946.167729	2553.016748
946.469352	2553.024310
946.770937	2552.472303
947.072484	2551.698486
947.373992	2553.893909
947.675462	2552.255534
947.976893	2552.805020
948.278286	2551.852242
948.579641	2552.197561
948.880958	2550.425595
949.182236	2551.128836
949.483476	2549.021634
949.784678	2552.938610
950.085841	2550.503733
950.386967	2551.360729
950.688054	2550.528939
950.989103	2552.888199
951.290114	2553.914073
951.591087	2556.379198
951.892021	2554.599670
952.192917	2557.742830
952.493776	2553.064639
952.794596	2554.249310
953.095378	2555.819630
953.396122	2559.522357
953.696828	2554.410627
953.997496	2554.803837
954.298126	2550.077755
954.598718	2554.148487
954.899272	2550.944834
955.199788	2552.908363
955.500266	2551.595143
955.800706	2548.406613
956.101108	2544.129194
956.401472	2546.732950
956.701798	2544.744215
957.002087	2544.719009
957.302337	2547.935265
957.602550	2546.775800
957.902724	2546.647250
958.202861	2546.995090
958.502960	2546.601880
958.803022	2546.364946
959.103045	2545.003834
959.403031	2545.311344
959.702979	2544.106509
960.002889	2544.204811
960.302762	2543.730943
960.602596	2544.650953
960.902393	2542.306817
961.202153	2545.797816
961.501875	2544.414019
961.801559	2543.783875
962.101205	2540.189532
962.400814	2543.713299
962.700385	2543.254554
962.999918	2541.827907
963.299414	2542.442928
963.598873	2543.347815
963.898293	2542.306817
964.197677	2542.027033
964.497022	2542.644574
964.796331	2542.861344
965.095601	2540.275232
965.394835	2543.120963
965.694030	2543.136087
965.993189	2542.652136
966.292309	2543.171375
966.591393	2543.012578
966.890439	2541.661549
967.189447	2544.098947
967.488419	2541.182639
967.787353	2544.345963
968.086249	2545.611293
968.385108	2542.793288
968.683930	2541.908566
968.982714	2540.958308
969.281462	2540.640715
969.580172	2543.524255
969.878844	2543.781354
970.177480	2539.952598
970.476078	2542.647095
970.774639	2546.248999
971.073162	2541.303627
971.371649	2543.851930
971.670098	2540.058462
971.968510	2540.330684
972.266885	2538.737680
972.565223	2542.105171
972.863524	2541.144831
973.161788	2546.914431
973.460014	2541.389327
973.758204	2544.618186
974.056356	2543.584749
974.354471	2545.346633
974.652550	2543.589790
974.950591	2542.553833
975.248595	2545.921324
975.546563	2542.289173
975.844493	2544.461910
976.142386	2542.881508
976.440243	2539.708102
976.738062	2544.751776
977.035845	2544.789585
977.333590	2542.402599
977.631299	2542.470654
977.928971	2540.066024
978.226606	2540.005530
978.524204	2541.059131
978.821765	2540.335726
979.119290	2541.684234
979.416777	2541.444779
979.714228	2542.551313
980.011642	2543.700696
980.309020	2544.764379
980.606360	2544.172044
980.903664	2543.680531
981.200931	2543.741025
981.498162	2544.792106
981.795356	2545.374359
982.092513	2547.365615
982.389633	2547.847045
982.686717	2548.222611
982.983764	2552.255534
983.280775	2552.308466
983.577749	2553.064639
983.874686	2551.607746
984.171587	2548.991387
984.468451	2550.753270
984.765279	2547.882333
985.062070	2543.700696
985.358824	2541.091899
985.655543	2544.058618
985.952224	2544.287990
986.248869	2544.454348
986.545478	2537.540406
986.842050	2540.492001
987.138586	2536.433873
987.435086	2538.876312
987.731549	2538.825900
988.027975	2541.376724
988.324366	2541.497712
988.620719	2539.955118
988.917037	2541.144831
989.213318	2539.158616
989.509563	2540.822197
989.805772	2542.455531
990.101944	2542.901673
990.398080	2540.476878
990.694180	2541.447300
990.990244	2543.390665
991.286271	2540.081147
991.582262	2541.006199
991.878217	2541.575849
992.174136	2542.412681
992.470019	2540.446631
992.765865	2541.558205
993.061676	2539.163657
993.357450	2541.830428
993.653188	2540.741538
993.948890	2541.674152
994.244556	2541.585932
994.540186	2542.740356
994.835780	2541.225489
995.131337	2540.076106
995.426859	2541.769934
995.722345	2538.886394
996.017795	2542.868905
996.313208	2543.352856
996.608586	2544.837476
996.903928	2543.980480
997.199234	2544.436704
997.494504	2541.084337
997.789738	2541.071734
998.084936	2543.355377
998.380099	2541.749769
998.675225	2542.624409
998.970316	2542.833617
999.265371	2543.224307
999.560390	2545.336550
999.855373	2541.228010
1000.150320	2540.963349
1000.445232	2540.872608
1000.740108	2538.500746
1001.034948	2541.273380
1001.329752	2539.627443
1001.624521	2541.359080
1001.919254	2535.183666
1002.213951	2538.730118
1002.508613	2537.737011
1002.803239	2539.385468
1003.097829	2534.402288
1003.392384	2539.317412
1003.686903	2540.640715
1003.981386	2542.009389
1004.275834	2542.269008
1004.570246	2539.151054
1004.864623	2539.728267
1005.158964	2539.088040
1005.453270	2537.986548
1005.747540	2538.198276
1006.041775	2541.452341
1006.335974	2540.819676
1006.630138	2540.920499
1006.924266	2538.853626
1007.218359	2539.587114
1007.512416	2538.838503
1007.806438	2540.166847
1008.100425	2541.391847
1008.394376	2539.481250
1008.688292	2541.805222
1008.982172	2538.848585
1009.276017	2540.517207
1009.569827	2538.904038
1009.863602	2539.554347
1010.157341	2538.962011
1010.451045	2541.538041
1010.744714	2535.753317
1011.038347	2538.994779
1011.331945	2540.295396
1011.625508	2540.670962
1011.919036	2538.271373
1012.212528	2539.267001
1012.505986	2538.498225
1012.799408	2537.142155
1013.092795	2537.686599
1013.386147	2540.406302
1013.679464	2541.873277
1013.972745	2539.163657
1014.265992	2540.870088
1014.559204	2538.876312
1014.852380	2537.885725
1015.145521	2539.259439
1015.438628	2538.445293
1015.731699	2538.379758
1016.024736	2538.530993
1016.317737	2539.461085
1016.610703	2539.997968
1016.903635	2536.766589
1017.196531	2536.975797
1017.489393	2536.887576
1017.782219	2536.227185
1018.075011	2539.176260
1018.367768	2539.493853
1018.660490	2542.223638
1018.953177	2542.223638
1019.245829	2542.223638
