Dividing Wavelength (nm)	Counts (n)	Blue Motor Position (mm): 30.800000	Red Motor Position (mm): 0.000000	
326.493990	2214.508308
326.888308	2214.508308
327.282561	2214.508308
327.676750	2177.372649
328.070874	2172.734787
328.464933	2170.604900
328.858929	2177.733091
329.252859	2180.767866
329.646726	2188.858918
330.040528	2201.791998
330.434265	2214.873792
330.827938	2232.371637
331.221547	2249.262023
331.615091	2265.159302
332.008571	2286.049843
332.401986	2304.563481
332.795338	2322.434371
333.188625	2344.449090
333.581847	2362.146061
333.975006	2379.807743
334.368100	2398.291134
334.761129	2416.212436
335.154095	2435.184818
335.546996	2457.537294
335.939833	2496.598675
336.332606	2511.959071
336.725315	2526.762419
337.117960	2538.210879
337.510540	2549.293856
337.903056	2560.817934
338.295508	2567.555436
338.687896	2579.107240
339.080220	2583.856007
339.472480	2594.321442
339.864676	2599.826382
340.256807	2603.302258
340.648875	2607.688062
341.040879	2611.317692
341.432818	2612.852724
341.824694	2617.999742
342.216506	2617.036881
342.608253	2615.164093
342.999937	2617.157869
343.391557	2615.365739
343.783113	2617.104937
344.174605	2615.000255
344.566033	2615.834566
344.957397	2616.280708
345.348697	2615.053187
345.739934	2611.683176
346.131106	2612.114195
346.522215	2607.246961
346.913260	2604.270159
347.304241	2607.219234
347.695159	2604.320571
348.086012	2601.797473
348.476802	2598.321598
348.867528	2594.134919
349.258191	2595.581731
349.648789	2591.624425
350.039324	2586.482448
350.429796	2589.391194
350.820203	2588.927407
351.210548	2588.337593
351.600828	2587.135277
351.991045	2587.813313
352.381198	2582.905749
352.771288	2585.219639
353.161314	2587.185689
353.551276	2587.984712
353.941175	2583.170410
354.331010	2581.854669
354.720782	2580.649833
355.110490	2582.903229
355.500135	2579.772672
355.889717	2584.312231
356.279235	2583.377097
356.668689	2583.256109
357.058080	2584.952458
357.447408	2584.561768
357.836672	2583.172930
358.225873	2581.743763
358.615010	2587.205853
359.004084	2584.382807
359.393095	2587.190730
359.782043	2588.259455
360.170927	2587.263827
360.559748	2588.022520
360.948505	2589.058477
361.337199	2589.131574
361.725830	2588.433374
362.114398	2589.053436
362.502903	2587.863724
362.891344	2589.890268
363.279722	2591.425299
363.668037	2590.008735
364.056289	2593.799683
364.444478	2594.583582
364.832603	2593.971082
365.220665	2591.788262
365.608665	2592.993098
365.996601	2595.291864
366.384474	2594.654158
366.772284	2593.086359
367.160031	2596.060640
367.547715	2598.281268
367.935336	2594.976792
368.322893	2593.885382
368.710388	2593.378746
369.097820	2594.828078
369.485189	2591.190886
369.872495	2599.982658
370.259738	2599.342431
370.646918	2599.284458
371.034035	2599.554160
371.421090	2597.701536
371.808081	2597.845209
372.195010	2599.135744
372.581875	2600.945518
372.968678	2599.584407
373.355418	2599.884355
373.742096	2599.808738
374.128710	2602.951897
374.515262	2601.971393
374.901751	2601.822679
375.288177	2601.550457
375.674540	2603.415684
376.060841	2603.980293
376.447079	2604.033225
376.833254	2606.042125
377.219367	2604.151692
377.605417	2606.843668
377.991404	2602.639346
378.377329	2604.033225
378.763191	2603.566918
379.148991	2606.510952
379.534727	2602.631784
379.920402	2602.956939
380.306013	2607.337701
380.691563	2608.474482
381.077049	2604.267639
381.462474	2604.915427
381.847835	2607.695623
382.233134	2608.240068
382.618371	2607.012547
383.003545	2605.101950
383.388657	2608.381220
383.773706	2610.319544
384.158693	2610.725357
384.543618	2609.442383
384.928480	2607.443566
385.313280	2610.012033
385.698017	2608.832403
386.082692	2608.391302
386.467305	2610.511108
386.851856	2611.506736
387.236344	2612.981273
387.620770	2611.746190
388.005133	2610.601848
388.389435	2611.282404
388.773674	2609.936416
389.157851	2613.117384
389.541965	2612.784668
389.926018	2614.344905
390.310008	2615.484206
390.693936	2615.219545
391.077802	2615.748867
391.461606	2615.549741
391.845348	2614.866665
392.229027	2615.239710
392.612645	2614.420522
392.996200	2616.749536
393.379694	2617.732561
393.763125	2618.670215
394.146494	2619.307921
394.529801	2617.926645
394.913047	2618.087962
395.296230	2616.295832
395.679351	2618.145935
396.062410	2618.753394
396.445408	2620.111985
396.828343	2622.115844
397.211217	2621.142901
397.594028	2622.292284
397.976778	2622.095679
398.359466	2622.556945
398.742092	2623.091307
399.124656	2621.652058
399.507158	2623.489558
399.889598	2625.866462
400.271977	2626.113479
400.654294	2623.406379
401.036549	2626.713376
401.418742	2627.063736
401.800874	2630.199334
402.182944	2625.750516
402.564952	2627.734210
402.946898	2628.107255
403.328783	2629.564149
403.710606	2630.022894
404.092367	2628.858387
404.474067	2628.976854
404.855705	2628.825620
405.237282	2629.917029
405.618797	2630.958028
406.000250	2635.008595
406.381642	2634.743934
406.762972	2633.445837
407.144240	2633.057668
407.525447	2630.993316
407.906593	2633.216465
408.287677	2636.566311
408.668700	2636.704943
409.049661	2639.530510
409.430560	2639.533030
409.811399	2636.959521
410.192176	2640.664769
410.572891	2638.182001
410.953545	2641.236940
411.334138	2640.052269
411.714669	2641.834317
412.095139	2642.461941
412.475547	2642.703916
412.855894	2643.306334
413.236180	2642.156951
413.616405	2645.093423
413.996568	2646.026037
414.376670	2645.731129
414.756711	2645.474030
415.136691	2645.534524
415.516609	2650.679022
415.896466	2649.307828
416.276262	2650.328661
416.655997	2649.650626
417.035670	2649.252375
417.415283	2655.324445
417.794834	2657.829898
418.174324	2655.485762
418.553753	2659.667399
418.933121	2663.594458
419.312428	2669.459840
419.691674	2670.095026
420.070859	2675.872188
420.449983	2681.561130
420.829045	2689.687470
421.208047	2694.607636
421.586988	2707.475181
421.965867	2720.171327
422.344686	2735.509038
422.723444	2749.067221
423.102141	2754.574682
423.480777	2788.577264
423.859352	2802.395067
424.237866	2841.973166
424.616319	2868.552650
424.994712	2916.942685
425.373044	2940.293310
425.751314	3000.272958
426.129524	3036.138248
426.507673	3092.800817
426.885762	3152.679642
427.263789	3215.618448
427.641756	3272.293620
428.019662	3344.389682
428.397508	3440.428704
428.775292	3478.837255
429.153016	3606.106225
429.530679	3662.788959
429.908282	3745.847009
430.285824	3782.171043
430.663305	3986.128566
431.040726	3978.052638
431.418086	4059.416861
431.795385	4222.959453
432.172624	4341.847505
432.549802	4416.590173
432.926920	4541.693967
433.303977	4602.636476
433.680974	4761.568933
434.057910	4895.424171
434.434786	5021.213562
434.811601	5092.576136
435.188355	5382.296289
435.565050	5407.938118
435.941683	5498.474720
436.318257	5810.015507
436.694770	5982.685109
437.071222	6151.112579
437.447614	6207.833122
437.823946	6276.518843
438.200218	6486.850905
438.576429	6511.822261
438.952580	6745.129381
439.328670	6906.602580
439.704700	6914.640700
440.080670	7022.491145
440.456580	7473.505536
440.832429	7453.882844
441.208218	7327.919533
441.583947	7652.879872
441.959616	7869.031946
442.335224	7864.545319
442.710773	8079.633710
443.086261	8336.767844
443.461689	7946.695962
443.837057	8503.440993
444.212365	8822.805651
444.587612	8679.210904
444.962800	8969.578845
445.337927	8906.735821
445.712995	8664.901589
446.088002	9619.630592
446.462949	9434.542108
446.837837	9505.899641
447.212664	9616.862999
447.587431	10105.290313
447.962139	10762.893708
448.336786	12701.940768
448.711374	13352.973020
449.085901	11622.324740
449.460369	11373.538756
449.834776	10978.019908
450.209124	11782.819955
450.583412	12192.595186
450.957640	13164.640553
451.331808	12493.670538
451.705917	11622.763320
452.079965	11064.352188
452.453954	11936.156731
452.827883	11642.630507
453.201752	11962.297634
453.575562	11544.232225
453.949311	11976.644758
454.323001	11971.364150
454.696632	12204.605735
455.070202	12511.581758
455.443713	12803.129328
455.817164	13272.906894
456.190556	13311.310404
456.563888	13685.152291
456.937160	13887.542015
457.310373	13259.111776
457.683526	13350.883461
458.056619	12940.778034
458.429653	13075.326430
458.802628	12560.806104
459.175542	12920.285744
459.548398	13872.083316
459.921194	14204.494480
460.293930	14267.713070
460.666607	15163.788249
461.039224	16173.740572
461.411782	16871.804268
461.784280	16815.731514
462.156719	16852.771392
462.529099	16558.398254
462.901419	15499.655124
463.273680	15301.101718
463.645882	15166.079453
464.018024	14902.205296
464.390106	15123.244769
464.762130	15857.163672
465.134094	16594.719768
465.505999	18543.806285
465.877845	21785.472375
466.249631	24623.243739
466.621358	24363.286559
466.993026	22920.732659
467.364634	22375.695708
467.736184	20932.113414
468.107674	20131.731938
468.479105	20264.725138
468.850477	19727.622963
469.221790	19306.721905
469.593043	18623.229664
469.964238	18079.591633
470.335373	17756.962828
470.706449	18160.391247
471.077467	17702.120116
471.448425	19515.236631
471.819324	23494.274815
472.190164	25597.529899
472.560945	22111.816510
472.931667	19713.122084
473.302330	19052.105828
473.672934	18534.157517
474.043479	18910.817409
474.413965	18735.914576
474.784393	18362.460858
475.154761	19027.595738
475.525070	19040.826246
475.895321	18684.998922
476.265513	19261.848074
476.635645	19848.608135
477.005719	19633.854981
477.375734	19839.047587
477.745691	20317.624486
478.115588	20815.738377
478.485427	21328.363229
478.855207	22370.029452
479.224928	24122.142965
479.594591	26333.853433
479.964194	26439.364783
480.333739	26623.200540
480.703226	26188.832039
481.072653	25862.218202
481.442022	26403.849854
481.811333	27327.679105
482.180584	27252.417198
482.549777	26305.617930
482.918912	25938.384996
483.287988	26061.515178
483.657005	25759.270279
484.025964	25467.148017
484.394864	25415.319914
484.763706	25109.909170
485.132489	24539.842890
485.501213	24708.446801
485.869879	24619.712411
486.238487	24409.372787
486.607036	24578.793365
486.975527	24253.429734
487.343959	24590.609830
487.712333	24545.239445
488.080648	24216.054620
488.448905	24684.392935
488.817104	24428.793832
489.185244	25097.429793
489.553326	25070.116822
489.921350	26029.236670
490.289315	28300.987281
490.657222	30109.027355
491.025070	30594.734966
491.392861	30400.027960
491.760593	29552.380626
492.128267	28657.921138
492.495883	27616.237272
492.863440	26752.944717
493.230939	25873.969132
493.598380	25714.398969
493.965763	25313.039943
494.333088	24872.100299
494.700354	24794.925275
495.067563	24678.900598
495.434713	24435.629637
495.801805	24564.277363
496.168839	24391.950560
496.535815	24214.902716
496.902733	24429.607979
497.269593	24089.133489
497.636395	24287.215547
498.003139	24272.397076
498.369825	24020.236040
498.736453	24216.810793
499.103023	24093.380661
499.469535	24117.752120
499.835989	24313.618591
500.202385	24347.848025
500.568723	23856.887532
500.935003	24124.489622
501.301226	23712.584503
501.667390	24548.818664
502.033497	24773.777634
502.399546	24516.724158
502.765537	24084.483025
503.131470	24480.485824
503.497345	24605.340081
503.863163	23820.661800
504.228923	24435.821201
504.594625	24633.235306
504.960269	24151.558097
505.325856	24638.755370
505.691385	24050.984557
506.056856	24653.921681
506.422270	24623.989830
506.787625	24209.838877
507.152924	24610.272850
507.518164	24640.590350
507.883347	24446.750423
508.248472	24141.984946
508.613540	24922.501755
508.978550	24706.876482
509.343503	24695.969945
509.708398	24955.917043
510.073236	25109.263902
510.438016	25326.867828
510.802738	24991.953732
511.167403	25248.404789
511.532010	24938.051194
511.896561	25725.958334
512.261053	25687.199423
512.625488	25529.958273
512.989866	25438.363028
513.354186	25272.345229
513.718449	25375.305755
514.082655	25758.594764
514.446803	25499.159343
514.810894	25956.500382
515.174927	25418.871407
515.538904	25473.449459
515.902822	25959.469622
516.266684	25716.493568
516.630488	25617.268537
516.994235	25605.782268
517.357925	25896.656845
517.721558	26077.271305
518.085133	26168.677506
518.448651	26091.099190
518.812112	25813.971839
519.175516	26011.325451
519.538863	26176.093044
519.902152	25949.568796
520.265385	26237.519503
520.628560	26032.382350
520.991678	26046.495061
521.354739	26102.648473
521.717743	26168.155747
522.080690	25972.753062
522.443580	26302.424359
522.806413	26294.250128
523.169189	26395.985654
523.531908	26440.070544
523.894569	26042.993979
524.257174	26124.516999
524.619722	26312.045401
524.982213	25997.361455
525.344647	26063.725724
525.707025	26201.908792
526.069345	26181.383735
526.431608	26127.972710
526.793815	26322.551166
527.155964	25781.779031
527.518057	25953.044671
527.880093	25872.376127
528.242072	26104.796005
528.603995	25810.483361
528.965860	25612.731498
529.327669	25653.590050
529.689421	25646.925645
530.051117	25481.238042
530.412755	25660.350238
530.774337	25462.822707
531.135862	25334.169940
531.497331	25528.360227
531.858743	25077.416413
532.220098	25560.759723
532.581396	25237.326854
532.942638	25172.174982
533.303824	25275.745487
533.664953	25290.735358
534.026025	24956.867301
534.387040	25189.458578
534.747999	25257.423414
535.108902	25414.082311
535.469748	24900.577777
535.830537	25106.624858
536.191270	25223.685492
536.551947	25093.389309
536.912567	24740.168262
537.273131	25090.001653
537.633638	24788.606188
537.994089	24999.782643
538.354483	24546.068715
538.714821	25037.611462
539.075103	25079.107720
539.435328	24873.161462
539.795497	24431.160654
540.155609	24828.398536
540.515665	25115.953513
540.875665	24361.234809
541.235609	24645.024044
541.595496	24618.346258
541.955328	24973.936648
542.315102	24884.882144
542.674821	24436.615183
543.034483	24308.269926
543.394090	24472.359484
543.753640	24280.624239
544.113134	24902.132973
544.472571	24510.324414
544.831953	24803.021368
545.191278	24414.577779
545.550548	24332.767413
545.909761	24553.902668
546.268918	24774.783344
546.628019	24743.013993
546.987064	24428.652680
547.346053	24207.174627
547.704986	24318.299302
548.063863	24474.996007
548.422684	24476.107582
548.781449	24019.489949
549.140158	24435.160810
549.498811	24002.919676
549.857408	23739.620211
550.215949	24173.703886
550.574434	23858.588921
550.932864	24066.702875
551.291237	24220.692481
551.649555	24093.723460
552.007817	24137.412620
552.366022	24003.322968
552.724173	24058.536206
553.082267	23989.026256
553.440305	24464.591066
553.798288	23720.836872
554.156215	24249.805145
554.514086	24333.687424
554.871902	23706.688873
555.229661	24000.252906
555.587365	23855.518858
555.945014	23711.999729
556.302606	23964.977432
556.660143	23913.630759
557.017625	24164.639892
557.375050	23683.194576
557.732421	24082.700977
558.089735	23896.745414
558.446994	23966.827535
558.804197	23989.174970
559.161345	23934.904428
559.518437	23685.382437
559.875474	23889.919692
560.232455	24066.927207
560.589381	23894.998655
560.946251	23864.580332
561.303065	24195.302710
561.659825	24276.384628
562.016528	23891.968921
562.373177	23615.421303
562.729770	23985.782274
563.086307	23846.291026
563.442789	24013.783363
563.799216	23835.308873
564.155587	23846.676674
564.511904	23834.633358
564.868164	23764.321865
565.224370	23747.002981
565.580520	23644.120592
565.936615	23787.654845
566.292654	23465.757008
566.648638	23767.132308
567.004567	23593.509928
567.360441	23549.626684
567.716260	23269.023458
568.072023	23600.383542
568.427732	23360.953940
568.783385	23144.055775
569.138982	23375.288461
569.494525	23409.729624
569.850013	23156.429287
570.205445	23251.840685
570.560823	23061.746335
570.916145	22822.427639
571.271412	22990.010716
571.626625	22750.369386
571.981782	22866.731819
572.336884	22679.810876
572.691931	22810.890958
573.046923	22542.537736
573.401860	22421.013161
573.756743	22429.537752
574.111570	22335.946210
574.466342	22267.736878
574.821059	22363.102906
575.175722	22060.260630
575.530330	22051.960370
575.884882	22077.387950
576.239380	21975.813741
576.593823	21878.378320
576.948211	21850.263805
577.302544	21689.763549
577.656823	21555.487375
578.011047	21660.860093
578.365216	21530.074918
578.719330	21409.845920
579.073389	21309.791619
579.427394	21454.258485
579.781344	21223.497147
580.135239	21114.915734
580.489080	21083.670663
580.842866	20848.455466
581.196597	21040.621730
581.550273	21024.641272
581.903895	20904.344218
582.257463	21231.328580
582.610975	20752.577761
582.964434	21073.691699
583.317837	20761.286354
583.671186	20857.937876
584.024481	20823.708441
584.377721	20597.469018
584.730906	20653.390538
585.084037	20683.612255
585.437113	20574.506563
585.790135	20790.472114
586.143103	20261.163563
586.496016	20258.706001
586.848874	20509.518528
587.201679	20440.868095
587.554428	20114.171079
587.907124	20451.557862
588.259765	20227.143336
588.612352	20302.929523
588.964884	19867.159581
589.317362	20045.707168
589.669786	20099.995354
590.022155	20133.047679
590.374470	20333.128555
590.726731	20119.693663
591.078937	19889.907788
591.431090	19980.754422
591.783188	19732.822914
592.135232	19705.043635
592.487222	19797.465629
592.839157	19816.874072
593.191038	19698.505259
593.542866	19591.408466
593.894639	19303.530855
594.246358	19525.197951
594.598022	19436.118242
594.949633	19190.031797
595.301190	19145.299118
595.652692	19328.497169
596.004141	19554.005625
596.355535	18891.005674
596.706876	18890.970386
597.058162	18780.117933
597.409395	19011.453963
597.760573	19092.682075
598.111698	18873.278457
598.462768	18799.090316
598.813785	18772.899001
599.164748	18581.892202
599.515657	18623.819479
599.866511	18428.719263
600.217312	18775.835473
600.568060	18297.608934
600.918753	18601.867775
601.269392	18515.205299
601.619978	18301.604049
601.970510	18503.340943
602.320988	18446.733827
602.671412	18653.653027
603.021783	18561.213389
603.372100	18287.932439
603.722363	18428.056352
604.072572	18368.933699
604.422728	18515.462398
604.772830	18276.889792
605.122878	18217.343683
605.472872	18225.711998
605.822813	18201.297690
606.172701	18174.236776
606.522534	18366.695427
606.872314	18384.208396
607.222041	18227.587307
607.571714	18440.419782
607.921333	18262.996372
608.270899	18344.675667
608.620411	18536.327733
608.969870	18293.220610
609.319276	18289.646432
609.668627	18328.775868
610.017926	18466.071693
610.367171	18571.903156
610.716362	18616.466956
611.065500	18437.737888
611.414585	18574.116223
611.763616	18555.907575
612.112594	18493.460282
612.461518	18471.727868
612.810389	18661.648297
613.159207	18516.147995
613.507971	18432.056507
613.856682	18706.149083
614.205340	18619.529457
614.553945	18773.335061
614.902496	18519.253345
615.250994	18766.625285
615.599439	18693.009316
615.947830	18683.990691
616.296169	18737.515142
616.644454	18695.781950
616.992686	18666.097116
617.340864	18886.176249
617.688990	18631.787023
618.037063	18821.140323
618.385082	18664.965377
618.733048	18934.939330
619.080961	18813.893664
619.428821	18852.861783
619.776628	18743.314990
620.124382	18664.627619
620.472083	18704.528352
620.819731	18732.138752
621.167326	18420.439168
621.514868	18446.829609
621.862357	18222.830979
622.209793	18244.845697
622.557176	18070.575530
622.904506	17903.143687
623.251783	17808.652299
623.599007	17566.240855
623.946179	17516.711518
624.293297	17454.158361
624.640363	17210.088377
624.987376	17222.348463
625.334336	17017.516300
625.681243	16856.486723
626.028097	16867.438629
626.374899	16801.744833
626.721647	16658.389541
627.068343	16505.350193
627.414987	16432.573575
627.761577	16405.616005
628.108115	16447.996985
628.454600	16168.286043
628.801032	16260.327430
629.147412	16199.717638
629.493739	16216.691203
629.840014	16032.563058
630.186236	16124.032274
630.532405	15882.510594
630.878521	16089.500371
631.224585	15988.026985
631.570597	15807.704912
631.916556	15840.222875
632.262462	15811.836137
632.608316	15731.132305
632.954117	15669.194169
633.299866	15666.166956
633.645562	15582.733339
633.991206	15342.348438
634.336797	15202.779053
634.682336	15178.316854
635.027823	15065.400049
635.373257	14952.924345
635.718639	14846.772768
636.063968	14796.028514
636.409245	14556.515733
636.754470	14576.478702
637.099642	14430.045786
637.444762	14195.380074
637.789829	14240.309358
638.134845	14074.843565
638.479808	14113.720944
638.824719	14052.170976
639.169577	13907.036157
639.514383	13955.005256
639.859137	13771.063634
640.203839	13851.626314
640.548489	13694.528837
640.893086	13680.547197
641.237632	13551.244121
641.582125	13715.842835
641.926566	13534.293241
642.270955	13542.732133
642.615292	13510.667874
642.959576	13516.694573
643.303809	13556.189493
643.647990	13483.909429
643.992118	13544.584757
644.336195	13309.344354
644.680219	13524.891489
645.024192	13445.692442
645.368112	13684.781766
645.711981	13739.112801
646.055797	13918.582919
646.399562	13886.848856
646.743274	14162.100897
647.086935	14434.119038
647.430544	14394.644283
647.774101	14426.161577
648.117606	14579.268981
648.461059	14547.532397
648.804460	14529.144788
649.147810	14253.393673
649.491108	14164.044262
649.834354	14179.780224
650.177548	13873.114232
650.520690	13684.479297
650.863781	13604.498870
651.206820	13650.295232
651.549807	13483.818688
651.892742	13276.922173
652.235626	13222.485273
652.578458	13222.548287
652.921238	12909.621183
653.263967	13107.541924
653.606644	12939.190071
653.949269	12916.678798
654.291843	12715.962737
654.634365	12870.436294
654.976836	12729.009243
655.319255	12729.135272
655.661622	12691.281248
656.003938	12602.193977
656.346203	12528.993903
656.688416	12608.142539
657.030577	12565.633009
657.372687	12477.115389
657.714746	12462.816156
658.056753	12655.610043
658.398708	12464.787247
658.740612	12470.599697
659.082465	12571.889081
659.424266	12531.600179
659.766016	12557.693192
660.107715	12463.806742
660.449362	12541.526211
660.790958	12504.269564
661.132503	12442.344030
661.473996	12510.036644
661.815438	12525.586083
662.156829	12544.566027
662.498168	12526.473326
662.839456	12520.255063
663.180693	12539.232486
663.521879	12635.006848
663.863013	12609.460801
664.204097	12581.978950
664.545129	12705.756921
664.886110	12672.018999
665.227040	12774.394752
665.567918	12769.562806
665.908746	12802.053042
666.249522	12790.239098
666.590248	12830.530520
666.930922	12947.898664
667.271545	12931.303186
667.612118	13012.876617
667.952639	12916.464549
668.293109	12930.068103
668.633528	12877.907284
668.973896	12861.210983
669.314213	12939.716871
669.654480	12682.320597
669.994695	12746.812078
670.334859	12777.331224
670.674973	12723.474057
671.015035	12751.505392
671.355047	12692.811238
671.695008	12661.732525
672.034918	12668.225531
672.374777	12710.641799
672.714585	12629.567443
673.054342	12662.052638
673.394049	12622.194755
673.733705	12707.049977
674.073310	12617.675361
674.412864	12635.783185
674.752368	12498.021054
675.091820	12521.296061
675.431223	12508.521777
675.770574	12382.601316
676.109875	12294.247533
676.449125	12255.511307
676.788324	12199.118439
677.127473	12026.035463
677.466571	12021.942046
677.805619	11914.510017
678.144616	11840.326917
678.483562	11820.719349
678.822458	11681.699450
679.161303	11662.994248
679.500098	11647.797690
679.838842	11598.248189
680.177535	11631.890329
680.516179	11686.591889
680.854771	11634.196657
681.193314	11854.459792
681.531805	12006.813543
681.870247	12426.925661
682.208638	12834.155110
682.546978	13156.884738
682.885268	13198.232282
683.223508	12889.819531
683.561697	12733.798340
683.899836	12635.974749
684.237925	12436.980242
684.575963	12354.086029
684.913951	12275.242383
685.251889	12219.126779
685.589776	12324.882625
685.927614	12242.764749
686.265401	12203.897453
686.603137	12255.014753
686.940824	12407.907908
687.278460	12534.874409
687.616046	12580.416193
687.953582	12752.972368
688.291068	12677.649968
688.628504	12914.874065
688.965889	12925.924274
689.303224	12882.393911
689.640510	12777.048919
689.977745	12464.552833
690.314930	12240.410530
690.652065	12149.231181
690.989150	11864.015299
691.326185	11630.453600
691.663170	11425.313927
692.000105	11190.935561
692.336990	11073.854763
692.673825	10822.066772
693.010610	10698.271157
693.347345	10489.287604
693.684030	10293.325351
694.020665	10237.834850
694.357251	10038.071567
694.693786	9978.187701
695.030272	9812.197628
695.366707	9691.514926
695.703093	9632.883786
696.039429	9627.356161
696.375716	9548.484788
696.711952	9416.267926
697.048139	9453.217063
697.384276	9411.229292
697.720363	9430.267210
698.056400	9370.015339
698.392388	9317.781423
698.728326	9282.616855
699.064214	9216.774344
699.400053	9255.240869
699.735842	9074.243281
700.071581	9028.552783
700.407270	8961.238256
700.742910	8874.704330
701.078501	8787.890619
701.414042	8665.811517
701.749533	8593.717976
702.084974	8458.375598
702.420366	8578.004699
702.755709	8455.731513
703.091002	8322.168662
703.426246	8347.200512
703.761440	8300.942884
704.096584	8258.622398
704.431679	8189.936676
704.766725	8174.810694
705.101721	8129.566338
705.436668	8170.250971
705.771565	8063.134013
706.106413	8146.197105
706.441212	8188.386522
706.775961	8143.495047
707.110661	8183.095831
707.445311	8320.615987
707.779913	8225.759116
708.114465	8356.710648
708.448967	8392.626349
708.783421	8530.761526
709.117825	8712.306079
709.452180	8751.387624
709.786485	8838.186211
710.120742	9125.552145
710.454949	9121.519222
710.789107	9222.811126
711.123216	9436.228374
711.457275	9606.813459
711.791286	9761.801213
712.125247	9757.468341
712.459159	9752.835521
712.793023	9994.621862
713.126837	9566.148991
713.460602	9717.781858
713.794318	9548.542761
714.127985	9575.233150
714.461602	9255.601311
714.795171	9200.811531
715.128691	8960.149367
715.462162	8711.943116
715.795584	8652.165114
716.128957	8502.563832
716.462281	8334.658121
716.795556	8385.891367
717.128782	8177.043925
717.461960	7907.279180
717.795088	7984.350861
718.128167	7894.260400
718.461198	7722.251190
718.794180	7665.686923
719.127113	7662.332035
719.459997	7503.749938
719.792833	7275.105885
720.125619	7333.739545
720.458357	7184.770929
720.791046	7186.061464
721.123686	7182.759508
721.456278	7015.788931
721.788821	7037.533948
722.121315	6929.491939
722.453761	7003.889287
722.786158	6941.794875
723.118506	6949.419620
723.450805	6920.213695
723.783056	6982.376163
724.115259	6898.869450
724.447412	6892.409211
724.779518	6937.494771
725.111574	6940.103568
725.443582	7025.049531
725.775542	6997.849985
726.107453	7191.526075
726.439315	7102.753876
726.771129	7164.127404
727.102895	7330.314081
727.434612	7445.078469
727.766281	7479.161710
728.097901	7557.039976
728.429473	7547.396248
728.760996	7528.209617
729.092471	7501.075606
729.423897	7449.983512
729.755276	7459.382743
730.086606	7388.499079
730.417887	7487.787125
730.749120	7688.316663
731.080305	7877.710292
731.411442	8000.853078
731.742530	7990.261614
732.073570	8104.557174
732.404562	8183.882251
732.735506	8032.929940
733.066401	8178.982249
733.397249	8106.492977
733.728048	7866.302161
734.058798	7530.919237
734.389501	7301.934906
734.720156	7125.338245
735.050762	6893.195631
735.381320	6801.262629
735.711831	6749.426965
736.042293	6639.489482
736.372707	6658.141751
736.703073	6520.442634
737.033391	6563.027781
737.363661	6573.929276
737.693883	6602.525221
738.024056	6684.514547
738.354182	6727.513069
738.684260	6764.212669
739.014290	6875.745677
739.344272	6987.825651
739.674207	7012.920515
740.004093	7085.664365
740.333931	7100.941581
740.663722	7107.318641
740.993464	7189.802000
741.323159	7171.628641
741.652806	6922.925836
741.982405	6942.414937
742.311956	6997.189594
742.641460	6831.121383
742.970915	6641.894112
743.300323	6628.633357
743.629683	6579.398928
743.958996	6444.827847
744.288260	6355.516244
744.617477	6305.308873
744.946647	6305.276105
745.275768	6137.645137
745.604842	6096.897490
745.933869	6076.705149
746.262847	6036.086052
746.591778	6026.061717
746.920662	5984.694009
747.249498	5969.870496
747.578286	6025.517273
747.907027	6101.447132
748.235720	6162.218241
748.564365	6129.801102
748.892963	6159.687582
749.221514	6312.505120
749.550017	6139.122195
749.878473	6018.053844
750.206881	6076.145581
750.535242	6019.528382
750.863555	5945.705725
751.191821	5965.865299
751.520039	5968.451411
751.848210	5869.508684
752.176334	5892.345111
752.504411	5942.544921
752.832440	5868.634044
753.160421	5798.879598
753.488356	5844.244942
753.816243	5879.490169
754.144082	5731.716306
754.471875	5697.743970
754.799620	5744.278861
755.127318	5761.317961
755.454969	5708.060691
755.782572	5679.734448
756.110129	5715.216609
756.437638	5706.813006
756.765100	5642.931504
757.092515	5641.824971
757.419882	5695.006623
757.747203	5675.686401
758.074477	5737.375001
758.401703	5723.912600
758.728882	5675.502399
759.056014	5734.141101
759.383099	5862.055338
759.710138	5870.761411
760.037129	5856.815059
760.364073	5858.382858
760.690970	5946.683709
761.017820	5922.662611
761.344623	5877.123347
761.671379	5984.711653
761.998088	6098.225834
762.324751	6346.348906
762.651366	6946.536080
762.977935	8260.487624
763.304456	9896.495803
763.630931	10792.553337
763.957359	10389.770186
764.283740	9453.688411
764.610074	8612.418136
764.936362	7612.739684
765.262602	7019.499220
765.588796	6487.032387
765.914943	6148.949924
766.241044	5986.609647
766.567097	5783.851919
766.893104	5520.713770
767.219064	5346.730948
767.544978	5284.129900
767.870845	5204.071336
768.196665	5100.306745
768.522438	5030.393503
768.848165	4993.986290
769.173846	4928.186630
769.499479	4887.136514
769.825066	4829.821115
770.150607	4770.731230
770.476101	4749.175257
770.801548	4744.078650
771.126949	4670.255993
771.452303	4611.876911
771.777611	4572.954162
772.102872	4591.220783
772.428087	4554.246440
772.753256	4518.134135
773.078378	4470.777535
773.403453	4396.861617
773.728482	4385.440883
774.053465	4336.191331
774.378401	4326.358560
774.703291	4329.345444
775.028135	4251.797374
775.352932	4205.378429
775.677683	4197.007593
776.002388	4211.712639
776.327046	4225.883323
776.651658	4148.519255
776.976224	4087.422991
777.300743	4090.775358
777.625216	4114.166312
777.949643	4110.503914
778.274024	4061.647572
778.598359	4020.635264
778.922647	4041.919016
779.246889	4036.628325
779.571086	4032.474414
779.895236	4014.626209
780.219339	3999.938807
780.543397	3993.990246
780.867409	4045.510838
781.191374	4062.345771
781.515294	3997.718179
781.839167	3988.971777
782.162995	4010.500025
782.486776	3996.669619
782.810511	4006.026001
783.134201	4002.860156
783.457844	3957.444401
783.781441	3900.953231
784.104993	3907.841968
784.428498	3926.181685
784.751958	3924.187909
785.075372	3903.070516
785.398739	3866.423848
785.722061	3877.597565
786.045337	3922.718413
786.368568	3953.529945
786.691752	3864.006614
787.014891	3916.729522
787.337983	4044.235426
787.661030	4203.566135
787.984031	4364.033623
788.306987	4533.860014
788.629897	4616.509731
788.952760	4569.929470
789.275579	4500.336341
789.598351	4437.395015
789.921078	4296.842604
790.243759	4097.401955
790.566395	4080.980397
790.888984	4076.352617
791.211529	3968.660968
791.534027	3910.012184
791.856480	3896.564907
792.178888	3833.860514
792.501249	3784.454686
792.823566	3796.119916
793.145836	3823.732836
793.468062	3773.424642
793.790241	3731.245307
794.112375	3756.168772
794.434464	3823.150583
794.756507	3848.242926
795.078505	3829.010924
795.400457	3858.310111
795.722364	4001.246987
796.044226	4102.254066
796.366042	4176.671579
796.687812	4158.243641
797.009538	4162.241276
797.331218	4119.086478
797.652852	4093.416923
797.974442	4072.869180
798.295986	4069.587389
798.617484	3991.497395
798.938938	3906.440527
799.260346	3948.433338
799.581709	3942.305816
799.903026	3867.875700
800.224299	3834.558714
800.545526	3828.595029
800.866708	3785.321765
801.187845	3723.721385
801.508936	3762.606325
801.829983	3760.244545
802.150984	3682.141948
802.471940	3671.646266
802.792851	3678.499715
803.113717	3678.497194
803.434538	3683.734953
803.755314	3625.623052
804.076045	3600.545832
804.396731	3619.361939
804.717372	3646.062410
805.037967	3632.133702
805.358518	3618.777165
805.679024	3647.352946
805.999485	3660.023886
806.319901	3663.431706
806.640272	3677.637677
806.960598	3690.517825
807.280879	3669.249197
807.601115	3679.071886
807.921306	3694.147456
808.241453	3735.936101
808.561554	3712.391392
808.881611	3646.944612
809.201623	3683.732432
809.521590	3696.700801
809.841513	3667.164680
810.161390	3695.543856
810.481223	3678.782019
810.801011	3620.082824
811.120755	3615.737349
811.440453	3648.144407
811.760107	3650.634737
812.079716	3608.856174
812.399281	3578.100095
812.718801	3596.344030
813.038276	3569.482242
813.357707	3568.194227
813.677093	3586.415478
813.996434	3537.160884
814.315731	3545.574570
814.634983	3546.716391
814.954191	3561.358423
815.273354	3591.315479
815.592473	3589.046960
815.911547	3592.616097
816.230577	3633.797283
816.549562	3683.765200
816.868502	3723.290367
817.187399	3751.082248
817.506250	3744.768203
817.825058	3720.495047
818.143821	3811.601300
818.462539	3916.217845
818.781213	3958.371973
819.099843	4018.475130
819.418429	4263.356740
819.736970	4506.491590
820.055466	4750.629629
820.373919	5115.742758
820.692327	5525.878432
821.010691	5966.530731
821.329011	7352.054057
821.647286	10109.902968
821.965517	14667.796683
822.283704	18685.986988
822.601847	20834.085657
822.919945	19001.860647
823.237999	16419.138900
823.556010	13935.876598
823.873976	11844.395128
824.191897	9753.324513
824.509775	8409.738546
824.827609	7282.402955
825.145398	6740.647795
825.463144	6634.052597
825.780845	6742.704586
826.098502	6935.599297
826.416116	7814.443812
826.733685	9137.877766
827.051210	10244.378268
827.368692	10281.637436
827.686129	9017.041308
828.003522	7509.937955
828.320872	6502.780951
828.638177	5795.050842
828.955439	5236.395214
829.272656	4738.319132
829.589830	4458.320844
829.906960	4284.322899
830.224046	4097.860700
830.541088	3971.577276
830.858086	3929.085390
831.175041	3854.897249
831.491952	3835.834126
831.808819	3845.482895
832.125642	3917.851179
832.442421	4069.315167
832.759157	4341.807176
833.075849	4892.717071
833.392497	5761.075986
833.709101	6532.533841
834.025662	6862.575663
834.342179	6501.800447
834.658653	5836.431153
834.975083	5187.606927
835.291469	4614.518476
835.607811	4206.578224
835.924110	4069.988161
836.240366	3869.415773
836.556578	3666.408507
836.872746	3558.731982
837.188871	3516.966022
837.504952	3447.120835
837.820990	3368.405739
838.136984	3321.495282
838.452935	3347.230372
838.768842	3344.543437
839.084706	3365.953217
839.400526	3525.752753
839.716303	3862.585009
840.032037	4391.160072
840.347727	4650.071213
840.663373	4366.791134
840.978977	3986.698217
841.294537	3680.629602
841.610054	3455.418575
841.925527	3347.512677
842.240957	3279.920886
842.556344	3225.983060
842.871687	3165.698422
843.186987	3116.653036
843.502244	3077.700040
843.817458	3045.424053
844.132629	3014.410874
844.447756	3022.965713
844.762840	3007.786798
845.077881	2975.188177
845.392879	2958.254941
845.707833	2958.701083
846.022745	2952.664302
846.337613	2955.688994
846.652438	2940.583176
846.967221	2941.525872
847.281960	2927.569438
847.596656	2922.382090
847.911309	2922.422420
848.225919	2914.117119
848.540485	2909.378434
848.855009	2913.315575
849.169490	2902.552712
849.483928	2891.351268
849.798323	2890.133829
850.112675	2885.934548
850.426984	2897.980385
850.741251	2896.089953
851.055474	2884.737274
851.369654	2880.114536
851.683792	2885.863972
851.997887	2892.414951
852.311938	2894.426372
852.625947	2882.975391
852.939914	2886.529404
853.253837	2894.776732
853.567718	2874.032384
853.881555	2875.280069
854.195350	2891.626011
854.509103	2885.911863
854.822812	2877.795605
855.136479	2875.970707
855.450103	2877.775441
855.763685	2872.683875
856.077224	2866.626929
856.390720	2882.985473
856.704173	2890.196844
857.017584	2883.406409
857.330953	2881.024464
857.644278	2890.811864
857.957561	2899.815365
858.270802	2902.121693
858.584000	2903.379461
858.897155	2886.973026
859.210268	2886.317676
859.523339	2883.524877
859.836367	2884.833056
860.149352	2878.153527
860.462295	2875.690923
860.775195	2880.548075
861.088054	2883.267778
861.400869	2869.331508
861.713642	2862.246166
862.026373	2876.454658
862.339062	2880.343908
862.651708	2885.647202
862.964312	2891.331103
863.276873	2882.433467
863.589392	2889.402862
863.901869	2905.905079
864.214303	2926.667071
864.526696	2943.731377
864.839045	2937.646704
865.151353	2938.654935
865.463619	2936.789708
865.775842	2939.302723
866.088023	2954.847121
866.400162	2961.458594
866.712258	2932.068668
867.024313	2923.241607
867.336325	2931.163780
867.648296	2950.562140
867.960224	2944.167437
868.272110	2931.554470
868.583954	2937.629060
868.895755	2950.463838
869.207515	2934.261569
869.519233	2941.614092
869.830909	2951.731688
870.142542	2963.127216
870.454134	2960.054633
870.765684	2962.408852
871.077191	2962.688636
871.388657	2973.640543
871.700081	2982.530618
872.011463	2994.384891
872.322803	2998.982423
872.634101	2996.313132
872.945357	3011.600431
873.256571	3038.810059
873.567744	3029.592309
873.878874	3024.417565
874.189963	3049.633416
874.501010	3048.680638
874.812015	3040.254350
875.122979	3039.273845
875.433900	3035.371992
875.744780	3041.489432
876.055618	3050.472768
876.366415	3046.770041
876.677169	3056.121381
876.987882	3052.373283
877.298554	3048.950340
877.609183	3069.084708
877.919771	3095.081939
878.230317	3119.032461
878.540822	3170.535409
878.851285	3209.317006
879.161707	3253.666557
879.472087	3357.080787
879.782425	3581.961618
880.092722	4021.073845
880.402977	4546.079771
880.713191	5180.327501
881.023363	6337.990673
881.333494	7623.870552
881.643583	8173.305910
881.953631	7871.318109
882.263637	7231.535192
882.573602	6647.512478
882.883526	6068.598973
883.193408	5492.468185
883.503248	5033.327455
883.813048	4731.823605
884.122806	4427.007717
884.432522	4110.266980
884.742197	3875.578583
885.051831	3683.777803
885.361424	3549.352915
885.670975	3478.675938
885.980485	3393.971950
886.289954	3315.201401
886.599382	3271.338321
886.908768	3233.393556
887.218113	3189.898481
887.527417	3131.834471
887.836680	3085.385279
888.145901	3075.774320
888.455082	3063.892320
888.764221	3016.510515
889.073319	2985.963643
889.382376	2987.329796
889.691392	2989.255517
890.000366	2983.758138
890.309300	2973.864874
890.618193	2985.676298
890.927044	3001.263545
891.235855	3003.756396
891.544625	2990.120075
891.853353	3002.130624
892.162041	3019.459590
892.470687	3060.360992
892.779293	3111.561471
893.087858	3156.236176
893.396381	3231.288875
893.704864	3352.097606
894.013306	3589.452773
894.321707	3892.542066
894.630068	4093.956327
894.938387	4092.219649
895.246665	4047.292886
895.554903	3925.357457
895.863100	3727.174576
896.171256	3555.034295
896.479371	3418.025816
896.787446	3301.202117
897.095480	3197.649255
897.403473	3132.386477
897.711425	3094.413986
898.019336	3084.301431
898.327207	3054.861093
898.635038	3020.699714
898.942827	3006.962570
899.250576	2994.624346
899.558284	2965.047896
899.865952	2944.462344
900.173579	2924.572472
900.481165	2916.133580
900.788711	2905.796694
901.096216	2881.150493
901.403681	2867.289841
901.711105	2877.745194
902.018489	2872.381406
902.325832	2871.594986
902.633135	2885.425392
902.940397	2915.758014
903.247619	3000.267917
903.554800	3191.453677
903.861941	3534.733569
904.169041	3963.549238
904.476101	4260.153087
904.783121	4216.731108
905.090100	3969.412100
905.397039	3697.678784
905.703938	3447.244344
906.010796	3265.331787
906.317614	3152.170486
906.624391	3057.661454
906.931129	2987.322234
907.237826	2925.401742
907.544483	2878.277035
907.851099	2847.760411
908.157675	2824.533294
908.464211	2806.024698
908.770707	2795.423151
909.077163	2779.540996
909.383578	2765.952566
909.689954	2754.267171
909.996289	2751.953282
910.302584	2754.834301
910.608839	2756.460073
910.915054	2747.698548
911.221229	2740.225037
911.527363	2744.600759
911.833458	2750.267016
912.139513	2754.670464
912.445527	2758.897471
912.751502	2768.090015
913.057436	2775.800460
913.363331	2791.203706
913.669186	2811.965698
913.975000	2844.967611
914.280775	2905.020357
914.586510	2974.726911
914.892205	3055.287070
915.197859	3182.256092
915.503475	3376.791698
915.809050	3591.988473
916.114585	3740.107656
916.420081	3759.052312
916.725536	3698.939073
917.030952	3577.124631
917.336328	3448.290383
917.641665	3316.499498
917.946961	3216.598952
918.252218	3148.979435
918.557435	3067.232084
918.862612	3011.340812
919.167750	2960.795683
919.472848	2924.143974
919.777906	2891.215157
920.082925	2870.274204
920.387904	2839.452589
920.692843	2822.030361
920.997743	2811.363280
921.302603	2798.215951
921.607423	2787.856379
921.912204	2775.097219
922.216946	2761.939807
922.521647	2754.920001
922.826310	2748.096799
923.130932	2742.382651
923.435516	2732.938049
923.740059	2726.258521
924.044564	2718.507747
924.349028	2712.879298
924.653454	2704.752958
924.957840	2697.987730
925.262186	2693.732996
925.566493	2686.972809
925.870761	2685.294104
926.174989	2681.419978
926.479178	2676.928310
926.783328	2671.229285
927.087438	2668.943122
927.391509	2671.050324
927.695541	2668.539830
927.999533	2663.942297
928.303486	2660.443737
928.607400	2659.758140
928.911275	2659.460712
929.215110	2657.345947
929.518906	2656.496513
929.822663	2656.337717
930.126381	2654.230514
930.430060	2655.100113
930.733699	2656.562048
931.037299	2661.825013
931.340861	2660.322749
931.644383	2663.854077
931.947866	2659.067502
932.251309	2657.429127
932.554714	2659.637152
932.858080	2655.838642
933.161407	2652.687921
933.464694	2652.266985
933.767943	2648.153403
934.071153	2651.702376
934.374323	2649.476706
934.677455	2649.151552
934.980548	2651.344454
935.283602	2649.302787
935.586617	2647.750111
935.889593	2650.106851
936.192530	2649.751449
936.495428	2647.903866
936.798287	2650.437046
937.101108	2655.755463
937.403890	2660.758809
937.706632	2662.124961
938.009336	2669.290962
938.312002	2676.976201
938.614628	2690.196627
938.917216	2694.189220
939.219765	2695.759540
939.522275	2692.618901
939.824747	2690.652851
940.127179	2688.583457
940.429573	2686.544311
940.731929	2683.343178
941.034246	2678.750687
941.336524	2676.338495
941.638763	2674.866478
941.940964	2671.088133
942.243126	2669.164933
942.545250	2670.820952
942.847335	2666.815755
943.149381	2661.121772
943.451389	2655.954589
943.753359	2657.403921
944.055290	2655.770587
944.357182	2652.224135
944.659036	2652.115750
944.960851	2652.705565
945.262628	2649.632982
945.564367	2650.845380
945.866067	2652.166162
946.167729	2652.924856
946.469352	2652.682880
946.770937	2652.456028
947.072484	2647.563588
947.373992	2650.603404
947.675462	2644.591828
947.976893	2643.664256
948.278286	2644.269194
948.579641	2643.495377
948.880958	2640.117804
949.182236	2642.706437
949.483476	2639.827938
949.784678	2642.010757
950.085841	2641.236940
950.386967	2643.954122
950.688054	2644.596869
950.989103	2644.438073
951.290114	2645.169040
951.591087	2648.914618
951.892021	2649.887560
952.192917	2650.991573
952.493776	2654.762356
952.794596	2657.217398
953.095378	2653.025679
953.396122	2653.348312
953.696828	2651.956954
953.997496	2652.178765
954.298126	2647.992087
954.598718	2644.833804
954.899272	2643.578556
955.199788	2641.577218
955.500266	2637.529172
955.800706	2637.773668
956.101108	2632.220837
956.401472	2634.348204
956.701798	2630.829478
957.002087	2625.314456
957.302337	2627.514920
957.602550	2626.189096
957.902724	2623.159363
958.202861	2623.872686
958.502960	2622.201543
958.803022	2622.030144
959.103045	2622.483848
959.403031	2619.973353
959.702979	2619.345730
960.002889	2618.024947
960.302762	2618.463528
960.602596	2620.144753
960.902393	2620.737088
961.202153	2616.741974
961.501875	2618.844135
961.801559	2620.570730
962.101205	2618.314814
962.400814	2616.764659
962.700385	2616.399175
962.999918	2613.989504
963.299414	2612.399020
963.598873	2615.587550
963.898293	2612.126797
964.197677	2616.618466
964.497022	2614.450769
964.796331	2614.173506
965.095601	2613.591253
965.394835	2612.512446
965.694030	2613.190481
965.993189	2614.649895
966.292309	2613.135028
966.591393	2616.245420
966.890439	2613.538321
967.189447	2615.196860
967.488419	2612.179730
967.787353	2614.602004
968.086249	2613.722323
968.385108	2611.015223
968.683930	2614.256685
968.982714	2615.277519
969.281462	2615.549741
969.580172	2611.695779
969.878844	2613.555965
970.177480	2614.498660
970.476078	2615.953033
970.774639	2612.063783
971.073162	2612.217538
971.371649	2617.281377
971.670098	2613.966819
971.968510	2612.076386
972.266885	2616.696603
972.565223	2614.498660
972.863524	2614.854062
973.161788	2615.274998
973.460014	2616.613424
973.758204	2613.273660
974.056356	2614.259206
974.354471	2614.962447
974.652550	2613.765172
974.950591	2616.615945
975.248595	2612.600666
975.546563	2614.869185
975.844493	2610.881632
976.142386	2611.998248
976.440243	2614.995214
976.738062	2613.719802
977.035845	2613.109822
977.333590	2613.329113
977.631299	2613.639144
977.928971	2609.863319
978.226606	2609.575974
978.524204	2609.170161
978.821765	2607.128493
979.119290	2611.985645
979.416777	2609.926334
979.714228	2610.743001
980.011642	2611.990686
980.309020	2612.525049
980.606360	2614.057559
980.903664	2613.089658
981.200931	2613.896242
981.498162	2613.371962
981.795356	2614.692745
982.092513	2617.382200
982.389633	2617.566202
982.686717	2619.854886
982.983764	2627.025928
983.280775	2628.513068
983.577749	2630.279992
983.874686	2628.692029
984.171587	2625.624487
984.468451	2624.530557
984.765279	2622.904784
985.062070	2618.342540
985.358824	2617.470421
985.655543	2618.808847
985.952224	2615.108640
986.248869	2612.552775
986.545478	2612.376335
986.842050	2611.768876
987.138586	2611.158896
987.435086	2612.895573
987.731549	2610.284256
988.027975	2612.467075
988.324366	2610.364914
988.620719	2609.081941
988.917037	2610.405243
989.213318	2606.573967
989.509563	2608.625716
989.805772	2610.196036
990.101944	2608.872733
990.398080	2609.974225
990.694180	2607.567074
990.990244	2608.240068
991.286271	2604.507093
991.582262	2606.868874
991.878217	2609.454986
992.174136	2609.243257
992.470019	2609.112187
992.765865	2604.529779
993.061676	2603.776126
993.357450	2604.560026
993.653188	2603.914758
993.948890	2608.540017
994.244556	2609.218052
994.540186	2610.937085
994.835780	2608.413988
995.131337	2610.049842
995.426859	2609.916252
995.722345	2612.078907
996.017795	2610.780809
996.313208	2613.876078
996.608586	2610.495984
996.903928	2616.361367
997.199234	2613.770214
997.494504	2612.373814
997.789738	2612.530090
998.084936	2612.015892
998.380099	2610.899277
998.675225	2610.906838
998.970316	2609.265943
999.265371	2610.203597
999.560390	2610.458176
999.855373	2609.276025
1000.150320	2607.703185
1000.445232	2606.200921
1000.740108	2609.694441
1001.034948	2610.052363
1001.329752	2609.739811
1001.624521	2606.987341
1001.919254	2605.563215
1002.213951	2608.877774
1002.508613	2608.832403
1002.803239	2609.344081
1003.097829	2604.754110
1003.392384	2606.619337
1003.686903	2608.040942
1003.981386	2607.534306
1004.275834	2605.409460
1004.570246	2607.788885
1004.864623	2604.973400
1005.158964	2606.795777
1005.453270	2603.919799
1005.747540	2606.669748
1006.041775	2608.136724
1006.335974	2605.510283
1006.630138	2605.288472
1006.924266	2607.861981
1007.218359	2607.562033
1007.512416	2603.080447
1007.806438	2601.875611
1008.100425	2606.311827
1008.394376	2602.820827
1008.688292	2607.657815
1008.982172	2607.390633
1009.276017	2608.131683
1009.569827	2607.330140
1009.863602	2607.345263
1010.157341	2605.285952
1010.451045	2605.190170
1010.744714	2606.901642
1011.038347	2608.000613
1011.331945	2604.184460
1011.625508	2607.597321
1011.919036	2607.458689
1012.212528	2606.395006
1012.505986	2606.130345
1012.799408	2605.185129
1013.092795	2605.817793
1013.386147	2604.444079
1013.679464	2605.575818
1013.972745	2607.481374
1014.265992	2605.961466
1014.559204	2604.365941
1014.852380	2603.375354
1015.145521	2603.917278
1015.438628	2604.925509
1015.731699	2606.405088
1016.024736	2605.192690
1016.317737	2602.188163
1016.610703	2606.999944
1016.903635	2605.608586
1017.196531	2604.169336
1017.489393	2602.377206
1017.782219	2605.623709
1018.075011	2603.030035
1018.367768	2603.919799
1018.660490	2604.378544
1018.953177	2604.378544
1019.245829	2604.378544
