Dividing Wavelength (nm)	Counts (n)	Blue Motor Position (mm): 1.500000	Red Motor Position (mm): 0.000000	
326.493990	2165.125165
326.888308	2165.125165
327.282561	2165.125165
327.676750	2124.906840
328.070874	2122.555142
328.464933	2122.978599
328.858929	2124.004473
329.252859	2129.224588
329.646726	2136.725825
330.040528	2149.530356
330.434265	2162.561739
330.827938	2182.610408
331.221547	2197.164219
331.615091	2216.239945
332.008571	2234.168808
332.401986	2255.744947
332.795338	2272.020312
333.188625	2289.992026
333.581847	2309.186219
333.975006	2325.905206
334.368100	2345.401868
334.761129	2361.127748
335.154095	2382.519884
335.546996	2396.012532
335.939833	2412.915521
336.332606	2425.036975
336.725315	2441.138421
337.117960	2453.365739
337.510540	2464.932667
337.903056	2476.275263
338.295508	2486.140801
338.687896	2493.523571
339.080220	2500.130003
339.472480	2507.066631
339.864676	2511.956550
340.256807	2520.450894
340.648875	2522.485000
341.040879	2525.408869
341.432818	2531.606968
341.824694	2531.160826
342.216506	2533.668800
342.608253	2536.078471
342.999937	2533.167205
343.391557	2532.068233
343.783113	2532.073274
344.174605	2529.598068
344.566033	2531.581762
344.957397	2530.941535
345.348697	2531.402801
345.739934	2525.875176
346.131106	2524.393077
346.522215	2524.796369
346.913260	2521.254958
347.304241	2519.021727
347.695159	2519.810668
348.086012	2517.627848
348.476802	2514.111643
348.867528	2510.424039
349.258191	2506.181908
349.648789	2506.796929
350.039324	2501.833913
350.429796	2507.611075
350.820203	2505.818945
351.210548	2503.905827
351.600828	2504.571260
351.991045	2500.389623
352.381198	2503.389109
352.771288	2500.180415
353.161314	2501.014726
353.551276	2498.655466
353.941175	2497.483397
354.331010	2500.054386
354.720782	2500.457678
355.110490	2497.627070
355.500135	2498.257214
355.889717	2498.836947
356.279235	2499.005826
356.668689	2498.791577
357.058080	2497.841319
357.447408	2497.836278
357.836672	2498.514313
358.225873	2499.746875
358.615010	2502.151506
359.004084	2499.835096
359.393095	2501.037411
359.782043	2500.750065
360.170927	2500.820641
360.559748	2499.343583
360.948505	2503.197545
361.337199	2504.132679
361.725830	2502.272493
362.114398	2504.404902
362.502903	2503.542864
362.891344	2505.370282
363.279722	2504.825838
363.668037	2509.544358
364.056289	2506.559995
364.444478	2506.076044
364.832603	2505.738287
365.220665	2511.084430
365.608665	2507.679131
365.996601	2508.331960
366.384474	2507.434635
366.772284	2510.676097
367.160031	2508.457989
367.547715	2511.265912
367.935336	2508.417660
368.322893	2506.854902
368.710388	2505.461023
369.097820	2509.693072
369.485189	2506.262567
369.872495	2511.301200
370.259738	2509.864471
370.646918	2515.719771
371.034035	2511.870850
371.421090	2512.271622
371.808081	2511.182733
372.195010	2510.169461
372.581875	2512.949657
372.968678	2515.591222
373.355418	2515.087107
373.742096	2515.422343
374.128710	2512.173320
374.515262	2515.503002
374.901751	2516.549041
375.288177	2513.158865
375.674540	2516.564165
376.060841	2518.318486
376.447079	2513.559637
376.833254	2515.591222
377.219367	2516.556603
377.605417	2515.097189
377.991404	2514.192302
378.377329	2514.237672
378.763191	2516.619617
379.148991	2517.557272
379.534727	2518.142046
379.920402	2517.423681
380.306013	2519.125071
380.691563	2516.027282
381.077049	2515.432426
381.462474	2517.937879
381.847835	2517.842097
382.233134	2520.786131
382.618371	2515.142559
383.003545	2518.477283
383.388657	2520.675226
383.773706	2519.546007
384.158693	2519.409896
384.543618	2518.202540
384.928480	2522.590864
385.313280	2519.740092
385.698017	2520.362674
386.082692	2520.077849
386.467305	2522.822757
386.851856	2520.087931
387.236344	2518.847807
387.620770	2519.288908
388.005133	2517.983249
388.389435	2519.298991
388.773674	2518.394103
389.157851	2522.903416
389.541965	2521.408713
389.926018	2522.671522
390.310008	2522.003570
390.693936	2521.781759
391.077802	2524.234280
391.461606	2525.305525
391.845348	2524.750998
392.229027	2523.916687
392.612645	2525.068591
392.996200	2523.377284
393.379694	2523.399969
393.763125	2524.425844
394.146494	2524.456091
394.529801	2525.378622
394.913047	2524.209074
395.296230	2523.851152
395.679351	2524.695546
396.062410	2526.122192
396.445408	2527.415248
396.828343	2526.517923
397.211217	2526.991791
397.594028	2525.698735
397.976778	2525.494569
398.359466	2529.305681
398.742092	2527.470701
399.124656	2527.947090
399.507158	2526.253262
399.889598	2530.255938
400.271977	2527.216123
400.654294	2527.306863
401.036549	2523.152953
401.418742	2529.935825
401.800874	2529.532533
402.182944	2530.147554
402.564952	2526.953983
402.946898	2528.478932
403.328783	2531.254087
403.710606	2530.311391
404.092367	2529.582944
404.474067	2530.444982
404.855705	2527.805938
405.237282	2530.903727
405.618797	2531.715352
406.000250	2530.565969
406.381642	2532.489170
406.762972	2527.790814
407.144240	2528.100845
407.525447	2530.056813
407.906593	2523.578930
408.287677	2531.901875
408.668700	2531.032276
409.049661	2532.675692
409.430560	2533.194931
409.811399	2533.111752
410.192176	2532.441279
410.572891	2531.347348
410.953545	2531.997657
411.334138	2532.615198
411.714669	2533.399098
412.095139	2533.870446
412.475547	2532.363141
412.855894	2531.054961
413.236180	2533.487318
413.616405	2532.413552
413.996568	2532.680733
414.376670	2534.971938
414.756711	2533.998995
415.136691	2536.065868
415.516609	2533.870446
415.896466	2532.784077
416.276262	2532.078316
416.655997	2536.365817
417.035670	2532.476567
417.415283	2536.716177
417.794834	2534.684592
418.174324	2535.113090
418.553753	2533.736855
418.933121	2533.348686
419.312428	2537.202648
419.691674	2533.106711
420.070859	2537.852957
420.449983	2534.145189
420.829045	2533.547812
421.208047	2535.957483
421.586988	2533.280631
421.965867	2538.170550
422.344686	2535.208872
422.723444	2532.834489
423.102141	2536.333049
423.480777	2537.895807
423.859352	2537.164840
424.237866	2538.094933
424.616319	2538.417567
424.994712	2537.293389
425.373044	2538.578883
425.751314	2537.212731
426.129524	2532.027904
426.507673	2534.384643
426.885762	2534.495549
427.263789	2537.343801
427.641756	2539.992927
428.019662	2537.258101
428.397508	2536.655683
428.775292	2538.843544
429.153016	2537.517721
429.530679	2539.808925
429.908282	2539.231713
430.285824	2540.484440
430.663305	2538.152906
431.040726	2537.421939
431.418086	2540.335726
431.795385	2542.183308
432.172624	2540.000489
432.549802	2540.582742
432.926920	2540.189532
433.303977	2542.906714
433.680974	2537.787422
434.057910	2539.027546
434.434786	2540.345808
434.811601	2539.909748
435.188355	2538.689789
435.565050	2541.817825
435.941683	2542.337064
436.318257	2542.178267
436.694770	2538.576363
437.071222	2539.274563
437.447614	2539.196425
437.823946	2540.607948
438.200218	2540.938143
438.576429	2542.271529
438.952580	2537.517721
439.328670	2541.447300
439.704700	2542.679862
440.080670	2542.377393
440.456580	2542.871426
440.832429	2541.064172
441.208218	2542.725233
441.583947	2542.881508
441.959616	2542.957126
442.335224	2545.069369
442.710773	2544.708927
443.086261	2544.275387
443.461689	2543.005017
443.837057	2542.531148
444.212365	2544.393854
444.587612	2541.427135
444.962800	2536.002854
445.337927	2540.860006
445.712995	2540.033256
446.088002	2541.356559
446.462949	2542.546272
446.837837	2543.665408
447.212664	2541.361600
447.587431	2543.897301
447.962139	2545.041643
448.336786	2544.083823
448.711374	2546.450645
449.085901	2543.965356
449.460369	2543.806560
449.834776	2546.866540
450.209124	2542.039636
450.583412	2548.293187
450.957640	2542.508463
451.331808	2543.849410
451.705917	2546.808567
452.079965	2544.189688
452.453954	2544.645912
452.827883	2545.757487
453.201752	2544.033412
453.575562	2547.375697
453.949311	2544.776982
454.323001	2546.856458
454.696632	2545.346633
455.070202	2547.116077
455.443713	2548.701520
455.817164	2546.952240
456.190556	2543.872095
456.563888	2547.965512
456.937160	2547.847045
457.310373	2547.700851
457.683526	2545.843186
458.056619	2546.415357
458.429653	2543.841848
458.802628	2545.202960
459.175542	2543.995603
459.548398	2547.239586
459.921194	2546.611962
460.293930	2548.910728
460.666607	2545.470141
461.039224	2547.065666
461.411782	2546.745553
461.784280	2544.489636
462.156719	2546.480892
462.529099	2548.036088
462.901419	2546.536345
463.273680	2542.929399
463.645882	2540.862526
464.018024	2545.785213
464.390106	2544.847558
464.762130	2545.918803
465.134094	2547.378218
465.505999	2547.816798
465.877845	2547.315203
466.249631	2544.199770
466.621358	2547.201777
466.993026	2546.977446
467.364634	2552.149670
467.736184	2546.886705
468.107674	2545.830583
468.479105	2548.751932
468.850477	2547.179092
469.221790	2549.316541
469.593043	2546.380069
469.964238	2546.737991
470.335373	2549.840821
470.706449	2548.056253
471.077467	2549.911397
471.448425	2546.874102
471.819324	2546.231355
472.190164	2548.651109
472.560945	2547.191695
472.931667	2546.770758
473.302330	2547.274874
473.672934	2546.750594
474.043479	2548.293187
474.413965	2551.390976
474.784393	2551.212015
475.154761	2547.794113
475.525070	2547.481561
475.895321	2551.547252
476.265513	2547.907539
476.635645	2548.550286
477.005719	2548.182282
477.375734	2551.849721
477.745691	2545.991900
478.115588	2548.830070
478.485427	2549.180430
478.855207	2548.991387
479.224928	2548.704041
479.594591	2548.557848
479.964194	2549.649257
480.333739	2550.052550
480.703226	2549.588763
481.072653	2552.305945
481.442022	2548.958619
481.811333	2548.114226
482.180584	2543.534338
482.549777	2548.956099
482.918912	2545.228165
483.287988	2549.543393
483.657005	2551.501881
484.025964	2551.849721
484.394864	2552.091696
484.763706	2546.049873
485.132489	2549.853424
485.501213	2551.499361
485.869879	2547.337888
486.238487	2548.189843
486.607036	2549.767724
486.975527	2551.196892
487.343959	2552.038764
487.712333	2551.572458
488.080648	2553.009186
488.448905	2551.390976
488.817104	2551.275029
489.185244	2552.628579
489.553326	2549.412323
489.921350	2551.320400
490.289315	2551.161603
490.657222	2553.094886
491.025070	2550.533980
491.392861	2550.939793
491.760593	2550.102961
492.128267	2551.249824
492.495883	2548.986346
492.863440	2550.806202
493.230939	2549.230842
493.598380	2553.593960
493.965763	2548.981304
494.333088	2553.384752
494.700354	2550.670091
495.067563	2551.758980
495.434713	2552.409289
495.801805	2551.973229
496.168839	2552.368960
496.535815	2552.585729
496.902733	2551.811912
497.269593	2553.427602
497.636395	2550.196223
498.003139	2551.635472
498.369825	2551.801830
498.736453	2551.698486
499.103023	2553.238559
499.469535	2552.558003
499.835989	2554.128322
500.202385	2547.108516
500.568723	2548.633465
500.935003	2548.462066
501.301226	2547.292518
501.667390	2550.586912
502.033497	2552.416851
502.399546	2552.386604
502.765537	2551.519525
503.131470	2553.541028
503.497345	2552.787376
503.863163	2549.561037
504.228923	2554.503888
504.594625	2553.072201
504.960269	2549.987015
505.325856	2552.275698
505.691385	2553.974567
506.056856	2551.222097
506.422270	2554.551779
506.787625	2554.398024
507.152924	2555.073539
507.518164	2552.018600
507.883347	2554.781152
508.248472	2552.673950
508.613540	2553.155380
508.978550	2552.189999
509.343503	2554.551779
509.708398	2551.975750
510.073236	2549.878630
510.438016	2551.043136
510.802738	2554.040102
511.167403	2552.295863
511.532010	2552.782334
511.896561	2554.234187
512.261053	2555.910370
512.625488	2552.293343
512.989866	2552.797458
513.354186	2552.290822
513.718449	2552.124464
514.082655	2551.005328
514.446803	2553.593960
514.810894	2555.204609
515.174927	2555.038251
515.538904	2552.242931
515.902822	2554.564382
516.266684	2552.815102
516.630488	2552.147149
516.994235	2551.706048
517.357925	2554.486244
517.721558	2551.862324
518.085133	2552.575647
518.448651	2552.784855
518.812112	2550.050029
519.175516	2550.559186
519.538863	2549.593805
519.902152	2556.638817
520.265385	2552.931048
520.628560	2553.949362
520.991678	2554.428271
521.354739	2552.724361
521.717743	2553.780483
522.080690	2554.234187
522.443580	2554.642520
522.806413	2554.125802
523.169189	2552.285781
523.531908	2551.948023
523.894569	2552.961295
524.257174	2553.974567
524.619722	2551.942982
524.982213	2554.100596
525.344647	2552.323589
525.707025	2554.244269
526.069345	2553.750236
526.431608	2555.272664
526.793815	2553.367108
527.155964	2553.535987
527.518057	2552.537838
527.880093	2552.875596
528.242072	2553.785524
528.603995	2554.660164
528.965860	2555.217212
529.327669	2556.590926
529.689421	2554.879454
530.051117	2552.772252
530.412755	2554.672767
530.774337	2552.600853
531.135862	2552.807540
531.497331	2553.185627
531.858743	2552.401727
532.220098	2554.135884
532.581396	2552.885678
532.942638	2554.342572
533.303824	2554.128323
533.664953	2553.906512
534.026025	2552.222766
534.387040	2553.606563
534.747999	2553.581357
535.108902	2554.884496
535.469748	2552.429454
535.830537	2556.094372
536.191270	2555.554969
536.551947	2552.310987
536.912567	2550.876778
537.273131	2550.649926
537.633638	2549.969371
537.994089	2553.883827
538.354483	2555.292829
538.714821	2556.429609
539.075103	2553.248641
539.435328	2554.609753
539.795497	2555.731409
540.155609	2554.985319
540.515665	2552.005997
540.875665	2553.364588
541.235609	2553.951882
541.595496	2556.008673
541.955328	2554.345092
542.315102	2556.401883
542.674821	2555.983467
543.034483	2554.413148
543.394090	2554.834084
543.753640	2556.573282
544.113134	2554.246790
544.472571	2554.541697
544.831953	2553.001625
545.191278	2556.293498
545.550548	2553.740154
545.909761	2556.250648
546.268918	2556.540515
546.628019	2553.230997
546.987064	2554.065308
547.346053	2556.033879
547.704986	2555.030689
548.063863	2557.460525
548.422684	2553.755277
548.781449	2554.975236
549.140158	2555.537325
549.498811	2555.623025
549.857408	2553.896429
550.215949	2559.398849
550.574434	2554.987839
550.932864	2554.461039
551.291237	2553.833415
551.649555	2558.204095
552.007817	2555.265103
552.366022	2556.338868
552.724173	2553.039433
553.082267	2554.977757
553.440305	2556.298539
553.798288	2556.215360
554.156215	2552.552962
554.514086	2553.193188
554.871902	2552.202602
555.229661	2552.182437
555.587365	2551.469114
555.945014	2555.131512
556.302606	2555.799465
556.660143	2554.145967
557.017625	2553.719989
557.375050	2554.657644
557.732421	2555.290308
558.089735	2555.517160
558.446994	2556.701832
558.804197	2557.921791
559.161345	2553.460370
559.518437	2557.599157
559.875474	2556.049002
560.232455	2557.140412
560.589381	2556.744681
560.946251	2555.668395
561.303065	2555.451625
561.659825	2556.706873
562.016528	2552.638662
562.373177	2557.251317
562.729770	2552.598332
563.086307	2556.366595
563.442789	2556.621173
563.799216	2555.814588
564.155587	2554.531615
564.511904	2555.572613
564.868164	2555.718807
565.224370	2555.625545
565.580520	2556.449774
565.936615	2557.455484
566.292654	2557.072356
566.648638	2557.725186
567.004567	2557.044630
567.360441	2555.406255
567.716260	2556.991698
568.072023	2556.348951
568.427732	2555.726368
568.783385	2556.301060
569.138982	2557.079918
569.494525	2555.741492
569.850013	2555.688560
570.205445	2554.282078
570.560823	2555.018086
570.916145	2558.383056
571.271412	2554.821481
571.626625	2556.933725
571.981782	2557.301729
572.336884	2555.522202
572.691931	2551.685883
573.046923	2551.353167
573.401860	2553.888868
573.756743	2556.457336
574.111570	2556.853066
574.466342	2553.409958
574.821059	2557.561348
575.175722	2556.018755
575.530330	2551.214536
575.884882	2557.044630
576.239380	2556.664023
576.593823	2557.029507
576.948211	2554.786193
577.302544	2557.352140
577.656823	2556.714434
578.011047	2555.214691
578.365216	2556.059084
578.719330	2554.193857
579.073389	2555.774259
579.427394	2556.157387
579.781344	2555.917932
580.135239	2556.338868
580.489080	2558.148643
580.842866	2554.382901
581.196597	2559.020762
581.550273	2557.788200
581.903895	2556.288457
582.257463	2557.059753
582.610975	2555.305432
582.964434	2557.238714
583.317837	2558.514126
583.671186	2558.211657
584.024481	2556.106975
584.377721	2558.231822
584.730906	2556.399362
585.084037	2557.359702
585.437113	2555.035730
585.790135	2556.469938
586.143103	2555.131512
586.496016	2559.963458
586.848874	2557.528581
587.201679	2557.006821
587.554428	2557.246276
587.907124	2557.019424
588.259765	2558.743499
588.612352	2555.832233
588.964884	2557.412634
589.317362	2555.781821
589.669786	2556.303580
590.022155	2554.856769
590.374470	2553.740154
590.726731	2552.414330
591.078937	2550.342416
591.431090	2559.008159
591.783188	2558.735937
592.135232	2558.088149
592.487222	2558.756102
592.839157	2553.861141
593.191038	2557.770556
593.542866	2557.357182
593.894639	2557.589075
594.246358	2555.998591
594.598022	2554.307283
594.949633	2555.683518
595.301190	2558.526729
595.652692	2554.801317
596.004141	2558.433468
596.355535	2558.201575
596.706876	2555.804506
597.058162	2558.609908
597.409395	2557.319373
597.760573	2559.101421
598.111698	2557.604198
598.462768	2556.971533
598.813785	2557.500854
599.164748	2556.041440
599.515657	2556.167469
599.866511	2556.008673
600.217312	2554.640000
600.568060	2554.876934
600.918753	2558.088149
601.269392	2556.790052
601.619978	2557.919270
601.970510	2552.953734
602.320988	2553.349464
602.671412	2556.006152
603.021783	2556.301060
603.372100	2557.316852
603.722363	2554.743343
604.072572	2556.119578
604.422728	2556.348951
604.772830	2558.733417
605.122878	2556.636297
605.472872	2557.155535
605.822813	2558.383056
606.172701	2558.385577
606.522534	2555.413817
606.872314	2558.294836
607.222041	2554.632438
607.571714	2553.571275
607.921333	2555.174362
608.270899	2555.693601
608.620411	2553.311656
608.969870	2559.592933
609.319276	2559.199723
609.668627	2566.181721
610.017926	2570.194480
610.367171	2571.853019
610.716362	2570.554922
611.065500	2566.864798
611.414585	2566.065775
611.763616	2564.792883
612.112594	2561.561504
612.461518	2560.822975
612.810389	2559.623180
613.159207	2560.129816
613.507971	2558.277192
613.856682	2560.709549
614.205340	2555.585216
614.553945	2558.272151
614.902496	2556.921122
615.250994	2560.202913
615.599439	2554.796275
615.947830	2557.238714
616.296169	2555.746533
616.644454	2557.894064
616.992686	2556.855587
617.340864	2557.478169
617.688990	2559.998746
618.037063	2559.328273
618.385082	2554.934907
618.733048	2556.175031
619.080961	2555.617983
619.428821	2557.347099
619.776628	2558.859445
620.124382	2560.482697
620.472083	2557.026986
620.819731	2559.015721
621.167326	2558.078067
621.514868	2555.554969
621.862357	2556.961451
622.209793	2556.883313
622.557176	2556.104455
622.904506	2558.935063
623.251783	2555.620504
623.599007	2557.624363
623.946179	2557.699980
624.293297	2556.704352
624.640363	2555.749053
624.987376	2555.726368
625.334336	2552.121943
625.681243	2555.252500
626.028097	2552.484906
626.374899	2557.253838
626.721647	2555.103786
627.068343	2559.638304
627.414987	2557.349620
627.761577	2556.086811
628.108115	2555.353323
628.454600	2557.745350
628.801032	2556.026317
629.147412	2555.880123
629.493739	2559.058571
629.840014	2557.936914
630.186236	2556.071687
630.532405	2557.505896
630.878521	2557.057233
631.224585	2558.060423
631.570597	2555.083621
631.916556	2555.093703
632.262462	2557.876420
632.608316	2557.556307
632.954117	2553.470452
633.299866	2554.067829
633.645562	2557.155535
633.991206	2555.945658
634.336797	2553.846018
634.682336	2557.367264
635.027823	2556.691749
635.373257	2555.018086
635.718639	2557.846173
636.063968	2558.292316
636.409245	2556.822819
636.754470	2558.655279
637.099642	2553.725030
637.444762	2558.345248
637.789829	2553.062118
638.134845	2558.980433
638.479808	2555.570093
638.824719	2553.467931
639.169577	2554.813919
639.514383	2557.435319
639.859137	2555.151677
640.203839	2552.147149
640.548489	2555.381049
640.893086	2552.247972
641.237632	2556.104455
641.582125	2554.887016
641.926566	2556.787531
642.270955	2551.998435
642.615292	2550.349978
642.959576	2551.970709
643.303809	2553.974567
643.647990	2556.805175
643.992118	2555.386090
644.336195	2555.262582
644.680219	2557.392470
645.024192	2556.379198
645.368112	2556.628735
645.711981	2555.615463
646.055797	2554.536656
646.399562	2554.440874
646.743274	2555.459187
647.086935	2556.258210
647.430544	2555.315514
647.774101	2557.241235
648.117606	2555.993549
648.461059	2557.200906
648.804460	2559.373643
649.147810	2558.592264
649.491108	2556.190154
649.834354	2558.272151
650.177548	2554.786193
650.520690	2556.457336
650.863781	2555.915412
651.206820	2559.582851
651.549807	2553.357026
651.892742	2554.037582
652.235626	2553.805689
652.578458	2556.848025
652.921238	2553.974567
653.263967	2554.077911
653.606644	2555.388611
653.949269	2555.985988
654.291843	2557.609239
654.634365	2555.570093
654.976836	2558.302398
655.319255	2556.658982
655.661622	2554.087993
656.003938	2556.429609
656.346203	2553.843497
656.688416	2557.868859
657.030577	2556.285936
657.372687	2556.865669
657.714746	2555.547407
658.056753	2556.661502
658.398708	2556.956410
658.740612	2557.037068
659.082465	2556.676626
659.424266	2552.691594
659.766016	2548.419216
660.107715	2551.073383
660.449362	2550.377704
660.790958	2556.142263
661.132503	2555.418858
661.473996	2554.105637
661.815438	2557.894064
662.156829	2555.139074
662.498168	2557.208468
662.839456	2555.408776
663.180693	2555.587737
663.521879	2555.781821
663.863013	2554.057746
664.204097	2557.649568
664.545129	2555.353323
664.886110	2554.249310
665.227040	2554.082952
665.567918	2556.855587
665.908746	2553.435164
666.249522	2556.653941
666.590248	2554.851728
666.930922	2555.512119
667.271545	2553.760318
667.612118	2555.333158
667.952639	2555.325597
668.293109	2555.406255
668.633528	2554.433312
668.973896	2554.400545
669.314213	2555.071018
669.654480	2553.765359
669.994695	2555.302911
670.334859	2555.421378
670.674973	2556.399362
671.015035	2555.839794
671.355047	2554.216543
671.695008	2555.073539
672.034918	2555.628066
672.374777	2556.485062
672.714585	2555.504557
673.054342	2557.473128
673.394049	2558.090669
673.733705	2555.638148
674.073310	2555.953220
674.412864	2554.650082
674.752368	2553.868703
675.091820	2555.514640
675.431223	2555.905329
675.770574	2554.798796
676.109875	2553.588919
676.449125	2554.022458
676.788324	2550.070194
677.127473	2552.510112
677.466571	2548.610780
677.805619	2552.086655
678.144616	2552.852911
678.483562	2555.403734
678.822458	2552.794937
679.161303	2556.449774
679.500098	2551.988353
679.838842	2555.345761
680.177535	2554.924825
680.516179	2555.991029
680.854771	2554.501368
681.193314	2553.982129
681.531805	2554.239228
681.870247	2556.361554
682.208638	2554.695452
682.546978	2555.456667
682.885268	2554.040102
683.223508	2555.328117
683.561697	2556.848025
683.899836	2556.316183
684.237925	2554.992880
684.575963	2556.611091
684.913951	2554.894578
685.251889	2555.602860
685.589776	2554.519012
685.927614	2553.377191
686.265401	2554.955072
686.603137	2553.967006
686.940824	2553.553631
687.278460	2555.476831
687.616046	2554.087993
687.953582	2553.672098
688.291068	2553.014227
688.628504	2556.530432
688.965889	2552.348795
689.303224	2555.411296
689.640510	2553.619166
689.977745	2553.775442
690.314930	2556.558159
690.652065	2552.928528
690.989150	2552.058929
691.326185	2555.131512
691.663170	2554.818961
692.000105	2555.103786
692.336990	2554.171172
692.673825	2553.772921
693.010610	2554.433312
693.347345	2551.227138
693.684030	2550.387786
694.020665	2552.222766
694.357251	2549.301418
694.693786	2551.108671
695.030272	2554.161090
695.366707	2553.604043
695.703093	2553.745195
696.039429	2557.339537
696.375716	2553.019269
696.711952	2554.637479
697.048139	2555.938097
697.384276	2556.283416
697.720363	2555.131512
698.056400	2554.508930
698.392388	2555.297870
698.728326	2552.462221
699.064214	2552.845349
699.400053	2555.098745
699.735842	2556.069167
700.071581	2555.035730
700.407270	2550.072714
700.742910	2557.155535
701.078501	2551.940462
701.414042	2552.384083
701.749533	2554.090514
702.084974	2554.690411
702.420366	2553.740154
702.755709	2554.622356
703.091002	2554.609753
703.426246	2553.447767
703.761440	2552.084135
704.096584	2555.678477
704.431679	2554.534135
704.766725	2556.361554
705.101721	2553.994732
705.436668	2554.773590
705.771565	2553.961964
706.106413	2555.832233
706.441212	2553.223435
706.775961	2555.151677
707.110661	2557.571431
707.445311	2553.064639
707.779913	2556.132181
708.114465	2557.082439
708.448967	2553.823333
708.783421	2551.950544
709.117825	2553.097407
709.452180	2555.418858
709.786485	2556.807696
710.120742	2551.814433
710.454949	2550.828887
710.789107	2553.515822
711.123216	2549.278732
711.457275	2552.991542
711.791286	2554.143446
712.125247	2555.801986
712.459159	2554.009855
712.793023	2554.904660
713.126837	2554.685370
713.460602	2554.854249
713.794318	2554.496327
714.127985	2554.100596
714.461602	2553.455328
714.795171	2555.065977
715.128691	2552.111861
715.462162	2554.972716
715.795584	2551.915256
716.128957	2554.944989
716.462281	2556.593447
716.795556	2553.951882
717.128782	2551.068342
717.461960	2552.560524
717.795088	2550.705379
718.128167	2553.314176
718.461198	2555.673436
718.794180	2554.912222
719.127113	2553.205791
719.459997	2552.124464
719.792833	2553.546069
720.125619	2554.760987
720.458357	2551.164124
720.791046	2555.736451
721.123686	2553.470452
721.456278	2555.900288
721.788821	2552.812581
722.121315	2557.578992
722.453761	2554.380380
722.786158	2553.717468
723.118506	2554.594629
723.450805	2554.014897
723.783056	2553.876265
724.115259	2551.166645
724.447412	2552.840308
724.779518	2551.690925
725.111574	2555.512119
725.443582	2551.864844
725.775542	2552.948693
726.107453	2552.595812
726.439315	2554.919784
726.771129	2556.464897
727.102895	2549.019113
727.434612	2550.715461
727.766281	2546.914431
728.097901	2553.583878
728.429473	2554.826522
728.760996	2552.011038
729.092471	2552.028682
729.423897	2553.475493
729.755276	2554.824002
730.086606	2553.624207
730.417887	2553.430123
730.749120	2553.175544
731.080305	2553.069680
731.411442	2555.865000
731.742530	2554.544218
732.073570	2556.381718
732.404562	2552.260575
732.735506	2555.348282
733.066401	2552.540359
733.397249	2554.541697
733.728048	2551.020451
734.058798	2555.050854
734.389501	2555.499516
734.720156	2553.414999
735.050762	2553.346944
735.381320	2554.214022
735.711831	2552.157231
736.042293	2551.857283
736.372707	2551.411141
736.703073	2554.277037
737.033391	2550.128167
737.363661	2554.340051
737.693883	2555.255020
738.024056	2551.514484
738.354182	2553.137736
738.684260	2552.558003
739.014290	2551.501881
739.344272	2553.898950
739.674207	2554.050185
740.004093	2553.281409
740.333931	2553.157900
740.663722	2554.506409
740.993464	2552.061449
741.323159	2551.968188
741.652806	2551.489278
741.982405	2550.980122
742.311956	2552.053888
742.641460	2553.798127
742.970915	2553.069680
743.300323	2551.980791
743.629683	2547.794113
743.958996	2552.671429
744.288260	2547.985677
744.617477	2553.354505
744.946647	2552.316028
745.275768	2552.406768
745.604842	2550.927190
745.933869	2553.914073
746.262847	2552.197561
746.591778	2553.253682
746.920662	2554.231666
747.249498	2553.541028
747.578286	2551.338044
747.907027	2553.311656
748.235720	2554.866852
748.564365	2552.885678
748.892963	2552.041285
749.221514	2553.452808
749.550017	2553.772921
749.878473	2555.320555
750.206881	2554.108158
750.535242	2552.898281
750.863555	2554.539177
751.191821	2551.816953
751.520039	2552.368960
751.848210	2553.999773
752.176334	2550.382745
752.504411	2554.776111
752.832440	2553.624207
753.160421	2553.178065
753.488356	2551.809392
753.816243	2553.508261
754.144082	2553.288970
754.471875	2554.319886
754.799620	2551.771583
755.127318	2551.330482
755.454969	2552.235369
755.782572	2554.095555
756.110129	2551.191850
756.437638	2553.861141
756.765100	2552.230328
757.092515	2552.807540
757.419882	2551.701007
757.747203	2554.335010
758.074477	2550.153373
758.401703	2551.607746
758.728882	2550.854093
759.056014	2556.142263
759.383099	2553.568754
759.710138	2550.705379
760.037129	2548.608259
760.364073	2551.824515
760.690970	2548.159596
761.017820	2555.149156
761.344623	2554.347613
761.671379	2553.984650
761.998088	2551.673281
762.324751	2552.379042
762.651366	2552.177396
762.977935	2554.161090
763.304456	2553.593960
763.630931	2553.397355
763.957359	2554.145967
764.283740	2551.718651
764.610074	2555.761656
764.936362	2553.760318
765.262602	2550.438198
765.588796	2552.530277
765.914943	2554.889537
766.241044	2552.976419
766.567097	2551.025492
766.893104	2552.686552
767.219064	2549.182951
767.544978	2553.304094
767.870845	2551.262427
768.196665	2551.370811
768.522438	2553.210832
768.848165	2552.928528
769.173846	2546.627086
769.499479	2550.281922
769.825066	2554.007335
770.150607	2552.671429
770.476101	2552.608415
770.801548	2552.890719
771.126949	2554.932387
771.452303	2552.074052
771.777611	2553.329300
772.102872	2553.961964
772.428087	2553.767880
772.753256	2553.127653
773.078378	2550.102961
773.403453	2552.893240
773.728482	2551.204453
774.053465	2551.645554
774.378401	2551.905174
774.703291	2549.689587
775.028135	2552.580688
775.352932	2555.643189
775.677683	2552.978939
776.002388	2551.441387
776.327046	2547.950388
776.651658	2549.835780
776.976224	2547.053063
777.300743	2548.852755
777.625216	2551.839639
777.949643	2550.932231
778.274024	2549.833259
778.598359	2551.610266
778.922647	2550.844011
779.246889	2552.787376
779.571086	2552.184958
779.895236	2552.457180
780.219339	2553.059598
780.543397	2551.446429
780.867409	2553.926676
781.191374	2549.593805
781.515294	2549.104813
781.839167	2550.382745
782.162995	2553.644372
782.486776	2552.494989
782.810511	2549.671942
783.134201	2552.920966
783.457844	2551.509443
783.781441	2549.611449
784.104993	2552.731923
784.428498	2549.563558
784.751958	2551.678322
785.075372	2550.503733
785.398739	2549.913918
785.722061	2553.573796
786.045337	2550.196222
786.368568	2553.188147
786.691752	2550.964998
787.014891	2550.647406
787.337983	2551.005328
787.661030	2555.277706
787.984031	2553.351985
788.306987	2551.789227
788.629897	2549.429967
788.952760	2550.546583
789.275579	2554.002294
789.598351	2551.058260
789.921078	2552.008517
790.243759	2550.876778
790.566395	2551.143959
790.888984	2552.336192
791.211529	2553.911553
791.534027	2551.544731
791.856480	2550.571788
792.178888	2548.293187
792.501249	2547.902497
792.823566	2550.002138
793.145836	2548.842673
793.468062	2550.896943
793.790241	2550.896943
794.112375	2552.878116
794.434464	2555.406255
794.756507	2553.150339
795.078505	2550.957437
795.400457	2555.635628
795.722364	2549.306459
796.044226	2551.910215
796.366042	2552.900802
796.687812	2552.774773
797.009538	2551.141439
797.331218	2551.917777
797.652852	2551.247303
797.974442	2552.159752
798.295986	2552.991542
798.617484	2550.957437
798.938938	2550.768393
799.260346	2550.206305
799.581709	2548.709082
799.903026	2553.601522
800.224299	2550.324772
800.545526	2550.803682
800.866708	2549.233362
801.187845	2550.478527
801.508936	2551.678322
801.829983	2550.657488
802.150984	2550.803682
802.471940	2551.557334
802.792851	2552.479865
803.113717	2549.729916
803.434538	2550.952396
803.755314	2552.336192
804.076045	2549.555996
804.396731	2553.535987
804.717372	2547.950388
805.037967	2552.905843
805.358518	2548.832590
805.679024	2551.285112
805.999485	2551.958106
806.319901	2553.256203
806.640272	2552.134546
806.960598	2549.240924
807.280879	2552.081614
807.601115	2552.137067
807.921306	2550.871737
808.241453	2547.473999
808.561554	2547.746222
808.881611	2545.936447
809.201623	2546.410316
809.521590	2551.353167
809.841513	2552.958775
810.161390	2554.357695
810.481223	2550.405430
810.801011	2551.935421
811.120755	2550.029864
811.440453	2549.707231
811.760107	2553.752757
812.079716	2551.612787
812.399281	2552.598332
812.718801	2549.429967
813.038276	2551.196892
813.357707	2551.834598
813.677093	2550.211346
813.996434	2553.127653
814.315731	2550.143290
814.634983	2550.554144
814.954191	2550.176058
815.273354	2548.923331
815.592473	2551.317879
815.911547	2549.745039
816.230577	2553.798127
816.549562	2551.396017
816.868502	2548.923331
817.187399	2552.726882
817.506250	2552.346275
817.825058	2550.602035
818.143821	2551.527087
818.462539	2553.115051
818.781213	2549.752601
819.099843	2550.355019
819.418429	2549.581202
819.736970	2551.834597
820.055466	2550.962478
820.373919	2552.484906
820.692327	2547.824360
821.010691	2549.850903
821.329011	2550.685214
821.647286	2551.968188
821.965517	2552.399207
822.283704	2551.378373
822.601847	2552.484906
822.919945	2548.567930
823.237999	2548.862837
823.556010	2552.580688
823.873976	2548.096582
824.191897	2548.336037
824.509775	2548.693959
824.827609	2548.212528
825.145398	2545.520552
825.463144	2549.762683
825.780845	2549.929041
826.098502	2550.806202
826.416116	2550.672612
826.733685	2551.433826
827.051210	2550.478527
827.368692	2549.553475
827.686129	2551.385935
828.003522	2551.900133
828.320872	2549.639175
828.638177	2547.204298
828.955439	2550.085317
829.272656	2552.061449
829.589830	2550.095399
829.906960	2551.796789
830.224046	2551.983312
830.541088	2550.586912
830.858086	2552.197561
831.175041	2549.364432
831.491952	2552.326110
831.808819	2550.198743
832.125642	2549.803013
832.442421	2549.936603
832.759157	2551.159083
833.075849	2553.699824
833.392497	2550.085317
833.709101	2549.808054
834.025662	2549.785368
834.342179	2550.289484
834.658653	2550.856614
834.975083	2551.821995
835.291469	2558.315001
835.607811	2548.220090
835.924110	2550.576830
836.240366	2552.126984
836.556578	2550.115564
836.872746	2550.312169
837.188871	2549.203115
837.504952	2549.319062
837.820990	2550.705379
838.136984	2548.336037
838.452935	2551.862324
838.768842	2549.666901
839.084706	2549.266130
839.400526	2550.551624
839.716303	2551.239741
840.032037	2547.572302
840.347727	2544.867723
840.663373	2545.540717
840.978977	2544.822353
841.294537	2551.653116
841.610054	2549.911397
841.925527	2550.884340
842.240957	2550.803682
842.556344	2551.857283
842.871687	2550.687735
843.186987	2551.083466
843.502244	2553.833415
843.817458	2548.809905
844.132629	2549.966850
844.447756	2550.763352
844.762840	2548.827549
845.077881	2549.548434
845.392879	2550.891902
845.707833	2551.262427
846.022745	2551.345606
846.337613	2550.274360
846.652438	2549.286294
846.967221	2551.474155
847.281960	2548.487271
847.596656	2551.547252
847.911309	2550.871737
848.225919	2551.620348
848.540485	2548.958619
848.855009	2549.041798
849.169490	2548.315872
849.483928	2548.691438
849.798323	2548.096582
850.112675	2552.414330
850.426984	2550.133208
850.741251	2550.392828
851.055474	2549.858465
851.369654	2547.073228
851.683792	2549.571119
851.997887	2552.442057
852.311938	2549.913918
852.625947	2549.432488
852.939914	2548.935934
853.253837	2551.033054
853.567718	2551.912735
853.881555	2550.418033
854.195350	2548.184802
854.509103	2549.208156
854.822812	2551.007848
855.136479	2552.046326
855.450103	2550.992725
855.763685	2549.321582
856.077224	2547.463917
856.390720	2548.242775
856.704173	2544.721529
857.017584	2550.047508
857.330953	2551.479196
857.644278	2547.786551
857.957561	2554.579506
858.270802	2546.816129
858.584000	2550.486089
858.897155	2551.637992
859.210268	2550.730585
859.523339	2549.238403
859.836367	2549.061963
860.149352	2549.765204
860.462295	2547.204298
860.775195	2549.003990
861.088054	2549.674463
861.400869	2551.617828
861.713642	2548.585574
862.026373	2550.879299
862.339062	2551.640513
862.651708	2550.281922
862.964312	2551.151521
863.276873	2549.016592
863.589392	2548.870399
863.901869	2548.930893
864.214303	2549.089689
864.526696	2550.828887
864.839045	2550.380225
865.151353	2547.063145
865.463619	2548.381407
865.775842	2550.150852
866.088023	2548.164637
866.400162	2550.412992
866.712258	2550.319731
867.024313	2548.905687
867.336325	2549.913918
867.648296	2550.352498
867.960224	2550.818805
868.272110	2549.661860
868.583954	2549.951727
868.895755	2550.460883
869.207515	2549.984494
869.519233	2550.644885
869.830909	2550.113043
870.142542	2550.579350
870.454134	2549.266130
870.765684	2549.903836
871.077191	2548.562889
871.388657	2547.655481
871.700081	2543.405788
872.011463	2546.921993
872.322803	2544.313196
872.634101	2549.102292
872.945357	2550.191181
873.256571	2551.489278
873.567744	2548.638506
873.878874	2548.580533
874.189963	2549.840821
874.501010	2547.327806
874.812015	2545.850748
875.122979	2548.414175
875.433900	2552.288301
875.744780	2549.603887
876.055618	2548.131870
876.366415	2550.080276
876.677169	2547.088351
876.987882	2548.091541
877.298554	2547.257230
877.609183	2546.112888
877.919771	2550.702858
878.230317	2549.233362
878.540822	2553.793086
878.851285	2548.572971
879.161707	2548.464586
879.472087	2549.392158
879.782425	2549.924000
880.092722	2547.715975
880.402977	2550.758311
880.713191	2547.489123
881.023363	2549.578681
881.333494	2549.109854
881.643583	2547.791592
881.953631	2547.678166
882.263637	2547.849565
882.573602	2550.251675
882.883526	2547.370656
883.193408	2550.067673
883.503248	2547.773948
883.813048	2551.630431
884.122806	2548.797302
884.432522	2550.372663
884.742197	2547.768907
885.051831	2549.750080
885.361424	2548.814946
885.670975	2547.161448
885.980485	2550.332334
886.289954	2551.756460
886.599382	2545.328988
886.908768	2549.177909
887.218113	2546.110367
887.527417	2548.429298
887.836680	2541.046528
888.145901	2547.925183
888.455082	2548.535162
888.764221	2548.898125
889.073319	2548.010882
889.382376	2548.368804
889.691392	2549.240924
890.000366	2546.523742
890.309300	2551.254865
890.618193	2549.160265
890.927044	2549.256047
891.235855	2548.583053
891.544625	2549.785368
891.853353	2547.128680
892.162041	2544.839997
892.470687	2551.249824
892.779293	2549.893753
893.087858	2550.145811
893.396381	2547.660522
893.704864	2547.668084
894.013306	2548.207487
894.321707	2550.677653
894.630068	2549.432488
894.938387	2547.189174
895.246665	2549.649257
895.554903	2547.675646
895.863100	2548.555327
896.171256	2548.056253
896.479371	2550.047508
896.787446	2548.010882
897.095480	2549.742519
897.403473	2547.874771
897.711425	2546.720347
898.019336	2550.123126
898.327207	2548.121788
898.635038	2547.400903
898.942827	2549.117416
899.250576	2548.068856
899.558284	2548.230172
899.865952	2549.949206
900.173579	2548.610780
900.481165	2549.132539
900.788711	2550.231511
901.096216	2548.048691
901.403681	2546.211190
901.711105	2549.034237
902.018489	2548.509957
902.325832	2544.676159
902.633135	2547.345450
902.940397	2548.817467
903.247619	2543.501570
903.554800	2548.373845
903.861941	2550.947354
904.169041	2548.167158
904.476101	2548.499874
904.783121	2549.545914
905.090100	2546.105326
905.397039	2546.160779
905.703938	2550.826367
906.010796	2550.614638
906.317614	2549.223280
906.624391	2548.928372
906.931129	2547.569781
907.237826	2549.150183
907.544483	2549.452652
907.851099	2547.947868
908.157675	2546.511139
908.464211	2550.382745
908.770707	2547.942827
909.077163	2547.731098
909.383578	2546.911911
909.689954	2548.101623
909.996289	2550.748229
910.302584	2547.537014
910.608839	2547.892415
910.915054	2546.440563
911.221229	2549.714792
911.527363	2546.463248
911.833458	2548.469627
912.139513	2551.186809
912.445527	2547.189174
912.751502	2547.640357
913.057436	2546.899308
913.363331	2548.346119
913.669186	2547.385779
913.975000	2548.169679
914.280775	2547.703372
914.586510	2550.929710
914.892205	2548.220090
915.197859	2549.581202
915.503475	2547.320244
915.809050	2548.822508
916.114585	2548.608259
916.420081	2546.289328
916.725536	2548.895605
917.030952	2548.852755
917.336328	2548.003321
917.641665	2547.650440
917.946961	2545.817980
918.252218	2544.963505
918.557435	2544.615665
918.862612	2549.170348
919.167750	2546.826211
919.472848	2548.275543
919.777906	2547.262271
920.082925	2549.127498
920.387904	2548.078938
920.692843	2548.847714
920.997743	2545.633978
921.302603	2546.579195
921.607423	2548.474668
921.912204	2550.034906
922.216946	2547.441232
922.521647	2548.421736
922.826310	2545.681869
923.130932	2549.651778
923.435516	2546.813608
923.740059	2547.887374
924.044564	2547.834442
924.349028	2546.906870
924.653454	2545.132383
924.957840	2548.525080
925.262186	2545.162630
925.566493	2546.518701
925.870761	2545.291180
926.174989	2545.792775
926.479178	2546.128011
926.783328	2548.159596
927.087438	2549.145142
927.391509	2549.298897
927.695541	2548.303269
927.999533	2546.324616
928.303486	2547.824360
928.607400	2548.242775
928.911275	2545.328988
929.215110	2547.509287
929.518906	2546.112888
929.822663	2545.225645
930.126381	2546.775800
930.430060	2549.384597
930.733699	2546.722868
931.037299	2548.295707
931.340861	2547.146324
931.644383	2545.576005
931.947866	2545.797816
932.251309	2548.484751
932.554714	2545.215563
932.858080	2545.651622
933.161407	2545.064328
933.464694	2547.970553
933.767943	2544.290511
934.071153	2546.644730
934.374323	2548.336037
934.677455	2547.927703
934.980548	2547.806716
935.283602	2548.484751
935.586617	2547.731098
935.889593	2546.990049
936.192530	2549.500543
936.495428	2546.077600
936.798287	2546.813608
937.101108	2548.202446
937.403890	2544.905532
937.706632	2548.996428
938.009336	2548.570450
938.312002	2547.700851
938.614628	2547.549617
938.917216	2546.450645
939.219765	2548.633465
939.522275	2548.978784
939.824747	2550.327292
940.127179	2548.840152
940.429573	2546.246478
940.731929	2546.990049
941.034246	2547.821839
941.336524	2547.675646
941.638763	2546.390151
941.940964	2546.138094
942.243126	2546.695141
942.545250	2548.469627
942.847335	2546.022147
943.149381	2547.274874
943.451389	2546.508618
943.753359	2547.342929
944.055290	2548.114226
944.357182	2547.869730
944.659036	2547.189174
944.960851	2548.814946
945.262628	2547.668084
945.564367	2546.163299
945.866067	2547.264792
946.167729	2551.143959
946.469352	2545.066848
946.770937	2548.363763
947.072484	2546.135573
947.373992	2545.994421
947.675462	2548.489792
947.976893	2545.754966
948.278286	2541.850592
948.579641	2544.653474
948.880958	2543.204142
949.182236	2547.282436
949.483476	2543.826725
949.784678	2548.046170
950.085841	2549.387117
950.386967	2543.594832
950.688054	2547.438711
950.989103	2546.453166
951.290114	2546.808567
951.591087	2548.540203
951.892021	2549.613969
952.192917	2545.538196
952.493776	2546.485933
952.794596	2547.605069
953.095378	2549.087169
953.396122	2546.705223
953.696828	2546.077600
953.997496	2546.695141
954.298126	2546.760676
954.598718	2547.594987
954.899272	2544.003165
955.199788	2546.715306
955.500266	2547.370656
955.800706	2548.472148
956.101108	2545.550799
956.401472	2548.260419
956.701798	2544.928217
957.002087	2546.977446
957.302337	2547.852086
957.602550	2548.792261
957.902724	2548.356201
958.202861	2547.433670
958.502960	2547.365615
958.803022	2547.607590
959.103045	2547.121119
959.403031	2550.569268
959.702979	2548.404092
960.002889	2547.952909
960.302762	2546.367466
960.602596	2547.393341
960.902393	2546.876623
961.202153	2548.141952
961.501875	2548.696479
961.801559	2547.562220
962.101205	2543.733463
962.400814	2548.225131
962.700385	2547.728578
962.999918	2548.305790
963.299414	2542.430325
963.598873	2546.306972
963.898293	2538.624254
964.197677	2547.252189
964.497022	2547.428629
964.796331	2545.570964
965.095601	2546.226314
965.394835	2545.664225
965.694030	2546.478372
965.993189	2547.312683
966.292309	2545.505429
966.591393	2547.053063
966.890439	2546.309493
967.189447	2546.944678
967.488419	2545.492826
967.787353	2547.537014
968.086249	2548.971222
968.385108	2546.377548
968.683930	2544.882846
968.982714	2547.605069
969.281462	2546.821170
969.580172	2546.372507
969.878844	2546.536345
970.177480	2548.373845
970.476078	2545.719678
970.774639	2546.178423
971.073162	2544.484595
971.371649	2548.414175
971.670098	2546.511139
971.968510	2548.046170
972.266885	2545.273536
972.565223	2545.941489
972.863524	2546.188505
973.161788	2546.175902
973.460014	2546.236396
973.758204	2546.511139
974.056356	2546.692621
974.354471	2546.390151
974.652550	2545.056766
974.950591	2546.647250
975.248595	2548.250337
975.546563	2547.410985
975.844493	2545.359235
976.142386	2544.368649
976.440243	2548.605738
976.738062	2545.359235
977.035845	2545.911242
977.333590	2548.000800
977.631299	2546.475851
977.928971	2543.083154
978.226606	2541.996786
978.524204	2545.018958
978.821765	2541.084337
979.119290	2544.950902
979.416777	2544.287990
979.714228	2547.279915
980.011642	2546.163299
980.309020	2544.996272
980.606360	2544.741694
980.903664	2548.593136
981.200931	2545.991900
981.498162	2544.734132
981.795356	2545.979297
982.092513	2547.027857
982.389633	2544.535007
982.686717	2547.390820
982.983764	2547.935265
983.280775	2547.269833
983.577749	2543.367980
983.874686	2547.053063
984.171587	2548.749411
984.468451	2543.715819
984.765279	2544.320758
985.062070	2546.927034
985.358824	2547.010213
985.655543	2545.137425
985.952224	2545.954092
986.248869	2547.844524
986.545478	2545.220604
986.842050	2544.363608
987.138586	2544.661036
987.435086	2546.039791
987.731549	2543.763710
988.027975	2545.719678
988.324366	2543.909904
988.620719	2544.691282
988.917037	2546.238917
989.213318	2545.888557
989.509563	2547.526932
989.805772	2546.042312
990.101944	2547.794113
990.398080	2545.233207
990.694180	2546.001982
990.990244	2547.995759
991.286271	2544.436704
991.582262	2543.612476
991.878217	2549.455173
992.174136	2547.501726
992.470019	2546.201108
992.765865	2547.388300
993.061676	2542.090047
993.357450	2541.394368
993.653188	2540.633154
993.948890	2545.966694
994.244556	2545.283618
994.540186	2545.722198
994.835780	2545.306303
995.131337	2545.434853
995.426859	2546.811088
995.722345	2547.509287
996.017795	2548.885523
996.313208	2544.078782
996.608586	2545.087013
996.903928	2547.763866
997.199234	2544.436704
997.494504	2542.934440
997.789738	2544.819832
998.084936	2543.640202
998.380099	2546.823691
998.675225	2548.464586
998.970316	2548.018444
999.265371	2546.876623
999.560390	2544.928217
999.855373	2546.566592
1000.150320	2544.744215
1000.445232	2544.643392
1000.740108	2545.543238
1001.034948	2545.971736
1001.329752	2546.231355
1001.624521	2545.434853
1001.919254	2547.597508
1002.213951	2544.955943
1002.508613	2544.408978
1002.803239	2548.388969
1003.097829	2543.466282
1003.392384	2545.023999
1003.686903	2543.730943
1003.981386	2550.102961
1004.275834	2544.018288
1004.570246	2546.927034
1004.864623	2547.156407
1005.158964	2546.821170
1005.453270	2546.445604
1005.747540	2543.627599
1006.041775	2545.694472
1006.335974	2546.165820
1006.630138	2544.300593
1006.924266	2548.648588
1007.218359	2544.446787
1007.512416	2542.397558
1007.806438	2540.882691
1008.100425	2542.810932
1008.394376	2541.686755
1008.688292	2545.581046
1008.982172	2546.299411
1009.276017	2545.626417
1009.569827	2545.039122
1009.863602	2544.764379
1010.157341	2547.284956
1010.451045	2545.633978
1010.744714	2543.763710
1011.038347	2547.098433
1011.331945	2544.177085
1011.625508	2544.466951
1011.919036	2544.333361
1012.212528	2546.236396
1012.505986	2543.264636
1012.799408	2546.259081
1013.092795	2545.850748
1013.386147	2545.334030
1013.679464	2546.286808
1013.972745	2544.540048
1014.265992	2545.512991
1014.559204	2544.449307
1014.852380	2546.029709
1015.145521	2544.436704
1015.438628	2544.703885
1015.731699	2544.731612
1016.024736	2545.593649
1016.317737	2545.059287
1016.610703	2545.318906
1016.903635	2543.983000
1017.196531	2542.326981
1017.489393	2545.323947
1017.782219	2543.912424
1018.075011	2542.982331
1018.367768	2543.617517
1018.660490	2544.892929
1018.953177	2544.892929
1019.245829	2544.892929
