Dividing Wavelength (nm)	Counts (n)	Blue Motor Position (mm): 30.000000	Red Motor Position (mm): 0.000000	
326.493990	2099.189394
326.888308	2099.189394
327.282561	2099.189394
327.676750	2076.781465
328.070874	2077.852710
328.464933	2082.467886
328.858929	2095.317788
329.252859	2105.962184
329.646726	2122.116561
330.040528	2137.388737
330.434265	2158.160811
330.827938	2175.252843
331.221547	2195.445185
331.615091	2216.978474
332.008571	2237.120404
332.401986	2257.859711
332.795338	2276.857299
333.188625	2298.715742
333.581847	2317.037816
333.975006	2336.065651
334.368100	2355.216995
334.761129	2370.945395
335.154095	2384.982488
335.546996	2432.283634
335.939833	2510.199708
336.332606	2523.964578
336.725315	2534.311547
337.117960	2545.023999
337.510540	2552.411810
337.903056	2560.023952
338.295508	2567.182390
338.687896	2570.028122
339.080220	2583.946748
339.472480	2587.263827
339.864676	2588.685432
340.256807	2591.538725
340.648875	2594.185331
341.040879	2595.145671
341.432818	2597.061309
341.824694	2598.747575
342.216506	2597.313367
342.608253	2594.102152
342.999937	2594.807913
343.391557	2593.867738
343.783113	2591.805906
344.174605	2590.248190
344.566033	2590.984198
344.957397	2589.335741
345.348697	2585.627972
345.739934	2587.180648
346.131106	2583.727457
346.522215	2585.161666
346.913260	2580.322158
347.304241	2579.868454
347.695159	2576.889132
348.086012	2575.286045
348.476802	2576.679924
348.867528	2574.638257
349.258191	2572.505849
349.648789	2571.893349
350.039324	2571.389233
350.429796	2571.820252
350.820203	2568.603996
351.210548	2570.055848
351.600828	2565.339849
351.991045	2566.206927
352.381198	2567.134499
352.771288	2565.622153
353.161314	2567.373954
353.551276	2566.814386
353.941175	2563.146947
354.331010	2564.750034
354.720782	2568.883780
355.110490	2572.462999
355.500135	2568.540981
355.889717	2567.063923
356.279235	2567.368913
356.668689	2567.489901
357.058080	2569.024932
357.447408	2564.331618
357.836672	2566.559808
358.225873	2569.241702
358.615010	2565.546536
359.004084	2570.680951
359.393095	2571.434604
359.782043	2571.338822
360.170927	2573.249419
360.559748	2572.790674
360.948505	2572.417629
361.337199	2577.128587
361.725830	2575.628844
362.114398	2576.011971
362.502903	2575.323854
362.891344	2577.816704
363.279722	2575.003741
363.668037	2577.824266
364.056289	2578.792168
364.444478	2578.353587
364.832603	2579.288721
365.220665	2579.591191
365.608665	2580.198650
365.996601	2582.162179
366.384474	2579.127404
366.772284	2581.534555
367.160031	2583.913980
367.547715	2583.432550
367.935336	2581.826942
368.322893	2580.314596
368.710388	2584.405492
369.097820	2587.231059
369.485189	2584.246696
369.872495	2585.363312
370.259738	2583.157807
370.646918	2584.110585
371.034035	2589.489496
371.421090	2588.309866
371.808081	2591.203488
372.195010	2587.866245
372.581875	2586.709300
372.968678	2588.655185
373.355418	2588.660226
373.742096	2589.265165
374.128710	2590.225505
374.515262	2591.919332
374.901751	2589.161821
375.288177	2594.530650
375.674540	2592.536874
376.060841	2592.660382
376.447079	2592.216760
376.833254	2592.912440
377.219367	2591.621904
377.605417	2593.527460
377.991404	2590.275916
378.377329	2591.203488
378.763191	2592.085690
379.148991	2596.814293
379.534727	2596.766402
379.920402	2598.528285
380.306013	2595.644745
380.691563	2598.074581
381.077049	2596.695826
381.462474	2597.744386
381.847835	2599.518872
382.233134	2599.924685
382.618371	2600.698502
383.003545	2599.055086
383.388657	2599.917123
383.773706	2603.105653
384.158693	2599.725559
384.543618	2602.173039
384.928480	2599.823862
385.313280	2603.945005
385.698017	2602.425097
386.082692	2606.740325
386.467305	2604.179418
386.851856	2605.701847
387.236344	2609.412136
387.620770	2609.175202
388.005133	2606.858792
388.389435	2608.071189
388.773674	2607.078082
389.157851	2605.225458
389.541965	2608.376179
389.926018	2609.142434
390.310008	2608.179574
390.693936	2609.747373
391.077802	2607.415839
391.461606	2611.564709
391.845348	2611.955398
392.229027	2613.805502
392.612645	2610.430449
392.996200	2612.232662
393.379694	2613.218207
393.763125	2615.204422
394.146494	2616.459669
394.529801	2617.236007
394.913047	2618.181223
395.296230	2616.373970
395.679351	2616.953702
396.062410	2622.519136
396.445408	2617.909001
396.828343	2618.556789
397.211217	2616.202570
397.594028	2614.649895
397.976778	2616.361367
398.359466	2618.443363
398.742092	2616.802468
399.124656	2621.601646
399.507158	2622.990484
399.889598	2621.684825
400.271977	2623.976030
400.654294	2624.316307
401.036549	2624.263375
401.418742	2624.328910
401.800874	2626.146246
402.182944	2625.684981
402.564952	2628.661782
402.946898	2627.323356
403.328783	2628.969292
403.710606	2630.343007
404.092367	2629.823768
404.474067	2632.543471
404.855705	2631.005919
405.237282	2632.999695
405.618797	2632.722432
406.000250	2633.123203
406.381642	2635.290899
406.762972	2635.442134
407.144240	2635.278297
407.525447	2639.802732
407.906593	2637.899697
408.287677	2640.856333
408.668700	2638.494553
409.049661	2637.693009
409.430560	2639.908596
409.811399	2639.865747
410.192176	2641.882208
410.572891	2639.457413
410.953545	2641.622589
411.334138	2643.291211
411.714669	2646.976294
412.095139	2644.425470
412.475547	2645.980666
412.855894	2646.474699
413.236180	2643.860861
413.616405	2646.394041
413.996568	2647.823208
414.376670	2645.869761
414.756711	2650.076604
415.136691	2651.236069
415.516609	2652.839156
415.896466	2654.298570
416.276262	2653.766728
416.655997	2654.694301
417.035670	2654.205309
417.415283	2659.692605
417.794834	2655.452994
418.174324	2661.109169
418.553753	2665.318532
418.933121	2667.135868
419.312428	2668.774243
419.691674	2668.118893
420.070859	2671.889676
420.449983	2673.863288
420.829045	2674.339677
421.208047	2675.171467
421.586988	2681.873682
421.965867	2684.434588
422.344686	2686.226718
422.723444	2691.509847
423.102141	2688.152439
423.480777	2697.667617
423.859352	2699.384129
424.237866	2709.289997
424.616319	2711.107333
424.994712	2720.171327
425.373044	2721.413972
425.751314	2731.965107
426.129524	2735.206569
426.507673	2749.140318
426.885762	2756.689446
427.263789	2766.582710
427.641756	2777.728701
428.019662	2793.139509
428.397508	2808.235244
428.775292	2825.770897
429.153016	2845.368383
429.530679	2862.190713
429.908282	2885.062428
430.285824	2903.061868
430.663305	2939.612754
431.040726	2960.077318
431.418086	2985.338540
431.795385	3034.081457
432.172624	3080.361770
432.549802	3105.577621
432.926920	3154.139056
433.303977	3195.121116
433.680974	3247.390320
434.057910	3310.079589
434.434786	3371.596789
434.811601	3424.254162
435.188355	3538.201883
435.565050	3591.842280
435.941683	3661.490862
436.318257	3792.276036
436.694770	3860.180379
437.071222	3985.632013
437.447614	4017.575284
437.823946	4106.715487
438.200218	4224.847366
438.576429	4308.338956
438.952580	4436.502730
439.328670	4545.530285
439.704700	4705.382753
440.080670	4771.948669
440.456580	4964.082166
440.832429	5112.655052
441.208218	5113.915340
441.583947	5298.839987
441.959616	5450.258604
442.335224	5628.914576
442.710773	5796.001100
443.086261	6035.516401
443.461689	6074.943265
443.837057	6257.032263
444.212365	6533.940323
444.587612	6708.828032
444.962800	6791.999509
445.337927	7048.405197
445.712995	6936.562157
446.088002	7537.883591
446.462949	7792.698794
446.837837	8035.846247
447.212664	8247.408351
447.587431	9267.052292
447.962139	10343.507517
448.336786	11248.087122
448.711374	11008.029897
449.085901	10120.940575
449.460369	10358.124343
449.834776	10618.177305
450.209124	11732.854558
450.583412	11812.784573
450.957640	12220.359341
451.331808	11985.242446
451.705917	11733.877913
452.079965	11993.588076
452.453954	12399.756362
452.827883	12621.582255
453.201752	12797.700006
453.575562	13132.230975
453.949311	13898.098191
454.323001	14199.957442
454.696632	14361.942318
455.070202	15389.548762
455.443713	15755.534011
455.817164	16335.327197
456.190556	16907.704846
456.563888	16885.962349
456.937160	17398.866985
457.310373	16749.546205
457.683526	17280.719983
458.056619	17567.654898
458.429653	17827.637285
458.802628	18472.385738
459.175542	18835.794957
459.548398	19940.462999
459.921194	21242.809808
460.293930	21978.876242
460.666607	23604.779428
461.039224	25089.210192
461.411782	25665.388871
461.784280	25139.583922
462.156719	25109.911690
462.529099	25050.219388
462.901419	24437.504946
463.273680	23964.208656
463.645882	24333.057280
464.018024	24605.579536
464.390106	25544.275150
464.762130	27973.387898
465.134094	31470.867340
465.505999	35961.930478
465.877845	39985.111525
466.249631	41288.587552
466.621358	40175.268890
466.993026	38746.527752
467.364634	37355.824640
467.736184	36040.451491
468.107674	35261.588180
468.479105	34872.506885
468.850477	34529.259761
469.221790	33549.196439
469.593043	32274.381892
469.964238	31730.101115
470.335373	31907.632909
470.706449	33776.943167
471.077467	36428.882477
471.448425	40756.337488
471.819324	43378.355029
472.190164	41760.850406
472.560945	38712.540292
472.931667	36076.652016
473.302330	35270.127895
473.672934	34684.912948
474.043479	35348.933732
474.413965	34775.888131
474.784393	34576.858336
475.154761	35570.409265
475.525070	35744.838229
475.895321	35421.997696
476.265513	36146.298077
476.635645	37206.709830
477.005719	37187.563528
477.375734	37784.615104
477.745691	38586.725695
478.115588	40038.691429
478.485427	42180.324817
478.855207	45627.644778
479.224928	48290.465419
479.594591	49940.404826
479.964194	49004.154172
480.333739	49291.313418
480.703226	49499.026601
481.072653	50211.712164
481.442022	50739.999882
481.811333	51042.229658
482.180584	49845.374035
482.549777	49387.170959
482.918912	48931.559036
483.287988	48706.300117
483.657005	47938.887788
484.025964	47334.050150
484.394864	47410.199299
484.763706	47050.361738
485.132489	46222.851293
485.501213	46097.578619
485.869879	46289.659184
486.238487	45917.891732
486.607036	46144.035373
486.975527	45607.001253
487.343959	45857.148348
487.712333	45963.773793
488.080648	45883.871505
488.448905	46381.985396
488.817104	46206.777573
489.185244	47249.993950
489.553326	49057.736596
489.921350	51787.143317
490.289315	54565.466875
490.657222	55090.868532
491.025070	55345.845052
491.392861	54460.356297
491.760593	53260.203759
492.128267	51630.043319
492.495883	50112.749273
492.863440	48714.849914
493.230939	47345.284361
493.598380	46265.340658
493.965763	45943.767974
494.333088	45112.096057
494.700354	44639.908820
495.067563	44338.425135
495.434713	44189.567424
495.801805	44286.309687
496.168839	43888.592895
496.535815	43557.865476
496.902733	43587.923356
497.269593	43164.637832
497.636395	43102.760189
498.003139	43517.105227
498.369825	42978.324348
498.736453	43301.878205
499.103023	42804.553254
499.469535	42688.115203
499.835989	42791.027838
500.202385	42443.473048
500.568723	42476.232987
500.935003	42681.148329
501.301226	42476.928666
501.667390	43104.028040
502.033497	43363.410528
502.399546	42795.532109
502.765537	42104.425205
503.131470	42483.872855
503.497345	42865.014333
503.863163	41491.783861
504.228923	42147.529591
504.594625	42563.409660
504.960269	41805.623414
505.325856	42546.476424
505.691385	41893.707495
506.056856	42048.380177
506.422270	42482.244562
506.787625	42044.243911
507.152924	42277.803089
507.518164	42371.608880
507.883347	41550.389795
508.248472	41806.664412
508.613540	42320.075684
508.978550	42625.902324
509.343503	42361.075389
509.708398	42587.944956
510.073236	43125.586534
510.438016	43128.575938
510.802738	42583.511261
511.167403	43219.271337
511.532010	43443.353146
511.896561	43746.265998
512.261053	44646.548020
512.625488	44161.205892
512.989866	44027.116241
513.354186	43870.222930
513.718449	43870.459865
514.082655	44551.297938
514.446803	44209.056524
514.810894	44770.948573
515.174927	44679.887691
515.538904	44576.057566
515.902822	45251.279794
516.266684	44681.649574
516.630488	45123.365556
516.994235	44956.084948
517.357925	45559.140539
517.721558	45721.674901
518.085133	46039.980916
518.448651	46149.988975
518.812112	45929.763649
519.175516	46037.253652
519.538863	46370.799076
519.902152	46324.758217
520.265385	46807.955334
520.628560	46827.482244
520.991678	46611.660365
521.354739	46847.304061
521.717743	47166.313317
522.080690	47058.014209
522.443580	47591.322916
522.806413	47639.894433
523.169189	47595.948174
523.531908	47773.719423
523.894569	47623.765261
524.257174	47791.174419
524.619722	48103.587325
524.982213	48069.529290
525.344647	47980.016042
525.707025	48035.168785
526.069345	48441.765569
526.431608	48342.149849
526.793815	48673.278039
527.155964	48189.554122
527.518057	48344.758646
527.880093	48138.411616
528.242072	48679.574440
528.603995	48365.949136
528.965860	48357.177528
529.327669	48459.848188
529.689421	48344.861990
530.051117	48304.008479
530.412755	48459.089495
530.774337	48531.762768
531.135862	48326.560081
531.497331	48528.705309
531.858743	48414.321528
532.220098	48760.316081
532.581396	48458.580338
532.942638	48101.419629
533.303824	48414.858411
533.664953	48413.270447
534.026025	48102.148076
534.387040	48578.950489
534.747999	48535.326864
535.108902	48700.901042
535.469748	48194.834731
535.830537	48303.106112
536.191270	48506.345271
536.551947	48147.306732
536.912567	48451.563052
537.273131	48573.551413
537.633638	48050.660251
537.994089	48395.087005
538.354483	47979.537132
538.714821	48573.916897
539.075103	48911.570861
539.435328	48660.894445
539.795497	48537.718892
540.155609	48545.802382
540.515665	49006.374800
540.875665	48429.883570
541.235609	48758.092932
541.595496	48740.839583
541.955328	49434.439338
542.315102	48761.536040
542.674821	48532.085402
543.034483	48563.779137
543.394090	48539.949602
543.753640	48508.074387
544.113134	49520.864879
544.472571	48501.384775
544.831953	49757.731055
545.191278	48953.815730
545.550548	48667.694961
545.909761	49128.716042
546.268918	49326.541002
546.628019	49630.734307
546.987064	49180.909629
547.346053	48424.597920
547.704986	49311.107509
548.063863	48856.415597
548.422684	49050.154701
548.781449	48870.886229
549.140158	49272.431777
549.498811	49106.965984
549.857408	48541.371208
550.215949	49385.058715
550.574434	49303.165171
550.932864	49059.851360
551.291237	49777.172264
551.649555	49373.761490
552.007817	49602.571901
552.366022	49244.445811
552.724173	49415.088869
553.082267	49796.275717
553.440305	50085.090983
553.798288	49380.496471
554.156215	49700.299709
554.514086	49888.763246
554.871902	49622.066043
555.229661	49628.828751
555.587365	49463.864553
555.945014	49550.726154
556.302606	49479.489609
556.660143	49696.564214
557.017625	49777.174785
557.375050	49545.964784
557.732421	49888.170910
558.089735	49867.489577
558.446994	49774.742428
558.804197	50246.947309
559.161345	50160.678043
559.518437	49386.747502
559.875474	49713.560465
560.232455	49878.212111
560.589381	50037.878056
560.946251	49743.593139
561.303065	50406.217524
561.659825	50185.442712
562.016528	49855.279902
562.373177	49563.828113
562.729770	50049.097144
563.086307	49547.593077
563.442789	50016.589263
563.799216	50037.230268
564.155587	49821.073153
564.511904	49831.745275
564.868164	49925.535943
565.224370	50149.506846
565.580520	49880.440301
565.936615	50094.331417
566.292654	49805.390123
566.648638	50045.553213
567.004567	50002.907572
567.360441	50036.842099
567.716260	49903.165823
568.072023	50188.225428
568.427732	50140.213479
568.783385	49669.936840
569.138982	50078.378686
569.494525	50011.457369
569.850013	49770.243198
570.205445	49731.701057
570.560823	49676.460093
570.916145	49555.953831
571.271412	49594.458164
571.626625	49319.115382
571.981782	49347.222335
572.336884	49036.120128
572.691931	49358.675837
573.046923	48957.480649
573.401860	48800.741094
573.756743	48750.546325
574.111570	48856.334938
574.466342	48697.551195
574.821059	48807.133277
575.175722	48301.056883
575.530330	48320.639245
575.884882	48007.271040
576.239380	47969.323754
576.593823	47937.773693
576.948211	47858.320067
577.302544	47361.852113
577.656823	47373.776962
578.011047	47603.346068
578.365216	47312.063157
578.719330	47077.359637
579.073389	46930.619210
579.427394	47014.841768
579.781344	46965.040209
580.135239	46595.183354
580.489080	46665.182296
580.842866	46135.525905
581.196597	46576.765498
581.550273	46508.223450
581.903895	46373.422996
582.257463	46780.937270
582.610975	46134.331152
582.964434	46433.266533
583.317837	46040.505196
583.671186	45873.262397
584.024481	46093.023937
584.377721	45591.605570
584.730906	45876.748355
585.084037	45936.533919
585.437113	45631.972609
585.790135	45646.067675
586.143103	45222.862810
586.496016	45335.270458
586.848874	45356.400455
587.201679	45360.584612
587.554428	44835.243449
587.907124	45024.095155
588.259765	44764.463129
588.612352	45009.763154
588.964884	44367.555443
589.317362	44671.300085
589.669786	44602.637049
590.022155	44361.765677
590.374470	44792.643179
590.726731	44305.995392
591.078937	43788.422648
591.431090	43907.101491
591.783188	43535.218093
592.135232	43193.730331
592.487222	43474.625944
592.839157	43525.667627
593.191038	43177.767518
593.542866	42934.950260
593.894639	42311.291474
594.246358	42603.265022
594.598022	42570.762183
594.949633	42170.494568
595.301190	42126.155099
595.652692	41963.635861
596.004141	42275.726133
596.355535	41274.013576
596.706876	41211.548639
597.058162	41040.106558
597.409395	41523.492718
597.760573	41582.060844
598.111698	41178.455984
598.462768	41168.502226
598.813785	41208.350027
599.164748	40645.757257
599.515657	41021.139217
599.866511	40511.042503
600.217312	41124.830710
600.568060	40079.378582
600.918753	40820.816366
601.269392	40782.979986
601.619978	40420.936919
601.970510	40643.095528
602.320988	40819.301499
602.671412	41122.544547
603.021783	40869.405527
603.372100	40517.301096
603.722363	40609.163522
604.072572	40691.165451
604.422728	40712.144213
604.772830	40506.313901
605.122878	40624.231531
605.472872	40538.652903
605.822813	40800.387090
606.172701	40641.835240
606.522534	40878.978678
606.872314	41147.677220
607.222041	40888.380430
607.571714	41277.048351
607.921333	40711.246887
608.270899	41010.494821
608.620411	41356.542306
608.969870	41133.461166
609.319276	41147.042034
609.668627	41198.759232
610.017926	41667.873885
610.367171	41830.133504
610.716362	41922.933584
611.065500	41845.962727
611.414585	42030.605069
611.763616	42328.859895
612.112594	42265.953857
612.461518	42474.695435
612.810389	42775.271712
613.159207	42644.037875
613.507971	42717.011097
613.856682	43210.270357
614.205340	43083.684463
614.553945	43794.540088
614.902496	43220.531626
615.250994	43709.460534
615.599439	43760.600519
615.947830	43972.747397
616.296169	44025.188000
616.644454	44143.203932
616.992686	44299.116738
617.340864	44821.907077
617.688990	44531.738262
618.037063	45155.555844
618.385082	45105.716477
618.733048	45398.075673
619.080961	45399.552732
619.428821	45411.785091
619.776628	45533.468463
620.124382	45370.424945
620.472083	45506.079874
620.819731	45639.322611
621.167326	45298.616229
621.514868	45280.639474
621.862357	44848.799112
622.209793	44896.332152
622.557176	44550.317434
622.904506	44285.198112
623.251783	43928.178556
623.599007	43716.724837
623.946179	43508.258002
624.293297	43459.242863
624.640363	42832.249353
624.987376	42806.000065
625.334336	42577.471959
625.681243	42222.731004
626.028097	42174.668643
626.374899	42014.947245
626.721647	42004.471727
627.068343	41894.493915
627.414987	41650.192038
627.761577	41419.718046
628.108115	41756.683892
628.454600	41193.793695
628.801032	41380.071891
629.147412	41327.953922
629.493739	41321.319764
629.840014	40968.973357
630.186236	41302.601960
630.532405	40891.959650
630.878521	41105.639038
631.224585	40989.251398
631.570597	40683.838134
631.916556	40841.752278
632.262462	40788.968877
632.608316	40806.214664
632.954117	40705.499972
633.299866	40688.481036
633.645562	40618.333381
633.991206	40127.249379
634.336797	39694.476403
634.682336	39686.062718
635.027823	39450.333323
635.373257	39256.548848
635.718639	39017.567909
636.063968	38860.871203
636.409245	38279.021226
636.754470	38323.058226
637.099642	38084.168027
637.444762	37593.383974
637.789829	37755.237780
638.134845	37398.500528
638.479808	37328.579724
638.824719	37234.070692
639.169577	36845.175920
639.514383	36926.409073
639.859137	36590.365758
640.203839	36854.844853
640.548489	36470.071224
640.893086	36540.407923
641.237632	36276.896729
641.582125	36400.765441
641.926566	36317.566238
642.270955	36289.487011
642.615292	36305.931255
642.959576	36262.216889
643.303809	36266.617817
643.647990	36421.323267
643.992118	36378.102934
644.336195	36356.998143
644.680219	36435.340195
645.024192	36746.507937
645.368112	37262.132275
645.711981	37265.202338
646.055797	38142.158941
646.399562	38046.205618
646.743274	39007.513327
647.086935	39447.318712
647.430544	39326.116771
647.774101	39459.152821
648.117606	39711.807890
648.461059	40010.287048
648.804460	39616.744332
649.147810	39001.542081
649.491108	38737.494004
649.834354	38388.484841
650.177548	37537.343987
650.520690	37101.059848
650.863781	37108.233410
651.206820	36954.233722
651.549807	36509.351895
651.892742	36011.958889
652.235626	35829.131362
652.578458	35690.988624
652.921238	35065.020989
653.263967	35392.285135
653.606644	35068.819498
653.949269	35015.957959
654.291843	34580.825724
654.634365	34991.460472
654.976836	34591.961633
655.319255	34601.403714
655.661622	34598.068990
656.003938	34365.722210
656.346203	34236.043568
656.688416	34459.374245
657.030577	34240.547839
657.372687	34078.968776
657.714746	34362.984863
658.056753	34472.685412
658.398708	33921.893984
658.740612	33972.275275
659.082465	34250.075620
659.424266	34073.118517
659.766016	34192.394737
660.107715	34055.471958
660.449362	34169.613763
660.790958	34143.135103
661.132503	34165.986653
661.473996	34200.878999
661.815438	34314.700692
662.156829	34522.817166
662.498168	34266.497178
662.839456	34283.808501
663.180693	34437.588899
663.521879	34602.396821
663.863013	34557.520469
664.204097	34548.204417
664.545129	35005.074108
664.886110	34974.353316
665.227040	35045.741096
665.567918	35145.419831
665.908746	35211.186724
666.249522	35369.839397
666.590248	35369.136156
666.930922	35478.269575
667.271545	35436.788441
667.612118	35515.246439
667.952639	35297.254344
668.293109	35348.008681
668.633528	35259.395278
668.973896	35186.800142
669.314213	35233.496350
669.654480	34968.066997
669.994695	34983.810521
670.334859	34866.313828
670.674973	34758.980101
671.015035	34919.460192
671.355047	34859.399885
671.695008	34796.471162
672.034918	34693.286304
672.374777	34787.434893
672.714585	34604.758602
673.054342	34824.739432
673.394049	34581.518882
673.733705	34868.534456
674.073310	34515.343656
674.412864	34590.424081
674.752368	34198.907908
675.091820	34508.777553
675.431223	34072.717745
675.770574	33781.719660
676.109875	33647.667818
676.449125	33364.652399
676.788324	33302.873059
677.127473	32739.803901
677.466571	32668.398477
677.805619	32311.850268
678.144616	32326.661178
678.483562	32227.380695
678.822458	31891.077760
679.161303	31824.022852
679.500098	31734.988513
679.838842	31606.378596
680.177535	31756.756216
680.516179	32046.483930
680.854771	32285.258182
681.193314	33145.911693
681.531805	34266.325779
681.870247	35013.467629
682.208638	35711.861521
682.546978	35932.399399
682.885268	36045.238066
683.223508	35525.744642
683.561697	35178.774625
683.899836	35000.811812
684.237925	34477.492152
684.575963	34332.150646
684.913951	33853.626678
685.251889	33998.637989
685.589776	33989.586598
685.927614	33981.740042
686.265401	34110.833909
686.603137	34185.531207
686.940824	34695.824525
687.278460	35058.321295
687.616046	35168.825908
687.953582	35769.902846
688.291068	35623.774919
688.628504	35926.150889
688.965889	35857.218151
689.303224	35494.423953
689.640510	35174.744223
689.977745	34430.543886
690.314930	33632.125940
690.652065	33140.764675
690.989150	32409.510021
691.326185	31489.401142
691.663170	30791.539092
692.000105	30024.066268
692.336990	29348.775984
692.673825	28891.734894
693.010610	28366.313073
693.347345	27779.366489
693.684030	27097.532788
694.020665	26817.647926
694.357251	26129.409438
694.693786	26065.616157
695.030272	25844.480903
695.366707	25271.400013
695.703093	24988.371992
696.039429	24968.182171
696.375716	24692.799059
696.711952	24660.326467
697.048139	24484.352389
697.384276	24311.743281
697.720363	24432.950264
698.056400	24230.648760
698.392388	24002.264326
698.728326	23969.196877
699.064214	23763.371607
699.400053	23708.425551
699.735842	23338.193130
700.071581	23066.656419
700.407270	22763.567127
700.742910	22575.711049
701.078501	22304.469246
701.414042	22012.654494
701.749533	21711.480839
702.084974	21351.698731
702.420366	21567.515568
702.755709	21114.247782
703.091002	20807.276800
703.426246	20825.051909
703.761440	20713.977646
704.096584	20446.826739
704.431679	20402.905686
704.766725	20299.244439
705.101721	20233.689275
705.436668	20307.544699
705.771565	19987.834722
706.106413	20332.009419
706.441212	20322.169086
706.775961	20460.052206
707.110661	20516.818119
707.445311	20866.124710
707.779913	20688.880261
708.114465	20939.231523
708.448967	21215.746373
708.783421	21908.020304
709.117825	22176.791942
709.452180	22386.965208
709.786485	22780.853243
710.120742	23574.489655
710.454949	23583.170522
710.789107	24039.047105
711.123216	24737.191460
711.457275	24856.923905
711.791286	25406.346660
712.125247	25485.515461
712.459159	25183.343658
712.793023	25867.367741
713.126837	24756.025211
713.460602	25050.983123
713.794318	24670.459186
714.127985	24305.482168
714.461602	23396.841914
714.795171	23361.347150
715.128691	22344.138085
715.462162	21796.744395
715.795584	21388.226931
716.128957	21111.512956
716.462281	20712.354394
716.795556	20480.708334
717.128782	19960.274734
717.461960	19406.362832
717.795088	19319.476025
718.128167	18914.094159
718.461198	18442.244679
718.794180	18302.700500
719.127113	17937.330272
719.459997	17734.083552
719.792833	17368.504116
720.125619	17334.846852
720.458357	17000.958630
720.791046	16829.443453
721.123686	16663.355078
721.456278	16422.329950
721.788821	16384.337294
722.121315	16111.784791
722.453761	16188.070052
722.786158	16109.042403
723.118506	16110.380830
723.450805	15961.036647
723.783056	16132.017462
724.115259	16015.261818
724.447412	15943.465705
724.779518	16190.073910
725.111574	16209.878083
725.443582	16405.744554
725.775542	16392.130918
726.107453	16856.005292
726.439315	16733.041468
726.771129	17137.805792
727.102895	17512.630704
727.434612	17700.398562
727.766281	17826.578642
728.097901	18082.800328
728.429473	18126.290362
728.760996	18116.308877
729.092471	18206.628710
729.423897	18084.950380
729.755276	17968.424109
730.086606	18081.214885
730.417887	18611.740874
730.749120	19106.784703
731.080305	19282.300036
731.411442	19615.535428
731.742530	19686.696356
732.073570	19786.959865
732.404562	20088.113354
732.735506	19902.954294
733.066401	19616.997363
733.397249	19088.961703
733.728048	18464.834090
734.058798	17623.210934
734.389501	16928.487002
734.720156	16468.416179
735.050762	15938.802638
735.381320	15569.805300
735.711831	15320.858000
736.042293	14972.196676
736.372707	14980.133973
736.703073	14758.600467
737.033391	14936.860708
737.363661	14896.634821
737.693883	14989.825591
738.024056	15147.308717
738.354182	15319.028061
738.684260	15609.690909
739.014290	15811.914275
739.344272	15989.360370
739.674207	16277.210255
740.004093	16387.457769
740.333931	16380.780760
740.663722	16434.262362
740.993464	16436.828309
741.323159	16259.808192
741.652806	15989.544372
741.982405	15788.001562
742.311956	15452.086796
742.641460	15342.116545
742.970915	15038.518096
743.300323	14695.734758
743.629683	14497.166229
743.958996	14209.578484
744.288260	13937.391464
744.617477	13642.221824
744.946647	13572.734560
745.275768	13294.586376
745.604842	13109.369342
745.933869	12930.715891
746.262847	12878.645813
746.591778	12804.823156
746.920662	12699.216024
747.249498	12694.084130
747.578286	12807.520173
747.907027	12952.050054
748.235720	13161.754493
748.564365	13191.676261
748.892963	13095.100356
749.221514	13151.094973
749.550017	12987.940549
749.878473	12957.285293
750.206881	12727.557391
750.535242	12630.946198
750.863555	12553.619939
751.191821	12442.694390
751.520039	12466.347484
751.848210	12363.066845
752.176334	12409.631983
752.504411	12309.134060
752.832440	12135.148717
753.160421	12200.371166
753.488356	12078.176117
753.816243	11991.130514
754.144082	11845.456291
754.471875	11786.666355
754.799620	11724.226623
755.127318	11696.656553
755.454969	11663.962150
755.782572	11607.211360
756.110129	11626.138373
756.437638	11541.270548
756.765100	11532.186388
757.092515	11532.491378
757.419882	11541.878007
757.747203	11546.399922
758.074477	11617.666713
758.401703	11561.934237
758.728882	11727.342057
759.056014	11767.487285
759.383099	11873.250693
759.710138	11974.761887
760.037129	12061.300855
760.364073	12071.428533
760.690970	12063.982749
761.017820	12065.505177
761.344623	12265.674273
761.671379	12602.536776
761.998088	13261.168567
762.324751	14869.347055
762.651366	17765.709230
762.977935	21354.100840
763.304456	23487.292817
763.630931	23893.224168
763.957359	22748.799066
764.283740	20848.515959
764.610074	19004.658487
764.936362	16885.664921
765.262602	15377.636515
765.588796	13912.876333
765.914943	12892.256928
766.241044	12028.160309
766.567097	11392.674976
766.893104	10845.553508
767.219064	10483.276028
767.544978	10103.001629
767.870845	9782.900962
768.196665	9595.180996
768.522438	9397.078773
768.848165	9232.472497
769.173846	9060.397752
769.499479	8943.669835
769.825066	8782.801574
770.150607	8593.937266
770.476101	8534.726394
770.801548	8428.645393
771.126949	8284.811192
771.452303	8191.199485
771.777611	8024.571707
772.102872	8010.524532
772.428087	7894.761995
772.753256	7763.548322
773.078378	7682.746188
773.403453	7532.716408
773.728482	7418.710714
774.053465	7356.989347
774.378401	7269.905935
774.703291	7172.261305
775.028135	7078.125319
775.352932	7038.786675
775.677683	6947.758560
776.002388	6863.525920
776.327046	6864.133379
776.651658	6776.629031
776.976224	6697.853440
777.300743	6682.747623
777.625216	6618.556090
777.949643	6578.065543
778.274024	6579.872796
778.598359	6507.784296
778.922647	6511.184555
779.246889	6465.650332
779.571086	6476.181303
779.895236	6477.895295
780.219339	6476.120809
780.543397	6474.711807
780.867409	6523.033787
781.191374	6519.515061
781.515294	6487.894424
781.839167	6541.050871
782.162995	6504.643657
782.486776	6466.351053
782.810511	6426.654487
783.134201	6347.848649
783.457844	6338.956054
783.781441	6288.534433
784.104993	6241.770170
784.428498	6217.698660
784.751958	6195.772161
785.075372	6176.572927
785.398739	6133.047605
785.722061	6160.000134
786.045337	6159.357387
786.368568	6274.315859
786.691752	6292.191790
787.014891	6547.377519
787.337983	6822.596792
787.661030	7253.547391
787.984031	7679.250148
788.306987	7921.351561
788.629897	8006.582349
788.952760	7916.764111
789.275579	7743.550065
789.598351	7453.671116
789.921078	7193.340890
790.243759	6908.961840
790.566395	6712.266099
790.888984	6523.250556
791.211529	6381.800821
791.534027	6219.016922
791.856480	6080.760757
792.178888	6021.229771
792.501249	5958.154854
792.823566	5852.048648
793.145836	5840.816957
793.468062	5829.454197
793.790241	5784.797135
794.112375	5822.968752
794.434464	5923.748979
794.756507	5952.324760
795.078505	6067.111833
795.400457	6280.627383
795.722364	6514.776377
796.044226	6703.318051
796.366042	6860.985179
796.687812	6809.598177
797.009538	6836.805284
797.331218	6748.244814
797.652852	6682.752664
797.974442	6561.404529
798.295986	6493.331308
798.617484	6366.359766
798.938938	6258.716008
799.260346	6199.013623
799.581709	6056.106994
799.903026	6001.029868
800.224299	5928.306182
800.545526	5813.458615
800.866708	5751.449903
801.187845	5703.054826
801.508936	5621.733452
801.829983	5597.314103
802.150984	5486.181867
802.471940	5455.289676
802.792851	5443.740392
803.113717	5416.752575
803.434538	5388.529675
803.755314	5358.398699
804.076045	5344.159960
804.396731	5311.515968
804.717372	5324.330581
805.037967	5324.781764
805.358518	5345.566442
805.679024	5401.162807
805.999485	5404.411831
806.319901	5425.587197
806.640272	5442.948931
806.960598	5488.407536
807.280879	5483.321012
807.601115	5518.977093
807.921306	5482.469057
808.241453	5475.461853
808.561554	5489.307382
808.881611	5460.333350
809.201623	5460.414009
809.521590	5407.055916
809.841513	5397.079472
810.161390	5414.453809
810.481223	5324.970808
810.801011	5314.636442
811.120755	5290.161640
811.440453	5240.279423
811.760107	5212.507707
812.079716	5182.437224
812.399281	5134.311849
812.718801	5125.956136
813.038276	5094.595118
813.357707	5059.758224
813.677093	5081.236060
813.996434	5019.834807
814.315731	5044.821286
814.634983	5044.090318
814.954191	5049.088622
815.273354	5107.470225
815.592473	5151.023274
815.911547	5223.457093
816.230577	5276.540443
816.549562	5364.110326
816.868502	5416.061937
817.187399	5473.936904
817.506250	5559.540737
817.825058	5589.313792
818.143821	5739.265434
818.462539	5916.908133
818.781213	6149.073433
819.099843	6509.213463
819.418429	7145.152501
819.736970	7763.170236
820.055466	8475.041653
820.373919	9411.763655
820.692327	10925.728019
821.010691	13755.589813
821.329011	20158.490383
821.647286	29652.634053
821.965517	39656.317389
822.283704	44643.039377
822.601847	45874.978910
822.919945	41359.572039
823.237999	36426.369462
823.556010	31389.513199
823.873976	26800.747458
824.191897	22691.786137
824.509775	19669.518624
824.827609	16936.338599
825.145398	15419.238637
825.463144	14704.052662
825.780845	15038.891142
826.098502	16331.011969
826.416116	18724.733297
826.733685	20837.553970
827.051210	21176.984941
827.368692	19702.893583
827.686129	17193.565995
828.003522	14801.558660
828.320872	12649.822799
828.638177	11045.276462
828.955439	9820.777672
829.272656	8771.731201
829.589830	7943.232689
829.906960	7212.741771
830.224046	6687.052768
830.541088	6284.667868
830.858086	6020.894534
831.175041	5827.089895
831.491952	5771.564106
831.808819	5810.393594
832.125642	6066.083438
832.442421	6640.878320
832.759157	7778.029037
833.075849	9530.497951
833.392497	11317.544140
833.709101	12339.857372
834.025662	12025.296934
834.342179	10983.005609
834.658653	9711.319098
834.975083	8639.267322
835.291469	7762.537571
835.607811	7037.448249
835.924110	6520.218302
836.240366	6033.608324
836.556578	5581.162246
836.872746	5231.603597
837.188871	4967.139625
837.504952	4744.824741
837.820990	4580.954473
838.136984	4466.353923
838.452935	4423.088220
838.768842	4461.590033
839.084706	4760.636320
839.400526	5517.343759
839.716303	6399.838069
840.032037	6918.673623
840.347727	6743.821202
840.663373	6144.826261
840.978977	5583.634932
841.294537	5154.007637
841.610054	4829.722813
841.925527	4586.892952
842.240957	4386.779309
842.556344	4200.745609
842.871687	4040.419273
843.186987	3894.235893
843.502244	3777.066875
843.817458	3690.815253
844.132629	3617.867237
844.447756	3567.664906
844.762840	3522.569264
845.077881	3483.303717
845.392879	3452.010755
845.707833	3422.575457
846.022745	3395.161663
846.337613	3383.796381
846.652438	3356.077597
846.967221	3348.062162
847.281960	3328.648679
847.596656	3317.255671
847.911309	3309.542706
848.225919	3292.145684
848.540485	3282.585136
848.855009	3278.670680
849.169490	3264.515120
849.483928	3255.982967
849.798323	3251.813932
850.112675	3241.484608
850.426984	3242.182808
850.741251	3235.871283
851.055474	3230.837691
851.369654	3233.307857
851.683792	3230.459605
851.997887	3233.144019
852.311938	3231.934142
852.625947	3231.462794
852.939914	3225.171434
853.253837	3231.790469
853.567718	3227.487845
853.881555	3223.157493
854.195350	3225.756208
854.509103	3223.812843
854.822812	3220.959550
855.136479	3218.418809
855.450103	3221.204046
855.763685	3211.885473
856.077224	3219.860579
856.390720	3223.046588
856.704173	3236.019997
857.017584	3240.662900
857.330953	3244.297572
857.644278	3251.093048
857.957561	3257.341558
858.270802	3252.751587
858.584000	3253.911052
858.897155	3246.324116
859.210268	3238.096953
859.523339	3225.834346
859.836367	3220.200857
860.149352	3218.441494
860.462295	3211.983776
860.775195	3203.459185
861.088054	3202.544215
861.400869	3202.362734
861.713642	3198.874255
862.026373	3203.560008
862.339062	3210.587376
862.651708	3219.285887
862.964312	3234.631160
863.276873	3243.516193
863.589392	3274.882253
863.901869	3295.868576
864.214303	3318.463028
864.526696	3338.292406
864.839045	3354.401413
865.151353	3366.578320
865.463619	3371.649721
865.775842	3371.304402
866.088023	3377.477295
866.400162	3367.019421
866.712258	3370.787684
867.024313	3369.300543
867.336325	3367.836088
867.648296	3371.251470
867.960224	3367.619319
868.272110	3370.517982
868.583954	3372.403374
868.895755	3375.755741
869.207515	3377.444528
869.519233	3397.173083
869.830909	3402.065523
870.142542	3412.563726
870.454134	3421.171496
870.765684	3432.312446
871.077191	3450.488326
871.388657	3462.836632
871.700081	3477.115701
872.011463	3503.266686
872.322803	3521.034233
872.634101	3534.665513
872.945357	3556.821384
873.256571	3584.136876
873.567744	3599.638424
873.878874	3601.420472
874.189963	3619.099799
874.501010	3624.332517
874.812015	3619.097278
875.122979	3639.022439
875.433900	3634.205616
875.744780	3639.985299
876.055618	3646.745487
876.366415	3644.726504
876.677169	3648.963594
876.987882	3671.661389
877.298554	3690.525387
877.609183	3727.383783
877.919771	3780.764562
878.230317	3848.810056
878.540822	3959.823826
878.851285	4112.878298
879.161707	4343.097711
879.472087	4735.402824
879.782425	5377.784456
880.092722	6594.567760
880.402977	8534.776805
880.713191	10868.485717
881.023363	13144.992656
881.333494	14367.714439
881.643583	14764.614564
881.953631	14345.102343
882.263637	13551.874265
882.573602	12558.867781
882.883526	11638.411062
883.193408	10712.809845
883.503248	9821.745573
883.813048	9011.120473
884.122806	8259.461750
884.432522	7495.787436
884.742197	6836.638926
885.051831	6285.862622
885.361424	5791.189318
885.670975	5403.716151
885.980485	5083.517183
886.289954	4811.693126
886.599382	4600.375518
886.908768	4416.857354
887.218113	4252.205707
887.527417	4118.413484
887.836680	3996.929238
888.145901	3898.823343
888.455082	3821.187054
888.764221	3751.256168
889.073319	3693.174513
889.382376	3657.231087
889.691392	3632.494145
890.000366	3628.786376
890.309300	3619.616517
890.618193	3624.163638
890.927044	3616.377576
891.235855	3624.932414
891.544625	3644.734066
891.853353	3672.760361
892.162041	3731.383939
892.470687	3825.509843
892.779293	3948.156075
893.087858	4131.281030
893.396381	4415.589504
893.704864	4830.884799
894.013306	5393.142331
894.321707	5943.190189
894.630068	6267.354025
894.938387	6282.364061
895.246665	6098.833293
895.554903	5793.619154
895.863100	5471.038240
896.171256	5209.203230
896.479371	4977.214371
896.787446	4754.460906
897.095480	4563.562492
897.403473	4414.430038
897.711425	4271.190693
898.019336	4151.523783
898.327207	4035.098335
898.635038	3929.647479
898.942827	3823.077486
899.250576	3739.538005
899.558284	3658.004904
899.865952	3601.347376
900.173579	3538.262376
900.481165	3494.837877
900.788711	3449.832976
901.096216	3421.108482
901.403681	3393.102351
901.711105	3380.534755
902.018489	3380.544837
902.325832	3418.469438
902.633135	3481.292297
902.940397	3658.609842
903.247619	4079.221034
903.554800	4843.376778
903.861941	5780.549963
904.169041	6438.410458
904.476101	6618.359485
904.783121	6342.154666
905.090100	5951.913906
905.397039	5556.223658
905.703938	5204.144432
906.010796	4886.902100
906.317614	4636.732320
906.624391	4401.703645
906.931129	4212.032753
907.237826	4026.878733
907.544483	3860.437477
907.851099	3687.626724
908.157675	3525.798123
908.464211	3387.879716
908.770707	3285.100671
909.077163	3207.797098
909.383578	3146.083292
909.689954	3104.009822
909.996289	3075.166861
910.302584	3053.381514
910.608839	3040.468599
910.915054	3028.205992
911.221229	3024.175589
911.527363	3029.975437
911.833458	3036.473484
912.139513	3048.481513
912.445527	3060.696228
912.751502	3094.741661
913.057436	3143.214876
913.363331	3201.102445
913.669186	3290.517391
913.975000	3416.571443
914.280775	3607.885752
914.586510	3882.036301
914.892205	4263.666771
915.197859	4753.843365
915.503475	5321.169778
915.809050	5791.554802
916.114585	6050.975099
916.420081	6101.477379
916.725536	6038.326844
917.030952	5805.816226
917.336328	5606.778869
917.641665	5403.131378
917.946961	5182.197769
918.252218	4987.967153
918.557435	4769.702835
918.862612	4575.540274
919.167750	4400.186258
919.472848	4216.191704
919.777906	4048.172567
920.082925	3892.486613
920.387904	3741.259559
920.692843	3635.019763
920.997743	3533.690050
921.302603	3437.618260
921.607423	3374.215668
921.912204	3307.115390
922.216946	3261.616456
922.521647	3211.416646
922.826310	3173.630677
923.130932	3132.807414
923.435516	3094.555138
923.740059	3066.566652
924.044564	3031.558359
924.349028	3008.802591
924.653454	2978.396871
924.957840	2952.714713
925.262186	2930.818461
925.566493	2911.820873
925.870761	2884.812891
926.174989	2875.179246
926.479178	2860.625435
926.783328	2842.631037
927.087438	2832.982268
927.391509	2816.855617
927.695541	2806.624595
927.999533	2796.386012
928.303486	2787.687501
928.607400	2782.157355
928.911275	2776.460851
929.215110	2771.097063
929.518906	2767.472474
929.822663	2770.741662
930.126381	2767.429624
930.430060	2770.426590
930.733699	2769.834254
931.037299	2771.603699
931.340861	2772.639657
931.644383	2775.921448
931.947866	2774.633433
932.251309	2773.176539
932.554714	2772.843823
932.858080	2769.367948
933.161407	2765.972731
933.464694	2761.349992
933.767943	2759.857811
934.071153	2759.076432
934.374323	2753.405134
934.677455	2748.353898
934.980548	2745.931623
935.283602	2743.716036
935.586617	2740.409039
935.889593	2747.751480
936.192530	2745.866088
936.495428	2752.094434
936.798287	2759.948552
937.101108	2774.091509
937.403890	2793.686474
937.706632	2820.202943
938.009336	2850.984228
938.312002	2880.326264
938.614628	2903.245870
938.917216	2922.808068
939.219765	2933.092022
939.522275	2942.619803
939.824747	2940.757096
940.127179	2938.715429
940.429573	2932.774429
940.731929	2929.515323
941.034246	2923.400403
941.336524	2920.259765
941.638763	2912.876995
941.940964	2907.102353
942.243126	2891.661299
942.545250	2885.062428
942.847335	2865.953935
943.149381	2853.424147
943.451389	2843.198166
943.753359	2829.065292
944.055290	2822.156390
944.357182	2810.002168
944.659036	2807.221972
944.960851	2802.969759
945.262628	2797.285858
945.564367	2797.474901
945.866067	2795.808800
946.167729	2794.293933
946.469352	2794.964406
946.770937	2793.512554
947.072484	2785.771862
947.373992	2785.207253
947.675462	2782.298507
947.976893	2775.999586
948.278286	2775.233330
948.579641	2770.935747
948.880958	2767.119593
949.182236	2767.177566
949.483476	2764.067174
949.784678	2764.256218
950.085841	2760.321597
950.386967	2764.329314
950.688054	2771.971704
950.989103	2781.990997
951.290114	2788.514250
951.591087	2801.490180
951.892021	2813.026861
952.192917	2825.675116
952.493776	2835.757423
952.794596	2837.153823
953.095378	2837.877228
953.396122	2838.187259
953.696828	2834.482011
953.997496	2830.020590
954.298126	2821.748057
954.598718	2812.058959
954.899272	2801.311219
955.199788	2792.763943
955.500266	2780.183743
955.800706	2766.681013
956.101108	2746.745770
956.401472	2740.361148
956.701798	2726.250959
957.002087	2709.594987
957.302337	2700.548636
957.602550	2693.475897
957.902724	2682.949968
958.202861	2675.070644
958.502960	2665.033707
958.803022	2658.490289
959.103045	2650.121974
959.403031	2642.189718
959.702979	2639.147382
960.002889	2637.622433
960.302762	2628.442492
960.602596	2626.670526
960.902393	2624.046606
961.202153	2619.696090
961.501875	2615.738784
961.801559	2615.791716
962.101205	2613.571088
962.400814	2610.750562
962.700385	2608.527414
962.999918	2606.389964
963.299414	2604.179418
963.598873	2603.284614
963.898293	2602.513317
964.197677	2601.973914
964.497022	2598.828234
964.796331	2601.341249
965.095601	2598.306474
965.394835	2595.992585
965.694030	2598.750096
965.993189	2598.077102
966.292309	2594.697008
966.591393	2593.726586
966.890439	2595.221288
967.189447	2596.214395
967.488419	2593.865218
967.787353	2597.308326
968.086249	2596.700867
968.385108	2595.233891
968.683930	2595.881679
968.982714	2595.289344
969.281462	2599.420569
969.580172	2600.663214
969.878844	2603.546754
970.177480	2602.485591
970.476078	2607.698144
970.774639	2611.073196
971.073162	2612.315841
971.371649	2612.489761
971.670098	2614.380193
971.968510	2612.605707
972.266885	2615.784155
972.565223	2622.783797
972.863524	2620.023765
973.161788	2622.677932
973.460014	2623.550052
973.758204	2623.492079
974.056356	2628.162708
974.354471	2624.263375
974.652550	2624.805299
974.950591	2626.645321
975.248595	2623.023252
975.546563	2625.382512
975.844493	2622.577109
976.142386	2620.298508
976.440243	2616.091665
976.738062	2614.634772
977.035845	2611.829369
977.333590	2612.371293
977.631299	2610.082610
977.928971	2611.829369
978.226606	2606.236209
978.524204	2605.694285
978.821765	2603.168667
979.119290	2602.067175
979.416777	2603.178749
979.714228	2605.361569
980.011642	2605.414501
980.309020	2609.331478
980.606360	2609.825511
980.903664	2620.837911
981.200931	2632.614047
981.498162	2654.081800
981.795356	2682.806295
982.092513	2717.370966
982.389633	2758.554673
982.686717	2800.146712
982.983764	2832.331959
983.280775	2848.380473
983.577749	2849.607993
983.874686	2841.204390
984.171587	2821.473314
984.468451	2811.164154
984.765279	2790.692028
985.062070	2776.317178
985.358824	2755.383787
985.655543	2732.587689
985.952224	2712.841490
986.248869	2687.308045
986.545478	2661.482214
986.842050	2641.471354
987.138586	2624.114661
987.435086	2610.029677
987.731549	2596.201792
988.027975	2596.068202
988.324366	2588.014959
988.620719	2585.234762
988.917037	2580.324678
989.213318	2577.085737
989.509563	2576.314441
989.805772	2573.708164
990.101944	2570.512073
990.398080	2572.813359
990.694180	2572.720098
990.990244	2570.766651
991.286271	2569.808832
991.582262	2571.243040
991.878217	2573.977866
992.174136	2574.411405
992.470019	2575.185222
992.765865	2574.335788
993.061676	2576.720253
993.357450	2582.182344
993.653188	2584.602098
993.948890	2589.492017
994.244556	2594.646597
994.540186	2604.313009
994.835780	2616.106788
995.131337	2632.225878
995.426859	2645.214411
995.722345	2663.085301
996.017795	2681.699762
996.313208	2694.922708
996.608586	2704.735314
996.903928	2707.409646
997.199234	2705.214224
997.494504	2701.839171
997.789738	2695.898172
998.084936	2685.372242
998.380099	2674.004440
998.675225	2665.999088
998.970316	2653.648261
999.265371	2641.438587
999.560390	2624.540639
999.855373	2617.225925
1000.150320	2605.396857
1000.445232	2599.896958
1000.740108	2588.095617
1001.034948	2585.844742
1001.329752	2580.448187
1001.624521	2577.907445
1001.919254	2569.413101
1002.213951	2566.169118
1002.508613	2562.841957
1002.803239	2561.165773
1003.097829	2562.715928
1003.392384	2561.243911
1003.686903	2560.298695
1003.981386	2562.491597
1004.275834	2556.905998
1004.570246	2556.434650
1004.864623	2553.709907
1005.158964	2556.384239
1005.453270	2557.165618
1005.747540	2555.950700
1006.041775	2555.920453
1006.335974	2552.033723
1006.630138	2554.133364
1006.924266	2552.978939
1007.218359	2552.888199
1007.512416	2551.133877
1007.806438	2550.793599
1008.100425	2550.723023
1008.394376	2551.290153
1008.688292	2551.527087
1008.982172	2551.648075
1009.276017	2549.296377
1009.569827	2547.829401
1009.863602	2550.647406
1010.157341	2549.659340
1010.451045	2548.910728
1010.744714	2546.732950
1011.038347	2546.677497
1011.331945	2549.155224
1011.625508	2548.184802
1011.919036	2545.364277
1012.212528	2544.741694
1012.505986	2545.883515
1012.799408	2547.426108
1013.092795	2545.512991
1013.386147	2545.860830
1013.679464	2545.512991
1013.972745	2547.768907
1014.265992	2544.766900
1014.559204	2546.924514
1014.852380	2547.053063
1015.145521	2546.672456
1015.438628	2544.267826
1015.731699	2546.511139
1016.024736	2546.511139
1016.317737	2549.127498
1016.610703	2545.087013
1016.903635	2546.259081
1017.196531	2539.972763
1017.489393	2546.712785
1017.782219	2541.550644
1018.075011	2548.409133
1018.367768	2544.776982
1018.660490	2548.295707
1018.953177	2548.295707
1019.245829	2548.295707
