Dividing Wavelength (nm)	Counts (n)	Blue Motor Position (mm): 13.000000	Red Motor Position (mm): 0.000000	
326.493990	2063.044321
326.888308	2063.044321
327.282561	2063.044321
327.676750	2036.255629
328.070874	2039.776875
328.464933	2047.638554
328.858929	2054.146684
329.252859	2062.696481
329.646726	2076.053018
330.040528	2092.988774
330.434265	2111.406630
330.827938	2133.229785
331.221547	2152.441622
331.615091	2172.691937
332.008571	2195.951821
332.401986	2214.105016
332.795338	2238.262225
333.188625	2253.915008
333.581847	2272.380755
333.975006	2290.798610
334.368100	2308.379634
334.761129	2325.254897
335.154095	2341.152175
335.546996	2378.305479
335.939833	2455.969495
336.332606	2465.109107
336.725315	2480.378762
337.117960	2489.178096
337.510540	2497.977430
337.903056	2505.662669
338.295508	2516.163393
338.687896	2521.146573
339.080220	2527.591689
339.472480	2528.431041
339.864676	2530.802904
340.256807	2535.135775
340.648875	2536.612833
341.040879	2537.374048
341.432818	2541.669111
341.824694	2540.408822
342.216506	2540.781868
342.608253	2541.661549
342.999937	2539.088040
343.391557	2537.069058
343.783113	2538.465457
344.174605	2533.199972
344.566033	2533.424304
344.957397	2532.534540
345.348697	2527.785773
345.739934	2526.674199
346.131106	2527.367357
346.522215	2526.311236
346.913260	2523.586492
347.304241	2524.443488
347.695159	2520.965092
348.086012	2519.288908
348.476802	2514.187261
348.867528	2514.101561
349.258191	2512.006962
349.648789	2513.461334
350.039324	2506.890190
350.429796	2511.018895
350.820203	2507.701816
351.210548	2507.598473
351.600828	2507.888339
351.991045	2505.869357
352.381198	2507.661487
352.771288	2509.314985
353.161314	2506.522186
353.551276	2505.929851
353.941175	2503.169819
354.331010	2508.437825
354.720782	2511.628875
355.110490	2509.156189
355.500135	2506.575118
355.889717	2509.461179
356.279235	2506.801970
356.668689	2508.556292
357.058080	2505.340036
357.447408	2506.464213
357.836672	2508.329440
358.225873	2509.012516
358.615010	2508.490757
359.004084	2510.459327
359.393095	2511.258350
359.782043	2511.066786
360.170927	2512.359842
360.559748	2512.543844
360.948505	2512.886643
361.337199	2516.886798
361.725830	2513.678104
362.114398	2515.240862
362.502903	2515.823115
362.891344	2515.450070
363.279722	2513.496623
363.668037	2517.902591
364.056289	2515.563496
364.444478	2514.950995
364.832603	2513.514267
365.220665	2517.824453
365.608665	2519.152797
365.996601	2517.305214
366.384474	2516.891840
366.772284	2515.654236
367.160031	2519.074659
367.547715	2519.566172
367.935336	2521.809485
368.322893	2519.593898
368.710388	2516.710358
369.097820	2519.321676
369.485189	2518.202540
369.872495	2522.548014
370.259738	2520.234125
370.646918	2520.818898
371.034035	2522.492562
371.421090	2522.631193
371.808081	2522.961389
372.195010	2521.829650
372.581875	2522.016173
372.968678	2523.654547
373.355418	2524.526667
373.742096	2523.503313
374.128710	2526.099507
374.515262	2523.359640
374.901751	2524.166225
375.288177	2524.932480
375.674540	2523.304187
376.060841	2525.459281
376.447079	2523.450381
376.833254	2526.162522
377.219367	2524.924918
377.605417	2523.372243
377.991404	2527.689991
378.377329	2522.966430
378.763191	2526.691843
379.148991	2527.145547
379.534727	2526.359127
379.920402	2527.309384
380.306013	2528.355423
380.691563	2531.569159
381.077049	2525.532377
381.462474	2525.519774
381.847835	2528.294930
382.233134	2529.202337
382.618371	2527.518592
383.003545	2526.623787
383.388657	2529.396422
383.773706	2527.677388
384.158693	2528.990609
384.543618	2529.633356
384.928480	2529.761905
385.313280	2530.397091
385.698017	2528.768798
386.082692	2527.798376
386.467305	2530.190403
386.851856	2532.405991
387.236344	2530.021525
387.620770	2527.392563
388.005133	2525.189579
388.389435	2529.058664
388.773674	2527.523633
389.157851	2533.988913
389.541965	2530.298788
389.926018	2531.322142
390.310008	2532.718542
390.693936	2533.941022
391.077802	2531.276772
391.461606	2533.515044
391.845348	2533.000847
392.229027	2533.600744
392.612645	2530.535723
392.996200	2535.856660
393.379694	2535.707946
393.763125	2533.593182
394.146494	2534.689633
394.529801	2535.309695
394.913047	2533.593182
395.296230	2537.018646
395.679351	2533.784746
396.062410	2536.708615
396.445408	2537.028729
396.828343	2534.762730
397.211217	2536.940508
397.594028	2537.331198
397.976778	2536.204500
398.359466	2533.489839
398.742092	2539.889583
399.124656	2535.370189
399.507158	2536.305323
399.889598	2536.229706
400.271977	2537.240457
400.654294	2537.716846
401.036549	2534.581248
401.418742	2538.389840
401.800874	2540.000489
402.182944	2537.764737
402.564952	2536.030580
402.946898	2536.774150
403.328783	2536.925385
403.710606	2538.871270
404.092367	2537.462268
404.474067	2538.891435
404.855705	2540.418905
405.237282	2540.484440
405.618797	2538.387320
406.000250	2540.842362
406.381642	2542.914276
406.762972	2537.305992
407.144240	2538.430169
407.525447	2537.452186
407.906593	2536.413708
408.287677	2539.284645
408.668700	2540.449152
409.049661	2544.461910
409.430560	2541.064172
409.811399	2543.700696
410.192176	2541.825387
410.572891	2541.127187
410.953545	2542.435366
411.334138	2541.956457
411.714669	2542.992414
412.095139	2544.474513
412.475547	2541.550644
412.855894	2543.388144
413.236180	2542.974770
413.616405	2542.337064
413.996568	2543.327650
414.376670	2545.162630
414.756711	2540.943185
415.136691	2546.465769
415.516609	2542.694986
415.896466	2541.369162
416.276262	2544.325799
416.655997	2543.335212
417.035670	2542.316899
417.415283	2546.687579
417.794834	2544.819832
418.174324	2544.613145
418.553753	2546.160779
418.933121	2541.923689
419.312428	2544.199770
419.691674	2544.466951
420.070859	2542.752959
420.449983	2542.306817
420.829045	2542.498381
421.208047	2547.171530
421.586988	2543.864533
421.965867	2545.979297
422.344686	2546.896787
422.723444	2543.529297
423.102141	2545.906201
423.480777	2540.244985
423.859352	2543.582229
424.237866	2547.226983
424.616319	2545.744884
424.994712	2545.434853
425.373044	2543.524255
425.751314	2544.635830
426.129524	2542.972249
426.507673	2542.508463
426.885762	2540.028215
427.263789	2546.324616
427.641756	2545.661705
428.019662	2549.170348
428.397508	2545.558361
428.775292	2547.116077
429.153016	2544.338402
429.530679	2545.754966
429.908282	2545.369318
430.285824	2543.405788
430.663305	2546.823691
431.040726	2545.301262
431.418086	2545.054246
431.795385	2548.935934
432.172624	2542.200953
432.549802	2545.560882
432.926920	2549.583722
433.303977	2544.681200
433.680974	2545.447456
434.057910	2546.241437
434.434786	2546.259081
434.811601	2545.961653
435.188355	2546.412837
435.565050	2545.717157
435.941683	2546.380069
436.318257	2546.178423
436.694770	2543.272198
437.071222	2546.289328
437.447614	2544.892929
437.823946	2547.582384
438.200218	2546.843855
438.576429	2548.469627
438.952580	2544.794626
439.328670	2544.595501
439.704700	2549.024154
440.080670	2546.090203
440.456580	2547.597508
440.832429	2548.850234
441.208218	2543.163813
441.583947	2545.495347
441.959616	2545.079451
442.335224	2545.727240
442.710773	2547.642878
443.086261	2546.911911
443.461689	2547.093392
443.837057	2545.729760
444.212365	2546.064997
444.587612	2545.472661
444.962800	2544.214893
445.337927	2544.754297
445.712995	2540.620551
446.088002	2548.883002
446.462949	2547.486602
446.837837	2546.032229
447.212664	2548.197405
447.587431	2543.741025
447.962139	2546.427960
448.336786	2546.876623
448.711374	2547.655481
449.085901	2545.906201
449.460369	2544.756818
449.834776	2548.348640
450.209124	2545.964174
450.583412	2549.218239
450.957640	2547.083310
451.331808	2548.396531
451.705917	2545.485264
452.079965	2543.647764
452.453954	2547.627755
452.827883	2548.058773
453.201752	2547.721016
453.575562	2546.291849
453.949311	2549.561037
454.323001	2547.713454
454.696632	2549.230842
455.070202	2546.183464
455.443713	2548.938455
455.817164	2547.567261
456.190556	2545.023999
456.563888	2549.729916
456.937160	2548.900646
457.310373	2548.633465
457.683526	2547.882333
458.056619	2545.397044
458.429653	2547.272353
458.802628	2548.278063
459.175542	2548.131870
459.548398	2547.539534
459.921194	2549.722354
460.293930	2550.483568
460.666607	2548.341078
461.039224	2547.378218
461.411782	2550.939793
461.784280	2549.049360
462.156719	2550.002138
462.529099	2548.940975
462.901419	2550.294525
463.273680	2548.076417
463.645882	2544.774462
464.018024	2547.103475
464.390106	2545.802857
464.762130	2549.291335
465.134094	2550.150852
465.505999	2549.911397
465.877845	2548.840152
466.249631	2551.237221
466.621358	2550.546583
466.993026	2549.359391
467.364634	2553.498178
467.736184	2553.525905
468.107674	2546.480892
468.479105	2550.372663
468.850477	2550.218908
469.221790	2552.013558
469.593043	2551.587581
469.964238	2549.893753
470.335373	2549.858465
470.706449	2553.175544
471.077467	2551.615307
471.448425	2552.734443
471.819324	2553.029351
472.190164	2556.106975
472.560945	2551.030533
472.931667	2551.519525
473.302330	2550.176058
473.672934	2549.654298
474.043479	2551.421223
474.413965	2552.883157
474.784393	2549.256047
475.154761	2552.104299
475.525070	2553.306614
475.895321	2550.949875
476.265513	2553.389793
476.635645	2552.830225
477.005719	2550.556665
477.375734	2551.209494
477.745691	2552.200081
478.115588	2551.789227
478.485427	2553.911553
478.855207	2552.754608
479.224928	2555.318035
479.594591	2552.510112
479.964194	2555.199568
480.333739	2556.374157
480.703226	2554.927345
481.072653	2554.844166
481.442022	2554.173693
481.811333	2553.208312
482.180584	2551.653116
482.549777	2551.716130
482.918912	2552.225287
483.287988	2555.408776
483.657005	2559.015721
484.025964	2557.846173
484.394864	2557.039589
484.763706	2554.975236
485.132489	2555.769218
485.501213	2554.950031
485.869879	2555.693601
486.238487	2556.815258
486.607036	2555.723848
486.975527	2554.544218
487.343959	2556.938766
487.712333	2555.300391
488.080648	2558.007490
488.448905	2557.858776
488.817104	2555.015566
489.185244	2557.949517
489.553326	2555.474311
489.921350	2561.390105
490.289315	2560.674261
490.657222	2557.873900
491.025070	2560.724672
491.392861	2562.932698
491.760593	2563.083932
492.128267	2561.929508
492.495883	2560.031514
492.863440	2557.848694
493.230939	2562.100907
493.598380	2562.481514
493.965763	2562.032852
494.333088	2559.850032
494.700354	2557.591595
495.067563	2559.449260
495.434713	2561.150650
495.801805	2557.347099
496.168839	2560.215516
496.535815	2557.752912
496.902733	2561.508572
497.269593	2559.875238
497.636395	2559.388767
498.003139	2560.132337
498.369825	2563.827503
498.736453	2562.398335
499.103023	2562.332800
499.469535	2563.300702
499.835989	2560.878427
500.202385	2559.318190
500.568723	2558.962789
500.935003	2560.686864
501.301226	2560.759960
501.667390	2562.887327
502.033497	2566.794222
502.399546	2568.233471
502.765537	2565.412945
503.131470	2566.378326
503.497345	2567.620971
503.863163	2567.593244
504.228923	2567.525189
504.594625	2567.827658
504.960269	2567.295816
505.325856	2570.602813
505.691385	2569.564336
506.056856	2572.152968
506.422270	2570.454099
506.787625	2572.576425
507.152924	2572.563822
507.518164	2571.031311
507.883347	2572.246229
508.248472	2572.445355
508.613540	2575.991807
508.978550	2577.662949
509.343503	2575.591035
509.708398	2575.921231
510.073236	2579.414750
510.438016	2579.843248
510.802738	2582.825091
511.167403	2582.167220
511.532010	2580.690162
511.896561	2586.013621
512.261053	2583.583784
512.625488	2584.897005
512.989866	2589.050916
513.354186	2584.828949
513.718449	2586.840370
514.082655	2589.522264
514.446803	2588.574527
514.810894	2590.520412
515.174927	2593.787080
515.538904	2593.787080
515.902822	2597.638521
516.266684	2591.856318
516.630488	2599.082812
516.994235	2600.915271
517.357925	2600.343100
517.721558	2602.465426
518.085133	2601.479881
518.448651	2605.210334
518.812112	2603.556836
519.175516	2606.861312
519.538863	2606.236209
519.902152	2608.729060
520.265385	2612.517487
520.628560	2612.232662
520.991678	2614.869185
521.354739	2617.306583
521.717743	2620.853035
522.080690	2619.622993
522.443580	2618.198867
522.806413	2623.103910
523.169189	2622.640124
523.531908	2627.585496
523.894569	2627.449385
524.257174	2629.531381
524.619722	2631.081536
524.982213	2631.401649
525.344647	2632.210754
525.707025	2633.579428
526.069345	2638.469347
526.431608	2640.236271
526.793815	2640.412712
527.155964	2640.074954
527.518057	2641.985552
527.880093	2644.700213
528.242072	2648.072745
528.603995	2647.616521
528.965860	2645.022847
529.327669	2647.573671
529.689421	2651.530977
530.051117	2652.997952
530.412755	2656.108344
530.774337	2659.513644
531.135862	2658.742347
531.497331	2662.989519
531.858743	2661.764519
532.220098	2665.832730
532.581396	2666.021773
532.942638	2666.629232
533.303824	2667.982782
533.664953	2670.669717
534.026025	2671.383040
534.387040	2672.471930
534.747999	2674.697599
535.108902	2676.099040
535.469748	2680.351253
535.830537	2681.437622
536.191270	2681.654391
536.551947	2678.924607
536.912567	2681.006603
537.273131	2684.530370
537.633638	2682.516429
537.994089	2688.225535
538.354483	2691.255269
538.714821	2694.710980
539.075103	2695.678881
539.435328	2694.093438
539.795497	2698.264993
540.155609	2698.275076
540.515665	2704.813452
540.875665	2700.929243
541.235609	2704.188349
541.595496	2707.029039
541.955328	2708.808567
542.315102	2709.652960
542.674821	2710.618341
543.034483	2712.299566
543.394090	2711.979452
543.753640	2716.491285
544.113134	2718.069166
544.472571	2719.163097
544.831953	2722.311297
545.191278	2720.879609
545.550548	2721.640824
545.909761	2725.111658
546.268918	2728.075857
546.628019	2731.765981
546.987064	2729.550394
547.346053	2729.784808
547.704986	2733.883266
548.063863	2734.084912
548.422684	2733.658934
548.781449	2736.502145
549.140158	2738.657238
549.498811	2738.977352
549.857408	2738.611868
550.215949	2744.116808
550.574434	2744.005903
550.932864	2745.339288
551.291237	2753.097624
551.649555	2750.932448
552.007817	2754.519229
552.366022	2752.480082
552.724173	2756.702049
553.082267	2762.030548
553.440305	2765.145981
553.798288	2762.423758
554.156215	2768.760489
554.514086	2769.143616
554.871902	2768.836106
555.229661	2774.620830
555.587365	2774.081427
555.945014	2782.301028
556.302606	2782.633744
556.660143	2788.778911
557.017625	2790.944086
557.375050	2796.711166
557.732421	2802.137968
558.089735	2804.005716
558.446994	2809.518217
558.804197	2817.563899
559.161345	2817.619352
559.518437	2817.037098
559.875474	2825.133192
560.232455	2833.327587
560.589381	2838.101560
560.946251	2840.851509
561.303065	2849.882736
561.659825	2856.811802
562.016528	2861.258100
562.373177	2866.299254
562.729770	2875.842158
563.086307	2877.593959
563.442789	2888.331617
563.799216	2898.376116
564.155587	2905.184194
564.511904	2912.428332
564.868164	2918.855803
565.224370	2928.867535
565.580520	2940.389092
565.936615	2947.683642
566.292654	2956.674539
566.648638	2970.706591
567.004567	2981.169506
567.360441	2991.589571
567.716260	2999.710870
568.072023	3017.750639
568.427732	3029.065509
568.783385	3037.990872
569.138982	3055.599622
569.494525	3069.717373
569.850013	3079.827407
570.205445	3095.074377
570.560823	3106.323712
570.916145	3122.805764
571.271412	3142.925009
571.626625	3155.817760
571.981782	3172.428362
572.336884	3183.483613
572.691931	3201.876263
573.046923	3217.854200
573.401860	3230.777197
573.756743	3252.872575
574.111570	3276.306378
574.466342	3293.143832
574.821059	3319.118378
575.175722	3330.055161
575.530330	3351.608614
575.884882	3370.417159
576.239380	3388.804768
576.593823	3415.066659
576.948211	3434.890996
577.302544	3454.198615
577.656823	3477.755927
578.011047	3509.472347
578.365216	3529.132847
578.719330	3551.122360
579.073389	3576.295362
579.427394	3608.251236
579.781344	3635.223929
580.135239	3660.832991
580.489080	3695.198537
580.842866	3707.587172
581.196597	3753.433946
581.550273	3788.154893
581.903895	3822.470027
582.257463	3868.710011
582.610975	3886.356570
582.964434	3936.758026
583.317837	3956.431129
583.671186	3988.258454
584.024481	4038.962379
584.377721	4058.496850
584.730906	4105.220785
585.084037	4145.754182
585.437113	4176.079243
585.790135	4217.396540
586.143103	4242.027618
586.496016	4287.604690
586.848874	4335.752750
587.201679	4378.431159
587.554428	4402.953852
587.907124	4457.083241
588.259765	4493.303931
588.612352	4544.138927
588.964884	4570.637752
589.317362	4633.679901
589.669786	4676.380995
590.022155	4718.535123
590.374470	4786.716729
590.726731	4812.789577
591.078937	4823.895239
591.431090	4895.620776
591.783188	4912.427983
592.135232	4949.659424
592.487222	5016.520248
592.839157	5073.795317
593.191038	5103.495275
593.542866	5144.084125
593.894639	5154.491588
594.246358	5227.575715
594.598022	5276.555566
594.949633	5303.676974
595.301190	5351.136917
595.652692	5405.311677
596.004141	5488.949460
596.355535	5463.065656
596.706876	5515.917112
597.058162	5545.022214
597.409395	5636.793899
597.760573	5713.462288
598.111698	5737.067491
598.462768	5784.708915
598.813785	5853.908834
599.164748	5870.302666
599.515657	5953.148988
599.866511	5970.568696
600.217312	6087.508341
600.568060	6053.397374
600.918753	6193.818714
601.269392	6245.664461
601.619978	6284.854391
601.970510	6358.097315
602.320988	6436.509943
602.671412	6527.283479
603.021783	6577.397590
603.372100	6600.327278
603.722363	6675.415265
604.072572	6744.494196
604.422728	6810.102293
604.772830	6854.008222
605.122878	6938.815553
605.472872	6995.198338
605.822813	7091.252484
606.172701	7135.186139
606.522534	7240.770586
606.872314	7336.418919
607.222041	7388.355406
607.571714	7499.369176
607.921333	7507.445104
608.270899	7615.892926
608.620411	7741.062256
608.969870	7791.849360
609.319276	7867.191925
609.668627	7954.887837
610.017926	8090.656192
610.367171	8184.338475
610.716362	8272.059593
611.065500	8346.214966
611.414585	8460.404663
611.763616	8569.989265
612.112594	8643.030543
612.461518	8747.142973
612.810389	8896.346003
613.159207	8953.608470
613.507971	9036.658959
613.856682	9209.978869
614.205340	9275.745762
614.553945	9481.230755
614.902496	9460.015059
615.250994	9625.979926
615.599439	9728.504392
615.947830	9849.718936
616.296169	9948.137383
616.644454	10056.035719
616.992686	10185.658908
617.340864	10374.805521
617.688990	10398.042719
618.037063	10630.031578
618.385082	10705.618639
618.733048	10878.958714
619.080961	10959.153389
619.428821	11073.743857
619.776628	11173.820844
620.124382	11238.277037
620.472083	11355.025119
620.819731	11473.845115
621.167326	11482.440282
621.514868	11579.235477
621.862357	11554.382589
622.209793	11663.710092
622.557176	11668.531956
622.904506	11711.144829
623.251783	11714.724048
623.599007	11738.223387
623.946179	11815.100983
624.293297	11847.828154
624.640363	11813.523102
624.987376	11877.029038
625.334336	11920.403125
625.681243	11919.102508
626.028097	12001.215342
626.374899	12049.935573
626.721647	12144.472332
627.068343	12190.180473
627.414987	12216.762478
627.761577	12249.096438
628.108115	12435.115015
628.454600	12338.637413
628.801032	12507.183351
629.147412	12586.475660
629.493739	12669.085048
629.840014	12651.234322
630.186236	12881.582285
630.532405	12828.065396
630.878521	13003.946212
631.224585	13046.261658
631.570597	13053.843553
631.916556	13202.577756
632.262462	13275.067028
632.608316	13356.166591
632.954117	13419.448195
633.299866	13508.963964
633.645562	13581.516250
633.991206	13510.322555
634.336797	13483.750633
634.682336	13543.904201
635.027823	13559.141088
635.373257	13616.932876
635.718639	13604.556843
636.063968	13653.425789
636.409245	13531.258467
636.754470	13608.075569
637.099642	13634.087923
637.444762	13532.755689
637.789829	13666.348787
638.134845	13636.651349
638.479808	13692.875338
638.824719	13770.012554
639.169577	13688.078680
639.514383	13811.576867
639.859137	13767.928037
640.203839	13913.181323
640.548489	13900.351587
640.893086	13990.540349
641.237632	13979.200274
641.582125	14107.026291
641.926566	14116.871665
642.270955	14216.270616
642.615292	14285.556234
642.959576	14342.259133
643.303809	14427.482359
643.647990	14557.879365
643.992118	14620.747595
644.336195	14666.349872
644.680219	14788.018120
645.024192	14970.386902
645.368112	15270.610299
645.711981	15376.817328
646.055797	15770.244098
646.399562	15786.723629
646.743274	16258.343736
647.086935	16533.847835
647.430544	16610.987571
647.774101	16731.912249
648.117606	16965.161397
648.461059	17123.972866
648.804460	17043.001853
649.147810	16906.192499
649.491108	16850.142430
649.834354	16870.216305
650.177548	16598.167917
650.520690	16460.932586
650.863781	16546.022222
651.206820	16554.801391
651.549807	16460.410827
651.892742	16276.779236
652.235626	16307.799976
652.578458	16337.361302
652.921238	16098.448419
653.263967	16343.307343
653.606644	16283.831810
653.949269	16325.524673
654.291843	16208.267435
654.634365	16466.263606
654.976836	16337.492372
655.319255	16452.216431
655.661622	16471.488762
656.003938	16487.791854
656.346203	16468.451467
656.688416	16691.020930
657.030577	16643.424876
657.372687	16639.306253
657.714746	16807.146429
658.056753	16997.639030
658.398708	16745.561173
658.740612	16853.966146
659.082465	17050.409829
659.424266	17070.395483
659.766016	17154.199625
660.107715	17159.518042
660.449362	17284.644522
660.790958	17358.182353
661.132503	17397.513436
661.473996	17516.217485
661.815438	17656.326274
662.156829	17796.051935
662.498168	17766.175537
662.839456	17832.534766
663.180693	17997.945106
663.521879	18124.709960
663.863013	18185.208847
664.204097	18247.232684
664.545129	18570.368125
664.886110	18611.652654
665.227040	18749.681967
665.567918	18820.268203
665.908746	18940.797151
666.249522	19067.148631
666.590248	19157.670110
666.930922	19292.533578
667.271545	19363.417242
667.612118	19475.915631
667.952639	19443.962278
668.293109	19551.457322
668.633528	19531.937974
668.973896	19594.110524
669.314213	19652.086314
669.654480	19606.504201
669.994695	19681.302321
670.334859	19705.346105
670.674973	19667.789508
671.015035	19873.834069
671.355047	19903.428163
671.695008	19926.418345
672.034918	19928.402039
672.374777	20071.170036
672.714585	20058.365506
673.054342	20204.995027
673.394049	20174.382620
673.733705	20375.380986
674.073310	20259.673902
674.412864	20378.340143
674.752368	20257.826319
675.091820	20468.085284
675.431223	20280.922366
675.770574	20212.345029
676.109875	20183.202119
676.449125	20109.699575
676.788324	20107.491550
677.127473	19849.616366
677.466571	19849.523105
677.805619	19738.017823
678.144616	19750.056098
678.483562	19778.594070
678.822458	19618.703793
679.161303	19636.904879
679.500098	19646.876282
679.838842	19657.034207
680.177535	19771.793553
680.516179	19994.098356
680.854771	20138.693772
681.193314	20723.933924
681.531805	21480.671611
681.870247	22071.696488
682.208638	22631.801447
682.546978	22890.694944
682.885268	23045.813769
683.223508	22787.285755
683.561697	22664.848731
683.899836	22615.523562
684.237925	22360.892360
684.575963	22306.437816
684.913951	22089.436308
685.251889	22267.197475
685.589776	22331.976302
685.927614	22381.412377
686.265401	22562.127660
686.603137	22686.434952
686.940824	23100.323765
687.278460	23382.013360
687.616046	23535.466083
687.953582	24068.467279
688.291068	24050.339290
688.628504	24342.222098
688.965889	24393.541044
689.303224	24261.306537
689.640510	24117.492500
689.977745	23703.765004
690.314930	23210.954407
690.652065	22948.456485
690.989150	22510.765864
691.326185	21929.349426
691.663170	21511.316785
692.000105	21010.253819
692.336990	20594.265365
692.673825	20327.122020
693.010610	19992.661627
693.347345	19642.470313
693.684030	19200.875319
694.020665	19089.528833
694.357251	18607.294577
694.693786	18640.979567
695.030272	18495.166712
695.366707	18139.004152
695.703093	17949.446685
696.039429	18043.580151
696.375716	17882.207775
696.711952	17902.831135
697.048139	17813.547260
697.384276	17720.588383
697.720363	17830.109971
698.056400	17778.407897
698.392388	17672.767997
698.728326	17712.288123
699.064214	17609.302391
699.400053	17657.329464
699.735842	17363.145369
700.071581	17236.468735
700.407270	17062.611942
700.742910	16966.038557
701.078501	16793.265612
701.414042	16656.118501
701.749533	16445.942715
702.084974	16217.543158
702.420366	16429.720282
702.755709	16129.799354
703.091002	15902.650003
703.426246	15981.602034
703.761440	15951.213959
704.096584	15779.638288
704.431679	15749.204842
704.766725	15727.961420
705.101721	15694.097469
705.436668	15815.226313
705.771565	15611.334325
706.106413	15888.864968
706.441212	15966.518902
706.775961	16066.492544
707.110661	16164.346382
707.445311	16476.754247
707.779913	16400.796662
708.114465	16658.805436
708.448967	16937.495544
708.783421	17496.367942
709.117825	17823.589238
709.452180	18031.307462
709.786485	18421.535619
710.120742	19090.070757
710.454949	19187.052475
710.789107	19601.397512
711.123216	20207.356807
711.457275	20394.257586
711.791286	20859.659430
712.125247	21002.959269
712.459159	20804.476439
712.793023	21458.001542
713.126837	20619.418202
713.460602	20878.248685
713.794318	20636.842951
714.127985	20450.486616
714.461602	19722.896882
714.795171	19744.581405
715.128691	18933.676521
715.462162	18513.927366
715.795584	18162.692534
716.128957	17961.724415
716.462281	17651.393505
716.795556	17424.287004
717.128782	17034.532715
717.461960	16534.926642
717.795088	16515.031728
718.128167	16236.245838
718.461198	15865.327821
718.794180	15771.965652
719.127113	15501.517830
719.459997	15342.154354
719.792833	15032.962745
720.125619	15080.704992
720.458357	14810.733560
720.791046	14688.077245
721.123686	14574.207662
721.456278	14389.567841
721.788821	14388.683118
722.121315	14169.123224
722.453761	14275.778916
722.786158	14172.336960
723.118506	14253.015586
723.450805	14168.523327
723.783056	14332.824613
724.115259	14249.020472
724.447412	14248.274381
724.779518	14446.754690
725.111574	14498.880221
725.443582	14747.255350
725.775542	14714.439959
726.107453	15179.372976
726.439315	15111.786226
726.771129	15485.428988
727.102895	15854.741398
727.434612	16094.682677
727.766281	16247.666572
728.097901	16538.689863
728.429473	16626.201774
728.760996	16647.364537
729.092471	16775.407325
729.423897	16690.103440
729.755276	16597.041219
730.086606	16714.782408
730.417887	17245.310919
730.749120	17765.615969
731.080305	17993.700454
731.411442	18368.545531
731.742530	18494.889449
732.073570	18653.625301
732.404562	18955.908009
732.735506	18826.221806
733.066401	18664.786416
733.397249	18213.585502
733.728048	17665.866658
734.058798	16900.453146
734.389501	16238.842033
734.720156	15801.211906
735.050762	15277.065496
735.381320	14939.262818
735.711831	14704.768506
736.042293	14373.342887
736.372707	14409.518207
736.703073	14218.897057
737.033391	14400.199634
737.363661	14409.649277
737.693883	14523.775959
738.024056	14700.488566
738.354182	14895.719852
738.684260	15225.373505
739.014290	15480.435725
739.344272	15687.866603
739.674207	15995.472769
740.004093	16163.620456
740.333931	16222.644805
740.663722	16307.615974
740.993464	16351.685741
741.323159	16229.838532
741.652806	15978.675644
741.982405	15843.834861
742.311956	15517.180695
742.641460	15447.411126
742.970915	15154.799871
743.300323	14850.140259
743.629683	14661.898533
743.958996	14377.995872
744.288260	14095.325773
744.617477	13823.085822
744.946647	13794.769660
745.275768	13511.766845
745.604842	13329.387981
745.933869	13160.950428
746.262847	13146.215136
746.591778	13067.043815
746.920662	12960.798977
747.249498	12966.964308
747.578286	13127.802321
747.907027	13290.558494
748.235720	13547.939645
748.564365	13625.109628
748.892963	13545.126681
749.221514	13652.054595
749.550017	13528.566490
749.878473	13505.248633
750.206881	13300.887818
750.535242	13237.636461
750.863555	13165.074092
751.191821	13074.547572
751.520039	13097.666304
751.848210	13026.034028
752.176334	13082.994025
752.504411	13008.657171
752.832440	12841.863034
753.160421	12957.292854
753.488356	12850.226308
753.816243	12766.195315
754.144082	12610.766459
754.471875	12567.099985
754.799620	12536.974049
755.127318	12511.793486
755.454969	12513.452026
755.782572	12484.092346
756.110129	12503.830983
756.437638	12420.546081
756.765100	12427.129828
757.092515	12459.809107
757.419882	12493.728511
757.747203	12507.732837
758.074477	12587.269641
758.401703	12569.953278
758.728882	12764.340170
759.056014	12801.909369
759.383099	12979.909991
759.710138	13102.571346
760.037129	13212.932286
760.364073	13276.619703
760.690970	13305.220690
761.017820	13336.115401
761.344623	13557.157394
761.671379	13932.483901
761.998088	14604.016005
762.324751	16306.932898
762.651366	19533.084837
762.977935	23796.691113
763.304456	26613.937420
763.630931	27642.216858
763.957359	26537.004371
764.283740	24393.672114
764.610074	22255.489395
764.936362	19732.240660
765.262602	17944.975182
765.588796	16111.570542
765.914943	14897.927877
766.241044	13843.857896
766.567097	13079.979415
766.893104	12377.298022
767.219064	11945.616456
767.544978	11500.170020
767.870845	11128.190840
768.196665	10919.444221
768.522438	10697.986332
768.848165	10509.709318
769.173846	10307.359923
769.499479	10190.155617
769.825066	10023.497592
770.150607	9807.912647
770.476101	9735.866997
770.801548	9619.471796
771.126949	9464.647879
771.452303	9367.386377
771.777611	9173.213734
772.102872	9167.285337
772.428087	9032.021097
772.753256	8878.417139
773.078378	8798.620715
773.403453	8624.897512
773.728482	8510.624637
774.053465	8442.528731
774.378401	8343.845624
774.703291	8220.909526
775.028135	8107.753266
775.352932	8073.428049
775.677683	7979.304666
776.002388	7876.533183
776.327046	7885.486272
776.651658	7795.095863
776.976224	7694.542488
777.300743	7693.657765
777.625216	7609.788089
777.949643	7568.432983
778.274024	7587.276816
778.598359	7500.261460
778.922647	7517.565220
779.246889	7464.854916
779.571086	7472.782130
779.895236	7481.268913
780.219339	7488.054306
780.543397	7489.884245
780.867409	7571.848365
781.191374	7583.110303
781.515294	7551.782052
781.839167	7643.316803
782.162995	7617.059953
782.486776	7567.497849
782.810511	7520.244594
783.134201	7434.877694
783.457844	7434.408867
783.781441	7380.985239
784.104993	7318.202709
784.428498	7300.107488
784.751958	7290.899820
785.075372	7261.086436
785.398739	7208.756739
785.722061	7252.690394
786.045337	7259.284224
786.368568	7406.813591
786.691752	7435.162520
787.014891	7766.890607
787.337983	8115.980429
787.661030	8689.066360
787.984031	9295.297877
788.306987	9699.885762
788.629897	9906.938553
788.952760	9851.790850
789.275579	9641.819231
789.598351	9259.553576
789.921078	8916.734950
790.243759	8513.082200
790.566395	8232.534426
790.888984	7986.637024
791.211529	7782.460211
791.534027	7567.200421
791.856480	7367.369083
792.178888	7299.817621
792.501249	7198.066972
792.823566	7053.590023
793.145836	7053.469036
793.468062	7024.676485
793.790241	6971.716644
794.112375	7039.429422
794.434464	7190.351486
794.756507	7234.542241
795.078505	7383.717545
795.400457	7692.130296
795.722364	8031.435238
796.044226	8309.006210
796.366042	8578.750790
796.687812	8527.303295
797.009538	8613.232282
797.331218	8512.323506
797.652852	8430.760157
797.974442	8284.546531
798.295986	8200.074437
798.617484	8015.568206
798.938938	7872.757359
799.260346	7774.666587
799.581709	7572.659991
799.903026	7498.794484
800.224299	7396.993423
800.545526	7228.082002
800.866708	7133.489791
801.187845	7073.439567
801.508936	6964.215407
801.829983	6925.794253
802.150984	6779.260513
802.471940	6735.266364
802.792851	6718.565021
803.113717	6689.464960
803.434538	6655.898438
803.755314	6600.912052
804.076045	6596.427946
804.396731	6550.258538
804.717372	6580.868424
805.037967	6576.641417
805.358518	6620.451564
805.679024	6692.693819
805.999485	6705.246293
806.319901	6749.333703
806.640272	6770.675428
806.960598	6852.808427
807.280879	6857.869746
807.601115	6933.300531
807.921306	6877.205091
808.241453	6889.661782
808.561554	6913.400576
808.881611	6880.065946
809.201623	6890.463326
809.521590	6836.323854
809.841513	6818.672254
810.161390	6858.497369
810.481223	6732.415591
810.801011	6717.042593
811.120755	6693.984355
811.440453	6621.119517
811.760107	6587.064002
812.079716	6557.356483
812.399281	6495.854406
812.718801	6480.466284
813.038276	6437.714778
813.357707	6380.754781
813.677093	6424.935453
813.996434	6331.212842
814.315731	6368.988728
814.634983	6368.305652
814.954191	6383.151850
815.273354	6483.929556
815.592473	6546.525564
815.911547	6669.791858
816.230577	6754.158088
816.549562	6899.502115
816.868502	6988.367575
817.187399	7094.183915
817.506250	7245.090855
817.825058	7276.416585
818.143821	7545.982205
818.462539	7814.068246
818.781213	8177.424533
819.099843	8714.902273
819.418429	9699.308549
819.736970	10656.739611
820.055466	11821.067189
820.373919	13337.663035
820.692327	15667.586041
821.010691	19768.579818
821.329011	28594.316900
821.647286	41240.643658
821.965517	54507.087793
822.283704	60027.451203
822.601847	62095.743365
822.919945	59384.777184
823.237999	55140.450800
823.556010	48974.663422
823.873976	42379.200857
824.191897	35963.163040
824.509775	31219.288557
824.827609	26779.045291
825.145398	24243.034875
825.463144	22900.920925
825.780845	23206.772770
826.098502	24967.103364
826.416116	28662.861468
826.733685	32205.360935
827.051210	33312.476457
827.368692	31544.553886
827.686129	27652.392427
828.003522	23637.630107
828.320872	19998.267390
828.638177	17205.029579
828.955439	15085.494088
829.272656	13301.515442
829.589830	11844.974861
829.906960	10588.862995
830.224046	9669.255711
830.541088	8931.175335
830.858086	8474.214903
831.175041	8105.951053
831.491952	7988.517374
831.808819	8037.376237
832.125642	8433.507586
832.442421	9316.868975
832.759157	11087.518810
833.075849	13962.007419
833.392497	17113.333511
833.709101	19252.199306
834.025662	19082.325024
834.342179	17411.048934
834.658653	15270.612819
834.975083	13382.196588
835.291469	11790.051490
835.607811	10489.874898
835.924110	9592.907436
836.240366	8733.851971
836.556578	7938.650281
836.872746	7304.458003
837.188871	6809.996428
837.504952	6399.318830
837.820990	6086.643783
838.136984	5871.862903
838.452935	5777.502586
838.768842	5812.231094
839.084706	6232.915383
839.400526	7421.992505
839.716303	8974.577149
840.032037	10052.764010
840.347727	9976.541764
840.663373	9026.944655
840.978977	7993.891244
841.294537	7194.049172
841.610054	6606.555624
841.925527	6178.342372
842.240957	5814.744110
842.556344	5490.663452
842.871687	5212.018715
843.186987	4929.240231
843.502244	4709.206468
843.817458	4549.169998
844.132629	4408.710849
844.447756	4322.471830
844.762840	4240.469901
845.077881	4168.000794
845.392879	4104.976289
845.707833	4056.240934
846.022745	4012.103112
846.337613	3988.107219
846.652438	3940.927060
846.967221	3923.580450
847.281960	3893.716655
847.596656	3870.653376
847.911309	3853.619317
848.225919	3831.642407
848.540485	3814.600786
848.855009	3803.356493
849.169490	3781.309006
849.483928	3767.765946
849.798323	3762.223198
850.112675	3741.357862
850.426984	3746.159561
850.741251	3732.583734
851.055474	3728.825553
851.369654	3733.415524
851.683792	3728.709607
851.997887	3734.859815
852.311938	3736.689753
852.625947	3740.526072
852.939914	3728.144998
853.253837	3737.178745
853.567718	3740.609251
853.881555	3725.916808
854.195350	3741.902307
854.509103	3735.363930
854.822812	3738.580186
855.136479	3725.773135
855.450103	3736.674630
855.763685	3722.703072
856.077224	3729.503589
856.390720	3746.673759
856.704173	3766.621604
857.017584	3776.111577
857.330953	3788.870737
857.644278	3809.229437
857.957561	3812.765806
858.270802	3810.461999
858.584000	3817.880057
858.897155	3805.935043
859.210268	3794.408444
859.523339	3775.294910
859.836367	3773.137296
860.149352	3764.466511
860.462295	3757.955861
860.775195	3748.118049
861.088054	3739.608582
861.400869	3739.001123
861.713642	3742.366093
862.026373	3753.151641
862.339062	3754.374121
862.651708	3774.253911
862.964312	3807.845640
863.276873	3819.820901
863.589392	3877.171588
863.901869	3921.853855
864.214303	3967.814054
864.526696	3999.056605
864.839045	4045.324315
865.151353	4068.528747
865.463619	4076.826486
865.775842	4085.139348
866.088023	4103.748768
866.400162	4094.165534
866.712258	4100.978654
867.024313	4105.412349
867.336325	4104.303295
867.648296	4111.902834
867.960224	4108.449644
868.272110	4121.939772
868.583954	4120.951705
868.895755	4134.998881
869.207515	4134.620794
869.519233	4173.876259
869.830909	4188.520811
870.142542	4212.022670
870.454134	4224.781831
870.765684	4255.230400
871.077191	4293.263385
871.388657	4316.160306
871.700081	4352.378476
872.011463	4396.770876
872.322803	4426.969908
872.634101	4458.981235
872.945357	4498.496320
873.256571	4552.350966
873.567744	4581.259463
873.878874	4597.809571
874.189963	4634.504130
874.501010	4644.737672
874.812015	4645.995440
875.122979	4688.643602
875.433900	4689.523283
875.744780	4703.540211
876.055618	4728.756063
876.366415	4727.168099
876.677169	4748.182149
876.987882	4791.939365
877.298554	4849.302654
877.609183	4927.314510
877.919771	5033.352661
878.230317	5179.843550
878.540822	5390.843565
878.851285	5707.546494
879.161707	6168.083624
879.472087	6923.825682
879.782425	8143.157289
880.092722	10291.679414
880.402977	13542.429663
880.713191	17198.786110
881.023363	20809.850309
881.333494	22938.989198
881.643583	24146.267406
881.953631	24162.671321
882.263637	23368.364436
882.573602	21945.408022
882.883526	20420.635424
883.193408	18786.880641
883.503248	17125.906149
883.813048	15602.978613
884.122806	14206.856261
884.432522	12745.085483
884.742197	11504.031544
885.051831	10442.672054
885.361424	9453.872413
885.670975	8644.903332
885.980485	7970.288562
886.289954	7394.679534
886.599382	6928.977741
886.908768	6560.061062
887.218113	6201.791299
887.527417	5918.715387
887.836680	5644.953007
888.145901	5435.427530
888.455082	5276.212768
888.764221	5117.366010
889.073319	4989.325743
889.382376	4917.002830
889.691392	4856.650136
890.000366	4832.286239
890.309300	4814.919464
890.618193	4820.716791
890.927044	4804.456550
891.235855	4828.666691
891.544625	4859.889077
891.853353	4921.819652
892.162041	5036.037075
892.470687	5223.086568
892.779293	5470.831553
893.087858	5838.470300
893.396381	6409.759060
893.704864	7198.646705
894.013306	8336.248605
894.321707	9481.830652
894.630068	10276.354307
894.938387	10474.365789
895.246665	10245.033618
895.554903	9647.760231
895.863100	8966.518865
896.171256	8421.350844
896.479371	7931.017974
896.787446	7436.475740
897.095480	7014.397573
897.403473	6697.722370
897.711425	6384.754937
898.019336	6122.819103
898.327207	5852.106621
898.635038	5629.315348
898.942827	5390.024377
899.250576	5196.655798
899.558284	5002.442826
899.865952	4886.029981
900.173579	4738.417434
900.481165	4630.229232
900.788711	4542.072054
901.096216	4471.475735
901.403681	4405.925612
901.711105	4382.479205
902.018489	4367.335579
902.325832	4439.449285
902.633135	4555.229465
902.940397	4900.329213
903.247619	5679.835271
903.554800	7101.702796
903.861941	8981.186102
904.169041	10475.495007
904.476101	11086.445045
904.783121	10733.942362
905.090100	10019.275625
905.397039	9200.632570
905.703938	8459.552708
906.010796	7778.066845
906.317614	7230.773978
906.624391	6705.813422
906.931129	6279.288957
907.237826	5887.654318
907.544483	5515.854098
907.851099	5153.241381
908.157675	4801.560407
908.464211	4479.791118
908.770707	4251.981376
909.077163	4052.397054
909.383578	3906.944642
909.689954	3791.928197
909.996289	3725.458063
910.302584	3662.736027
910.608839	3632.073208
910.915054	3600.291254
911.221229	3585.472782
911.527363	3597.022066
911.833458	3609.632512
912.139513	3636.030514
912.445527	3665.506141
912.751502	3748.428080
913.057436	3848.212679
913.363331	3981.374758
913.669186	4184.734904
913.975000	4444.558494
914.280775	4858.669118
914.586510	5435.089772
914.892205	6220.786367
915.197859	7232.185501
915.503475	8429.154550
915.809050	9455.972053
916.114585	10090.328168
916.420081	10342.403504
916.725536	10308.136261
917.030952	9871.537050
917.336328	9473.704312
917.641665	9072.685565
917.946961	8611.059545
918.252218	8192.575720
918.557435	7690.965789
918.862612	7273.825432
919.167750	6907.212560
919.472848	6487.574311
919.777906	6120.817765
920.082925	5764.882057
920.387904	5406.405607
920.692843	5144.898272
920.997743	4903.996653
921.302603	4674.251107
921.607423	4511.598279
921.912204	4351.201366
922.216946	4237.188110
922.521647	4114.846868
922.826310	4011.770395
923.130932	3919.431580
923.435516	3822.528001
923.740059	3755.941920
924.044564	3678.003161
924.349028	3622.195067
924.653454	3555.271229
924.957840	3487.727330
925.262186	3441.605813
925.566493	3383.282184
925.870761	3325.225735
926.174989	3288.624438
926.479178	3253.626227
926.783328	3210.332798
927.087438	3183.612162
927.391509	3152.931700
927.695541	3120.875002
927.999533	3095.654110
928.303486	3074.519072
928.607400	3057.205229
928.911275	3045.240051
929.215110	3028.243801
929.518906	3016.944054
929.822663	3018.852131
930.126381	3013.387520
930.430060	3024.556197
930.733699	3024.704911
931.037299	3033.980634
931.340861	3032.266641
931.644383	3040.115718
931.947866	3038.676468
932.251309	3034.830068
932.554714	3033.373175
932.858080	3029.196579
933.161407	3018.181657
933.464694	3011.434073
933.767943	3006.806294
934.071153	3000.623319
934.374323	2987.092862
934.677455	2985.693942
934.980548	2977.045842
935.283602	2971.165336
935.586617	2970.956128
935.889593	2979.904176
936.192530	2985.111688
936.495428	2997.225581
936.798287	3015.789630
937.101108	3049.066287
937.403890	3098.751899
937.706632	3160.753050
938.009336	3237.159298
938.312002	3310.177891
938.614628	3372.378168
938.917216	3424.745674
939.219765	3451.907411
939.522275	3489.353102
939.824747	3493.214626
940.127179	3487.732371
940.429573	3482.396309
940.731929	3480.261381
941.034246	3466.839309
941.336524	3455.968060
941.638763	3440.698405
941.940964	3425.310283
942.243126	3384.623131
942.545250	3367.188300
942.847335	3326.196158
943.149381	3292.690128
943.451389	3261.800458
943.753359	3228.881724
944.055290	3202.803835
944.357182	3177.167047
944.659036	3162.565345
944.960851	3152.455311
945.262628	3140.424597
945.564367	3141.526089
945.866067	3132.419245
946.167729	3132.573000
946.469352	3128.736682
946.770937	3125.568317
947.072484	3108.753548
947.373992	3113.272942
947.675462	3108.630040
947.976893	3090.839808
948.278286	3081.158272
948.579641	3073.082343
948.880958	3068.779719
949.182236	3072.951273
949.483476	3065.747465
949.784678	3067.176632
950.085841	3067.670665
950.386967	3077.382448
950.688054	3092.271496
950.989103	3112.577263
951.290114	3135.244812
951.591087	3161.713390
951.892021	3188.058460
952.192917	3213.889332
952.493776	3241.192221
952.794596	3245.638519
953.095378	3254.115219
953.396122	3248.650608
953.696828	3243.140627
953.997496	3229.960531
954.298126	3208.487736
954.598718	3190.871424
954.899272	3160.059891
955.199788	3134.415542
955.500266	3106.545523
955.800706	3072.069072
956.101108	3033.000129
956.401472	3002.324708
956.701798	2969.116107
957.002087	2929.958945
957.302337	2903.220665
957.602550	2876.623537
957.902724	2845.938033
958.202861	2821.624548
958.502960	2801.621250
958.803022	2782.845472
959.103045	2762.728748
959.403031	2746.496233
959.702979	2735.110787
960.002889	2720.012531
960.302762	2704.551312
960.602596	2693.738037
960.902393	2684.106913
961.202153	2676.159534
961.501875	2670.299192
961.801559	2664.161587
962.101205	2657.653458
962.400814	2652.924856
962.700385	2648.523928
962.999918	2640.632002
963.299414	2632.155302
963.598873	2633.750827
963.898293	2624.071812
964.197677	2628.021556
964.497022	2624.076853
964.796331	2620.921090
965.095601	2617.699793
965.394835	2615.287601
965.694030	2612.487240
965.993189	2613.001438
966.292309	2613.001438
966.591393	2613.639144
966.890439	2611.259719
967.189447	2609.780140
967.488419	2611.748711
967.787353	2613.757611
968.086249	2612.237703
968.385108	2618.191306
968.683930	2615.562344
968.982714	2622.466204
969.281462	2625.609363
969.580172	2631.212606
969.878844	2635.207720
970.177480	2644.067548
970.476078	2651.505771
970.774639	2660.489107
971.073162	2668.186949
971.371649	2672.723987
971.670098	2678.574246
971.968510	2683.756552
972.266885	2688.759898
972.565223	2692.601257
972.863524	2693.874148
973.161788	2697.503779
973.460014	2699.656352
973.758204	2701.161136
974.056356	2705.098277
974.354471	2706.416539
974.652550	2708.317054
974.950591	2706.197249
975.248595	2705.259594
975.546563	2704.175746
975.844493	2701.183821
976.142386	2693.017152
976.440243	2690.405834
976.738062	2687.411389
977.035845	2678.377641
977.333590	2672.809687
977.631299	2668.517144
977.928971	2663.856598
978.226606	2653.948210
978.524204	2653.731440
978.821765	2650.497540
979.119290	2652.017448
979.416777	2651.682211
979.714228	2653.529794
980.011642	2657.663540
980.309020	2666.430107
980.606360	2678.060049
980.903664	2700.515868
981.200931	2737.137331
981.498162	2784.486368
981.795356	2856.552183
982.092513	2946.486368
982.389633	3048.398334
982.686717	3143.398878
982.983764	3210.985627
983.280775	3260.406579
983.577749	3268.159874
983.874686	3254.682349
984.171587	3222.920559
984.468451	3184.207018
984.765279	3141.357211
985.062070	3095.747371
985.358824	3051.712892
985.655543	2996.870180
985.952224	2946.708178
986.248869	2884.253323
986.545478	2827.830209
986.842050	2775.066972
987.138586	2729.673902
987.435086	2692.039168
987.731549	2662.016577
988.027975	2636.299130
988.324366	2621.190792
988.620719	2607.708226
988.917037	2596.988212
989.213318	2585.723754
989.509563	2582.366346
989.805772	2573.768658
990.101944	2572.165571
990.398080	2569.924778
990.694180	2567.232802
990.990244	2569.534089
991.286271	2568.185580
991.582262	2569.607185
991.878217	2571.721949
992.174136	2577.448700
992.470019	2579.132446
992.765865	2580.906932
993.061676	2583.470358
993.357450	2596.884869
993.653188	2600.305292
993.948890	2620.101903
994.244556	2638.179481
994.540186	2663.213851
994.835780	2691.587985
995.131337	2726.936556
995.426859	2766.267638
995.722345	2818.189002
996.017795	2862.311701
996.313208	2897.826630
996.608586	2926.760333
996.903928	2937.752568
997.199234	2936.136879
997.494504	2936.245263
997.789738	2919.538880
998.084936	2900.397618
998.380099	2866.198431
998.675225	2840.359997
998.970316	2811.116263
999.265371	2774.777106
999.560390	2735.796384
999.855373	2712.682693
1000.150320	2681.142714
1000.445232	2656.786379
1000.740108	2637.110756
1001.034948	2618.350102
1001.329752	2604.403750
1001.624521	2592.299939
1001.919254	2581.098496
1002.213951	2573.526683
1002.508613	2566.451423
1002.803239	2561.400187
1003.097829	2552.784855
1003.392384	2546.281767
1003.686903	2542.700027
1003.981386	2542.185829
1004.275834	2539.904707
1004.570246	2534.548481
1004.864623	2533.749458
1005.158964	2531.422966
1005.453270	2529.683767
1005.747540	2526.903571
1006.041775	2526.102028
1006.335974	2526.591020
1006.630138	2522.396780
1006.924266	2525.618077
1007.218359	2521.993487
1007.512416	2521.323014
1007.806438	2515.994514
1008.100425	2521.701100
1008.394376	2514.424195
1008.688292	2518.686490
1008.982172	2516.440656
1009.276017	2517.917714
1009.569827	2518.386542
1009.863602	2516.937210
1010.157341	2516.969978
1010.451045	2517.262364
1010.744714	2511.649040
1011.038347	2514.910666
1011.331945	2512.881602
1011.625508	2512.977384
1011.919036	2512.243896
1012.212528	2511.366735
1012.505986	2509.660304
1012.799408	2511.807836
1013.092795	2509.138545
1013.386147	2509.778772
1013.679464	2507.046466
1013.972745	2506.562515
1014.265992	2508.684841
1014.559204	2507.081754
1014.852380	2508.586539
1015.145521	2507.742145
1015.438628	2509.746004
1015.731699	2511.250788
1016.024736	2508.299193
1016.317737	2507.991682
1016.610703	2511.719616
1016.903635	2513.458814
1017.196531	2514.073835
1017.489393	2514.852693
1017.782219	2514.446880
1018.075011	2517.847138
1018.367768	2518.116840
1018.660490	2521.512057
1018.953177	2521.512057
1019.245829	2521.512057
