Dividing Wavelength (nm)	Counts (n)	Blue Motor Position (mm): 9.700000	Red Motor Position (mm): 0.000000	
326.493990	2157.515544
326.888308	2157.515544
327.282561	2157.515544
327.676750	2121.161263
328.070874	2117.045161
328.464933	2116.767897
328.858929	2122.111520
329.252859	2126.182252
329.646726	2135.894035
330.040528	2147.249234
330.434265	2161.089722
330.827938	2178.857268
331.221547	2195.772860
331.615091	2213.043853
332.008571	2227.892572
332.401986	2249.690521
332.795338	2265.209713
333.188625	2285.427261
333.581847	2306.136321
333.975006	2323.654330
334.368100	2342.286435
334.761129	2356.895699
335.154095	2376.891436
335.546996	2396.153684
335.939833	2418.828794
336.332606	2433.085177
336.725315	2447.762497
337.117960	2457.733899
337.510540	2470.419963
337.903056	2478.213587
338.295508	2489.714979
338.687896	2496.901144
339.080220	2505.985303
339.472480	2510.507218
339.864676	2516.813702
340.256807	2524.055319
340.648875	2527.054806
341.040879	2530.187883
341.432818	2530.966741
341.824694	2535.649973
342.216506	2535.660055
342.608253	2536.665766
342.999937	2538.659542
343.391557	2537.106867
343.783113	2534.745086
344.174605	2533.701567
344.566033	2532.486649
344.957397	2534.203162
345.348697	2532.481608
345.739934	2531.559077
346.131106	2529.464477
346.522215	2529.230064
346.913260	2524.483817
347.304241	2522.800072
347.695159	2521.423837
348.086012	2523.851153
348.476802	2516.049967
348.867528	2512.745491
349.258191	2509.609893
349.648789	2511.986797
350.039324	2506.915396
350.429796	2510.655932
350.820203	2507.946312
351.210548	2505.874398
351.600828	2504.062103
351.991045	2507.782475
352.381198	2504.339367
352.771288	2501.443224
353.161314	2502.501866
353.551276	2502.355673
353.941175	2501.864160
354.331010	2500.271155
354.720782	2503.013543
355.110490	2502.232164
355.500135	2498.438696
355.889717	2500.921464
356.279235	2501.876763
356.668689	2501.745693
357.058080	2502.564880
357.447408	2500.989520
357.836672	2501.501197
358.225873	2504.183091
358.615010	2501.549088
359.004084	2502.965652
359.393095	2504.251146
359.782043	2505.894562
360.170927	2504.167967
360.559748	2503.933554
360.948505	2505.944974
361.337199	2507.326250
361.725830	2506.388596
362.114398	2508.440345
362.502903	2507.290962
362.891344	2506.716271
363.279722	2510.149296
363.668037	2507.898421
364.056289	2511.122239
364.444478	2510.363545
364.832603	2511.339009
365.220665	2512.611900
365.608665	2512.203567
365.996601	2511.170130
366.384474	2514.444359
366.772284	2511.825480
367.160031	2514.134328
367.547715	2514.923269
367.935336	2511.923783
368.322893	2509.309944
368.710388	2510.270284
369.097820	2514.073835
369.485189	2509.889677
369.872495	2513.123577
370.259738	2516.811181
370.646918	2520.445853
371.034035	2516.695235
371.421090	2517.889988
371.808081	2515.903773
372.195010	2518.351254
372.581875	2514.406551
372.968678	2517.746315
373.355418	2516.995183
373.742096	2518.673888
374.128710	2519.014165
374.515262	2518.235307
374.901751	2518.089114
375.288177	2519.362005
375.674540	2517.728671
376.060841	2519.084742
376.447079	2519.651871
376.833254	2517.602642
377.219367	2519.120030
377.605417	2521.980884
377.991404	2517.133815
378.377329	2518.368898
378.763191	2522.059022
379.148991	2520.496265
379.534727	2522.237983
379.920402	2521.484331
380.306013	2521.252438
380.691563	2521.809485
381.077049	2523.546163
381.462474	2521.023065
381.847835	2518.973836
382.233134	2524.299815
382.618371	2523.004239
383.003545	2522.724455
383.388657	2522.517767
383.773706	2525.119003
384.158693	2522.847963
384.543618	2526.699404
384.928480	2521.133971
385.313280	2523.405010
385.698017	2524.619928
386.082692	2522.295957
386.467305	2522.724455
386.851856	2527.150588
387.236344	2523.775535
387.620770	2522.482479
388.005133	2519.677077
388.389435	2521.862417
388.773674	2520.264372
389.157851	2525.577748
389.541965	2526.928777
389.926018	2526.497758
390.310008	2524.612367
390.693936	2526.956503
391.077802	2527.558921
391.461606	2527.619415
391.845348	2524.405679
392.229027	2530.601257
392.612645	2523.926770
392.996200	2528.297450
393.379694	2530.898686
393.763125	2530.026566
394.146494	2528.448685
394.529801	2527.843746
394.913047	2529.867770
395.296230	2529.726617
395.679351	2528.388191
396.062410	2529.126720
396.445408	2531.155784
396.828343	2529.920702
397.211217	2529.545136
397.594028	2532.537061
397.976778	2531.778367
398.359466	2530.565969
398.742092	2532.532019
399.124656	2529.981196
399.507158	2531.901875
399.889598	2532.108562
400.271977	2532.136289
400.654294	2530.697039
401.036549	2533.590662
401.418742	2532.080836
401.800874	2530.084539
402.182944	2535.413039
402.564952	2532.584952
402.946898	2533.764582
403.328783	2532.143851
403.710606	2533.585621
404.092367	2532.791639
404.474067	2535.256763
404.855705	2533.353728
405.237282	2534.717360
405.618797	2534.041845
406.000250	2536.441434
406.381642	2534.140147
406.762972	2529.567821
407.144240	2529.202337
407.525447	2532.632842
407.906593	2532.151412
408.287677	2533.900693
408.668700	2534.830786
409.049661	2537.253060
409.430560	2534.198121
409.811399	2536.179294
410.192176	2535.279448
410.572891	2535.113090
410.953545	2536.259953
411.334138	2534.712318
411.714669	2533.933460
412.095139	2537.623585
412.475547	2539.047711
412.855894	2536.494366
413.236180	2537.913451
413.616405	2536.506969
413.996568	2537.510159
414.376670	2535.980169
414.756711	2535.808769
415.136691	2538.828421
415.516609	2540.464275
415.896466	2534.772812
416.276262	2540.244985
416.655997	2539.118287
417.035670	2537.711805
417.415283	2538.911600
417.794834	2538.357073
418.174324	2537.492515
418.553753	2537.200128
418.933121	2538.657021
419.312428	2538.135262
419.691674	2536.968235
420.070859	2539.365303
420.449983	2540.476878
420.829045	2540.444110
421.208047	2541.533000
421.586988	2541.681714
421.965867	2540.302958
422.344686	2539.806404
422.723444	2541.333874
423.102141	2541.248174
423.480777	2538.818338
423.859352	2541.439738
424.237866	2539.811446
424.616319	2540.151723
424.994712	2543.458720
425.373044	2543.806560
425.751314	2537.053934
426.129524	2537.263142
426.507673	2537.381609
426.885762	2537.134593
427.263789	2540.234903
427.641756	2539.730787
428.019662	2541.255736
428.397508	2539.226672
428.775292	2543.274718
429.153016	2543.108360
429.530679	2541.613658
429.908282	2540.504604
430.285824	2542.389996
430.663305	2541.878319
431.040726	2539.808925
431.418086	2541.026364
431.795385	2540.791950
432.172624	2542.274049
432.549802	2542.001827
432.926920	2541.238092
433.303977	2540.189532
433.680974	2542.916796
434.057910	2541.596014
434.434786	2542.495860
434.811601	2544.247661
435.188355	2543.655325
435.565050	2544.459389
435.941683	2543.378062
436.318257	2544.499719
436.694770	2543.423432
437.071222	2545.510470
437.447614	2548.280584
437.823946	2540.234903
438.200218	2544.363607
438.576429	2546.329657
438.952580	2543.869574
439.328670	2542.440407
439.704700	2544.293031
440.080670	2545.664225
440.456580	2542.284132
440.832429	2548.714123
441.208218	2546.375028
441.583947	2544.857641
441.959616	2542.231199
442.335224	2545.666746
442.710773	2546.385110
443.086261	2545.550799
443.461689	2545.886036
443.837057	2544.605583
444.212365	2547.786551
444.587612	2544.605583
444.962800	2542.634492
445.337927	2544.925696
445.712995	2540.817156
446.088002	2546.143135
446.462949	2548.023485
446.837837	2545.228165
447.212664	2545.802857
447.587431	2545.462579
447.962139	2547.239586
448.336786	2547.370656
448.711374	2546.251520
449.085901	2545.757487
449.460369	2548.091541
449.834776	2545.956612
450.209124	2546.962322
450.583412	2547.821839
450.957640	2548.615821
451.331808	2549.314021
451.705917	2542.871426
452.079965	2550.349978
452.453954	2547.151366
452.827883	2548.217570
453.201752	2547.179092
453.575562	2548.628424
453.949311	2547.514329
454.323001	2545.218083
454.696632	2549.676984
455.070202	2549.724875
455.443713	2549.510626
455.817164	2548.923331
456.190556	2549.563558
456.563888	2550.203784
456.937160	2546.818649
457.310373	2552.069011
457.683526	2549.407282
458.056619	2551.421223
458.429653	2546.740512
458.802628	2548.492312
459.175542	2548.280584
459.548398	2549.924000
459.921194	2547.784030
460.293930	2551.398538
460.666607	2549.619010
461.039224	2549.268650
461.411782	2549.871068
461.784280	2549.850903
462.156719	2547.988197
462.529099	2552.351316
462.901419	2549.538352
463.273680	2549.132539
463.645882	2546.687579
464.018024	2547.342929
464.390106	2545.570964
464.762130	2552.605894
465.134094	2549.419885
465.505999	2550.864175
465.877845	2550.677653
466.249631	2550.899463
466.621358	2552.230328
466.993026	2553.402396
467.364634	2553.465411
467.736184	2554.627397
468.107674	2552.116902
468.479105	2553.195709
468.850477	2550.629762
469.221790	2553.004145
469.593043	2553.147818
469.964238	2552.346275
470.335373	2549.755122
470.706449	2552.931048
471.077467	2551.438867
471.448425	2553.783003
471.819324	2553.573796
472.190164	2553.659495
472.560945	2551.713610
472.931667	2552.603373
473.302330	2552.275698
473.672934	2552.210163
474.043479	2552.878116
474.413965	2552.918446
474.784393	2550.692776
475.154761	2554.476162
475.525070	2553.339382
475.895321	2554.168652
476.265513	2554.145967
476.635645	2552.142108
477.005719	2555.920453
477.375734	2553.939279
477.745691	2551.098589
478.115588	2554.713096
478.485427	2554.758467
478.855207	2557.326935
479.224928	2554.362736
479.594591	2553.031872
479.964194	2554.864331
480.333739	2554.939948
480.703226	2554.471121
481.072653	2556.331307
481.442022	2555.433981
481.811333	2553.588919
482.180584	2552.777293
482.549777	2553.820812
482.918912	2551.368291
483.287988	2557.841132
483.657005	2557.868859
484.025964	2557.521019
484.394864	2554.924825
484.763706	2557.057233
485.132489	2555.176882
485.501213	2558.113355
485.869879	2554.337530
486.238487	2555.076059
486.607036	2558.191493
486.975527	2560.470094
487.343959	2557.173179
487.712333	2557.768036
488.080648	2558.483879
488.448905	2558.302398
488.817104	2556.532953
489.185244	2556.953889
489.553326	2560.104610
489.921350	2557.997408
490.289315	2556.737120
490.657222	2559.867676
491.025070	2558.564538
491.392861	2561.251473
491.760593	2558.814075
492.128267	2558.055381
492.495883	2561.795917
492.863440	2556.979095
493.230939	2558.516647
493.598380	2559.129147
493.965763	2559.209806
494.333088	2557.377346
494.700354	2557.989846
495.067563	2557.662171
495.434713	2558.546894
495.801805	2559.071174
496.168839	2556.646379
496.535815	2560.724672
496.902733	2558.153684
497.269593	2559.063612
497.636395	2560.177707
498.003139	2559.335834
498.369825	2556.691749
498.736453	2558.587223
499.103023	2558.241904
499.469535	2560.207954
499.835989	2555.597819
500.202385	2556.747202
500.568723	2554.282078
500.935003	2556.999260
501.301226	2552.651264
501.667390	2559.716442
502.033497	2558.539332
502.399546	2558.662840
502.765537	2556.480021
503.131470	2558.788869
503.497345	2560.810372
503.863163	2558.433468
504.228923	2559.310629
504.594625	2559.807182
504.960269	2559.701318
505.325856	2560.369271
505.691385	2558.504044
506.056856	2558.221739
506.422270	2560.056719
506.787625	2558.927501
507.152924	2561.309446
507.518164	2561.180897
507.883347	2562.408418
508.248472	2560.127296
508.613540	2557.929352
508.978550	2562.610064
509.343503	2561.125444
509.708398	2561.374981
510.073236	2560.661658
510.438016	2561.851370
510.802738	2559.298026
511.167403	2559.965979
511.532010	2560.770043
511.896561	2560.631411
512.261053	2559.214847
512.625488	2560.250804
512.989866	2561.291802
513.354186	2560.250804
513.718449	2560.414641
514.082655	2561.347255
514.446803	2562.181566
514.810894	2560.765002
515.174927	2563.288099
515.538904	2562.620146
515.902822	2562.789025
516.266684	2563.716597
516.630488	2563.698953
516.994235	2562.554611
517.357925	2560.880948
517.721558	2561.397666
518.085133	2560.631411
518.448651	2559.096380
518.812112	2556.066646
519.175516	2560.770043
519.538863	2557.964641
519.902152	2562.557132
520.265385	2563.497307
520.628560	2561.979920
520.991678	2565.644838
521.354739	2565.410425
521.717743	2565.133161
522.080690	2564.354303
522.443580	2564.923953
522.806413	2567.189952
523.169189	2565.508727
523.531908	2566.259859
523.894569	2565.324725
524.257174	2570.711198
524.619722	2565.544015
524.982213	2570.244891
525.344647	2567.724314
525.707025	2568.546022
526.069345	2567.668862
526.431608	2568.306568
526.793815	2570.547361
527.155964	2570.824624
527.518057	2570.592731
527.880093	2570.945612
528.242072	2572.092474
528.603995	2571.782443
528.965860	2571.288410
529.327669	2570.885118
529.689421	2574.136662
530.051117	2575.530541
530.412755	2575.603638
530.774337	2573.998030
531.135862	2575.071796
531.497331	2576.362332
531.858743	2574.577763
532.220098	2576.014492
532.581396	2578.444328
532.942638	2578.434246
533.303824	2579.177816
533.664953	2582.444484
534.026025	2581.569843
534.387040	2579.530697
534.747999	2582.598239
535.108902	2581.887436
535.469748	2581.194277
535.830537	2584.070256
536.191270	2586.104361
536.551947	2584.569330
536.912567	2583.162848
537.273131	2583.825760
537.633638	2581.937848
537.994089	2587.294074
538.354483	2587.281471
538.714821	2588.745926
539.075103	2590.553180
539.435328	2588.715679
539.795497	2591.384970
540.155609	2589.983529
540.515665	2590.008735
540.875665	2590.931266
541.235609	2590.258272
541.595496	2594.770105
541.955328	2592.494024
542.315102	2596.521906
542.674821	2595.460743
543.034483	2593.199785
543.394090	2596.652976
543.753640	2595.453181
544.113134	2598.828234
544.472571	2596.615167
544.831953	2599.511310
545.191278	2600.635487
545.550548	2601.467278
545.909761	2600.592637
546.268918	2601.263111
546.628019	2601.242946
546.987064	2604.494491
547.346053	2600.920312
547.704986	2601.938626
548.063863	2604.592793
548.422684	2602.331836
548.781449	2603.559357
549.140158	2602.306630
549.498811	2605.008688
549.857408	2602.359562
550.215949	2607.942640
550.574434	2604.270159
550.932864	2608.817280
551.291237	2604.965838
551.649555	2607.912393
552.007817	2608.325768
552.366022	2608.270315
552.724173	2606.689913
553.082267	2607.907352
553.440305	2609.475151
553.798288	2608.376179
554.156215	2611.012702
554.514086	2610.609410
554.871902	2604.270159
555.229661	2605.127155
555.587365	2606.392485
555.945014	2612.046139
556.302606	2608.101436
556.660143	2611.778958
557.017625	2613.185440
557.375050	2611.680655
557.732421	2607.370469
558.089735	2611.065635
558.446994	2610.256529
558.804197	2610.485902
559.161345	2609.908690
559.518437	2609.258381
559.875474	2614.566716
560.232455	2611.526900
560.589381	2613.583691
560.946251	2609.911210
561.303065	2610.828700
561.659825	2612.630913
562.016528	2611.327775
562.373177	2610.032198
562.729770	2609.984307
563.086307	2612.998917
563.442789	2612.716612
563.799216	2611.955398
564.155587	2612.764503
564.511904	2613.281222
564.868164	2609.608741
565.224370	2612.598145
565.580520	2611.032867
565.936615	2610.377517
566.292654	2609.460027
566.648638	2613.051849
567.004567	2609.475151
567.360441	2610.541355
567.716260	2609.828031
568.072023	2612.446911
568.427732	2609.165120
568.783385	2610.584204
569.138982	2609.308792
569.494525	2611.635285
569.850013	2612.008330
570.205445	2609.029008
570.560823	2609.437342
570.916145	2608.608072
571.271412	2610.780809
571.626625	2611.615120
571.981782	2608.018257
572.336884	2604.113883
572.691931	2607.060438
573.046923	2601.018615
573.401860	2602.354521
573.756743	2606.667228
574.111570	2607.564553
574.466342	2609.974225
574.821059	2607.345263
575.175722	2608.154368
575.530330	2605.694285
575.884882	2608.497167
576.239380	2608.580346
576.593823	2610.984976
576.948211	2608.436673
577.302544	2605.076744
577.656823	2604.176898
578.011047	2607.877105
578.365216	2603.720673
578.719330	2606.737804
579.073389	2603.818976
579.427394	2609.407095
579.781344	2606.049687
580.135239	2606.521034
580.489080	2605.704367
580.842866	2602.563729
581.196597	2607.436004
581.550273	2603.846702
581.903895	2605.926178
582.257463	2606.510952
582.610975	2605.689244
582.964434	2604.648246
583.317837	2606.947012
583.671186	2605.588421
584.024481	2605.517845
584.377721	2604.318050
584.730906	2606.785695
585.084037	2605.127155
585.437113	2607.998092
585.790135	2607.138576
586.143103	2608.590428
586.496016	2608.499687
586.848874	2607.662856
587.201679	2606.790736
587.554428	2606.077413
587.907124	2607.178905
588.259765	2605.210334
588.612352	2610.241406
588.964884	2607.705706
589.317362	2608.940788
589.669786	2607.919955
590.022155	2606.450458
590.374470	2605.013729
590.726731	2607.877105
591.078937	2604.711260
591.431090	2609.351642
591.783188	2609.772579
592.135232	2609.646550
592.487222	2610.921962
592.839157	2611.728546
593.191038	2612.351129
593.542866	2610.853906
593.894639	2610.238885
594.246358	2613.266098
594.598022	2613.243413
594.949633	2609.896087
595.301190	2610.342229
595.652692	2614.433125
596.004141	2612.938423
596.355535	2612.315841
596.706876	2612.928341
597.058162	2610.611931
597.409395	2613.084617
597.760573	2617.180554
598.111698	2613.117384
598.462768	2614.017230
598.813785	2618.032509
599.164748	2614.128136
599.515657	2614.397837
599.866511	2615.884978
600.217312	2616.477313
600.568060	2618.113168
600.918753	2618.725668
601.269392	2619.456635
601.619978	2618.609721
601.970510	2622.163735
602.320988	2622.020062
602.671412	2623.058540
603.021783	2620.976543
603.372100	2622.020062
603.722363	2623.015690
604.072572	2623.086266
604.422728	2625.576596
604.772830	2628.631535
605.122878	2621.997377
605.472872	2627.507358
605.822813	2627.645990
606.172701	2629.506175
606.522534	2630.625312
606.872314	2632.735034
607.222041	2632.513224
607.571714	2631.941053
607.921333	2631.472225
608.270899	2638.706281
608.620411	2636.798204
608.969870	2641.105870
609.319276	2645.348001
609.668627	2647.911428
610.017926	2654.613642
610.367171	2656.332676
610.716362	2659.327121
611.065500	2657.161945
611.414585	2658.429796
611.763616	2659.826195
612.112594	2657.068684
612.461518	2658.013900
612.810389	2658.044147
613.159207	2659.869045
613.507971	2660.678150
613.856682	2665.270641
614.205340	2667.821465
614.553945	2670.967145
614.902496	2667.992864
615.250994	2671.877073
615.599439	2674.047290
615.947830	2677.954184
616.296169	2674.672393
616.644454	2680.507529
616.992686	2683.307890
617.340864	2687.562624
617.688990	2690.879703
618.037063	2693.049920
618.385082	2695.714169
618.733048	2701.148533
619.080961	2702.522248
619.428821	2712.402909
619.776628	2713.569936
620.124382	2713.317879
620.472083	2718.348950
620.819731	2725.900599
621.167326	2719.846173
621.514868	2722.845659
621.862357	2720.889692
622.209793	2722.812892
622.557176	2725.494786
622.904506	2721.958416
623.251783	2723.468242
623.599007	2724.063098
623.946179	2727.917060
624.293297	2728.058212
624.640363	2730.132647
624.987376	2729.411762
625.334336	2728.481669
625.681243	2731.763461
626.028097	2729.895713
626.374899	2742.775861
626.721647	2742.181005
627.068343	2744.099164
627.414987	2747.544793
627.761577	2755.265320
628.108115	2757.755650
628.454600	2756.941503
628.801032	2765.022473
629.147412	2763.580703
629.493739	2771.535644
629.840014	2778.868002
630.186236	2780.052673
630.532405	2788.252110
630.878521	2796.196968
631.224585	2799.640077
631.570597	2803.209213
631.916556	2808.479740
632.262462	2814.203970
632.608316	2826.537153
632.954117	2828.339365
633.299866	2835.817917
633.645562	2842.061386
633.991206	2839.382013
634.336797	2840.778412
634.682336	2847.649505
635.027823	2843.558609
635.373257	2851.390041
635.718639	2847.677232
636.063968	2852.113447
636.409245	2853.668643
636.754470	2857.131916
637.099642	2858.833305
637.444762	2857.726772
637.789829	2866.568956
638.134845	2869.747403
638.479808	2871.766385
638.824719	2879.272663
639.169577	2882.965308
639.514383	2889.002090
639.859137	2893.355127
640.203839	2901.035324
640.548489	2902.824934
640.893086	2914.555699
641.237632	2910.169895
641.582125	2927.405600
641.926566	2927.876948
642.270955	2930.299223
642.615292	2938.304575
642.959576	2942.980245
643.303809	2961.725776
643.647990	2963.689305
643.992118	2978.948878
644.336195	2970.648618
644.680219	2993.190137
645.024192	3001.376971
645.368112	3018.234590
645.711981	3033.917619
646.055797	3050.326575
646.399562	3068.091601
646.743274	3087.268150
647.086935	3121.437091
647.430544	3139.139103
647.774101	3151.656288
648.117606	3180.589990
648.461059	3178.732325
648.804460	3200.028680
649.147810	3193.354192
649.491108	3186.435208
649.834354	3203.355841
650.177548	3192.724048
650.520690	3192.482072
650.863781	3201.097404
651.206820	3203.968341
651.549807	3205.165615
651.892742	3211.315823
652.235626	3213.453272
652.578458	3226.096486
652.921238	3217.710527
653.263967	3241.719022
653.606644	3243.564084
653.949269	3246.220772
654.291843	3255.083121
654.634365	3270.524175
654.976836	3278.007768
655.319255	3291.588636
655.661622	3305.872746
656.003938	3311.297027
656.346203	3313.805001
656.688416	3332.298474
657.030577	3339.986234
657.372687	3348.697348
657.714746	3356.314531
658.056753	3373.945967
658.398708	3384.066083
658.740612	3391.342989
659.082465	3413.274528
659.424266	3416.460538
659.766016	3438.492901
660.107715	3446.435238
660.449362	3458.143318
660.790958	3481.456134
661.132503	3491.241014
661.473996	3507.476050
661.815438	3528.333824
662.156829	3543.679096
662.498168	3553.027916
662.839456	3570.041810
663.180693	3582.213676
663.521879	3607.573201
663.863013	3626.061632
664.204097	3634.505565
664.545129	3658.325017
664.886110	3667.169721
665.227040	3699.622149
665.567918	3717.757700
665.908746	3742.542533
666.249522	3742.887852
666.590248	3770.896503
666.930922	3807.321360
667.271545	3817.685972
667.612118	3849.465406
667.952639	3853.359697
668.293109	3865.438302
668.633528	3879.535889
668.973896	3880.715519
669.314213	3932.004218
669.654480	3892.148856
669.994695	3912.268101
670.334859	3935.086884
670.674973	3947.762865
671.015035	3973.881083
671.355047	3975.002740
671.695008	3981.876353
672.034918	4004.392667
672.374777	4026.331768
672.714585	4031.607336
673.054342	4063.908529
673.394049	4072.271803
673.733705	4094.059670
674.073310	4107.517030
674.412864	4140.188748
674.752368	4123.071511
675.091820	4126.398672
675.431223	4169.485414
675.770574	4142.106908
676.109875	4151.536386
676.449125	4155.551665
676.788324	4155.324813
677.127473	4146.812825
677.466571	4156.753980
677.805619	4167.237059
678.144616	4163.408303
678.483562	4183.446890
678.822458	4162.899147
679.161303	4175.270138
679.500098	4200.811144
679.838842	4202.658727
680.177535	4214.747414
680.516179	4237.866145
680.854771	4255.197632
681.193314	4319.600893
681.531805	4345.366231
681.870247	4470.165035
682.208638	4557.288777
682.546978	4663.861289
682.885268	4704.498031
683.223508	4638.889934
683.561697	4630.473727
683.899836	4630.173779
684.237925	4598.570785
684.575963	4603.188482
684.913951	4636.951610
685.251889	4605.663689
685.589776	4681.533054
685.927614	4683.620092
686.265401	4670.908822
686.603137	4724.524014
686.940824	4772.336838
687.278460	4818.602027
687.616046	4869.275706
687.953582	4925.008182
688.291068	4906.600409
688.628504	4984.645032
688.965889	5013.188045
689.303224	5041.383219
689.640510	5026.658008
689.977745	4961.065035
690.314930	4932.441363
690.652065	4930.198050
690.989150	4860.388152
691.326185	4820.414322
691.663170	4784.866626
692.000105	4731.785796
692.336990	4740.491869
692.673825	4667.483358
693.010610	4658.999097
693.347345	4615.456130
693.684030	4565.553748
694.020665	4575.351231
694.357251	4535.170714
694.693786	4558.304569
695.030272	4484.776820
695.366707	4484.958301
695.703093	4484.640708
696.039429	4496.953727
696.375716	4509.715408
696.711952	4456.891677
697.048139	4497.586392
697.384276	4503.764326
697.720363	4506.476466
698.056400	4502.735930
698.392388	4518.930637
698.728326	4505.937063
699.064214	4494.884333
699.400053	4552.673600
699.735842	4487.161285
700.071581	4493.245958
700.407270	4482.919154
700.742910	4472.531857
701.078501	4470.311229
701.414042	4430.614663
701.749533	4424.449332
702.084974	4385.995410
702.420366	4427.353036
702.755709	4417.076644
703.091002	4382.892580
703.426246	4402.134664
703.761440	4394.640989
704.096584	4391.215525
704.431679	4378.441241
704.766725	4391.754928
705.101721	4385.929875
705.436668	4404.115838
705.771565	4384.727560
706.106413	4422.800874
706.441212	4466.742092
706.775961	4445.307106
707.110661	4465.723779
707.445311	4543.828896
707.779913	4506.272300
708.114465	4572.417279
708.448967	4605.131847
708.783421	4644.508300
709.117825	4728.970312
709.452180	4754.284466
709.786485	4777.733393
710.120742	4906.648300
710.454949	4913.484104
710.789107	4947.854691
711.123216	5024.913769
711.457275	5114.563128
711.791286	5186.258418
712.125247	5174.273075
712.459159	5212.868149
712.793023	5309.010515
713.126837	5153.949663
713.460602	5227.132094
713.794318	5143.882479
714.127985	5211.131472
714.461602	5119.400116
714.795171	5091.215024
715.128691	5031.114388
715.462162	4939.098207
715.795584	4948.525165
716.128957	4898.829470
716.462281	4811.398218
716.795556	4889.783120
717.128782	4806.092404
717.461960	4683.683106
717.795088	4732.126074
718.128167	4713.824165
718.461198	4659.961957
718.794180	4640.893793
719.127113	4665.928162
719.459997	4607.342393
719.792833	4499.454139
720.125619	4548.607910
720.458357	4486.120287
720.791046	4488.282942
721.123686	4529.123850
721.456278	4454.943271
721.788821	4466.711845
722.121315	4422.022016
722.453761	4466.938697
722.786158	4470.384325
723.118506	4468.262000
723.450805	4468.685457
723.783056	4504.817927
724.115259	4452.168116
724.447412	4468.519098
724.779518	4485.076768
725.111574	4491.824353
725.443582	4543.425603
725.775542	4531.218449
726.107453	4629.173110
726.439315	4601.348461
726.771129	4613.306078
727.102895	4693.873799
727.434612	4765.566568
727.766281	4770.461529
728.097901	4821.546061
728.429473	4807.864370
728.760996	4816.048683
729.092471	4817.462727
729.423897	4822.844158
729.755276	4856.594683
730.086606	4828.520497
730.417887	4872.902816
730.749120	4956.379283
731.080305	5087.197225
731.411442	5144.520185
731.742530	5137.364267
732.073570	5230.045881
732.404562	5289.357576
732.735506	5173.458929
733.066401	5276.676554
733.397249	5257.008492
733.728048	5154.549561
734.058798	5005.258310
734.389501	4927.695117
734.720156	4853.096122
735.050762	4718.638467
735.381320	4674.929143
735.711831	4672.416127
736.042293	4619.123570
736.372707	4655.732429
736.703073	4574.900047
737.033391	4600.370477
737.363661	4607.556642
737.693883	4622.717912
738.024056	4677.086757
738.354182	4713.993044
738.684260	4717.884815
739.014290	4779.283548
739.344272	4842.121531
739.674207	4839.774873
740.004093	4877.896079
740.333931	4898.045571
740.663722	4905.556890
740.993464	4970.814627
741.323159	5005.873331
741.652806	4830.615097
741.982405	4832.392104
742.311956	4931.755767
742.641460	4851.114949
742.970915	4726.540476
743.300323	4760.575826
743.629683	4733.976178
743.958996	4664.982946
744.288260	4631.726454
744.617477	4612.078557
744.946647	4634.531856
745.275768	4538.626425
745.604842	4524.392727
745.933869	4524.087737
746.262847	4493.555989
746.591778	4501.878934
746.920662	4484.827231
747.249498	4475.281806
747.578286	4508.709697
747.907027	4568.691867
748.235720	4602.008852
748.564365	4565.594078
748.892963	4576.626643
749.221514	4709.982806
749.550017	4617.618785
749.878473	4522.154455
750.206881	4578.494390
750.535242	4554.816091
750.863555	4513.604658
751.191821	4544.035583
751.520039	4548.071027
751.848210	4494.589426
752.176334	4506.017721
752.504411	4559.456473
752.832440	4510.143906
753.160421	4441.158236
753.488356	4492.986339
753.816243	4546.939288
754.144082	4434.345117
754.471875	4405.449223
754.799620	4449.917241
755.127318	4465.020538
755.454969	4428.459569
755.782572	4403.412597
756.110129	4451.772385
756.437638	4463.228407
756.765100	4411.281838
757.092515	4405.512237
757.419882	4444.855922
757.747203	4437.475673
758.074477	4494.375177
758.401703	4488.686234
758.728882	4439.512299
759.056014	4472.914985
759.383099	4589.786575
759.710138	4584.251388
760.037129	4556.348601
760.364073	4563.887647
760.690970	4642.128875
761.017820	4646.013084
761.344623	4590.431842
761.671379	4662.112009
761.998088	4748.146861
762.324751	4890.312441
762.651366	5257.532772
762.977935	6023.276480
763.304456	6989.953018
763.630931	7560.838485
763.957359	7387.306846
764.283740	6900.989255
764.610074	6469.622762
764.936362	5837.716648
765.262602	5439.886430
765.588796	5078.849074
765.914943	4848.133107
766.241044	4772.067136
766.567097	4656.816277
766.893104	4469.459274
767.219064	4348.668186
767.544978	4325.660360
767.870845	4286.538486
768.196665	4202.993964
768.522438	4154.785409
768.848165	4142.522803
769.173846	4111.267649
769.499479	4086.845779
769.825066	4046.105694
770.150607	4010.242926
770.476101	3993.329855
770.801548	4002.839991
771.126949	3962.533446
771.452303	3928.009104
771.777611	3895.690266
772.102872	3907.967997
772.428087	3888.534348
772.753256	3869.211606
773.078378	3848.633616
773.403453	3797.226449
773.728482	3791.126653
774.053465	3763.007097
774.378401	3756.917383
774.703291	3769.036317
775.028135	3718.458421
775.352932	3675.782533
775.677683	3670.141482
776.002388	3699.596943
776.327046	3713.467678
776.651658	3647.300013
776.976224	3593.047116
777.300743	3605.433231
777.625216	3632.753764
777.949643	3634.603867
778.274024	3598.199175
778.598359	3555.765262
778.922647	3570.492993
779.246889	3576.002975
779.571086	3581.419694
779.895236	3568.393353
780.219339	3548.896690
780.543397	3536.286244
780.867409	3579.393151
781.191374	3596.734720
781.515294	3553.141342
781.839167	3551.301321
782.162995	3568.002663
782.486776	3560.367836
782.810511	3568.005184
783.134201	3582.775765
783.457844	3548.632030
783.781441	3501.373733
784.104993	3511.193901
784.428498	3527.076056
784.751958	3537.133158
785.075372	3518.677494
785.398739	3483.719612
785.722061	3493.257475
786.045337	3535.096532
786.368568	3569.777150
786.691752	3494.457270
787.014891	3526.980274
787.337983	3616.685086
787.661030	3718.844069
787.984031	3834.125175
788.306987	3957.701500
788.629897	4022.198022
788.952760	3997.173734
789.275579	3965.434630
789.598351	3943.021660
789.921078	3851.877598
790.243759	3692.738454
790.566395	3671.658869
790.888984	3682.202442
791.211529	3596.074329
791.534027	3553.852145
791.856480	3557.060839
792.178888	3506.261132
792.501249	3462.019966
792.823566	3468.744865
793.145836	3500.930112
793.468062	3463.534832
793.790241	3419.616300
794.112375	3444.640588
794.434464	3497.234946
794.756507	3523.605222
795.078505	3502.470184
795.400457	3515.189015
795.722364	3613.809108
796.044226	3691.705017
796.366042	3741.650249
796.687812	3741.872060
797.009538	3752.166096
797.331218	3718.803740
797.652852	3698.011501
797.974442	3692.872044
798.295986	3703.201368
798.617484	3644.668531
798.938938	3571.541553
799.260346	3605.125720
799.581709	3611.011267
799.903026	3553.922721
800.224299	3524.868031
800.545526	3521.732433
800.866708	3491.782938
801.187845	3437.320832
801.508936	3474.040597
801.829983	3475.956235
802.150984	3410.070875
802.471940	3394.982702
802.792851	3410.690937
803.113717	3409.241605
803.434538	3416.074889
803.755314	3371.909341
804.076045	3339.343487
804.396731	3354.918132
804.717372	3382.515928
805.037967	3370.001264
805.358518	3360.181096
805.679024	3379.773541
805.999485	3386.264026
806.319901	3387.690673
806.640272	3403.477046
806.960598	3418.315682
807.280879	3396.001015
807.601115	3399.502096
807.921306	3415.187646
808.241453	3456.015951
808.561554	3442.293931
808.881611	3385.555744
809.201623	3409.697830
809.521590	3430.094338
809.841513	3403.466964
810.161390	3431.465532
810.481223	3425.484203
810.801011	3376.075854
811.120755	3361.443905
811.440453	3396.142167
811.760107	3405.964855
812.079716	3378.533417
812.399281	3341.675020
812.718801	3362.797455
813.038276	3342.985720
813.357707	3343.928416
813.677093	3363.215871
813.996434	3320.068635
814.315731	3325.540808
814.634983	3327.083401
814.954191	3337.185873
815.273354	3372.128631
815.592473	3371.490925
815.911547	3371.412787
816.230577	3395.191910
816.549562	3443.944908
816.868502	3486.608193
817.187399	3509.878160
817.506250	3503.846419
817.825058	3478.459168
818.143821	3558.676529
818.462539	3651.965601
818.781213	3695.422868
819.099843	3736.210844
819.418429	3923.567847
819.736970	4121.924648
820.055466	4319.303465
820.373919	4639.192403
820.692327	5007.191593
821.010691	5342.035113
821.329011	6397.917389
821.647286	8398.504334
821.965517	11501.536173
822.283704	14256.995577
822.601847	16046.592590
822.919945	15172.116235
823.237999	13643.005724
823.556010	11837.927328
823.873976	10323.400875
824.191897	8627.027400
824.509775	7465.401881
824.827609	6529.451176
825.145398	6059.068672
825.463144	5962.918745
825.780845	6063.663684
826.098502	6159.760679
826.416116	6784.430217
826.733685	7817.589492
827.051210	8771.373279
827.368692	8965.155232
827.686129	8019.830502
828.003522	6753.217913
828.320872	5896.589763
828.638177	5319.811187
828.955439	4846.804762
829.272656	4410.177825
829.589830	4150.203001
829.906960	3995.104341
830.224046	3841.800332
830.541088	3729.927046
830.858086	3692.395655
831.175041	3633.885503
831.491952	3612.248871
831.808819	3628.473824
832.125642	3683.772762
832.442421	3807.893531
832.759157	4036.058675
833.075849	4480.653156
833.392497	5184.725908
833.709101	5816.062371
834.025662	6147.855994
834.342179	5920.348721
834.658653	5375.402511
834.975083	4824.419519
835.291469	4323.893436
835.607811	3959.491109
835.924110	3835.672809
836.240366	3660.797703
836.556578	3473.662510
836.872746	3373.799773
837.188871	3349.854293
837.504952	3293.395890
837.820990	3218.900239
838.136984	3169.290244
838.452935	3191.340251
838.768842	3191.645241
839.084706	3211.658622
839.400526	3338.713343
839.716303	3602.637911
840.032037	4024.953013
840.347727	4292.111481
840.663373	4106.390333
840.978977	3782.823873
841.294537	3513.338912
841.610054	3301.474339
841.925527	3202.032538
842.240957	3141.357211
842.556344	3094.797114
842.871687	3042.905997
843.186987	2998.354799
843.502244	2963.545632
843.817458	2932.224943
844.132629	2903.684451
844.447756	2905.963052
844.762840	2901.602454
845.077881	2871.652959
845.392879	2853.184692
845.707833	2850.356605
846.022745	2847.901563
846.337613	2852.405834
846.652438	2840.738083
846.967221	2839.142558
847.281960	2827.754592
847.596656	2822.547080
847.911309	2818.410813
848.225919	2814.304793
848.540485	2809.142652
848.855009	2810.498722
849.169490	2804.091415
849.483928	2795.410548
849.798323	2789.469549
850.112675	2788.625155
850.426984	2798.878862
850.741251	2797.948769
851.055474	2791.365022
851.369654	2785.875206
851.683792	2788.496606
851.997887	2795.455919
852.311938	2796.970786
852.625947	2788.037861
852.939914	2792.393418
853.253837	2795.413069
853.567718	2781.144083
853.881555	2777.809360
854.195350	2793.162194
854.509103	2790.820578
854.822812	2785.431584
855.136479	2782.464865
855.450103	2783.362191
855.763685	2776.049997
856.077224	2770.950870
856.390720	2784.819084
856.704173	2795.987761
857.017584	2786.719599
857.330953	2784.067952
857.644278	2793.263017
857.957561	2803.473874
858.270802	2805.702064
858.584000	2807.126190
858.897155	2794.510702
859.210268	2794.155301
859.523339	2791.004580
859.836367	2790.492903
860.149352	2783.110133
860.462295	2783.425205
860.775195	2788.650361
861.088054	2789.519960
861.400869	2774.769544
861.713642	2771.636467
862.026373	2783.523508
862.339062	2784.100720
862.651708	2790.883592
862.964312	2798.273924
863.276873	2787.732871
863.589392	2795.168573
863.901869	2804.872794
864.214303	2824.296360
864.526696	2840.269256
864.839045	2839.200531
865.151353	2835.132320
865.463619	2833.073009
865.775842	2835.669203
866.088023	2850.674197
866.400162	2860.270034
866.712258	2834.383709
867.024313	2825.511278
867.336325	2829.783656
867.648296	2851.400124
867.960224	2839.679441
868.272110	2831.338852
868.583954	2835.971672
868.895755	2851.521111
869.207515	2838.209945
869.519233	2838.124245
869.830909	2850.404496
870.142542	2856.905064
870.454134	2859.231556
870.765684	2863.324973
871.077191	2862.503265
871.388657	2869.049203
871.700081	2879.025647
872.011463	2892.490569
872.322803	2892.283881
872.634101	2891.557955
872.945357	2906.588155
873.256571	2927.493820
873.567744	2921.121802
873.878874	2908.627302
874.189963	2934.508586
874.501010	2937.523196
874.812015	2928.524736
875.122979	2931.110848
875.433900	2924.738830
875.744780	2930.140426
876.055618	2937.440017
876.366415	2934.934563
876.677169	2947.570216
876.987882	2946.511573
877.298554	2939.320367
877.609183	2953.642285
877.919771	2976.219093
878.230317	2999.635253
878.540822	3049.935886
878.851285	3086.721185
879.161707	3119.350053
879.472087	3203.769216
879.782425	3398.375398
880.092722	3777.792801
880.402977	4244.170108
880.713191	4760.001134
881.023363	5679.951217
881.333494	6723.989303
881.643583	7204.161727
881.953631	7009.900863
882.263637	6581.019659
882.573602	6136.629344
882.883526	5648.217154
883.193408	5124.214418
883.503248	4695.328172
883.813048	4430.576854
884.122806	4181.460675
884.432522	3902.571441
884.742197	3692.700645
885.051831	3511.186339
885.361424	3381.739591
885.670975	3316.655774
885.980485	3245.164651
886.289954	3175.173271
886.599382	3137.931747
886.908768	3103.639297
887.218113	3059.539284
887.527417	3011.423991
887.836680	2967.379430
888.145901	2961.173769
888.455082	2957.400466
888.764221	2911.415060
889.073319	2881.818446
889.382376	2881.823487
889.691392	2884.626369
890.000366	2884.485216
890.309300	2872.656149
890.618193	2884.160062
890.927044	2904.806108
891.235855	2903.921385
891.544625	2888.689539
891.853353	2891.578120
892.162041	2911.649474
892.470687	2947.083744
892.779293	2992.998573
893.087858	3035.374513
893.396381	3099.195520
893.704864	3201.505738
894.013306	3405.642222
894.321707	3673.105680
894.630068	3870.136658
894.938387	3877.516907
895.246665	3837.217923
895.554903	3734.973241
895.863100	3554.741908
896.171256	3397.420100
896.479371	3279.573046
896.787446	3173.723939
897.095480	3076.038980
897.403473	3014.778879
897.711425	2975.435193
898.019336	2969.400932
898.327207	2948.790175
898.635038	2916.115936
898.942827	2900.720252
899.250576	2890.287584
899.558284	2860.433871
899.865952	2844.521469
900.173579	2825.037410
900.481165	2819.708910
900.788711	2812.177426
901.096216	2786.134825
901.403681	2772.299379
901.711105	2779.931686
902.018489	2780.198867
902.325832	2776.299534
902.633135	2786.417130
902.940397	2814.070379
903.247619	2880.810215
903.554800	3044.133518
903.861941	3338.345338
904.169041	3720.782393
904.476101	4009.138913
904.783121	3996.553673
905.090100	3782.140797
905.397039	3535.966131
905.703938	3304.309988
906.010796	3136.419400
906.317614	3036.057589
906.624391	2949.790844
906.931129	2883.734084
907.237826	2828.029334
907.544483	2785.106430
907.851099	2755.928232
908.157675	2736.648339
908.464211	2721.272819
908.770707	2706.996272
909.077163	2699.404294
909.383578	2682.662622
909.689954	2674.281704
909.996289	2670.533606
910.302584	2673.391940
910.608839	2673.661642
910.915054	2667.818945
911.221229	2662.034221
911.527363	2663.644869
911.833458	2666.157884
912.139513	2671.846827
912.445527	2674.143072
912.751502	2682.816377
913.057436	2693.485979
913.363331	2703.076775
913.669186	2721.101420
913.975000	2749.278950
914.280775	2799.811476
914.586510	2863.997967
914.892205	2935.947835
915.197859	3044.325081
915.503475	3208.954042
915.809050	3394.637383
916.114585	3526.922301
916.420081	3561.169379
916.725536	3515.892256
917.030952	3413.214035
917.336328	3300.806386
917.641665	3177.265349
917.946961	3085.503747
918.252218	3027.021321
918.557435	2958.282668
918.862612	2904.841396
919.167750	2860.015456
919.472848	2822.050526
919.777906	2797.953811
920.082925	2774.905655
920.387904	2748.827766
920.692843	2733.865622
920.997743	2721.411451
921.302603	2709.852085
921.607423	2702.265149
921.912204	2689.498427
922.216946	2680.573064
922.521647	2674.024605
922.826310	2665.709222
923.130932	2657.908036
923.435516	2655.352171
923.740059	2644.987559
924.044564	2638.552526
924.349028	2633.960035
924.653454	2628.412245
924.957840	2618.143415
925.262186	2616.615945
925.566493	2614.743156
925.870761	2610.296859
926.174989	2605.338884
926.479178	2600.580035
926.783328	2596.733634
927.087438	2595.433017
927.391509	2597.212544
927.695541	2593.101483
927.999533	2586.537901
928.303486	2586.023703
928.607400	2586.028744
928.911275	2585.038157
929.215110	2583.616552
929.518906	2585.295256
929.822663	2582.250399
930.126381	2583.258630
930.430060	2583.331727
930.733699	2581.098496
931.037299	2586.220308
931.340861	2585.890112
931.644383	2588.448498
931.947866	2587.601584
932.251309	2587.561255
932.554714	2583.961871
932.858080	2580.304514
933.161407	2579.389544
933.464694	2580.856520
933.767943	2575.490212
934.071153	2580.128073
934.374323	2579.112281
934.677455	2577.534400
934.980548	2573.839234
935.283602	2576.548854
935.586617	2573.335119
935.889593	2575.936354
936.192530	2574.408884
936.495428	2577.506673
936.798287	2581.529514
937.101108	2581.491706
937.403890	2585.731316
937.706632	2590.011256
938.009336	2595.354879
938.312002	2601.840323
938.614628	2611.277363
938.917216	2618.685339
939.219765	2617.936727
939.522275	2617.314145
939.824747	2610.662342
940.127179	2613.248454
940.429573	2611.670573
940.731929	2609.797784
941.034246	2606.090016
941.336524	2601.762185
941.638763	2600.385950
941.940964	2598.697164
942.243126	2593.456884
942.545250	2597.010898
942.847335	2592.582244
943.149381	2587.934300
943.451389	2588.821543
943.753359	2585.078487
944.055290	2582.439442
944.357182	2581.602611
944.659036	2582.462128
944.960851	2580.493557
945.262628	2578.351067
945.564367	2580.677559
945.866067	2575.596076
946.167729	2578.144379
946.469352	2580.170923
946.770937	2580.077662
947.072484	2580.211252
947.373992	2576.581622
947.675462	2578.262847
947.976893	2568.299006
948.278286	2569.713050
948.579641	2570.527196
948.880958	2566.826989
949.182236	2573.748493
949.483476	2566.884962
949.784678	2572.377299
950.085841	2571.127093
950.386967	2573.093143
950.688054	2572.994841
950.989103	2573.216652
951.290114	2571.981569
951.591087	2573.751014
951.892021	2576.483319
952.192917	2579.008937
952.493776	2584.763414
952.794596	2582.880543
953.095378	2581.017837
953.396122	2584.423137
953.696828	2578.474575
953.997496	2579.860892
954.298126	2577.733525
954.598718	2576.558937
954.899272	2575.981724
955.199788	2570.673389
955.500266	2570.711198
955.800706	2564.981927
956.101108	2566.358162
956.401472	2564.555949
956.701798	2562.947821
957.002087	2558.322562
957.302337	2560.681822
957.602550	2559.174518
957.902724	2555.161759
958.202861	2556.167469
958.502960	2553.530946
958.803022	2554.917263
959.103045	2552.227807
959.403031	2552.860472
959.702979	2549.934082
960.002889	2550.866696
960.302762	2552.996583
960.602596	2551.249824
960.902393	2553.319217
961.202153	2551.096068
961.501875	2549.717313
961.801559	2549.571119
962.101205	2549.871068
962.400814	2549.366953
962.700385	2548.131870
962.999918	2547.078269
963.299414	2547.947868
963.598873	2544.320758
963.898293	2543.037784
964.197677	2550.695297
964.497022	2548.222611
964.796331	2550.029864
965.095601	2547.912580
965.394835	2548.709082
965.694030	2544.484595
965.993189	2546.407795
966.292309	2546.012065
966.591393	2549.588763
966.890439	2547.027857
967.189447	2548.883002
967.488419	2546.440563
967.787353	2548.081458
968.086249	2544.925696
968.385108	2548.588094
968.683930	2545.470141
968.982714	2547.368135
969.281462	2547.065666
969.580172	2548.807385
969.878844	2547.524411
970.177480	2545.545758
970.476078	2548.078938
970.774639	2548.162117
971.073162	2548.782179
971.371649	2546.498536
971.670098	2548.585574
971.968510	2549.611449
972.266885	2548.837632
972.565223	2547.892415
972.863524	2549.462735
973.161788	2548.809905
973.460014	2546.458207
973.758204	2548.527601
974.056356	2548.441901
974.354471	2546.191026
974.652550	2548.509957
974.950591	2546.080120
975.248595	2551.116233
975.546563	2549.858465
975.844493	2547.274874
976.142386	2547.869730
976.440243	2548.671273
976.738062	2549.485420
977.035845	2548.436860
977.333590	2547.015254
977.631299	2546.599359
977.928971	2541.414533
978.226606	2541.875798
978.524204	2546.874102
978.821765	2543.171375
979.119290	2543.113401
979.416777	2544.066179
979.714228	2548.159596
980.011642	2546.405275
980.309020	2546.289328
980.606360	2546.301931
980.903664	2546.165820
981.200931	2545.482744
981.498162	2547.625234
981.795356	2547.935265
982.092513	2548.068856
982.389633	2549.608928
982.686717	2555.315514
982.983764	2556.447253
983.280775	2563.348593
983.577749	2562.083263
983.874686	2560.465053
984.171587	2557.016904
984.468451	2557.705021
984.765279	2556.336348
985.062070	2555.670916
985.358824	2552.928528
985.655543	2548.199926
985.952224	2551.433826
986.248869	2550.705379
986.545478	2548.978784
986.842050	2546.967363
987.138586	2546.163299
987.435086	2546.430481
987.731549	2544.492157
988.027975	2544.741694
988.324366	2544.169523
988.620719	2543.609955
988.917037	2543.839327
989.213318	2543.741025
989.509563	2543.942671
989.805772	2543.622558
990.101944	2546.122970
990.398080	2544.572815
990.694180	2543.131045
990.990244	2546.531304
991.286271	2542.808412
991.582262	2544.592980
991.878217	2544.867723
992.174136	2546.206149
992.470019	2544.257743
992.765865	2541.759852
993.061676	2541.782537
993.357450	2543.035263
993.653188	2538.800694
993.948890	2540.960829
994.244556	2544.199770
994.540186	2545.223124
994.835780	2542.573998
995.131337	2546.906870
995.426859	2545.419729
995.722345	2547.516849
996.017795	2547.970553
996.313208	2550.919628
996.608586	2546.939637
996.903928	2547.224462
997.199234	2551.088507
997.494504	2551.085986
997.789738	2550.591953
998.084936	2548.615821
998.380099	2547.874771
998.675225	2546.145655
998.970316	2544.726571
999.265371	2546.672456
999.560390	2543.395706
999.855373	2546.465769
1000.150320	2545.344112
1000.445232	2543.252033
1000.740108	2544.673638
1001.034948	2544.789585
1001.329752	2543.584749
1001.624521	2543.625078
1001.919254	2543.544420
1002.213951	2545.210521
1002.508613	2540.842362
1002.803239	2543.010058
1003.097829	2543.264636
1003.392384	2543.937630
1003.686903	2543.612476
1003.981386	2544.771941
1004.275834	2546.957281
1004.570246	2545.397044
1004.864623	2543.942671
1005.158964	2544.230017
1005.453270	2544.741694
1005.747540	2540.870088
1006.041775	2541.994265
1006.335974	2541.230530
1006.630138	2541.323792
1006.924266	2542.589121
1007.218359	2541.253216
1007.512416	2541.205325
1007.806438	2537.802546
1008.100425	2537.263142
1008.394376	2537.863040
1008.688292	2543.592311
1008.982172	2543.015099
1009.276017	2544.945861
1009.569827	2542.878988
1009.863602	2544.290511
1010.157341	2541.747249
1010.451045	2541.840510
1010.744714	2543.211704
1011.038347	2544.603062
1011.331945	2542.009389
1011.625508	2542.415202
1011.919036	2542.742877
1012.212528	2545.422250
1012.505986	2544.822353
1012.799408	2544.293031
1013.092795	2541.185160
1013.386147	2542.662218
1013.679464	2544.459389
1013.972745	2543.521735
1014.265992	2542.876467
1014.559204	2540.779347
1014.852380	2543.262115
1015.145521	2543.355377
1015.438628	2544.744215
1015.731699	2545.233207
1016.024736	2541.142310
1016.317737	2543.216745
1016.610703	2543.304965
1016.903635	2545.661705
1017.196531	2541.774975
1017.489393	2542.261446
1017.782219	2543.022661
1018.075011	2542.319420
1018.367768	2539.209028
1018.660490	2540.721374
1018.953177	2540.721374
1019.245829	2540.721374
