Dividing Wavelength (nm)	Counts (n)	Blue Motor Position (mm): 2.100000	Red Motor Position (mm): 0.000000	
326.493990	2137.449231
326.888308	2137.449231
327.282561	2137.449231
327.676750	2013.940962
328.070874	2056.790769
328.464933	2051.749615
328.858929	2039.146731
329.252859	2076.955385
329.646726	2109.722885
330.040528	2202.984231
330.434265	2134.928654
330.827938	2051.749615
331.221547	2112.243462
331.615091	2192.901923
332.008571	2165.175577
332.401986	2215.587115
332.795338	2235.751731
333.188625	2296.245577
333.581847	2316.410192
333.975006	2250.875192
334.368100	2240.792885
334.761129	2296.245577
335.154095	2346.657115
335.546996	2326.492500
335.939833	2323.971923
336.332606	2379.424615
336.725315	2311.369038
337.117960	2442.439038
337.510540	2361.780577
337.903056	2296.245577
338.295508	2450.000769
338.687896	2450.000769
339.080220	2450.000769
339.472480	2480.247692
339.864676	2467.644808
340.256807	2485.288846
340.648875	2576.029615
341.040879	2555.865000
341.432818	2505.453462
341.824694	2558.385577
342.216506	2427.315577
342.608253	2432.356731
342.999937	2462.603654
343.391557	2437.397885
343.783113	2462.603654
344.174605	2452.521346
344.566033	2485.288846
344.957397	2490.330000
345.348697	2513.015192
345.739934	2500.412308
346.131106	2465.124231
346.522215	2432.356731
346.913260	2455.041923
347.304241	2525.618077
347.695159	2429.836154
348.086012	2477.727115
348.476802	2470.165385
348.867528	2482.768269
349.258191	2452.521346
349.648789	2535.700385
350.039324	2417.233269
350.429796	2495.371154
350.820203	2525.618077
351.210548	2409.671538
351.600828	2442.439038
351.991045	2407.150962
352.381198	2437.397885
352.771288	2457.562500
353.161314	2495.371154
353.551276	2404.630385
353.941175	2407.150962
354.331010	2492.850577
354.720782	2412.192115
355.110490	2386.986346
355.500135	2341.615962
355.889717	2407.150962
356.279235	2434.877308
356.668689	2475.206538
357.058080	2452.521346
357.447408	2535.700385
357.836672	2492.850577
358.225873	2412.192115
358.615010	2371.862885
359.004084	2439.918462
359.393095	2346.657115
359.782043	2399.589231
360.170927	2460.083077
360.559748	2374.383462
360.948505	2409.671538
361.337199	2462.603654
361.725830	2495.371154
362.114398	2455.041923
362.502903	2447.480192
362.891344	2520.576923
363.279722	2429.836154
363.668037	2437.397885
364.056289	2497.891731
364.444478	2442.439038
364.832603	2525.618077
365.220665	2470.165385
365.608665	2452.521346
365.996601	2558.385577
366.384474	2570.988462
366.772284	2457.562500
367.160031	2490.330000
367.547715	2475.206538
367.935336	2482.768269
368.322893	2444.959615
368.710388	2437.397885
369.097820	2414.712692
369.485189	2477.727115
369.872495	2455.041923
370.259738	2457.562500
370.646918	2422.274423
371.034035	2472.685962
371.421090	2412.192115
371.808081	2422.274423
372.195010	2528.138654
372.581875	2419.753846
372.968678	2525.618077
373.355418	2515.535769
373.742096	2490.330000
374.128710	2397.068654
374.515262	2495.371154
374.901751	2487.809423
375.288177	2482.768269
375.674540	2450.000769
376.060841	2482.768269
376.447079	2472.685962
376.833254	2442.439038
377.219367	2444.959615
377.605417	2429.836154
377.991404	2475.206538
378.377329	2444.959615
378.763191	2434.877308
379.148991	2361.780577
379.534727	2439.918462
379.920402	2482.768269
380.306013	2507.974038
380.691563	2482.768269
381.077049	2515.535769
381.462474	2419.753846
381.847835	2525.618077
382.233134	2417.233269
382.618371	2434.877308
383.003545	2507.974038
383.388657	2470.165385
383.773706	2492.850577
384.158693	2442.439038
384.543618	2442.439038
384.928480	2407.150962
385.313280	2485.288846
385.698017	2480.247692
386.082692	2404.630385
386.467305	2510.494615
386.851856	2417.233269
387.236344	2412.192115
387.620770	2450.000769
388.005133	2482.768269
388.389435	2490.330000
388.773674	2623.920577
389.157851	2465.124231
389.541965	2490.330000
389.926018	2460.083077
390.310008	2450.000769
390.693936	2485.288846
391.077802	2492.850577
391.461606	2434.877308
391.845348	2500.412308
392.229027	2490.330000
392.612645	2452.521346
392.996200	2424.795000
393.379694	2492.850577
393.763125	2490.330000
394.146494	2414.712692
394.529801	2515.535769
394.913047	2402.109808
395.296230	2540.741538
395.679351	2399.589231
396.062410	2457.562500
396.445408	2523.097500
396.828343	2354.218846
397.211217	2485.288846
397.594028	2570.988462
397.976778	2427.315577
398.359466	2525.618077
398.742092	2462.603654
399.124656	2422.274423
399.507158	2444.959615
399.889598	2331.533654
400.271977	2462.603654
400.654294	2374.383462
401.036549	2460.083077
401.418742	2452.521346
401.800874	2465.124231
402.182944	2465.124231
402.564952	2427.315577
402.946898	2379.424615
403.328783	2495.371154
403.710606	2523.097500
404.092367	2452.521346
404.474067	2482.768269
404.855705	2505.453462
405.237282	2442.439038
405.618797	2475.206538
406.000250	2545.782692
406.381642	2565.947308
406.762972	2407.150962
407.144240	2394.548077
407.525447	2523.097500
407.906593	2538.220962
408.287677	2447.480192
408.668700	2417.233269
409.049661	2417.233269
409.430560	2586.111923
409.811399	2477.727115
410.192176	2487.809423
410.572891	2422.274423
410.953545	2482.768269
411.334138	2482.768269
411.714669	2447.480192
412.095139	2432.356731
412.475547	2495.371154
412.855894	2510.494615
413.236180	2510.494615
413.616405	2457.562500
413.996568	2470.165385
414.376670	2427.315577
414.756711	2470.165385
415.136691	2555.865000
415.516609	2558.385577
415.896466	2450.000769
416.276262	2437.397885
416.655997	2455.041923
417.035670	2472.685962
417.415283	2467.644808
417.794834	2475.206538
418.174324	2477.727115
418.553753	2477.727115
418.933121	2490.330000
419.312428	2553.344423
419.691674	2442.439038
420.070859	2442.439038
420.449983	2558.385577
420.829045	2530.659231
421.208047	2470.165385
421.586988	2525.618077
421.965867	2535.700385
422.344686	2528.138654
422.723444	2480.247692
423.102141	2560.906154
423.480777	2492.850577
423.859352	2497.891731
424.237866	2538.220962
424.616319	2424.795000
424.994712	2455.041923
425.373044	2475.206538
425.751314	2487.809423
426.129524	2477.727115
426.507673	2452.521346
426.885762	2477.727115
427.263789	2583.591346
427.641756	2533.179808
428.019662	2482.768269
428.397508	2485.288846
428.775292	2533.179808
429.153016	2404.630385
429.530679	2444.959615
429.908282	2545.782692
430.285824	2502.932885
430.663305	2480.247692
431.040726	2442.439038
431.418086	2402.109808
431.795385	2513.015192
432.172624	2530.659231
432.549802	2480.247692
432.926920	2490.330000
433.303977	2455.041923
433.680974	2414.712692
434.057910	2384.465769
434.434786	2444.959615
434.811601	2439.918462
435.188355	2417.233269
435.565050	2513.015192
435.941683	2497.891731
436.318257	2502.932885
436.694770	2480.247692
437.071222	2427.315577
437.447614	2500.412308
437.823946	2477.727115
438.200218	2450.000769
438.576429	2510.494615
438.952580	2442.439038
439.328670	2540.741538
439.704700	2447.480192
440.080670	2565.947308
440.456580	2475.206538
440.832429	2505.453462
441.208218	2515.535769
441.583947	2482.768269
441.959616	2543.262115
442.335224	2462.603654
442.710773	2578.550192
443.086261	2523.097500
443.461689	2495.371154
443.837057	2540.741538
444.212365	2480.247692
444.587612	2462.603654
444.962800	2565.947308
445.337927	2507.974038
445.712995	2505.453462
446.088002	2429.836154
446.462949	2510.494615
446.837837	2427.315577
447.212664	2472.685962
447.587431	2417.233269
447.962139	2540.741538
448.336786	2439.918462
448.711374	2442.439038
449.085901	2525.618077
449.460369	2487.809423
449.834776	2540.741538
450.209124	2540.741538
450.583412	2530.659231
450.957640	2563.426731
451.331808	2437.397885
451.705917	2530.659231
452.079965	2510.494615
452.453954	2565.947308
452.827883	2480.247692
453.201752	2452.521346
453.575562	2540.741538
453.949311	2540.741538
454.323001	2502.932885
454.696632	2480.247692
455.070202	2505.453462
455.443713	2495.371154
455.817164	2450.000769
456.190556	2601.235385
456.563888	2535.700385
456.937160	2533.179808
457.310373	2482.768269
457.683526	2520.576923
458.056619	2485.288846
458.429653	2422.274423
458.802628	2550.823846
459.175542	2495.371154
459.548398	2500.412308
459.921194	2558.385577
460.293930	2505.453462
460.666607	2555.865000
461.039224	2558.385577
461.411782	2505.453462
461.784280	2422.274423
462.156719	2507.974038
462.529099	2538.220962
462.901419	2558.385577
463.273680	2462.603654
463.645882	2500.412308
464.018024	2497.891731
464.390106	2462.603654
464.762130	2497.891731
465.134094	2495.371154
465.505999	2444.959615
465.877845	2543.262115
466.249631	2560.906154
466.621358	2497.891731
466.993026	2447.480192
467.364634	2538.220962
467.736184	2555.865000
468.107674	2540.741538
468.479105	2437.397885
468.850477	2593.673654
469.221790	2487.809423
469.593043	2376.904038
469.964238	2490.330000
470.335373	2437.397885
470.706449	2515.535769
471.077467	2452.521346
471.448425	2482.768269
471.819324	2480.247692
472.190164	2497.891731
472.560945	2507.974038
472.931667	2581.070769
473.302330	2545.782692
473.672934	2439.918462
474.043479	2533.179808
474.413965	2472.685962
474.784393	2515.535769
475.154761	2533.179808
475.525070	2480.247692
475.895321	2444.959615
476.265513	2429.836154
476.635645	2497.891731
477.005719	2439.918462
477.375734	2439.918462
477.745691	2528.138654
478.115588	2485.288846
478.485427	2487.809423
478.855207	2444.959615
479.224928	2414.712692
479.594591	2502.932885
479.964194	2422.274423
480.333739	2523.097500
480.703226	2442.439038
481.072653	2558.385577
481.442022	2414.712692
481.811333	2470.165385
482.180584	2475.206538
482.549777	2591.153077
482.918912	2482.768269
483.287988	2528.138654
483.657005	2404.630385
484.025964	2487.809423
484.394864	2434.877308
484.763706	2490.330000
485.132489	2452.521346
485.501213	2467.644808
485.869879	2558.385577
486.238487	2462.603654
486.607036	2500.412308
486.975527	2525.618077
487.343959	2437.397885
487.712333	2422.274423
488.080648	2450.000769
488.448905	2450.000769
488.817104	2447.480192
489.185244	2563.426731
489.553326	2429.836154
489.921350	2404.630385
490.289315	2495.371154
490.657222	2482.768269
491.025070	2505.453462
491.392861	2565.947308
491.760593	2452.521346
492.128267	2492.850577
492.495883	2495.371154
492.863440	2482.768269
493.230939	2502.932885
493.598380	2455.041923
493.965763	2429.836154
494.333088	2548.303269
494.700354	2460.083077
495.067563	2485.288846
495.434713	2492.850577
495.801805	2505.453462
496.168839	2513.015192
496.535815	2490.330000
496.902733	2442.439038
497.269593	2495.371154
497.636395	2376.904038
498.003139	2576.029615
498.369825	2460.083077
498.736453	2434.877308
499.103023	2497.891731
499.469535	2528.138654
499.835989	2528.138654
500.202385	2490.330000
500.568723	2507.974038
500.935003	2578.550192
501.301226	2457.562500
501.667390	2528.138654
502.033497	2465.124231
502.399546	2513.015192
502.765537	2553.344423
503.131470	2583.591346
503.497345	2543.262115
503.863163	2502.932885
504.228923	2540.741538
504.594625	2485.288846
504.960269	2460.083077
505.325856	2490.330000
505.691385	2500.412308
506.056856	2480.247692
506.422270	2513.015192
506.787625	2535.700385
507.152924	2555.865000
507.518164	2460.083077
507.883347	2515.535769
508.248472	2429.836154
508.613540	2528.138654
508.978550	2558.385577
509.343503	2419.753846
509.708398	2538.220962
510.073236	2404.630385
510.438016	2462.603654
510.802738	2482.768269
511.167403	2530.659231
511.532010	2548.303269
511.896561	2497.891731
512.261053	2545.782692
512.625488	2450.000769
512.989866	2495.371154
513.354186	2467.644808
513.718449	2462.603654
514.082655	2427.315577
514.446803	2535.700385
514.810894	2523.097500
515.174927	2472.685962
515.538904	2495.371154
515.902822	2477.727115
516.266684	2502.932885
516.630488	2480.247692
516.994235	2475.206538
517.357925	2497.891731
517.721558	2497.891731
518.085133	2465.124231
518.448651	2545.782692
518.812112	2502.932885
519.175516	2543.262115
519.538863	2513.015192
519.902152	2523.097500
520.265385	2442.439038
520.628560	2480.247692
520.991678	2555.865000
521.354739	2525.618077
521.717743	2505.453462
522.080690	2555.865000
522.443580	2535.700385
522.806413	2477.727115
523.169189	2472.685962
523.531908	2457.562500
523.894569	2442.439038
524.257174	2518.056346
524.619722	2563.426731
524.982213	2414.712692
525.344647	2462.603654
525.707025	2570.988462
526.069345	2497.891731
526.431608	2485.288846
526.793815	2442.439038
527.155964	2530.659231
527.518057	2500.412308
527.880093	2437.397885
528.242072	2487.809423
528.603995	2475.206538
528.965860	2520.576923
529.327669	2470.165385
529.689421	2432.356731
530.051117	2618.879423
530.412755	2497.891731
530.774337	2505.453462
531.135862	2560.906154
531.497331	2455.041923
531.858743	2502.932885
532.220098	2422.274423
532.581396	2432.356731
532.942638	2530.659231
533.303824	2502.932885
533.664953	2434.877308
534.026025	2586.111923
534.387040	2450.000769
534.747999	2565.947308
535.108902	2560.906154
535.469748	2462.603654
535.830537	2533.179808
536.191270	2540.741538
536.551947	2533.179808
536.912567	2490.330000
537.273131	2480.247692
537.633638	2409.671538
537.994089	2490.330000
538.354483	2470.165385
538.714821	2520.576923
539.075103	2540.741538
539.435328	2505.453462
539.795497	2570.988462
540.155609	2555.865000
540.515665	2429.836154
540.875665	2555.865000
541.235609	2427.315577
541.595496	2429.836154
541.955328	2432.356731
542.315102	2515.535769
542.674821	2447.480192
543.034483	2422.274423
543.394090	2465.124231
543.753640	2439.918462
544.113134	2528.138654
544.472571	2437.397885
544.831953	2535.700385
545.191278	2518.056346
545.550548	2505.453462
545.909761	2467.644808
546.268918	2457.562500
546.628019	2487.809423
546.987064	2417.233269
547.346053	2543.262115
547.704986	2538.220962
548.063863	2422.274423
548.422684	2492.850577
548.781449	2422.274423
549.140158	2606.276538
549.498811	2437.397885
549.857408	2470.165385
550.215949	2475.206538
550.574434	2530.659231
550.932864	2497.891731
551.291237	2477.727115
551.649555	2490.330000
552.007817	2533.179808
552.366022	2485.288846
552.724173	2543.262115
553.082267	2538.220962
553.440305	2485.288846
553.798288	2545.782692
554.156215	2507.974038
554.514086	2525.618077
554.871902	2568.467885
555.229661	2452.521346
555.587365	2528.138654
555.945014	2573.509038
556.302606	2538.220962
556.660143	2502.932885
557.017625	2560.906154
557.375050	2492.850577
557.732421	2535.700385
558.089735	2507.974038
558.446994	2591.153077
558.804197	2490.330000
559.161345	2485.288846
559.518437	2447.480192
559.875474	2513.015192
560.232455	2485.288846
560.589381	2434.877308
560.946251	2513.015192
561.303065	2487.809423
561.659825	2581.070769
562.016528	2507.974038
562.373177	2487.809423
562.729770	2525.618077
563.086307	2533.179808
563.442789	2545.782692
563.799216	2492.850577
564.155587	2492.850577
564.511904	2502.932885
564.868164	2465.124231
565.224370	2472.685962
565.580520	2439.918462
565.936615	2470.165385
566.292654	2505.453462
566.648638	2543.262115
567.004567	2505.453462
567.360441	2460.083077
567.716260	2465.124231
568.072023	2447.480192
568.427732	2535.700385
568.783385	2487.809423
569.138982	2545.782692
569.494525	2533.179808
569.850013	2543.262115
570.205445	2417.233269
570.560823	2523.097500
570.916145	2523.097500
571.271412	2495.371154
571.626625	2480.247692
571.981782	2477.727115
572.336884	2470.165385
572.691931	2500.412308
573.046923	2568.467885
573.401860	2505.453462
573.756743	2462.603654
574.111570	2500.412308
574.466342	2485.288846
574.821059	2432.356731
575.175722	2553.344423
575.530330	2560.906154
575.884882	2525.618077
576.239380	2482.768269
576.593823	2444.959615
576.948211	2515.535769
577.302544	2581.070769
577.656823	2593.673654
578.011047	2404.630385
578.365216	2497.891731
578.719330	2518.056346
579.073389	2485.288846
579.427394	2525.618077
579.781344	2482.768269
580.135239	2523.097500
580.489080	2497.891731
580.842866	2487.809423
581.196597	2583.591346
581.550273	2555.865000
581.903895	2500.412308
582.257463	2467.644808
582.610975	2518.056346
582.964434	2535.700385
583.317837	2513.015192
583.671186	2540.741538
584.024481	2518.056346
584.377721	2492.850577
584.730906	2487.809423
585.084037	2364.301154
585.437113	2540.741538
585.790135	2417.233269
586.143103	2500.412308
586.496016	2472.685962
586.848874	2518.056346
587.201679	2475.206538
587.554428	2412.192115
587.907124	2530.659231
588.259765	2465.124231
588.612352	2513.015192
588.964884	2507.974038
589.317362	2475.206538
589.669786	2500.412308
590.022155	2513.015192
590.374470	2455.041923
590.726731	2523.097500
591.078937	2513.015192
591.431090	2540.741538
591.783188	2576.029615
592.135232	2528.138654
592.487222	2520.576923
592.839157	2394.548077
593.191038	2545.782692
593.542866	2548.303269
593.894639	2533.179808
594.246358	2444.959615
594.598022	2497.891731
594.949633	2533.179808
595.301190	2457.562500
595.652692	2540.741538
596.004141	2467.644808
596.355535	2538.220962
596.706876	2500.412308
597.058162	2548.303269
597.409395	2495.371154
597.760573	2533.179808
598.111698	2578.550192
598.462768	2485.288846
598.813785	2528.138654
599.164748	2472.685962
599.515657	2510.494615
599.866511	2553.344423
600.217312	2467.644808
600.568060	2497.891731
600.918753	2525.618077
601.269392	2409.671538
601.619978	2450.000769
601.970510	2447.480192
602.320988	2548.303269
602.671412	2487.809423
603.021783	2485.288846
603.372100	2490.330000
603.722363	2533.179808
604.072572	2467.644808
604.422728	2518.056346
604.772830	2477.727115
605.122878	2586.111923
605.472872	2485.288846
605.822813	2538.220962
606.172701	2457.562500
606.522534	2523.097500
606.872314	2573.509038
607.222041	2523.097500
607.571714	2543.262115
607.921333	2432.356731
608.270899	2480.247692
608.620411	2510.494615
608.969870	2520.576923
609.319276	2560.906154
609.668627	2505.453462
610.017926	2480.247692
610.367171	2399.589231
610.716362	2505.453462
611.065500	2500.412308
611.414585	2462.603654
611.763616	2444.959615
612.112594	2530.659231
612.461518	2472.685962
612.810389	2495.371154
613.159207	2495.371154
613.507971	2538.220962
613.856682	2475.206538
614.205340	2520.576923
614.553945	2502.932885
614.902496	2553.344423
615.250994	2447.480192
615.599439	2457.562500
615.947830	2515.535769
616.296169	2455.041923
616.644454	2545.782692
616.992686	2447.480192
617.340864	2472.685962
617.688990	2417.233269
618.037063	2487.809423
618.385082	2447.480192
618.733048	2568.467885
619.080961	2555.865000
619.428821	2477.727115
619.776628	2528.138654
620.124382	2467.644808
620.472083	2497.891731
620.819731	2432.356731
621.167326	2563.426731
621.514868	2447.480192
621.862357	2553.344423
622.209793	2412.192115
622.557176	2520.576923
622.904506	2540.741538
623.251783	2583.591346
623.599007	2450.000769
623.946179	2475.206538
624.293297	2485.288846
624.640363	2505.453462
624.987376	2480.247692
625.334336	2475.206538
625.681243	2507.974038
626.028097	2452.521346
626.374899	2548.303269
626.721647	2515.535769
627.068343	2487.809423
627.414987	2497.891731
627.761577	2495.371154
628.108115	2518.056346
628.454600	2563.426731
628.801032	2523.097500
629.147412	2477.727115
629.493739	2588.632500
629.840014	2548.303269
630.186236	2530.659231
630.532405	2525.618077
630.878521	2507.974038
631.224585	2427.315577
631.570597	2472.685962
631.916556	2480.247692
632.262462	2523.097500
632.608316	2513.015192
632.954117	2528.138654
633.299866	2515.535769
633.645562	2475.206538
633.991206	2525.618077
634.336797	2495.371154
634.682336	2523.097500
635.027823	2437.397885
635.373257	2558.385577
635.718639	2507.974038
636.063968	2422.274423
636.409245	2530.659231
636.754470	2538.220962
637.099642	2563.426731
637.444762	2442.439038
637.789829	2510.494615
638.134845	2434.877308
638.479808	2507.974038
638.824719	2480.247692
639.169577	2500.412308
639.514383	2510.494615
639.859137	2502.932885
640.203839	2487.809423
640.548489	2520.576923
640.893086	2510.494615
641.237632	2470.165385
641.582125	2414.712692
641.926566	2497.891731
642.270955	2520.576923
642.615292	2555.865000
642.959576	2424.795000
643.303809	2432.356731
643.647990	2482.768269
643.992118	2530.659231
644.336195	2507.974038
644.680219	2467.644808
645.024192	2535.700385
645.368112	2490.330000
645.711981	2490.330000
646.055797	2442.439038
646.399562	2397.068654
646.743274	2442.439038
647.086935	2530.659231
647.430544	2424.795000
647.774101	2510.494615
648.117606	2518.056346
648.461059	2505.453462
648.804460	2470.165385
649.147810	2583.591346
649.491108	2470.165385
649.834354	2548.303269
650.177548	2447.480192
650.520690	2515.535769
650.863781	2525.618077
651.206820	2450.000769
651.549807	2452.521346
651.892742	2492.850577
652.235626	2482.768269
652.578458	2482.768269
652.921238	2500.412308
653.263967	2500.412308
653.606644	2450.000769
653.949269	2550.823846
654.291843	2565.947308
654.634365	2545.782692
654.976836	2535.700385
655.319255	2495.371154
655.661622	2460.083077
656.003938	2467.644808
656.346203	2437.397885
656.688416	2533.179808
657.030577	2533.179808
657.372687	2510.494615
657.714746	2492.850577
658.056753	2462.603654
658.398708	2525.618077
658.740612	2520.576923
659.082465	2520.576923
659.424266	2470.165385
659.766016	2475.206538
660.107715	2467.644808
660.449362	2444.959615
660.790958	2465.124231
661.132503	2555.865000
661.473996	2447.480192
661.815438	2492.850577
662.156829	2502.932885
662.498168	2492.850577
662.839456	2528.138654
663.180693	2452.521346
663.521879	2515.535769
663.863013	2434.877308
664.204097	2485.288846
664.545129	2523.097500
664.886110	2429.836154
665.227040	2548.303269
665.567918	2507.974038
665.908746	2543.262115
666.249522	2434.877308
666.590248	2525.618077
666.930922	2523.097500
667.271545	2523.097500
667.612118	2510.494615
667.952639	2634.002885
668.293109	2548.303269
668.633528	2404.630385
668.973896	2475.206538
669.314213	2460.083077
669.654480	2560.906154
669.994695	2472.685962
670.334859	2513.015192
670.674973	2558.385577
671.015035	2490.330000
671.355047	2596.194231
671.695008	2409.671538
672.034918	2450.000769
672.374777	2563.426731
672.714585	2465.124231
673.054342	2543.262115
673.394049	2495.371154
673.733705	2495.371154
674.073310	2545.782692
674.412864	2528.138654
674.752368	2439.918462
675.091820	2452.521346
675.431223	2457.562500
675.770574	2412.192115
676.109875	2543.262115
676.449125	2550.823846
676.788324	2520.576923
677.127473	2533.179808
677.466571	2520.576923
677.805619	2495.371154
678.144616	2540.741538
678.483562	2465.124231
678.822458	2450.000769
679.161303	2520.576923
679.500098	2457.562500
679.838842	2439.918462
680.177535	2492.850577
680.516179	2666.770385
680.854771	2530.659231
681.193314	2477.727115
681.531805	2581.070769
681.870247	2545.782692
682.208638	2533.179808
682.546978	2460.083077
682.885268	2497.891731
683.223508	2505.453462
683.561697	2649.126346
683.899836	2470.165385
684.237925	2434.877308
684.575963	2568.467885
684.913951	2467.644808
685.251889	2513.015192
685.589776	2555.865000
685.927614	2523.097500
686.265401	2523.097500
686.603137	2417.233269
686.940824	2434.877308
687.278460	2437.397885
687.616046	2475.206538
687.953582	2495.371154
688.291068	2538.220962
688.628504	2452.521346
688.965889	2492.850577
689.303224	2492.850577
689.640510	2523.097500
689.977745	2528.138654
690.314930	2555.865000
690.652065	2429.836154
690.989150	2470.165385
691.326185	2570.988462
691.663170	2588.632500
692.000105	2507.974038
692.336990	2560.906154
692.673825	2510.494615
693.010610	2535.700385
693.347345	2462.603654
693.684030	2457.562500
694.020665	2525.618077
694.357251	2540.741538
694.693786	2523.097500
695.030272	2485.288846
695.366707	2528.138654
695.703093	2538.220962
696.039429	2510.494615
696.375716	2560.906154
696.711952	2462.603654
697.048139	2558.385577
697.384276	2462.603654
697.720363	2510.494615
698.056400	2596.194231
698.392388	2500.412308
698.728326	2533.179808
699.064214	2450.000769
699.400053	2520.576923
699.735842	2528.138654
700.071581	2439.918462
700.407270	2565.947308
700.742910	2525.618077
701.078501	2510.494615
701.414042	2467.644808
701.749533	2465.124231
702.084974	2513.015192
702.420366	2417.233269
702.755709	2419.753846
703.091002	2432.356731
703.426246	2553.344423
703.761440	2450.000769
704.096584	2563.426731
704.431679	2480.247692
704.766725	2434.877308
705.101721	2565.947308
705.436668	2545.782692
705.771565	2485.288846
706.106413	2495.371154
706.441212	2442.439038
706.775961	2497.891731
707.110661	2533.179808
707.445311	2548.303269
707.779913	2462.603654
708.114465	2515.535769
708.448967	2447.480192
708.783421	2555.865000
709.117825	2487.809423
709.452180	2576.029615
709.786485	2477.727115
710.120742	2472.685962
710.454949	2467.644808
710.789107	2513.015192
711.123216	2447.480192
711.457275	2538.220962
711.791286	2465.124231
712.125247	2513.015192
712.459159	2460.083077
712.793023	2523.097500
713.126837	2548.303269
713.460602	2487.809423
713.794318	2550.823846
714.127985	2434.877308
714.461602	2550.823846
714.795171	2452.521346
715.128691	2523.097500
715.462162	2500.412308
715.795584	2487.809423
716.128957	2470.165385
716.462281	2565.947308
716.795556	2455.041923
717.128782	2414.712692
717.461960	2553.344423
717.795088	2576.029615
718.128167	2492.850577
718.461198	2472.685962
718.794180	2518.056346
719.127113	2490.330000
719.459997	2513.015192
719.792833	2500.412308
720.125619	2560.906154
720.458357	2452.521346
720.791046	2530.659231
721.123686	2495.371154
721.456278	2444.959615
721.788821	2470.165385
722.121315	2596.194231
722.453761	2520.576923
722.786158	2507.974038
723.118506	2502.932885
723.450805	2455.041923
723.783056	2553.344423
724.115259	2495.371154
724.447412	2523.097500
724.779518	2439.918462
725.111574	2538.220962
725.443582	2591.153077
725.775542	2477.727115
726.107453	2475.206538
726.439315	2586.111923
726.771129	2477.727115
727.102895	2540.741538
727.434612	2477.727115
727.766281	2598.714808
728.097901	2548.303269
728.429473	2432.356731
728.760996	2470.165385
729.092471	2477.727115
729.423897	2447.480192
729.755276	2573.509038
730.086606	2490.330000
730.417887	2581.070769
730.749120	2553.344423
731.080305	2442.439038
731.411442	2581.070769
731.742530	2540.741538
732.073570	2434.877308
732.404562	2525.618077
732.735506	2465.124231
733.066401	2510.494615
733.397249	2515.535769
733.728048	2573.509038
734.058798	2457.562500
734.389501	2462.603654
734.720156	2505.453462
735.050762	2427.315577
735.381320	2570.988462
735.711831	2513.015192
736.042293	2570.988462
736.372707	2447.480192
736.703073	2513.015192
737.033391	2475.206538
737.363661	2570.988462
737.693883	2470.165385
738.024056	2437.397885
738.354182	2535.700385
738.684260	2437.397885
739.014290	2434.877308
739.344272	2460.083077
739.674207	2492.850577
740.004093	2482.768269
740.333931	2573.509038
740.663722	2528.138654
740.993464	2470.165385
741.323159	2409.671538
741.652806	2560.906154
741.982405	2581.070769
742.311956	2477.727115
742.641460	2565.947308
742.970915	2429.836154
743.300323	2439.918462
743.629683	2419.753846
743.958996	2477.727115
744.288260	2402.109808
744.617477	2460.083077
744.946647	2475.206538
745.275768	2434.877308
745.604842	2513.015192
745.933869	2510.494615
746.262847	2505.453462
746.591778	2513.015192
746.920662	2502.932885
747.249498	2500.412308
747.578286	2475.206538
747.907027	2402.109808
748.235720	2565.947308
748.564365	2505.453462
748.892963	2540.741538
749.221514	2467.644808
749.550017	2520.576923
749.878473	2492.850577
750.206881	2507.974038
750.535242	2520.576923
750.863555	2553.344423
751.191821	2450.000769
751.520039	2565.947308
751.848210	2487.809423
752.176334	2485.288846
752.504411	2439.918462
752.832440	2545.782692
753.160421	2492.850577
753.488356	2497.891731
753.816243	2457.562500
754.144082	2555.865000
754.471875	2563.426731
754.799620	2530.659231
755.127318	2487.809423
755.454969	2462.603654
755.782572	2447.480192
756.110129	2515.535769
756.437638	2475.206538
756.765100	2452.521346
757.092515	2485.288846
757.419882	2507.974038
757.747203	2497.891731
758.074477	2497.891731
758.401703	2429.836154
758.728882	2452.521346
759.056014	2462.603654
759.383099	2472.685962
759.710138	2533.179808
760.037129	2465.124231
760.364073	2409.671538
760.690970	2510.494615
761.017820	2424.795000
761.344623	2550.823846
761.671379	2563.426731
761.998088	2540.741538
762.324751	2495.371154
762.651366	2467.644808
762.977935	2510.494615
763.304456	2596.194231
763.630931	2510.494615
763.957359	2422.274423
764.283740	2518.056346
764.610074	2485.288846
764.936362	2563.426731
765.262602	2515.535769
765.588796	2500.412308
765.914943	2462.603654
766.241044	2523.097500
766.567097	2505.453462
766.893104	2528.138654
767.219064	2460.083077
767.544978	2505.453462
767.870845	2495.371154
768.196665	2538.220962
768.522438	2518.056346
768.848165	2495.371154
769.173846	2543.262115
769.499479	2462.603654
769.825066	2533.179808
770.150607	2457.562500
770.476101	2538.220962
770.801548	2460.083077
771.126949	2515.535769
771.452303	2455.041923
771.777611	2593.673654
772.102872	2477.727115
772.428087	2475.206538
772.753256	2523.097500
773.078378	2528.138654
773.403453	2500.412308
773.728482	2543.262115
774.053465	2452.521346
774.378401	2485.288846
774.703291	2447.480192
775.028135	2424.795000
775.352932	2409.671538
775.677683	2505.453462
776.002388	2487.809423
776.327046	2432.356731
776.651658	2432.356731
776.976224	2490.330000
777.300743	2523.097500
777.625216	2513.015192
777.949643	2404.630385
778.274024	2475.206538
778.598359	2404.630385
778.922647	2485.288846
779.246889	2525.618077
779.571086	2487.809423
779.895236	2447.480192
780.219339	2487.809423
780.543397	2533.179808
780.867409	2487.809423
781.191374	2472.685962
781.515294	2533.179808
781.839167	2422.274423
782.162995	2480.247692
782.486776	2432.356731
782.810511	2505.453462
783.134201	2576.029615
783.457844	2444.959615
783.781441	2450.000769
784.104993	2530.659231
784.428498	2477.727115
784.751958	2447.480192
785.075372	2452.521346
785.398739	2591.153077
785.722061	2500.412308
786.045337	2487.809423
786.368568	2507.974038
786.691752	2414.712692
787.014891	2455.041923
787.337983	2515.535769
787.661030	2523.097500
787.984031	2467.644808
788.306987	2523.097500
788.629897	2477.727115
788.952760	2502.932885
789.275579	2465.124231
789.598351	2518.056346
789.921078	2560.906154
790.243759	2513.015192
790.566395	2510.494615
790.888984	2482.768269
791.211529	2523.097500
791.534027	2495.371154
791.856480	2439.918462
792.178888	2495.371154
792.501249	2450.000769
792.823566	2419.753846
793.145836	2482.768269
793.468062	2399.589231
793.790241	2492.850577
794.112375	2505.453462
794.434464	2485.288846
794.756507	2460.083077
795.078505	2424.795000
795.400457	2450.000769
795.722364	2482.768269
796.044226	2492.850577
796.366042	2490.330000
796.687812	2467.644808
797.009538	2424.795000
797.331218	2500.412308
797.652852	2490.330000
797.974442	2485.288846
798.295986	2477.727115
798.617484	2422.274423
798.938938	2505.453462
799.260346	2399.589231
799.581709	2502.932885
799.903026	2538.220962
800.224299	2460.083077
800.545526	2528.138654
800.866708	2545.782692
801.187845	2520.576923
801.508936	2381.945192
801.829983	2434.877308
802.150984	2477.727115
802.471940	2412.192115
802.792851	2434.877308
803.113717	2510.494615
803.434538	2487.809423
803.755314	2432.356731
804.076045	2510.494615
804.396731	2548.303269
804.717372	2460.083077
805.037967	2497.891731
805.358518	2490.330000
805.679024	2565.947308
805.999485	2538.220962
806.319901	2510.494615
806.640272	2447.480192
806.960598	2475.206538
807.280879	2548.303269
807.601115	2452.521346
807.921306	2495.371154
808.241453	2507.974038
808.561554	2523.097500
808.881611	2437.397885
809.201623	2500.412308
809.521590	2528.138654
809.841513	2457.562500
810.161390	2500.412308
810.481223	2472.685962
810.801011	2450.000769
811.120755	2507.974038
811.440453	2477.727115
811.760107	2485.288846
812.079716	2470.165385
812.399281	2450.000769
812.718801	2472.685962
813.038276	2538.220962
813.357707	2427.315577
813.677093	2525.618077
813.996434	2495.371154
814.315731	2450.000769
814.634983	2452.521346
814.954191	2477.727115
815.273354	2518.056346
815.592473	2467.644808
815.911547	2444.959615
816.230577	2540.741538
816.549562	2502.932885
816.868502	2427.315577
817.187399	2477.727115
817.506250	2523.097500
817.825058	2470.165385
818.143821	2530.659231
818.462539	2523.097500
818.781213	2523.097500
819.099843	2429.836154
819.418429	2570.988462
819.736970	2540.741538
820.055466	2450.000769
820.373919	2500.412308
820.692327	2480.247692
821.010691	2495.371154
821.329011	2540.741538
821.647286	2540.741538
821.965517	2505.453462
822.283704	2470.165385
822.601847	2563.426731
822.919945	2525.618077
823.237999	2510.494615
823.556010	2462.603654
823.873976	2455.041923
824.191897	2490.330000
824.509775	2417.233269
824.827609	2510.494615
825.145398	2530.659231
825.463144	2487.809423
825.780845	2475.206538
826.098502	2407.150962
826.416116	2444.959615
826.733685	2404.630385
827.051210	2518.056346
827.368692	2457.562500
827.686129	2507.974038
828.003522	2543.262115
828.320872	2457.562500
828.638177	2467.644808
828.955439	2487.809423
829.272656	2618.879423
829.589830	2414.712692
829.906960	2467.644808
830.224046	2447.480192
830.541088	2457.562500
830.858086	2477.727115
831.175041	2407.150962
831.491952	2513.015192
831.808819	2472.685962
832.125642	2467.644808
832.442421	2538.220962
832.759157	2523.097500
833.075849	2450.000769
833.392497	2505.453462
833.709101	2487.809423
834.025662	2497.891731
834.342179	2444.959615
834.658653	2485.288846
834.975083	2533.179808
835.291469	2497.891731
835.607811	2558.385577
835.924110	2502.932885
836.240366	2467.644808
836.556578	2505.453462
836.872746	2477.727115
837.188871	2437.397885
837.504952	2475.206538
837.820990	2447.480192
838.136984	2437.397885
838.452935	2442.439038
838.768842	2452.521346
839.084706	2518.056346
839.400526	2492.850577
839.716303	2507.974038
840.032037	2480.247692
840.347727	2495.371154
840.663373	2412.192115
840.978977	2470.165385
841.294537	2417.233269
841.610054	2475.206538
841.925527	2513.015192
842.240957	2525.618077
842.556344	2505.453462
842.871687	2497.891731
843.186987	2497.891731
843.502244	2505.453462
843.817458	2502.932885
844.132629	2497.891731
844.447756	2457.562500
844.762840	2507.974038
845.077881	2497.891731
845.392879	2530.659231
845.707833	2412.192115
846.022745	2427.315577
846.337613	2538.220962
846.652438	2462.603654
846.967221	2450.000769
847.281960	2510.494615
847.596656	2452.521346
847.911309	2497.891731
848.225919	2475.206538
848.540485	2490.330000
848.855009	2535.700385
849.169490	2485.288846
849.483928	2568.467885
849.798323	2452.521346
850.112675	2495.371154
850.426984	2568.467885
850.741251	2513.015192
851.055474	2467.644808
851.369654	2485.288846
851.683792	2513.015192
851.997887	2497.891731
852.311938	2460.083077
852.625947	2422.274423
852.939914	2528.138654
853.253837	2379.424615
853.567718	2437.397885
853.881555	2510.494615
854.195350	2500.412308
854.509103	2507.974038
854.822812	2550.823846
855.136479	2452.521346
855.450103	2505.453462
855.763685	2586.111923
856.077224	2598.714808
856.390720	2540.741538
856.704173	2581.070769
857.017584	2407.150962
857.330953	2558.385577
857.644278	2518.056346
857.957561	2434.877308
858.270802	2455.041923
858.584000	2447.480192
858.897155	2457.562500
859.210268	2502.932885
859.523339	2447.480192
859.836367	2457.562500
860.149352	2397.068654
860.462295	2482.768269
860.775195	2470.165385
861.088054	2487.809423
861.400869	2548.303269
861.713642	2477.727115
862.026373	2485.288846
862.339062	2485.288846
862.651708	2452.521346
862.964312	2563.426731
863.276873	2492.850577
863.589392	2543.262115
863.901869	2477.727115
864.214303	2450.000769
864.526696	2450.000769
864.839045	2495.371154
865.151353	2525.618077
865.463619	2528.138654
865.775842	2455.041923
866.088023	2540.741538
866.400162	2528.138654
866.712258	2467.644808
867.024313	2513.015192
867.336325	2502.932885
867.648296	2429.836154
867.960224	2487.809423
868.272110	2472.685962
868.583954	2530.659231
868.895755	2475.206538
869.207515	2525.618077
869.519233	2422.274423
869.830909	2490.330000
870.142542	2560.906154
870.454134	2487.809423
870.765684	2502.932885
871.077191	2444.959615
871.388657	2455.041923
871.700081	2455.041923
872.011463	2482.768269
872.322803	2510.494615
872.634101	2427.315577
872.945357	2492.850577
873.256571	2558.385577
873.567744	2535.700385
873.878874	2485.288846
874.189963	2513.015192
874.501010	2520.576923
874.812015	2563.426731
875.122979	2568.467885
875.433900	2437.397885
875.744780	2444.959615
876.055618	2510.494615
876.366415	2485.288846
876.677169	2432.356731
876.987882	2442.439038
877.298554	2472.685962
877.609183	2424.795000
877.919771	2492.850577
878.230317	2505.453462
878.540822	2450.000769
878.851285	2500.412308
879.161707	2492.850577
879.472087	2525.618077
879.782425	2487.809423
880.092722	2470.165385
880.402977	2475.206538
880.713191	2460.083077
881.023363	2462.603654
881.333494	2523.097500
881.643583	2460.083077
881.953631	2371.862885
882.263637	2439.918462
882.573602	2359.260000
882.883526	2460.083077
883.193408	2475.206538
883.503248	2470.165385
883.813048	2505.453462
884.122806	2439.918462
884.432522	2470.165385
884.742197	2447.480192
885.051831	2470.165385
885.361424	2543.262115
885.670975	2485.288846
885.980485	2550.823846
886.289954	2523.097500
886.599382	2510.494615
886.908768	2434.877308
887.218113	2507.974038
887.527417	2510.494615
887.836680	2475.206538
888.145901	2490.330000
888.455082	2497.891731
888.764221	2427.315577
889.073319	2495.371154
889.382376	2568.467885
889.691392	2475.206538
890.000366	2533.179808
890.309300	2457.562500
890.618193	2482.768269
890.927044	2492.850577
891.235855	2467.644808
891.544625	2535.700385
891.853353	2467.644808
892.162041	2555.865000
892.470687	2485.288846
892.779293	2528.138654
893.087858	2528.138654
893.396381	2502.932885
893.704864	2482.768269
894.013306	2502.932885
894.321707	2528.138654
894.630068	2447.480192
894.938387	2591.153077
895.246665	2480.247692
895.554903	2495.371154
895.863100	2543.262115
896.171256	2497.891731
896.479371	2535.700385
896.787446	2540.741538
897.095480	2437.397885
897.403473	2500.412308
897.711425	2467.644808
898.019336	2477.727115
898.327207	2429.836154
898.635038	2432.356731
898.942827	2485.288846
899.250576	2457.562500
899.558284	2558.385577
899.865952	2414.712692
900.173579	2429.836154
900.481165	2523.097500
900.788711	2533.179808
901.096216	2432.356731
901.403681	2462.603654
901.711105	2525.618077
902.018489	2520.576923
902.325832	2495.371154
902.633135	2455.041923
902.940397	2570.988462
903.247619	2427.315577
903.554800	2576.029615
903.861941	2518.056346
904.169041	2513.015192
904.476101	2500.412308
904.783121	2538.220962
905.090100	2507.974038
905.397039	2482.768269
905.703938	2515.535769
906.010796	2560.906154
906.317614	2432.356731
906.624391	2386.986346
906.931129	2439.918462
907.237826	2543.262115
907.544483	2480.247692
907.851099	2414.712692
908.157675	2518.056346
908.464211	2450.000769
908.770707	2505.453462
909.077163	2419.753846
909.383578	2497.891731
909.689954	2518.056346
909.996289	2384.465769
910.302584	2477.727115
910.608839	2560.906154
910.915054	2462.603654
911.221229	2482.768269
911.527363	2497.891731
911.833458	2462.603654
912.139513	2515.535769
912.445527	2465.124231
912.751502	2490.330000
913.057436	2477.727115
913.363331	2444.959615
913.669186	2427.315577
913.975000	2417.233269
914.280775	2460.083077
914.586510	2422.274423
914.892205	2452.521346
915.197859	2497.891731
915.503475	2518.056346
915.809050	2439.918462
916.114585	2500.412308
916.420081	2505.453462
916.725536	2593.673654
917.030952	2528.138654
917.336328	2379.424615
917.641665	2419.753846
917.946961	2492.850577
918.252218	2510.494615
918.557435	2487.809423
918.862612	2439.918462
919.167750	2525.618077
919.472848	2535.700385
919.777906	2495.371154
920.082925	2427.315577
920.387904	2480.247692
920.692843	2427.315577
920.997743	2482.768269
921.302603	2442.439038
921.607423	2533.179808
921.912204	2601.235385
922.216946	2482.768269
922.521647	2535.700385
922.826310	2510.494615
923.130932	2444.959615
923.435516	2515.535769
923.740059	2540.741538
924.044564	2381.945192
924.349028	2565.947308
924.653454	2502.932885
924.957840	2447.480192
925.262186	2530.659231
925.566493	2676.852692
925.870761	2533.179808
926.174989	2525.618077
926.479178	2452.521346
926.783328	2525.618077
927.087438	2371.862885
927.391509	2444.959615
927.695541	2533.179808
927.999533	2535.700385
928.303486	2482.768269
928.607400	2424.795000
928.911275	2518.056346
929.215110	2520.576923
929.518906	2538.220962
929.822663	2419.753846
930.126381	2548.303269
930.430060	2447.480192
930.733699	2470.165385
931.037299	2497.891731
931.340861	2525.618077
931.644383	2422.274423
931.947866	2502.932885
932.251309	2510.494615
932.554714	2462.603654
932.858080	2432.356731
933.161407	2550.823846
933.464694	2379.424615
933.767943	2540.741538
934.071153	2470.165385
934.374323	2500.412308
934.677455	2520.576923
934.980548	2439.918462
935.283602	2520.576923
935.586617	2525.618077
935.889593	2505.453462
936.192530	2515.535769
936.495428	2500.412308
936.798287	2419.753846
937.101108	2487.809423
937.403890	2487.809423
937.706632	2457.562500
938.009336	2475.206538
938.312002	2414.712692
938.614628	2452.521346
938.917216	2523.097500
939.219765	2507.974038
939.522275	2427.315577
939.824747	2507.974038
940.127179	2465.124231
940.429573	2505.453462
940.731929	2558.385577
941.034246	2568.467885
941.336524	2497.891731
941.638763	2497.891731
941.940964	2487.809423
942.243126	2543.262115
942.545250	2513.015192
942.847335	2492.850577
943.149381	2452.521346
943.451389	2452.521346
943.753359	2455.041923
944.055290	2490.330000
944.357182	2510.494615
944.659036	2455.041923
944.960851	2424.795000
945.262628	2523.097500
945.564367	2470.165385
945.866067	2465.124231
946.167729	2452.521346
946.469352	2513.015192
946.770937	2485.288846
947.072484	2394.548077
947.373992	2497.891731
947.675462	2455.041923
947.976893	2525.618077
948.278286	2467.644808
948.579641	2477.727115
948.880958	2412.192115
949.182236	2553.344423
949.483476	2492.850577
949.784678	2487.809423
950.085841	2467.644808
950.386967	2470.165385
950.688054	2515.535769
950.989103	2535.700385
951.290114	2568.467885
951.591087	2492.850577
951.892021	2545.782692
952.192917	2462.603654
952.493776	2487.809423
952.794596	2548.303269
953.095378	2404.630385
953.396122	2518.056346
953.696828	2510.494615
953.997496	2502.932885
954.298126	2497.891731
954.598718	2497.891731
954.899272	2427.315577
955.199788	2525.618077
955.500266	2389.506923
955.800706	2553.344423
956.101108	2452.521346
956.401472	2422.274423
956.701798	2553.344423
957.002087	2424.795000
957.302337	2565.947308
957.602550	2404.630385
957.902724	2550.823846
958.202861	2450.000769
958.502960	2568.467885
958.803022	2523.097500
959.103045	2513.015192
959.403031	2495.371154
959.702979	2399.589231
960.002889	2497.891731
960.302762	2470.165385
960.602596	2490.330000
960.902393	2497.891731
961.202153	2540.741538
961.501875	2502.932885
961.801559	2505.453462
962.101205	2399.589231
962.400814	2442.439038
962.700385	2439.918462
962.999918	2505.453462
963.299414	2487.809423
963.598873	2480.247692
963.898293	2460.083077
964.197677	2520.576923
964.497022	2462.603654
964.796331	2432.356731
965.095601	2525.618077
965.394835	2545.782692
965.694030	2475.206538
965.993189	2495.371154
966.292309	2525.618077
966.591393	2492.850577
966.890439	2452.521346
967.189447	2447.480192
967.488419	2407.150962
967.787353	2487.809423
968.086249	2455.041923
968.385108	2495.371154
968.683930	2518.056346
968.982714	2487.809423
969.281462	2472.685962
969.580172	2472.685962
969.878844	2482.768269
970.177480	2507.974038
970.476078	2523.097500
970.774639	2480.247692
971.073162	2444.959615
971.371649	2576.029615
971.670098	2402.109808
971.968510	2510.494615
972.266885	2470.165385
972.565223	2467.644808
972.863524	2558.385577
973.161788	2490.330000
973.460014	2480.247692
973.758204	2565.947308
974.056356	2422.274423
974.354471	2523.097500
974.652550	2515.535769
974.950591	2465.124231
975.248595	2437.397885
975.546563	2535.700385
975.844493	2470.165385
976.142386	2482.768269
976.440243	2462.603654
976.738062	2492.850577
977.035845	2457.562500
977.333590	2455.041923
977.631299	2455.041923
977.928971	2419.753846
978.226606	2586.111923
978.524204	2553.344423
978.821765	2502.932885
979.119290	2472.685962
979.416777	2490.330000
979.714228	2497.891731
980.011642	2520.576923
980.309020	2465.124231
980.606360	2525.618077
980.903664	2535.700385
981.200931	2477.727115
981.498162	2470.165385
981.795356	2482.768269
982.092513	2477.727115
982.389633	2472.685962
982.686717	2462.603654
982.983764	2439.918462
983.280775	2545.782692
983.577749	2492.850577
983.874686	2460.083077
984.171587	2490.330000
984.468451	2490.330000
984.765279	2477.727115
985.062070	2510.494615
985.358824	2414.712692
985.655543	2550.823846
985.952224	2465.124231
986.248869	2432.356731
986.545478	2475.206538
986.842050	2502.932885
987.138586	2565.947308
987.435086	2462.603654
987.731549	2414.712692
988.027975	2432.356731
988.324366	2429.836154
988.620719	2497.891731
988.917037	2545.782692
989.213318	2477.727115
989.509563	2591.153077
989.805772	2450.000769
990.101944	2518.056346
990.398080	2457.562500
990.694180	2533.179808
990.990244	2495.371154
991.286271	2530.659231
991.582262	2457.562500
991.878217	2472.685962
992.174136	2490.330000
992.470019	2513.015192
992.765865	2439.918462
993.061676	2553.344423
993.357450	2601.235385
993.653188	2480.247692
993.948890	2510.494615
994.244556	2439.918462
994.540186	2500.412308
994.835780	2495.371154
995.131337	2404.630385
995.426859	2500.412308
995.722345	2480.247692
996.017795	2460.083077
996.313208	2533.179808
996.608586	2447.480192
996.903928	2500.412308
997.199234	2545.782692
997.494504	2455.041923
997.789738	2490.330000
998.084936	2462.603654
998.380099	2429.836154
998.675225	2538.220962
998.970316	2492.850577
999.265371	2565.947308
999.560390	2545.782692
999.855373	2465.124231
1000.150320	2386.986346
1000.445232	2434.877308
1000.740108	2507.974038
1001.034948	2447.480192
1001.329752	2523.097500
1001.624521	2502.932885
1001.919254	2578.550192
1002.213951	2492.850577
1002.508613	2482.768269
1002.803239	2545.782692
1003.097829	2500.412308
1003.392384	2538.220962
1003.686903	2581.070769
1003.981386	2475.206538
1004.275834	2548.303269
1004.570246	2500.412308
1004.864623	2452.521346
1005.158964	2510.494615
1005.453270	2487.809423
1005.747540	2472.685962
1006.041775	2444.959615
1006.335974	2470.165385
1006.630138	2535.700385
1006.924266	2437.397885
1007.218359	2525.618077
1007.512416	2407.150962
1007.806438	2500.412308
1008.100425	2502.932885
1008.394376	2366.821731
1008.688292	2497.891731
1008.982172	2457.562500
1009.276017	2485.288846
1009.569827	2485.288846
1009.863602	2533.179808
1010.157341	2492.850577
1010.451045	2432.356731
1010.744714	2538.220962
1011.038347	2487.809423
1011.331945	2450.000769
1011.625508	2369.342308
1011.919036	2510.494615
1012.212528	2477.727115
1012.505986	2492.850577
1012.799408	2510.494615
1013.092795	2470.165385
1013.386147	2455.041923
1013.679464	2452.521346
1013.972745	2485.288846
1014.265992	2490.330000
1014.559204	2429.836154
1014.852380	2437.397885
1015.145521	2550.823846
1015.438628	2603.755962
1015.731699	2465.124231
1016.024736	2444.959615
1016.317737	2502.932885
1016.610703	2470.165385
1016.903635	2439.918462
1017.196531	2432.356731
1017.489393	2553.344423
1017.782219	2394.548077
1018.075011	2500.412308
1018.367768	2480.247692
1018.660490	2480.247692
1018.953177	2480.247692
1019.245829	2480.247692
