Dividing Wavelength (nm)	Counts (n)	Blue Motor Position (mm): 25.300000	Red Motor Position (mm): 0.000000	
326.493990	2132.093005
326.888308	2132.093005
327.282561	2132.093005
327.676750	2098.428179
328.070874	2099.786770
328.464933	2101.616709
328.858929	2106.486464
329.252859	2115.920983
329.646726	2129.978241
330.040528	2139.874026
330.434265	2158.818682
330.827938	2175.139418
331.221547	2193.738755
331.615091	2211.866744
332.008571	2233.445403
332.401986	2250.950810
332.795338	2272.179108
333.188625	2286.798455
333.581847	2306.600107
333.975006	2325.922850
334.368100	2344.060921
334.761129	2360.159846
335.154095	2380.929400
335.546996	2397.991185
335.939833	2422.821388
336.332606	2438.209510
336.725315	2451.092179
337.117960	2459.856225
337.510540	2466.931484
337.903056	2479.126036
338.295508	2484.739360
338.687896	2494.998108
339.080220	2504.760303
339.472480	2509.045284
339.864676	2515.162724
340.256807	2519.019207
340.648875	2522.628673
341.040879	2524.685463
341.432818	2525.330731
341.824694	2527.551359
342.216506	2529.640918
342.608253	2526.812830
342.999937	2529.661082
343.391557	2528.887265
343.783113	2524.566996
344.174605	2526.147398
344.566033	2522.845442
344.957397	2523.271420
345.348697	2519.989629
345.739934	2519.162879
346.131106	2517.635410
346.522215	2517.542148
346.913260	2513.378155
347.304241	2512.548886
347.695159	2513.131139
348.086012	2506.938081
348.476802	2505.176198
348.867528	2506.660818
349.258191	2505.486229
349.648789	2504.500683
350.039324	2503.245436
350.429796	2499.845178
350.820203	2497.150681
351.210548	2498.809221
351.600828	2493.478201
351.991045	2494.264621
352.381198	2496.064313
352.771288	2495.204796
353.161314	2493.594147
353.551276	2495.376195
353.941175	2494.914929
354.331010	2495.575321
354.720782	2492.810248
355.110490	2495.177069
355.500135	2494.824189
355.889717	2495.628253
356.279235	2496.258397
356.668689	2497.012049
357.058080	2493.347131
357.447408	2493.568941
357.836672	2492.749754
358.225873	2492.931235
358.615010	2494.264621
359.004084	2497.639673
359.393095	2497.211175
359.782043	2495.265290
360.170927	2498.461381
360.559748	2500.813079
360.948505	2497.914416
361.337199	2501.599499
361.725830	2501.349962
362.114398	2502.138903
362.502903	2504.896414
362.891344	2501.576814
363.279722	2504.046980
363.668037	2504.803153
364.056289	2504.425066
364.444478	2503.936074
364.832603	2505.995386
365.220665	2506.391116
365.608665	2503.520179
365.996601	2508.899090
366.384474	2508.450428
366.772284	2506.670900
367.160031	2507.918586
367.547715	2508.765500
367.935336	2508.241220
368.322893	2506.403719
368.710388	2507.711898
369.097820	2509.161230
369.485189	2507.784995
369.872495	2510.361025
370.259738	2507.270798
370.646918	2510.378669
371.034035	2507.716940
371.421090	2510.514780
371.808081	2509.045284
372.195010	2507.573267
372.581875	2509.037722
372.968678	2510.005623
373.355418	2510.174502
373.742096	2512.460665
374.128710	2511.091992
374.515262	2510.469410
374.901751	2513.390758
375.288177	2510.827332
375.674540	2513.209277
376.060841	2511.122239
376.447079	2511.575943
376.833254	2514.010820
377.219367	2508.846158
377.605417	2512.558968
377.991404	2513.226921
378.377329	2512.427898
378.763191	2508.412619
379.148991	2516.420492
379.534727	2513.466376
379.920402	2516.133146
380.306013	2514.893022
380.691563	2515.770183
381.077049	2515.833197
381.462474	2515.901253
381.847835	2515.424864
382.233134	2513.267250
382.618371	2516.259175
383.003545	2518.159690
383.388657	2514.918228
383.773706	2518.079031
384.158693	2512.241375
384.543618	2518.263033
384.928480	2517.630369
385.313280	2518.888137
385.698017	2516.954854
386.082692	2517.799247
386.467305	2519.349402
386.851856	2518.134484
387.236344	2522.086749
387.620770	2519.626666
388.005133	2518.041223
388.389435	2523.589013
388.773674	2516.821263
389.157851	2518.847807
389.541965	2520.276974
389.926018	2519.377128
390.310008	2520.977695
390.693936	2524.559435
391.077802	2522.558097
391.461606	2520.629855
391.845348	2521.018024
392.229027	2520.960051
392.612645	2520.682787
392.996200	2522.853004
393.379694	2523.641945
393.763125	2521.421316
394.146494	2524.622449
394.529801	2526.200330
394.913047	2524.572038
395.296230	2525.461801
395.679351	2522.464835
396.062410	2527.493386
396.445408	2522.873169
396.828343	2526.182686
397.211217	2521.905267
397.594028	2519.699762
397.976778	2521.701100
398.359466	2523.878879
398.742092	2521.320493
399.124656	2524.178827
399.507158	2526.424662
399.889598	2524.720752
400.271977	2529.033459
400.654294	2525.214785
401.036549	2527.576565
401.418742	2527.145547
401.800874	2527.402645
402.182944	2524.309898
402.564952	2527.261493
402.946898	2530.873480
403.328783	2527.775691
403.710606	2527.672347
404.092367	2524.977850
404.474067	2531.054961
404.855705	2530.878521
405.237282	2529.023376
405.618797	2529.280475
406.000250	2529.593027
406.381642	2529.787111
406.762972	2529.164529
407.144240	2532.481608
407.525447	2532.426155
407.906593	2529.091432
408.287677	2531.629653
408.668700	2530.245856
409.049661	2532.353058
409.430560	2529.809796
409.811399	2531.876669
410.192176	2530.250897
410.572891	2533.315919
410.953545	2531.889272
411.334138	2533.167205
411.714669	2533.086546
412.095139	2533.298275
412.475547	2532.295085
412.855894	2532.703419
413.236180	2532.705939
413.616405	2533.368851
413.996568	2533.623429
414.376670	2533.517565
414.756711	2532.844571
415.136691	2533.567977
415.516609	2532.736186
415.896466	2534.447658
416.276262	2535.506300
416.655997	2532.403470
417.035670	2530.681916
417.415283	2533.018491
417.794834	2528.970444
418.174324	2532.632843
418.553753	2534.092257
418.933121	2536.837165
419.312428	2535.763399
419.691674	2535.687782
420.070859	2536.151568
420.449983	2533.978831
420.829045	2539.294727
421.208047	2538.089892
421.586988	2536.726259
421.965867	2538.674665
422.344686	2539.776158
422.723444	2536.209541
423.102141	2538.079809
423.480777	2538.099974
423.859352	2537.505118
424.237866	2540.872608
424.616319	2536.993441
424.994712	2539.370345
425.373044	2539.188863
425.751314	2538.505787
426.129524	2538.583925
426.507673	2538.467978
426.885762	2539.511497
427.263789	2540.542413
427.641756	2541.507794
428.019662	2541.112063
428.397508	2541.679193
428.775292	2538.432690
429.153016	2541.510314
429.530679	2538.606610
429.908282	2540.605427
430.285824	2539.788760
430.663305	2539.307330
431.040726	2544.398896
431.418086	2540.444110
431.795385	2542.720191
432.172624	2543.075593
432.549802	2542.858823
432.926920	2541.787578
433.303977	2541.558205
433.680974	2540.907897
434.057910	2542.626930
434.434786	2542.163144
434.811601	2544.038453
435.188355	2544.182126
435.565050	2542.185829
435.941683	2545.041643
436.318257	2542.392516
436.694770	2540.633154
437.071222	2545.026519
437.447614	2540.847403
437.823946	2542.009389
438.200218	2545.318906
438.576429	2547.075748
438.952580	2547.305121
439.328670	2547.665563
439.704700	2547.234545
440.080670	2549.019113
440.456580	2544.711447
440.832429	2548.202446
441.208218	2546.700182
441.583947	2546.916952
441.959616	2548.323434
442.335224	2547.065666
442.710773	2550.264278
443.086261	2549.326623
443.461689	2549.344267
443.837057	2551.350647
444.212365	2551.832077
444.587612	2550.909546
444.962800	2553.188147
445.337927	2553.450287
445.712995	2554.526574
446.088002	2553.475493
446.462949	2555.275185
446.837837	2556.613611
447.212664	2561.740465
447.587431	2558.468756
447.962139	2563.852708
448.336786	2569.723132
448.711374	2569.965107
449.085901	2571.684141
449.460369	2572.425190
449.834776	2575.291086
450.209124	2582.285687
450.583412	2586.452201
450.957640	2591.581575
451.331808	2592.922522
451.705917	2597.535178
452.079965	2598.435024
452.453954	2604.960797
452.827883	2612.756942
453.201752	2618.357664
453.575562	2621.062243
453.949311	2633.425672
454.323001	2637.657721
454.696632	2645.375728
455.070202	2658.452481
455.443713	2670.589059
455.817164	2682.692869
456.190556	2694.164015
456.563888	2706.270346
456.937160	2715.626727
457.310373	2719.266440
457.683526	2731.463512
458.056619	2739.688154
458.429653	2752.671646
458.802628	2762.161618
459.175542	2783.122736
459.548398	2817.490802
459.921194	2843.561129
460.293930	2865.802700
460.666607	2929.963986
461.039224	2975.856130
461.411782	3005.989627
461.784280	3032.369985
462.156719	3039.498177
462.529099	3054.034344
462.901419	3043.485729
463.273680	3053.772204
463.645882	3077.637026
464.018024	3100.236519
464.390106	3141.319402
464.762130	3215.449569
465.134094	3323.179027
465.505999	3525.679656
465.877845	3754.966457
466.249631	3882.605952
466.621358	3855.103937
466.993026	3812.027277
467.364634	3805.461174
467.736184	3795.439360
468.107674	3792.434833
468.479105	3863.610884
468.850477	3858.267261
469.221790	3869.756050
469.593043	3851.615458
469.964238	3883.089902
470.335373	3932.359619
470.706449	4001.569621
471.077467	4053.687590
471.448425	4443.819965
471.819324	4791.667142
472.190164	4852.662583
472.560945	4587.250874
472.931667	4441.803504
473.302330	4458.419147
473.672934	4416.693516
474.043479	4584.397581
474.413965	4631.489520
474.784393	4667.856404
475.154761	4777.088125
475.525070	4874.926839
475.895321	4875.912385
476.265513	5003.786293
476.635645	5134.395028
477.005719	5219.580445
477.375734	5322.712371
477.745691	5497.441284
478.115588	5632.319875
478.485427	5814.918029
478.855207	6126.418487
479.224928	6593.209169
479.594591	6960.013605
479.964194	6981.098231
480.333739	7033.783330
480.703226	7111.459949
481.072653	7244.105309
481.442022	7475.159034
481.811333	7663.879670
482.180584	7655.637383
482.549777	7605.939168
482.918912	7594.087415
483.287988	7709.302986
483.657005	7797.167777
484.025964	7708.219138
484.394864	7874.400775
484.763706	7952.450439
485.132489	7880.374542
485.501213	7945.985159
485.869879	8067.950836
486.238487	8063.103766
486.607036	8203.532668
486.975527	8158.368971
487.343959	8348.821243
487.712333	8463.767112
488.080648	8486.684198
488.448905	8598.355838
488.817104	8636.822362
489.185244	8902.324812
489.553326	9094.783462
489.921350	9548.983862
490.289315	10389.780268
490.657222	10712.882942
491.025070	10741.799000
491.392861	10724.825435
491.760593	10532.802844
492.128267	10345.471047
492.495883	10167.483028
492.863440	9958.254978
493.230939	9752.318803
493.598380	9754.874668
493.965763	9715.198266
494.333088	9673.739817
494.700354	9673.767543
495.067563	9761.932283
495.434713	9677.800467
495.801805	9829.801337
496.168839	9813.094953
496.535815	9802.722779
496.902733	9847.508390
497.269593	9835.575979
497.636395	9952.871026
498.003139	9991.496347
498.369825	9906.056351
498.736453	10090.655843
499.103023	10054.205780
499.469535	10123.438467
499.835989	10148.372013
500.202385	10133.755188
500.568723	10029.932624
500.935003	10266.690415
501.301226	10117.878074
501.667390	10384.328260
502.033497	10496.703141
502.399546	10390.561647
502.765537	10328.547893
503.131470	10423.762686
503.497345	10610.824782
503.863163	10259.453838
504.228923	10578.064844
504.594625	10663.560292
504.960269	10435.009501
505.325856	10666.368215
505.691385	10480.158074
506.056856	10649.802984
506.422270	10682.472181
506.787625	10590.703017
507.152924	10713.623991
507.518164	10709.419669
507.883347	10642.178238
508.248472	10573.336242
508.613540	10814.779784
508.978550	10709.535616
509.343503	10695.783348
509.708398	10818.258181
510.073236	10938.330903
510.438016	10950.306164
510.802738	10903.325131
511.167403	10968.008176
511.532010	10869.846828
511.896561	11101.114802
512.261053	11178.463746
512.625488	11053.460775
512.989866	11037.926459
513.354186	11030.203412
513.718449	10942.585637
514.082655	11135.792900
514.446803	11031.670388
514.810894	11158.389872
515.174927	11037.107272
515.538904	11058.534696
515.902822	11209.721421
516.266684	11098.344688
516.630488	11039.834536
516.994235	11105.432551
517.357925	11165.800368
517.721558	11259.321333
518.085133	11274.391863
518.448651	11281.678851
518.812112	11177.440392
519.175516	11184.984479
519.538863	11306.740947
519.902152	11228.933258
520.265385	11382.217103
520.628560	11297.205605
520.991678	11281.313367
521.354739	11343.009528
521.717743	11279.354879
522.080690	11262.136818
522.443580	11391.999462
522.806413	11350.598986
523.169189	11386.595345
523.531908	11437.142994
523.894569	11265.514391
524.257174	11268.559248
524.619722	11383.633667
524.982213	11334.885709
525.344647	11387.311188
525.707025	11334.071563
526.069345	11432.893302
526.431608	11346.908861
526.793815	11454.834924
527.155964	11248.792884
527.518057	11311.595578
527.880093	11253.985272
528.242072	11321.783750
528.603995	11229.636499
528.965860	11152.038018
529.327669	11204.405524
529.689421	11151.566670
530.051117	11128.165634
530.412755	11233.545914
530.774337	11119.673810
531.135862	11098.395100
531.497331	11127.656477
531.858743	10974.778446
532.220098	11138.568055
532.581396	11016.728408
532.942638	11000.473207
533.303824	10959.975097
533.664953	10973.278703
534.026025	10890.316434
534.387040	10984.843109
534.747999	10986.380661
535.108902	11049.284179
535.469748	10805.788887
535.830537	10910.614640
536.191270	10891.927082
536.551947	10914.425752
536.912567	10910.206306
537.273131	10843.048055
537.633638	10809.874742
537.994089	10808.957252
538.354483	10754.427091
538.714821	10895.609645
539.075103	10908.152036
539.435328	10875.417303
539.795497	10699.700324
540.155609	10853.866371
540.515665	10943.026738
540.875665	10685.063334
541.235609	10755.115208
541.595496	10742.048537
541.955328	10903.554504
542.315102	10783.023036
542.674821	10742.981151
543.034483	10734.527136
543.394090	10740.629452
543.753640	10664.361836
544.113134	10891.707792
544.472571	10745.713456
544.831953	10890.162678
545.191278	10692.120950
545.550548	10720.495084
545.909761	10861.274346
546.268918	10837.364154
546.628019	10910.145812
546.987064	10782.140834
547.346053	10699.085304
547.704986	10804.397528
548.063863	10790.239447
548.422684	10785.500763
548.781449	10703.652589
549.140158	10799.114399
549.498811	10671.883238
549.857408	10532.737309
550.215949	10758.281053
550.574434	10614.996337
550.932864	10717.268746
551.291237	10776.512386
551.649555	10714.360000
552.007817	10732.785417
552.366022	10699.670077
552.724173	10689.920486
553.082267	10668.782928
553.440305	10812.289454
553.798288	10613.118507
554.156215	10762.729871
554.514086	10736.783052
554.871902	10590.760990
555.229661	10628.985539
555.587365	10601.274316
555.945014	10496.798923
556.302606	10626.626279
556.660143	10516.474547
557.017625	10671.822744
557.375050	10572.222147
557.732421	10706.180728
558.089735	10613.922571
558.446994	10614.741759
558.804197	10653.636781
559.161345	10655.116360
559.518437	10505.575572
559.875474	10593.510939
560.232455	10623.026895
560.589381	10571.148381
560.946251	10570.926570
561.303065	10673.403145
561.659825	10612.687488
562.016528	10539.298371
562.373177	10419.056769
562.729770	10538.431292
563.086307	10452.184712
563.442789	10543.933712
563.799216	10422.378890
564.155587	10476.546088
564.511904	10428.682852
564.868164	10420.836297
565.224370	10432.743502
565.580520	10357.683242
565.936615	10358.061328
566.292654	10235.672195
566.648638	10358.895639
567.004567	10324.043622
567.360441	10307.269183
567.716260	10207.051044
568.072023	10308.889914
568.427732	10264.487431
568.783385	10167.175517
569.138982	10241.850129
569.494525	10254.594166
569.850013	10134.206371
570.205445	10204.787566
570.560823	10112.862126
570.916145	10030.063694
571.271412	10097.226987
571.626625	10044.010047
571.981782	10024.392396
572.336884	9992.917952
572.691931	10003.610240
573.046923	9941.972052
573.401860	9904.818748
573.756743	9841.327936
574.111570	9884.545747
574.466342	9867.572183
574.821059	9898.350947
575.175722	9782.598493
575.530330	9794.795565
575.884882	9783.180747
576.239380	9714.305982
576.593823	9692.419813
576.948211	9705.035300
577.302544	9593.126726
577.656823	9610.576680
578.011047	9608.298078
578.365216	9580.491074
578.719330	9501.927212
579.073389	9518.804995
579.427394	9467.181059
579.781344	9444.097615
580.135239	9391.036951
580.489080	9399.680009
580.842866	9304.586203
581.196597	9302.456316
581.550273	9349.381896
581.903895	9315.757400
582.257463	9386.338595
582.610975	9258.661292
582.964434	9288.643554
583.317837	9208.577428
583.671186	9186.469448
584.024481	9189.277371
584.377721	9105.750493
584.730906	9085.159900
585.084037	9109.959856
585.437113	9048.624137
585.790135	9063.437568
586.143103	8969.808218
586.496016	8943.574053
586.848874	9001.103701
587.201679	8985.045105
587.554428	8876.093167
587.907124	8918.491792
588.259765	8888.713696
588.612352	8895.259634
588.964884	8771.690871
589.317362	8785.856514
589.669786	8788.359447
590.022155	8833.404677
590.374470	8851.515022
590.726731	8787.212584
591.078937	8637.775140
591.431090	8749.590453
591.783188	8624.441288
592.135232	8620.274774
592.487222	8614.870658
592.839157	8673.728649
593.191038	8601.181404
593.542866	8550.129639
593.894639	8455.383673
594.246358	8496.786670
594.598022	8513.354422
594.949633	8419.112571
595.301190	8387.900267
595.652692	8421.491996
596.004141	8528.971917
596.355535	8305.205180
596.706876	8288.597098
597.058162	8224.624856
597.409395	8296.294940
597.760573	8361.141823
598.111698	8266.511803
598.462768	8254.357581
598.813785	8215.233186
599.164748	8191.620422
599.515657	8179.965274
599.866511	8091.029238
600.217312	8212.780665
600.568060	8074.083399
600.918753	8181.190274
601.269392	8147.066704
601.619978	8058.503713
601.970510	8125.591389
602.320988	8118.964792
602.671412	8172.562340
603.021783	8111.239224
603.372100	8083.220491
603.722363	8087.344154
604.072572	8067.575270
604.422728	8075.671363
604.772830	8004.376844
605.122878	8013.844131
605.472872	8009.397834
605.822813	8037.353552
606.172701	7981.064028
606.522534	8056.729227
606.872314	8057.986995
607.222041	8023.102210
607.571714	8076.785458
607.921333	8036.040332
608.270899	8041.096609
608.620411	8128.941235
608.969870	8036.670476
609.319276	8035.334570
609.668627	8045.595839
610.017926	8081.713186
610.367171	8134.519272
610.716362	8104.345446
611.065500	8094.588292
611.414585	8125.172973
611.763616	8113.966488
612.112594	8101.287986
612.461518	8112.466745
612.810389	8173.961260
613.159207	8108.456507
613.507971	8059.879948
613.856682	8182.017024
614.205340	8128.285885
614.553945	8209.176240
614.902496	8111.418185
615.250994	8163.284096
615.599439	8143.547979
615.947830	8158.656317
616.296169	8128.991647
616.644454	8140.394737
616.992686	8134.471381
617.340864	8194.698046
617.688990	8099.919313
618.037063	8193.790638
618.385082	8143.217783
618.733048	8221.058240
619.080961	8164.158736
619.428821	8190.269393
619.776628	8182.115326
620.124382	8135.930795
620.472083	8117.654092
620.819731	8152.775811
621.167326	8043.521404
621.514868	8054.629587
621.862357	7940.591125
622.209793	7960.624670
622.557176	7893.960452
622.904506	7861.767643
623.251783	7796.419166
623.599007	7746.486537
623.946179	7754.108762
624.293297	7712.771300
624.640363	7629.027653
624.987376	7613.074921
625.334336	7563.878301
625.681243	7509.695979
626.028097	7492.878690
626.374899	7477.044426
626.721647	7466.291645
627.068343	7406.495998
627.414987	7374.356122
627.761577	7329.648649
628.108115	7366.524689
628.454600	7261.096518
628.801032	7315.500651
629.147412	7271.788806
629.493739	7261.613237
629.840014	7198.621499
630.186236	7253.794407
630.532405	7138.541027
630.878521	7193.449275
631.224585	7147.317676
631.570597	7075.516522
631.916556	7103.252950
632.262462	7095.141734
632.608316	7063.420273
632.954117	7037.871706
633.299866	7025.167998
633.645562	7017.487800
633.991206	6938.548372
634.336797	6875.049998
634.682336	6840.686973
635.027823	6807.942158
635.373257	6795.462782
635.718639	6729.975673
636.063968	6741.550162
636.409245	6639.176930
636.754470	6634.917155
637.099642	6596.599345
637.444762	6539.510798
637.789829	6549.141922
638.134845	6489.515155
638.479808	6476.249358
638.824719	6478.701880
639.169577	6411.092445
639.514383	6428.066010
639.859137	6354.581110
640.203839	6369.334047
640.548489	6353.121696
640.893086	6323.187325
641.237632	6306.138142
641.582125	6325.380227
641.926566	6293.898221
642.270955	6305.402134
642.615292	6299.667822
642.959576	6319.850081
643.303809	6307.297608
643.647990	6311.312887
643.992118	6303.000024
644.336195	6251.078660
644.680219	6277.307784
645.024192	6266.887719
645.368112	6358.563622
645.711981	6378.002311
646.055797	6454.063240
646.399562	6413.789462
646.743274	6540.960130
647.086935	6594.262770
647.430544	6590.055927
647.774101	6610.643999
648.117606	6613.073836
648.461059	6608.602332
648.804460	6568.220169
649.147810	6476.884544
649.491108	6445.397497
649.834354	6422.954280
650.177548	6339.601322
650.520690	6251.187045
650.863781	6230.442697
651.206820	6254.035297
651.549807	6173.570920
651.892742	6114.586899
652.235626	6123.920596
652.578458	6111.347958
652.921238	6020.224061
653.263967	6058.521707
653.606644	5999.005844
653.949269	6001.135732
654.291843	5939.646258
654.634365	5989.273897
654.976836	5946.885355
655.319255	5943.555673
655.661622	5921.029277
656.003938	5916.409059
656.346203	5878.628132
656.688416	5911.007463
657.030577	5864.170103
657.372687	5832.201625
657.714746	5821.572353
658.056753	5868.870978
658.398708	5807.237832
658.740612	5794.360204
659.082465	5841.525239
659.424266	5837.883006
659.766016	5835.874106
660.107715	5812.117668
660.449362	5822.515048
660.790958	5819.331560
661.132503	5800.104599
661.473996	5842.800651
661.815438	5827.699875
662.156829	5826.936140
662.498168	5822.046221
662.839456	5794.324916
663.180693	5831.498384
663.521879	5831.700031
663.863013	5820.664945
664.204097	5841.724365
664.545129	5878.265169
664.886110	5876.803234
665.227040	5911.498975
665.567918	5872.387183
665.908746	5904.955558
666.249522	5902.147635
666.590248	5893.857458
666.930922	5922.332415
667.271545	5936.019148
667.612118	5938.043171
667.952639	5908.552421
668.293109	5930.466317
668.633528	5888.904524
668.973896	5894.101953
669.314213	5883.449995
669.654480	5868.233273
669.994695	5860.069124
670.334859	5847.342731
670.674973	5841.477348
671.015035	5846.755437
671.355047	5844.345765
671.695008	5826.154761
672.034918	5805.992667
672.374777	5816.816024
672.714585	5798.234331
673.054342	5800.623838
673.394049	5799.038395
673.733705	5830.069217
674.073310	5811.331248
674.412864	5776.461587
674.752368	5765.708806
675.091820	5772.872286
675.431223	5701.224887
675.770574	5708.917687
676.109875	5659.857178
676.449125	5664.671480
676.788324	5630.421881
677.127473	5576.264765
677.466571	5568.171193
677.805619	5557.068051
678.144616	5541.511051
678.483562	5520.668400
678.822458	5489.909800
679.161303	5484.651876
679.500098	5471.875072
679.838842	5462.327127
680.177535	5466.463393
680.516179	5483.620960
680.854771	5491.109594
681.193314	5566.497530
681.531805	5679.500034
681.870247	5831.735319
682.208638	5932.651657
682.546978	5943.817813
682.885268	5922.864257
683.223508	5832.007541
683.561697	5784.227485
683.899836	5747.953862
684.237925	5710.402307
684.575963	5674.988202
684.913951	5632.483713
685.251889	5696.690369
685.589776	5659.103526
685.927614	5630.757118
686.265401	5700.733374
686.603137	5687.470098
686.940824	5764.045225
687.278460	5791.552281
687.616046	5797.296676
687.953582	5864.999372
688.291068	5842.972051
688.628504	5906.954375
688.965889	5866.980546
689.303224	5815.712011
689.640510	5769.313231
689.977745	5692.808680
690.314930	5596.457107
690.652065	5539.469383
690.989150	5447.054951
691.326185	5371.871182
691.663170	5320.446372
692.000105	5241.340586
692.336990	5166.519781
692.673825	5142.783508
693.010610	5073.250873
693.347345	5003.836705
693.684030	4994.487885
694.020665	4947.837047
694.357251	4864.864696
694.693786	4869.132033
695.030272	4839.805120
695.366707	4801.557886
695.703093	4768.578658
696.039429	4789.300321
696.375716	4775.565697
696.711952	4747.065534
697.048139	4733.545159
697.384276	4714.083785
697.720363	4729.121547
698.056400	4736.317794
698.392388	4689.213252
698.728326	4668.962937
699.064214	4643.260614
699.400053	4635.643431
699.735842	4601.696301
700.071581	4579.139658
700.407270	4556.131832
700.742910	4537.688770
701.078501	4485.845544
701.414042	4478.545953
701.749533	4454.043425
702.084974	4386.048342
702.420366	4446.479174
702.755709	4387.270822
703.091002	4335.006659
703.426246	4379.126838
703.761440	4335.387267
704.096584	4300.328562
704.431679	4321.186336
704.766725	4309.037155
705.101721	4291.592243
705.436668	4321.897139
705.771565	4269.748923
706.106413	4302.032472
706.441212	4329.592460
706.775961	4340.345241
707.110661	4320.467972
707.445311	4346.903783
707.779913	4375.033421
708.114465	4382.935430
708.448967	4408.093308
708.783421	4465.880054
709.117825	4510.726159
709.452180	4512.979555
709.786485	4557.959250
710.120742	4642.890089
710.454949	4625.798057
710.789107	4692.101833
711.123216	4768.049337
711.457275	4762.378038
711.791286	4829.911856
712.125247	4845.652859
712.459159	4751.857150
712.793023	4825.246268
713.126837	4782.867808
713.460602	4778.116521
713.794318	4700.308832
714.127985	4706.915264
714.461602	4619.410915
714.795171	4589.637861
715.128691	4528.589488
715.462162	4474.071929
715.795584	4421.888425
716.128957	4405.403852
716.462281	4355.967777
716.795556	4324.629444
717.128782	4287.947488
717.461960	4219.607086
717.795088	4231.562183
718.128167	4188.994679
718.461198	4132.034682
718.794180	4126.572592
719.127113	4112.033904
719.459997	4088.063218
719.792833	4044.951270
720.125619	4031.292264
720.458357	3997.284640
720.791046	4001.753623
721.123686	3975.582472
721.456278	3936.407666
721.788821	3954.099595
722.121315	3924.767642
722.453761	3901.585896
722.786158	3909.402205
723.118506	3933.375412
723.450805	3891.191037
723.783056	3912.011002
724.115259	3927.809978
724.447412	3932.742747
724.779518	3922.877209
725.111574	3925.649844
725.443582	3959.539000
725.775542	3945.879994
726.107453	3994.028054
726.439315	3995.863034
726.771129	4010.749562
727.102895	4042.486146
727.434612	4091.287036
727.766281	4106.077781
728.097901	4104.739355
728.429473	4107.461578
728.760996	4113.521045
729.092471	4108.505097
729.423897	4097.107048
729.755276	4102.160804
730.086606	4101.001339
730.417887	4138.144561
730.749120	4204.438254
731.080305	4266.845218
731.411442	4293.374290
731.742530	4261.683077
732.073570	4266.119292
732.404562	4322.933096
732.735506	4313.153258
733.066401	4271.929222
733.397249	4213.794636
733.728048	4135.064416
734.058798	4050.108370
734.389501	3982.196466
734.720156	3918.529214
735.050762	3877.837020
735.381320	3869.388046
735.711831	3816.332423
736.042293	3790.299904
736.372707	3811.697082
736.703073	3784.777320
737.033391	3773.638891
737.363661	3792.366777
737.693883	3818.364008
738.024056	3824.408351
738.354182	3819.742763
738.684260	3885.083679
739.014290	3906.271648
739.344272	3900.985998
739.674207	3943.349335
740.004093	3942.888069
740.333931	3944.070220
740.663722	3945.325467
740.993464	3940.896813
741.323159	3918.751025
741.652806	3887.574009
741.982405	3861.833877
742.311956	3829.935976
742.641460	3820.067918
742.970915	3795.204947
743.300323	3756.312445
743.629683	3723.174420
743.958996	3708.527348
744.288260	3684.034902
744.617477	3651.325375
744.946647	3638.883807
745.275768	3613.347842
745.604842	3609.377934
745.933869	3563.919329
746.262847	3556.292063
746.591778	3594.377980
746.920662	3566.046696
747.249498	3532.722148
747.578286	3579.524221
747.907027	3597.669854
748.235720	3592.129626
748.564365	3618.063842
748.892963	3621.287660
749.221514	3601.443157
749.550017	3580.751742
749.878473	3574.662028
750.206881	3547.596073
750.535242	3545.567008
750.863555	3548.682441
751.191821	3538.038045
751.520039	3522.438194
751.848210	3499.384998
752.176334	3533.359854
752.504411	3543.623643
752.832440	3500.173938
753.160421	3482.996207
753.488356	3490.893174
753.816243	3505.751975
754.144082	3462.335038
754.471875	3448.529838
754.799620	3464.222950
755.127318	3457.072073
755.454969	3458.092907
755.782572	3467.522385
756.110129	3438.364351
756.437638	3429.837239
756.765100	3443.418108
757.092515	3452.156948
757.419882	3463.774287
757.747203	3433.088784
758.074477	3438.150102
758.401703	3449.066721
758.728882	3471.293168
759.056014	3479.217862
759.383099	3481.612410
759.710138	3477.587049
760.037129	3497.267713
760.364073	3526.491282
760.690970	3512.313037
761.017820	3489.186744
761.344623	3510.062162
761.671379	3552.997669
761.998088	3601.213785
762.324751	3730.973085
762.651366	3975.892503
762.977935	4448.286428
763.304456	4889.591556
763.630931	4981.108663
763.957359	4619.040391
764.283740	4279.899286
764.610074	4090.351902
764.936362	3895.949886
765.262602	3736.974579
765.588796	3623.674646
765.914943	3538.474105
766.241044	3450.722740
766.567097	3418.613110
766.893104	3376.390926
767.219064	3343.255422
767.544978	3316.708706
767.870845	3260.126795
768.196665	3242.954105
768.522438	3251.045157
768.848165	3246.440062
769.173846	3211.565360
769.499479	3192.731609
769.825066	3176.247036
770.150607	3163.971827
770.476101	3175.720236
770.801548	3171.934329
771.126949	3124.461783
771.452303	3109.066100
771.777611	3115.221348
772.102872	3120.688480
772.428087	3098.966148
772.753256	3086.852255
773.078378	3077.011923
773.403453	3045.300545
773.728482	3031.641538
774.053465	3053.351267
774.378401	3042.175029
774.703291	3013.432891
775.028135	3012.094464
775.352932	3006.526510
775.677683	2996.635766
776.002388	2992.302894
776.327046	2993.706856
776.651658	2984.572285
776.976224	2970.988896
777.300743	2972.375213
777.625216	2963.843060
777.949643	2958.701083
778.274024	2960.021866
778.598359	2951.404013
778.922647	2953.667491
779.246889	2952.863427
779.571086	2940.663835
779.895236	2933.187804
780.219339	2944.613579
780.543397	2953.422995
780.867409	2958.557410
781.191374	2951.461986
781.515294	2949.064918
781.839167	2950.824280
782.162995	2938.599482
782.486776	2951.714044
782.810511	2946.327571
783.134201	2931.007505
783.457844	2941.649380
783.781441	2930.437854
784.104993	2911.190729
784.428498	2910.835328
784.751958	2926.999787
785.075372	2921.058788
785.398739	2904.367527
785.722061	2920.988211
786.045337	2930.717638
786.368568	2916.171389
786.691752	2910.487488
787.014891	2955.504992
787.337983	2984.597491
787.661030	3011.106398
787.984031	3080.308837
788.306987	3126.324490
788.629897	3116.297635
788.952760	3103.853547
789.275579	3087.583222
789.598351	3029.589789
789.921078	2984.131184
790.243759	2972.506283
790.566395	2959.658903
790.888984	2933.155036
791.211529	2918.056780
791.534027	2906.585635
791.856480	2899.661610
792.178888	2882.811553
792.501249	2875.706047
792.823566	2871.277393
793.145836	2868.668596
793.468062	2864.416383
793.790241	2862.815817
794.112375	2871.935264
794.434464	2881.853734
794.756507	2887.686349
795.078505	2889.851525
795.400457	2906.013464
795.722364	2942.438321
796.044226	2968.359934
796.366042	2969.965542
796.687812	2957.554221
797.009538	2978.132211
797.331218	2968.047383
797.652852	2952.886112
797.974442	2933.155036
798.295986	2926.904005
798.617484	2925.371495
798.938938	2910.797519
799.260346	2892.339334
799.581709	2885.942110
799.903026	2886.390773
800.224299	2877.049514
800.545526	2866.926878
800.866708	2850.543127
801.187845	2841.244719
801.508936	2841.834534
801.829983	2850.633868
802.150984	2837.922599
802.471940	2826.723676
802.792851	2825.143274
803.113717	2826.264931
803.434538	2831.600992
803.755314	2822.292501
804.076045	2817.831080
804.396731	2814.508960
804.717372	2818.226811
805.037967	2810.720533
805.358518	2818.420895
805.679024	2830.648214
805.999485	2827.563028
806.319901	2830.353306
806.640272	2820.180258
806.960598	2827.595795
807.280879	2835.396981
807.601115	2842.726818
807.921306	2829.292143
808.241453	2824.949189
808.561554	2833.090653
808.881611	2834.948318
809.201623	2827.280723
809.521590	2824.092193
809.841513	2821.616987
810.161390	2827.696618
810.481223	2823.416679
810.801011	2813.168013
811.120755	2807.317754
811.440453	2812.351346
811.760107	2809.755152
812.079716	2809.765234
812.399281	2801.686785
812.718801	2795.460960
813.038276	2788.816719
813.357707	2794.810651
813.677093	2798.084881
813.996434	2794.919036
814.315731	2789.429219
814.634983	2785.325720
814.954191	2786.510391
815.273354	2802.808442
815.592473	2809.684576
815.911547	2809.848413
816.230577	2818.849393
816.549562	2829.508913
816.868502	2827.842812
817.187399	2837.501662
817.506250	2852.688138
817.825058	2848.715709
818.143821	2858.649303
818.462539	2876.426932
818.781213	2900.402660
819.099843	2940.285748
819.418429	2992.910353
819.736970	3056.796896
820.055466	3128.018317
820.373919	3236.340111
820.692327	3373.230123
821.010691	3541.367727
821.329011	3982.866940
821.647286	4880.341038
821.965517	6248.142188
822.283704	6981.176369
822.601847	6955.804242
822.919945	6333.491443
823.237999	5823.253577
823.556010	5247.299230
823.873976	4699.461918
824.191897	4291.075524
824.509775	3999.207840
824.827609	3732.467787
825.145398	3612.939509
825.463144	3599.625822
825.780845	3693.814740
826.098502	3798.811892
826.416116	4081.618102
826.733685	4393.131163
827.051210	4452.901604
827.368692	4337.270138
827.686129	4073.242225
828.003522	3749.685848
828.320872	3493.174296
828.638177	3301.267652
828.955439	3162.772032
829.272656	3081.468303
829.589830	3013.959691
829.906960	2964.458081
830.224046	2921.575506
830.541088	2887.772049
830.858086	2871.940305
831.175041	2855.692666
831.491952	2854.041688
831.808819	2868.754296
832.125642	2891.459653
832.442421	2937.626540
832.759157	3018.579909
833.075849	3196.751930
833.392497	3481.418326
833.709101	3675.134744
834.025662	3628.405769
834.342179	3466.246973
834.658653	3290.323307
834.975083	3141.178250
835.291469	3045.219886
835.607811	2964.710139
835.924110	2905.481622
836.240366	2854.946575
836.556578	2812.971408
836.872746	2788.922583
837.188871	2765.524068
837.504952	2752.769949
837.820990	2741.528176
838.136984	2729.850343
838.452935	2722.954044
838.768842	2718.805175
839.084706	2740.688823
839.400526	2819.640854
839.716303	2951.829991
840.032037	3029.012577
840.347727	3013.170751
840.663373	2953.284363
840.978977	2877.425080
841.294537	2805.344142
841.610054	2761.060126
841.925527	2737.275962
842.240957	2716.037581
842.556344	2696.291382
842.871687	2681.306552
843.186987	2670.515962
843.502244	2664.854746
843.817458	2660.446257
844.132629	2647.525780
844.447756	2640.117804
844.762840	2634.479274
845.077881	2637.897176
845.392879	2635.633698
845.707833	2632.104890
846.022745	2623.300515
846.337613	2628.233284
846.652438	2624.190279
846.967221	2622.841770
847.281960	2622.922428
847.596656	2625.173304
847.911309	2620.911008
848.225919	2617.719958
848.540485	2614.735595
848.855009	2615.688373
849.169490	2611.491612
849.483928	2618.279526
849.798323	2612.691407
850.112675	2614.392796
850.426984	2611.010182
850.741251	2611.075717
851.055474	2610.180912
851.369654	2614.297014
851.683792	2615.285080
851.997887	2613.646705
852.311938	2610.871550
852.625947	2614.236520
852.939914	2615.388424
853.253837	2616.499998
853.567718	2610.697630
853.881555	2611.801643
854.195350	2613.170316
854.509103	2614.538990
854.822812	2611.988166
855.136479	2610.218721
855.450103	2614.365070
855.763685	2615.330451
856.077224	2610.412805
856.390720	2610.858947
856.704173	2612.908176
857.017584	2617.021758
857.330953	2619.902777
857.644278	2619.260030
857.957561	2618.710544
858.270802	2613.777775
858.584000	2617.170472
858.897155	2620.091821
859.210268	2620.006121
859.523339	2611.025305
859.836367	2609.313834
860.149352	2610.518669
860.462295	2613.127467
860.775195	2608.179574
861.088054	2611.063114
861.400869	2607.244440
861.713642	2603.554315
862.026373	2607.433483
862.339062	2608.623196
862.651708	2614.468413
862.964312	2614.637292
863.276873	2613.785337
863.589392	2616.623507
863.901869	2621.873868
864.214303	2626.254631
864.526696	2630.665641
864.839045	2629.168418
865.151353	2630.070785
865.463619	2632.311577
865.775842	2631.890641
866.088023	2631.832668
866.400162	2634.305354
866.712258	2633.014818
867.024313	2631.179838
867.336325	2627.525002
867.648296	2627.923253
867.960224	2633.287041
868.272110	2634.088584
868.583954	2627.880403
868.895755	2627.893006
869.207515	2632.397277
869.519233	2639.613689
869.830909	2636.765437
870.142542	2631.220168
870.454134	2632.795528
870.765684	2637.629995
871.077191	2638.537403
871.388657	2644.022178
871.700081	2641.206693
872.011463	2642.033443
872.322803	2644.072589
872.634101	2648.027375
872.945357	2653.963333
873.256571	2660.158911
873.567744	2655.659682
873.878874	2656.201606
874.189963	2657.953407
874.501010	2663.624705
874.812015	2665.459685
875.122979	2664.728717
875.433900	2654.366626
875.744780	2655.720175
876.055618	2661.323418
876.366415	2666.006650
876.677169	2663.710404
876.987882	2660.995743
877.298554	2658.490289
877.609183	2669.802639
877.919771	2677.445028
878.230317	2683.421316
878.540822	2694.806762
878.851285	2707.490305
879.161707	2732.764130
879.472087	2767.527927
879.782425	2817.800833
880.092722	2930.674788
880.402977	3119.314765
880.713191	3377.109291
881.023363	3663.963547
881.333494	3849.556147
881.643583	4024.506871
881.953631	4024.937889
882.263637	3847.269984
882.573602	3628.078094
882.883526	3496.284688
883.193408	3386.072462
883.503248	3283.772327
883.813048	3170.588341
884.122806	3056.002914
884.432522	2973.733804
884.742197	2909.809453
885.051831	2871.363093
885.361424	2836.884121
885.670975	2802.715180
885.980485	2771.122269
886.289954	2753.788262
886.599382	2739.514235
886.908768	2724.476473
887.218113	2705.713298
887.527417	2697.665096
887.836680	2688.414579
888.145901	2682.317303
888.455082	2672.010664
888.764221	2662.699653
889.073319	2656.660351
889.382376	2656.952737
889.691392	2658.999446
890.000366	2658.480207
890.309300	2656.814106
890.618193	2658.076915
890.927044	2659.813592
891.235855	2660.703356
891.544625	2660.181597
891.853353	2659.115392
892.162041	2667.846671
892.470687	2687.716379
892.779293	2696.551001
893.087858	2706.003164
893.396381	2730.016701
893.704864	2771.374327
894.013306	2843.727487
894.321707	2934.422886
894.630068	2982.303766
894.938387	3004.986437
895.246665	2994.485714
895.554903	2949.700103
895.863100	2908.576891
896.171256	2848.907273
896.479371	2789.925773
896.787446	2753.604260
897.095480	2735.070457
897.403473	2729.028635
897.711425	2714.316027
898.019336	2693.874148
898.327207	2680.671366
898.635038	2678.821263
898.942827	2679.141376
899.250576	2670.052176
899.558284	2656.325114
899.865952	2651.697335
900.173579	2647.765235
900.481165	2648.075266
900.788711	2638.832310
901.096216	2632.971969
901.403681	2632.125055
901.711105	2632.074643
902.018489	2629.836371
902.325832	2631.162194
902.633135	2632.558594
902.940397	2650.371511
903.247619	2687.378622
903.554800	2756.248345
903.861941	2879.433980
904.169041	3003.509379
904.476101	3065.452557
904.783121	3059.884603
905.090100	3002.221364
905.397039	2927.887030
905.703938	2856.935311
906.010796	2792.307718
906.317614	2742.148237
906.624391	2704.387475
906.931129	2680.729340
907.237826	2655.601708
907.544483	2639.820376
907.851099	2626.741102
908.157675	2616.313476
908.464211	2610.841303
908.770707	2600.005343
909.077163	2596.264807
909.383578	2592.524271
909.689954	2590.288519
909.996289	2588.564444
910.302584	2588.284660
910.608839	2585.494382
910.915054	2586.873137
911.221229	2591.329517
911.527363	2589.754157
911.833458	2588.781214
912.139513	2589.895309
912.445527	2591.695001
912.751502	2597.711618
913.057436	2604.418873
913.363331	2607.262084
913.669186	2618.312293
913.975000	2632.001547
914.280775	2650.900832
914.586510	2666.717452
914.892205	2702.449151
915.197859	2770.071189
915.503475	2853.900536
915.809050	2920.284970
916.114585	2932.053544
916.420081	2945.442849
916.725536	2953.881740
917.030952	2929.656475
917.336328	2881.644526
917.641665	2831.028821
917.946961	2786.059208
918.252218	2751.093765
918.557435	2724.231977
918.862612	2704.873946
919.167750	2686.622448
919.472848	2671.259532
919.777906	2654.011224
920.082925	2642.098978
920.387904	2631.636063
920.692843	2627.104066
920.997743	2623.388735
921.302603	2614.186109
921.607423	2610.927003
921.912204	2603.138420
922.216946	2601.734459
922.521647	2599.241608
922.826310	2597.852770
923.130932	2592.907398
923.435516	2584.687797
923.740059	2582.036150
924.044564	2580.473392
924.349028	2581.307703
924.653454	2572.682289
924.957840	2571.875705
925.262186	2566.859757
925.566493	2570.486867
925.870761	2563.073850
926.174989	2567.106773
926.479178	2563.797256
926.783328	2563.401525
927.087438	2561.828685
927.391509	2562.849519
927.695541	2559.502192
927.999533	2559.945814
928.303486	2557.770556
928.607400	2557.543704
928.911275	2555.738971
929.215110	2555.905329
929.518906	2552.288301
929.822663	2555.557490
930.126381	2555.633107
930.430060	2555.675957
930.733699	2555.368446
931.037299	2557.636966
931.340861	2556.537994
931.644383	2556.739640
931.947866	2559.101421
932.251309	2557.455484
932.554714	2556.480021
932.858080	2554.892057
933.161407	2557.594116
933.464694	2557.054712
933.767943	2557.523540
934.071153	2551.161603
934.374323	2553.503219
934.677455	2553.795606
934.980548	2555.398693
935.283602	2556.008673
935.586617	2556.664023
935.889593	2553.798127
936.192530	2554.637479
936.495428	2551.534649
936.798287	2555.159238
937.101108	2555.083621
937.403890	2558.010011
937.706632	2561.075033
938.009336	2563.648542
938.312002	2568.155333
938.614628	2572.765468
938.917216	2575.157496
939.219765	2575.633885
939.522275	2576.810994
939.824747	2577.988104
940.127179	2571.331260
940.429573	2569.556774
940.731929	2569.506362
941.034246	2563.923284
941.336524	2568.581311
941.638763	2566.015363
941.940964	2565.438151
942.243126	2566.995868
942.545250	2565.470919
942.847335	2560.583520
943.149381	2557.989846
943.451389	2558.133519
943.753359	2557.717624
944.055290	2556.689229
944.357182	2557.505896
944.659036	2557.347099
944.960851	2555.570092
945.262628	2553.682180
945.564367	2555.723848
945.866067	2556.931204
946.167729	2556.638817
946.469352	2558.499003
946.770937	2557.163097
947.072484	2556.535473
947.373992	2557.425237
947.675462	2555.610422
947.976893	2556.558159
948.278286	2554.087993
948.579641	2556.679146
948.880958	2552.621018
949.182236	2553.218394
949.483476	2552.643703
949.784678	2552.333672
950.085841	2553.835936
950.386967	2554.899619
950.688054	2554.987839
950.989103	2554.703014
951.290114	2554.561862
951.591087	2556.984136
951.892021	2557.258879
952.192917	2559.076215
952.493776	2559.388767
952.794596	2561.286761
953.095378	2560.490259
953.396122	2560.916236
953.696828	2560.323901
953.997496	2559.449260
954.298126	2556.485062
954.598718	2554.597150
954.899272	2553.485575
955.199788	2554.942469
955.500266	2552.326110
955.800706	2549.314021
956.101108	2547.564740
956.401472	2546.140614
956.701798	2543.108360
957.002087	2542.185829
957.302337	2545.840666
957.602550	2547.940306
957.902724	2540.045859
958.202861	2545.016437
958.502960	2542.445448
958.803022	2544.449307
959.103045	2542.395037
959.403031	2542.778165
959.702979	2544.040974
960.002889	2542.687424
960.302762	2543.040305
960.602596	2539.635005
960.902393	2538.689789
961.202153	2543.957795
961.501875	2540.565098
961.801559	2541.154913
962.101205	2538.525951
962.400814	2538.566281
962.700385	2540.416384
962.999918	2540.121477
963.299414	2538.785571
963.598873	2541.517876
963.898293	2540.774306
964.197677	2540.290355
964.497022	2540.275232
964.796331	2541.127187
965.095601	2539.057793
965.394835	2538.742721
965.694030	2536.885056
965.993189	2538.896476
966.292309	2538.639377
966.591393	2537.918492
966.890439	2535.700385
967.189447	2538.825900
967.488419	2536.416228
967.787353	2538.059645
968.086249	2538.072247
968.385108	2540.766744
968.683930	2537.421939
968.982714	2541.026364
969.281462	2538.319264
969.580172	2539.146013
969.878844	2537.467309
970.177480	2536.973276
970.476078	2539.297248
970.774639	2540.426466
971.073162	2538.798174
971.371649	2538.674665
971.670098	2535.889428
971.968510	2540.449152
972.266885	2535.113090
972.565223	2539.062834
972.863524	2539.584594
973.161788	2537.832793
973.460014	2535.337422
973.758204	2542.561395
974.056356	2537.883204
974.354471	2540.676003
974.652550	2538.591486
974.950591	2541.008720
975.248595	2538.440252
975.546563	2540.489481
975.844493	2539.105684
976.142386	2539.012423
976.440243	2538.367155
976.738062	2539.072917
977.035845	2539.869419
977.333590	2540.045859
977.631299	2538.599048
977.928971	2538.178112
978.226606	2537.051414
978.524204	2537.447144
978.821765	2540.476878
979.119290	2539.317412
979.416777	2537.452186
979.714228	2536.080992
980.011642	2536.970755
980.309020	2541.177598
980.606360	2540.181970
980.903664	2538.674665
981.200931	2538.505787
981.498162	2538.241126
981.795356	2541.802701
982.092513	2545.079451
982.389633	2548.845193
982.686717	2550.559186
982.983764	2551.267468
983.280775	2552.409289
983.577749	2553.737633
983.874686	2550.894422
984.171587	2548.686397
984.468451	2547.877292
984.765279	2544.078782
985.062070	2542.745397
985.358824	2541.245654
985.655543	2541.192722
985.952224	2539.163657
986.248869	2538.573842
986.545478	2531.407842
986.842050	2535.196269
987.138586	2535.960004
987.435086	2534.883718
987.731549	2530.719725
988.027975	2535.070240
988.324366	2534.921526
988.620719	2538.236085
988.917037	2533.666279
989.213318	2534.979500
989.509563	2536.091074
989.805772	2537.096784
990.101944	2535.491177
990.398080	2532.090918
990.694180	2536.433872
990.990244	2533.328522
991.286271	2536.854809
991.582262	2536.262473
991.878217	2534.558563
992.174136	2534.261135
992.470019	2538.369676
992.765865	2534.808100
993.061676	2535.609644
993.357450	2534.586290
993.653188	2537.694161
993.948890	2536.776671
994.244556	2534.077133
994.540186	2535.355066
994.835780	2535.687782
995.131337	2536.270035
995.426859	2536.796836
995.722345	2536.005374
996.017795	2539.932433
996.313208	2537.810107
996.608586	2537.442103
996.903928	2540.123997
997.199234	2538.137782
997.494504	2539.955118
997.789738	2537.182484
998.084936	2537.263142
998.380099	2538.533513
998.675225	2537.270704
998.970316	2537.016126
999.265371	2538.283976
999.560390	2533.948584
999.855373	2535.193749
1000.150320	2534.019160
1000.445232	2535.859181
1000.740108	2534.500590
1001.034948	2535.836496
1001.329752	2530.583613
1001.624521	2534.117462
1001.919254	2530.195445
1002.213951	2532.736186
1002.508613	2532.950435
1002.803239	2533.199972
1003.097829	2529.716535
1003.392384	2532.403470
1003.686903	2532.131248
1003.981386	2535.854140
1004.275834	2531.337266
1004.570246	2531.417924
1004.864623	2534.682072
1005.158964	2536.116280
1005.453270	2533.245343
1005.747540	2530.712163
1006.041775	2532.766433
1006.335974	2532.234591
1006.630138	2535.861702
1006.924266	2529.393901
1007.218359	2535.586959
1007.512416	2534.256094
1007.806438	2534.523275
1008.100425	2533.769623
1008.394376	2531.274252
1008.688292	2532.826927
1008.982172	2534.906403
1009.276017	2532.388347
1009.569827	2533.179808
1009.863602	2534.528316
1010.157341	2533.003367
1010.451045	2531.700229
1010.744714	2534.452699
1011.038347	2530.702081
1011.331945	2531.821217
1011.625508	2531.763243
1011.919036	2533.348686
1012.212528	2533.444468
1012.505986	2534.205682
1012.799408	2531.785929
1013.092795	2532.683254
1013.386147	2532.514375
1013.679464	2532.519417
1013.972745	2533.681403
1014.265992	2535.733152
1014.559204	2534.714839
1014.852380	2533.641073
1015.145521	2530.424817
1015.438628	2534.966897
1015.731699	2532.882380
1016.024736	2533.436907
1016.317737	2532.670651
1016.610703	2531.798532
1016.903635	2532.002698
1017.196531	2528.541946
1017.489393	2529.068747
1017.782219	2526.081863
1018.075011	2531.861546
1018.367768	2532.726104
1018.660490	2531.828778
1018.953177	2531.828778
1019.245829	2531.828778
