Dividing Wavelength (nm)	Counts (n)	Blue Motor Position (mm): 0.600000	Red Motor Position (mm): 0.000000	
326.493990	2117.284615
326.888308	2117.284615
327.282561	2117.284615
327.676750	2018.982115
328.070874	2081.996538
328.464933	2056.790769
328.858929	2081.996538
329.252859	2051.749615
329.646726	2076.955385
330.040528	2059.311346
330.434265	2182.819615
330.827938	2099.640577
331.221547	2230.710577
331.615091	2197.943077
332.008571	2223.148846
332.401986	2230.710577
332.795338	2147.531538
333.188625	2213.066538
333.581847	2263.478077
333.975006	2281.122115
334.368100	2298.766154
334.761129	2313.889615
335.154095	2311.369038
335.546996	2341.615962
335.939833	2354.218846
336.332606	2354.218846
336.725315	2311.369038
337.117960	2283.642692
337.510540	2399.589231
337.903056	2356.739423
338.295508	2457.562500
338.687896	2419.753846
339.080220	2497.891731
339.472480	2525.618077
339.864676	2427.315577
340.256807	2452.521346
340.648875	2439.918462
341.040879	2487.809423
341.432818	2477.727115
341.824694	2457.562500
342.216506	2470.165385
342.608253	2414.712692
342.999937	2533.179808
343.391557	2477.727115
343.783113	2497.891731
344.174605	2434.877308
344.566033	2467.644808
344.957397	2510.494615
345.348697	2528.138654
345.739934	2538.220962
346.131106	2472.685962
346.522215	2513.015192
346.913260	2444.959615
347.304241	2487.809423
347.695159	2447.480192
348.086012	2455.041923
348.476802	2369.342308
348.867528	2513.015192
349.258191	2482.768269
349.648789	2477.727115
350.039324	2402.109808
350.429796	2470.165385
350.820203	2389.506923
351.210548	2364.301154
351.600828	2381.945192
351.991045	2470.165385
352.381198	2475.206538
352.771288	2550.823846
353.161314	2427.315577
353.551276	2500.412308
353.941175	2434.877308
354.331010	2477.727115
354.720782	2455.041923
355.110490	2533.179808
355.500135	2394.548077
355.889717	2381.945192
356.279235	2361.780577
356.668689	2386.986346
357.058080	2419.753846
357.447408	2492.850577
357.836672	2460.083077
358.225873	2389.506923
358.615010	2447.480192
359.004084	2434.877308
359.393095	2460.083077
359.782043	2389.506923
360.170927	2414.712692
360.559748	2376.904038
360.948505	2487.809423
361.337199	2495.371154
361.725830	2470.165385
362.114398	2402.109808
362.502903	2472.685962
362.891344	2417.233269
363.279722	2452.521346
363.668037	2429.836154
364.056289	2485.288846
364.444478	2409.671538
364.832603	2417.233269
365.220665	2515.535769
365.608665	2414.712692
365.996601	2397.068654
366.384474	2399.589231
366.772284	2467.644808
367.160031	2442.439038
367.547715	2442.439038
367.935336	2467.644808
368.322893	2450.000769
368.710388	2447.480192
369.097820	2520.576923
369.485189	2419.753846
369.872495	2397.068654
370.259738	2450.000769
370.646918	2523.097500
371.034035	2470.165385
371.421090	2470.165385
371.808081	2437.397885
372.195010	2374.383462
372.581875	2384.465769
372.968678	2505.453462
373.355418	2439.918462
373.742096	2467.644808
374.128710	2422.274423
374.515262	2477.727115
374.901751	2412.192115
375.288177	2505.453462
375.674540	2402.109808
376.060841	2414.712692
376.447079	2507.974038
376.833254	2455.041923
377.219367	2482.768269
377.605417	2460.083077
377.991404	2467.644808
378.377329	2427.315577
378.763191	2477.727115
379.148991	2444.959615
379.534727	2510.494615
379.920402	2497.891731
380.306013	2402.109808
380.691563	2513.015192
381.077049	2523.097500
381.462474	2434.877308
381.847835	2472.685962
382.233134	2475.206538
382.618371	2550.823846
383.003545	2419.753846
383.388657	2462.603654
383.773706	2490.330000
384.158693	2462.603654
384.543618	2429.836154
384.928480	2515.535769
385.313280	2409.671538
385.698017	2470.165385
386.082692	2450.000769
386.467305	2434.877308
386.851856	2392.027500
387.236344	2419.753846
387.620770	2485.288846
388.005133	2460.083077
388.389435	2386.986346
388.773674	2490.330000
389.157851	2515.535769
389.541965	2432.356731
389.926018	2429.836154
390.310008	2447.480192
390.693936	2450.000769
391.077802	2412.192115
391.461606	2455.041923
391.845348	2399.589231
392.229027	2417.233269
392.612645	2495.371154
392.996200	2515.535769
393.379694	2492.850577
393.763125	2455.041923
394.146494	2467.644808
394.529801	2482.768269
394.913047	2442.439038
395.296230	2525.618077
395.679351	2507.974038
396.062410	2467.644808
396.445408	2465.124231
396.828343	2419.753846
397.211217	2462.603654
397.594028	2492.850577
397.976778	2563.426731
398.359466	2407.150962
398.742092	2455.041923
399.124656	2465.124231
399.507158	2465.124231
399.889598	2465.124231
400.271977	2487.809423
400.654294	2533.179808
401.036549	2407.150962
401.418742	2442.439038
401.800874	2422.274423
402.182944	2477.727115
402.564952	2465.124231
402.946898	2477.727115
403.328783	2470.165385
403.710606	2485.288846
404.092367	2422.274423
404.474067	2422.274423
404.855705	2417.233269
405.237282	2359.260000
405.618797	2472.685962
406.000250	2399.589231
406.381642	2485.288846
406.762972	2472.685962
407.144240	2419.753846
407.525447	2490.330000
407.906593	2434.877308
408.287677	2497.891731
408.668700	2374.383462
409.049661	2500.412308
409.430560	2424.795000
409.811399	2502.932885
410.192176	2447.480192
410.572891	2447.480192
410.953545	2500.412308
411.334138	2563.426731
411.714669	2540.741538
412.095139	2427.315577
412.475547	2513.015192
412.855894	2444.959615
413.236180	2414.712692
413.616405	2505.453462
413.996568	2477.727115
414.376670	2419.753846
414.756711	2432.356731
415.136691	2467.644808
415.516609	2497.891731
415.896466	2422.274423
416.276262	2480.247692
416.655997	2460.083077
417.035670	2462.603654
417.415283	2442.439038
417.794834	2495.371154
418.174324	2419.753846
418.553753	2470.165385
418.933121	2515.535769
419.312428	2455.041923
419.691674	2422.274423
420.070859	2460.083077
420.449983	2490.330000
420.829045	2427.315577
421.208047	2513.015192
421.586988	2525.618077
421.965867	2530.659231
422.344686	2515.535769
422.723444	2442.439038
423.102141	2399.589231
423.480777	2487.809423
423.859352	2429.836154
424.237866	2397.068654
424.616319	2500.412308
424.994712	2520.576923
425.373044	2538.220962
425.751314	2424.795000
426.129524	2523.097500
426.507673	2455.041923
426.885762	2495.371154
427.263789	2507.974038
427.641756	2593.673654
428.019662	2545.782692
428.397508	2442.439038
428.775292	2462.603654
429.153016	2492.850577
429.530679	2525.618077
429.908282	2442.439038
430.285824	2510.494615
430.663305	2480.247692
431.040726	2570.988462
431.418086	2518.056346
431.795385	2485.288846
432.172624	2434.877308
432.549802	2560.906154
432.926920	2439.918462
433.303977	2538.220962
433.680974	2477.727115
434.057910	2492.850577
434.434786	2555.865000
434.811601	2455.041923
435.188355	2497.891731
435.565050	2553.344423
435.941683	2399.589231
436.318257	2447.480192
436.694770	2392.027500
437.071222	2447.480192
437.447614	2510.494615
437.823946	2480.247692
438.200218	2528.138654
438.576429	2485.288846
438.952580	2482.768269
439.328670	2434.877308
439.704700	2470.165385
440.080670	2543.262115
440.456580	2523.097500
440.832429	2460.083077
441.208218	2472.685962
441.583947	2455.041923
441.959616	2490.330000
442.335224	2485.288846
442.710773	2434.877308
443.086261	2505.453462
443.461689	2472.685962
443.837057	2550.823846
444.212365	2563.426731
444.587612	2528.138654
444.962800	2457.562500
445.337927	2480.247692
445.712995	2439.918462
446.088002	2455.041923
446.462949	2548.303269
446.837837	2442.439038
447.212664	2394.548077
447.587431	2515.535769
447.962139	2482.768269
448.336786	2507.974038
448.711374	2450.000769
449.085901	2518.056346
449.460369	2477.727115
449.834776	2490.330000
450.209124	2467.644808
450.583412	2429.836154
450.957640	2447.480192
451.331808	2482.768269
451.705917	2460.083077
452.079965	2452.521346
452.453954	2520.576923
452.827883	2482.768269
453.201752	2480.247692
453.575562	2505.453462
453.949311	2520.576923
454.323001	2515.535769
454.696632	2490.330000
455.070202	2525.618077
455.443713	2507.974038
455.817164	2505.453462
456.190556	2598.714808
456.563888	2525.618077
456.937160	2442.439038
457.310373	2422.274423
457.683526	2477.727115
458.056619	2487.809423
458.429653	2507.974038
458.802628	2490.330000
459.175542	2450.000769
459.548398	2482.768269
459.921194	2497.891731
460.293930	2472.685962
460.666607	2414.712692
461.039224	2485.288846
461.411782	2455.041923
461.784280	2502.932885
462.156719	2455.041923
462.529099	2513.015192
462.901419	2553.344423
463.273680	2502.932885
463.645882	2485.288846
464.018024	2492.850577
464.390106	2505.453462
464.762130	2485.288846
465.134094	2460.083077
465.505999	2492.850577
465.877845	2465.124231
466.249631	2513.015192
466.621358	2513.015192
466.993026	2510.494615
467.364634	2470.165385
467.736184	2442.439038
468.107674	2470.165385
468.479105	2525.618077
468.850477	2460.083077
469.221790	2535.700385
469.593043	2510.494615
469.964238	2460.083077
470.335373	2477.727115
470.706449	2500.412308
471.077467	2558.385577
471.448425	2450.000769
471.819324	2581.070769
472.190164	2457.562500
472.560945	2540.741538
472.931667	2507.974038
473.302330	2394.548077
473.672934	2540.741538
474.043479	2497.891731
474.413965	2424.795000
474.784393	2497.891731
475.154761	2472.685962
475.525070	2364.301154
475.895321	2487.809423
476.265513	2457.562500
476.635645	2523.097500
477.005719	2576.029615
477.375734	2543.262115
477.745691	2482.768269
478.115588	2497.891731
478.485427	2495.371154
478.855207	2548.303269
479.224928	2480.247692
479.594591	2530.659231
479.964194	2578.550192
480.333739	2477.727115
480.703226	2467.644808
481.072653	2500.412308
481.442022	2485.288846
481.811333	2467.644808
482.180584	2477.727115
482.549777	2497.891731
482.918912	2510.494615
483.287988	2523.097500
483.657005	2518.056346
484.025964	2467.644808
484.394864	2392.027500
484.763706	2439.918462
485.132489	2555.865000
485.501213	2492.850577
485.869879	2487.809423
486.238487	2495.371154
486.607036	2399.589231
486.975527	2392.027500
487.343959	2621.400000
487.712333	2422.274423
488.080648	2568.467885
488.448905	2500.412308
488.817104	2530.659231
489.185244	2369.342308
489.553326	2525.618077
489.921350	2507.974038
490.289315	2470.165385
490.657222	2555.865000
491.025070	2490.330000
491.392861	2543.262115
491.760593	2457.562500
492.128267	2470.165385
492.495883	2447.480192
492.863440	2450.000769
493.230939	2535.700385
493.598380	2487.809423
493.965763	2510.494615
494.333088	2487.809423
494.700354	2545.782692
495.067563	2381.945192
495.434713	2492.850577
495.801805	2525.618077
496.168839	2533.179808
496.535815	2558.385577
496.902733	2475.206538
497.269593	2480.247692
497.636395	2513.015192
498.003139	2500.412308
498.369825	2487.809423
498.736453	2568.467885
499.103023	2510.494615
499.469535	2576.029615
499.835989	2475.206538
500.202385	2507.974038
500.568723	2492.850577
500.935003	2419.753846
501.301226	2452.521346
501.667390	2417.233269
502.033497	2467.644808
502.399546	2525.618077
502.765537	2515.535769
503.131470	2535.700385
503.497345	2553.344423
503.863163	2467.644808
504.228923	2467.644808
504.594625	2533.179808
504.960269	2548.303269
505.325856	2555.865000
505.691385	2533.179808
506.056856	2472.685962
506.422270	2510.494615
506.787625	2412.192115
507.152924	2487.809423
507.518164	2485.288846
507.883347	2495.371154
508.248472	2480.247692
508.613540	2470.165385
508.978550	2543.262115
509.343503	2462.603654
509.708398	2513.015192
510.073236	2520.576923
510.438016	2510.494615
510.802738	2455.041923
511.167403	2545.782692
511.532010	2510.494615
511.896561	2444.959615
512.261053	2525.618077
512.625488	2467.644808
512.989866	2457.562500
513.354186	2515.535769
513.718449	2497.891731
514.082655	2492.850577
514.446803	2422.274423
514.810894	2548.303269
515.174927	2492.850577
515.538904	2452.521346
515.902822	2581.070769
516.266684	2591.153077
516.630488	2573.509038
516.994235	2460.083077
517.357925	2576.029615
517.721558	2505.453462
518.085133	2505.453462
518.448651	2465.124231
518.812112	2500.412308
519.175516	2472.685962
519.538863	2507.974038
519.902152	2497.891731
520.265385	2477.727115
520.628560	2500.412308
520.991678	2444.959615
521.354739	2528.138654
521.717743	2528.138654
522.080690	2573.509038
522.443580	2510.494615
522.806413	2518.056346
523.169189	2487.809423
523.531908	2437.397885
523.894569	2510.494615
524.257174	2555.865000
524.619722	2477.727115
524.982213	2497.891731
525.344647	2543.262115
525.707025	2530.659231
526.069345	2482.768269
526.431608	2507.974038
526.793815	2533.179808
527.155964	2540.741538
527.518057	2495.371154
527.880093	2530.659231
528.242072	2462.603654
528.603995	2510.494615
528.965860	2505.453462
529.327669	2497.891731
529.689421	2530.659231
530.051117	2460.083077
530.412755	2490.330000
530.774337	2518.056346
531.135862	2462.603654
531.497331	2429.836154
531.858743	2490.330000
532.220098	2455.041923
532.581396	2548.303269
532.942638	2439.918462
533.303824	2460.083077
533.664953	2530.659231
534.026025	2472.685962
534.387040	2523.097500
534.747999	2444.959615
535.108902	2576.029615
535.469748	2354.218846
535.830537	2535.700385
536.191270	2424.795000
536.551947	2543.262115
536.912567	2402.109808
537.273131	2482.768269
537.633638	2437.397885
537.994089	2502.932885
538.354483	2550.823846
538.714821	2530.659231
539.075103	2545.782692
539.435328	2507.974038
539.795497	2550.823846
540.155609	2500.412308
540.515665	2500.412308
540.875665	2457.562500
541.235609	2513.015192
541.595496	2439.918462
541.955328	2505.453462
542.315102	2475.206538
542.674821	2523.097500
543.034483	2520.576923
543.394090	2490.330000
543.753640	2477.727115
544.113134	2518.056346
544.472571	2510.494615
544.831953	2500.412308
545.191278	2581.070769
545.550548	2523.097500
545.909761	2467.644808
546.268918	2475.206538
546.628019	2480.247692
546.987064	2429.836154
547.346053	2510.494615
547.704986	2538.220962
548.063863	2452.521346
548.422684	2560.906154
548.781449	2530.659231
549.140158	2485.288846
549.498811	2568.467885
549.857408	2475.206538
550.215949	2530.659231
550.574434	2495.371154
550.932864	2502.932885
551.291237	2523.097500
551.649555	2462.603654
552.007817	2520.576923
552.366022	2548.303269
552.724173	2510.494615
553.082267	2439.918462
553.440305	2495.371154
553.798288	2349.177692
554.156215	2502.932885
554.514086	2505.453462
554.871902	2419.753846
555.229661	2371.862885
555.587365	2460.083077
555.945014	2444.959615
556.302606	2457.562500
556.660143	2510.494615
557.017625	2500.412308
557.375050	2520.576923
557.732421	2472.685962
558.089735	2462.603654
558.446994	2465.124231
558.804197	2510.494615
559.161345	2455.041923
559.518437	2510.494615
559.875474	2505.453462
560.232455	2482.768269
560.589381	2455.041923
560.946251	2528.138654
561.303065	2495.371154
561.659825	2507.974038
562.016528	2545.782692
562.373177	2487.809423
562.729770	2497.891731
563.086307	2507.974038
563.442789	2533.179808
563.799216	2462.603654
564.155587	2553.344423
564.511904	2467.644808
564.868164	2492.850577
565.224370	2429.836154
565.580520	2444.959615
565.936615	2475.206538
566.292654	2422.274423
566.648638	2576.029615
567.004567	2520.576923
567.360441	2482.768269
567.716260	2482.768269
568.072023	2530.659231
568.427732	2513.015192
568.783385	2505.453462
569.138982	2500.412308
569.494525	2485.288846
569.850013	2455.041923
570.205445	2515.535769
570.560823	2487.809423
570.916145	2444.959615
571.271412	2442.439038
571.626625	2523.097500
571.981782	2543.262115
572.336884	2472.685962
572.691931	2477.727115
573.046923	2515.535769
573.401860	2414.712692
573.756743	2399.589231
574.111570	2545.782692
574.466342	2507.974038
574.821059	2533.179808
575.175722	2558.385577
575.530330	2470.165385
575.884882	2467.644808
576.239380	2487.809423
576.593823	2480.247692
576.948211	2487.809423
577.302544	2439.918462
577.656823	2548.303269
578.011047	2513.015192
578.365216	2515.535769
578.719330	2427.315577
579.073389	2490.330000
579.427394	2502.932885
579.781344	2510.494615
580.135239	2417.233269
580.489080	2412.192115
580.842866	2520.576923
581.196597	2409.671538
581.550273	2480.247692
581.903895	2437.397885
582.257463	2495.371154
582.610975	2626.441154
582.964434	2505.453462
583.317837	2601.235385
583.671186	2442.439038
584.024481	2477.727115
584.377721	2497.891731
584.730906	2487.809423
585.084037	2490.330000
585.437113	2560.906154
585.790135	2502.932885
586.143103	2523.097500
586.496016	2507.974038
586.848874	2485.288846
587.201679	2439.918462
587.554428	2530.659231
587.907124	2470.165385
588.259765	2538.220962
588.612352	2497.891731
588.964884	2530.659231
589.317362	2586.111923
589.669786	2520.576923
590.022155	2452.521346
590.374470	2502.932885
590.726731	2465.124231
591.078937	2482.768269
591.431090	2550.823846
591.783188	2434.877308
592.135232	2510.494615
592.487222	2472.685962
592.839157	2470.165385
593.191038	2530.659231
593.542866	2422.274423
593.894639	2525.618077
594.246358	2520.576923
594.598022	2520.576923
594.949633	2535.700385
595.301190	2480.247692
595.652692	2492.850577
596.004141	2470.165385
596.355535	2520.576923
596.706876	2467.644808
597.058162	2485.288846
597.409395	2490.330000
597.760573	2616.358846
598.111698	2460.083077
598.462768	2583.591346
598.813785	2558.385577
599.164748	2444.959615
599.515657	2497.891731
599.866511	2485.288846
600.217312	2404.630385
600.568060	2502.932885
600.918753	2467.644808
601.269392	2447.480192
601.619978	2523.097500
601.970510	2437.397885
602.320988	2586.111923
602.671412	2487.809423
603.021783	2558.385577
603.372100	2485.288846
603.722363	2533.179808
604.072572	2507.974038
604.422728	2533.179808
604.772830	2482.768269
605.122878	2487.809423
605.472872	2535.700385
605.822813	2492.850577
606.172701	2495.371154
606.522534	2495.371154
606.872314	2523.097500
607.222041	2432.356731
607.571714	2485.288846
607.921333	2437.397885
608.270899	2543.262115
608.620411	2475.206538
608.969870	2465.124231
609.319276	2457.562500
609.668627	2427.315577
610.017926	2444.959615
610.367171	2502.932885
610.716362	2507.974038
611.065500	2427.315577
611.414585	2452.521346
611.763616	2538.220962
612.112594	2439.918462
612.461518	2477.727115
612.810389	2397.068654
613.159207	2530.659231
613.507971	2558.385577
613.856682	2555.865000
614.205340	2467.644808
614.553945	2538.220962
614.902496	2480.247692
615.250994	2538.220962
615.599439	2422.274423
615.947830	2447.480192
616.296169	2437.397885
616.644454	2495.371154
616.992686	2452.521346
617.340864	2485.288846
617.688990	2457.562500
618.037063	2492.850577
618.385082	2487.809423
618.733048	2505.453462
619.080961	2497.891731
619.428821	2518.056346
619.776628	2480.247692
620.124382	2462.603654
620.472083	2507.974038
620.819731	2548.303269
621.167326	2568.467885
621.514868	2565.947308
621.862357	2510.494615
622.209793	2477.727115
622.557176	2502.932885
622.904506	2477.727115
623.251783	2533.179808
623.599007	2560.906154
623.946179	2437.397885
624.293297	2500.412308
624.640363	2462.603654
624.987376	2555.865000
625.334336	2465.124231
625.681243	2487.809423
626.028097	2475.206538
626.374899	2475.206538
626.721647	2472.685962
627.068343	2497.891731
627.414987	2472.685962
627.761577	2513.015192
628.108115	2558.385577
628.454600	2530.659231
628.801032	2523.097500
629.147412	2515.535769
629.493739	2570.988462
629.840014	2548.303269
630.186236	2520.576923
630.532405	2470.165385
630.878521	2482.768269
631.224585	2565.947308
631.570597	2447.480192
631.916556	2535.700385
632.262462	2465.124231
632.608316	2495.371154
632.954117	2502.932885
633.299866	2462.603654
633.645562	2477.727115
633.991206	2437.397885
634.336797	2502.932885
634.682336	2424.795000
635.027823	2480.247692
635.373257	2528.138654
635.718639	2477.727115
636.063968	2465.124231
636.409245	2507.974038
636.754470	2434.877308
637.099642	2467.644808
637.444762	2523.097500
637.789829	2513.015192
638.134845	2518.056346
638.479808	2553.344423
638.824719	2442.439038
639.169577	2520.576923
639.514383	2450.000769
639.859137	2407.150962
640.203839	2465.124231
640.548489	2520.576923
640.893086	2460.083077
641.237632	2525.618077
641.582125	2432.356731
641.926566	2497.891731
642.270955	2545.782692
642.615292	2429.836154
642.959576	2492.850577
643.303809	2485.288846
643.647990	2513.015192
643.992118	2507.974038
644.336195	2505.453462
644.680219	2465.124231
645.024192	2523.097500
645.368112	2500.412308
645.711981	2548.303269
646.055797	2528.138654
646.399562	2417.233269
646.743274	2540.741538
647.086935	2505.453462
647.430544	2543.262115
647.774101	2502.932885
648.117606	2548.303269
648.461059	2480.247692
648.804460	2548.303269
649.147810	2485.288846
649.491108	2560.906154
649.834354	2487.809423
650.177548	2465.124231
650.520690	2543.262115
650.863781	2417.233269
651.206820	2515.535769
651.549807	2492.850577
651.892742	2507.974038
652.235626	2490.330000
652.578458	2472.685962
652.921238	2502.932885
653.263967	2444.959615
653.606644	2402.109808
653.949269	2510.494615
654.291843	2510.494615
654.634365	2565.947308
654.976836	2492.850577
655.319255	2545.782692
655.661622	2525.618077
656.003938	2525.618077
656.346203	2482.768269
656.688416	2495.371154
657.030577	2507.974038
657.372687	2518.056346
657.714746	2407.150962
658.056753	2576.029615
658.398708	2467.644808
658.740612	2497.891731
659.082465	2417.233269
659.424266	2558.385577
659.766016	2462.603654
660.107715	2598.714808
660.449362	2422.274423
660.790958	2553.344423
661.132503	2578.550192
661.473996	2485.288846
661.815438	2412.192115
662.156829	2490.330000
662.498168	2586.111923
662.839456	2563.426731
663.180693	2528.138654
663.521879	2510.494615
663.863013	2540.741538
664.204097	2437.397885
664.545129	2495.371154
664.886110	2502.932885
665.227040	2535.700385
665.567918	2495.371154
665.908746	2497.891731
666.249522	2477.727115
666.590248	2525.618077
666.930922	2437.397885
667.271545	2553.344423
667.612118	2497.891731
667.952639	2563.426731
668.293109	2608.797115
668.633528	2497.891731
668.973896	2530.659231
669.314213	2528.138654
669.654480	2450.000769
669.994695	2487.809423
670.334859	2477.727115
670.674973	2550.823846
671.015035	2502.932885
671.355047	2565.947308
671.695008	2538.220962
672.034918	2462.603654
672.374777	2424.795000
672.714585	2424.795000
673.054342	2477.727115
673.394049	2482.768269
673.733705	2576.029615
674.073310	2477.727115
674.412864	2507.974038
674.752368	2513.015192
675.091820	2515.535769
675.431223	2462.603654
675.770574	2523.097500
676.109875	2477.727115
676.449125	2485.288846
676.788324	2558.385577
677.127473	2520.576923
677.466571	2601.235385
677.805619	2417.233269
678.144616	2538.220962
678.483562	2593.673654
678.822458	2545.782692
679.161303	2409.671538
679.500098	2507.974038
679.838842	2528.138654
680.177535	2444.959615
680.516179	2422.274423
680.854771	2480.247692
681.193314	2507.974038
681.531805	2558.385577
681.870247	2492.850577
682.208638	2470.165385
682.546978	2495.371154
682.885268	2442.439038
683.223508	2548.303269
683.561697	2485.288846
683.899836	2500.412308
684.237925	2533.179808
684.575963	2450.000769
684.913951	2573.509038
685.251889	2548.303269
685.589776	2530.659231
685.927614	2495.371154
686.265401	2505.453462
686.603137	2520.576923
686.940824	2452.521346
687.278460	2495.371154
687.616046	2523.097500
687.953582	2402.109808
688.291068	2530.659231
688.628504	2555.865000
688.965889	2462.603654
689.303224	2555.865000
689.640510	2540.741538
689.977745	2515.535769
690.314930	2507.974038
690.652065	2419.753846
690.989150	2528.138654
691.326185	2515.535769
691.663170	2533.179808
692.000105	2502.932885
692.336990	2576.029615
692.673825	2482.768269
693.010610	2528.138654
693.347345	2550.823846
693.684030	2444.959615
694.020665	2578.550192
694.357251	2530.659231
694.693786	2497.891731
695.030272	2495.371154
695.366707	2477.727115
695.703093	2472.685962
696.039429	2550.823846
696.375716	2497.891731
696.711952	2533.179808
697.048139	2533.179808
697.384276	2490.330000
697.720363	2455.041923
698.056400	2568.467885
698.392388	2515.535769
698.728326	2475.206538
699.064214	2576.029615
699.400053	2482.768269
699.735842	2558.385577
700.071581	2477.727115
700.407270	2452.521346
700.742910	2533.179808
701.078501	2460.083077
701.414042	2487.809423
701.749533	2467.644808
702.084974	2505.453462
702.420366	2475.206538
702.755709	2520.576923
703.091002	2502.932885
703.426246	2513.015192
703.761440	2507.974038
704.096584	2578.550192
704.431679	2515.535769
704.766725	2419.753846
705.101721	2490.330000
705.436668	2523.097500
705.771565	2543.262115
706.106413	2467.644808
706.441212	2525.618077
706.775961	2520.576923
707.110661	2505.453462
707.445311	2555.865000
707.779913	2457.562500
708.114465	2593.673654
708.448967	2520.576923
708.783421	2543.262115
709.117825	2502.932885
709.452180	2482.768269
709.786485	2414.712692
710.120742	2530.659231
710.454949	2520.576923
710.789107	2500.412308
711.123216	2429.836154
711.457275	2502.932885
711.791286	2490.330000
712.125247	2530.659231
712.459159	2510.494615
712.793023	2550.823846
713.126837	2525.618077
713.460602	2500.412308
713.794318	2570.988462
714.127985	2475.206538
714.461602	2485.288846
714.795171	2457.562500
715.128691	2490.330000
715.462162	2480.247692
715.795584	2482.768269
716.128957	2432.356731
716.462281	2518.056346
716.795556	2424.795000
717.128782	2480.247692
717.461960	2394.548077
717.795088	2505.453462
718.128167	2502.932885
718.461198	2497.891731
718.794180	2505.453462
719.127113	2376.904038
719.459997	2487.809423
719.792833	2434.877308
720.125619	2568.467885
720.458357	2402.109808
720.791046	2477.727115
721.123686	2457.562500
721.456278	2568.467885
721.788821	2462.603654
722.121315	2490.330000
722.453761	2402.109808
722.786158	2533.179808
723.118506	2452.521346
723.450805	2465.124231
723.783056	2510.494615
724.115259	2500.412308
724.447412	2555.865000
724.779518	2525.618077
725.111574	2578.550192
725.443582	2485.288846
725.775542	2505.453462
726.107453	2518.056346
726.439315	2442.439038
726.771129	2518.056346
727.102895	2407.150962
727.434612	2477.727115
727.766281	2492.850577
728.097901	2515.535769
728.429473	2477.727115
728.760996	2482.768269
729.092471	2432.356731
729.423897	2480.247692
729.755276	2452.521346
730.086606	2518.056346
730.417887	2465.124231
730.749120	2480.247692
731.080305	2485.288846
731.411442	2495.371154
731.742530	2507.974038
732.073570	2533.179808
732.404562	2429.836154
732.735506	2538.220962
733.066401	2477.727115
733.397249	2477.727115
733.728048	2439.918462
734.058798	2555.865000
734.389501	2518.056346
734.720156	2462.603654
735.050762	2513.015192
735.381320	2495.371154
735.711831	2538.220962
736.042293	2487.809423
736.372707	2510.494615
736.703073	2480.247692
737.033391	2558.385577
737.363661	2513.015192
737.693883	2432.356731
738.024056	2465.124231
738.354182	2555.865000
738.684260	2437.397885
739.014290	2450.000769
739.344272	2520.576923
739.674207	2462.603654
740.004093	2518.056346
740.333931	2513.015192
740.663722	2540.741538
740.993464	2470.165385
741.323159	2475.206538
741.652806	2497.891731
741.982405	2505.453462
742.311956	2550.823846
742.641460	2485.288846
742.970915	2462.603654
743.300323	2472.685962
743.629683	2533.179808
743.958996	2530.659231
744.288260	2528.138654
744.617477	2495.371154
744.946647	2545.782692
745.275768	2545.782692
745.604842	2439.918462
745.933869	2502.932885
746.262847	2432.356731
746.591778	2472.685962
746.920662	2543.262115
747.249498	2419.753846
747.578286	2545.782692
747.907027	2485.288846
748.235720	2480.247692
748.564365	2480.247692
748.892963	2510.494615
749.221514	2502.932885
749.550017	2533.179808
749.878473	2505.453462
750.206881	2510.494615
750.535242	2545.782692
750.863555	2460.083077
751.191821	2525.618077
751.520039	2492.850577
751.848210	2399.589231
752.176334	2482.768269
752.504411	2424.795000
752.832440	2533.179808
753.160421	2480.247692
753.488356	2550.823846
753.816243	2465.124231
754.144082	2477.727115
754.471875	2555.865000
754.799620	2520.576923
755.127318	2460.083077
755.454969	2507.974038
755.782572	2452.521346
756.110129	2553.344423
756.437638	2565.947308
756.765100	2515.535769
757.092515	2583.591346
757.419882	2424.795000
757.747203	2470.165385
758.074477	2553.344423
758.401703	2452.521346
758.728882	2581.070769
759.056014	2437.397885
759.383099	2500.412308
759.710138	2500.412308
760.037129	2465.124231
760.364073	2404.630385
760.690970	2523.097500
761.017820	2560.906154
761.344623	2429.836154
761.671379	2543.262115
761.998088	2482.768269
762.324751	2540.741538
762.651366	2485.288846
762.977935	2515.535769
763.304456	2465.124231
763.630931	2455.041923
763.957359	2520.576923
764.283740	2397.068654
764.610074	2528.138654
764.936362	2452.521346
765.262602	2558.385577
765.588796	2460.083077
765.914943	2397.068654
766.241044	2563.426731
766.567097	2434.877308
766.893104	2356.739423
767.219064	2495.371154
767.544978	2523.097500
767.870845	2576.029615
768.196665	2472.685962
768.522438	2492.850577
768.848165	2528.138654
769.173846	2505.453462
769.499479	2528.138654
769.825066	2520.576923
770.150607	2520.576923
770.476101	2482.768269
770.801548	2447.480192
771.126949	2563.426731
771.452303	2414.712692
771.777611	2424.795000
772.102872	2505.453462
772.428087	2457.562500
772.753256	2540.741538
773.078378	2573.509038
773.403453	2472.685962
773.728482	2543.262115
774.053465	2427.315577
774.378401	2510.494615
774.703291	2470.165385
775.028135	2555.865000
775.352932	2480.247692
775.677683	2528.138654
776.002388	2505.453462
776.327046	2470.165385
776.651658	2553.344423
776.976224	2460.083077
777.300743	2452.521346
777.625216	2442.439038
777.949643	2550.823846
778.274024	2565.947308
778.598359	2409.671538
778.922647	2444.959615
779.246889	2520.576923
779.571086	2515.535769
779.895236	2533.179808
780.219339	2470.165385
780.543397	2462.603654
780.867409	2495.371154
781.191374	2482.768269
781.515294	2515.535769
781.839167	2545.782692
782.162995	2505.453462
782.486776	2528.138654
782.810511	2470.165385
783.134201	2477.727115
783.457844	2518.056346
783.781441	2523.097500
784.104993	2442.439038
784.428498	2545.782692
784.751958	2487.809423
785.075372	2477.727115
785.398739	2540.741538
785.722061	2495.371154
786.045337	2452.521346
786.368568	2462.603654
786.691752	2523.097500
787.014891	2540.741538
787.337983	2447.480192
787.661030	2460.083077
787.984031	2349.177692
788.306987	2434.877308
788.629897	2520.576923
788.952760	2467.644808
789.275579	2550.823846
789.598351	2424.795000
789.921078	2492.850577
790.243759	2495.371154
790.566395	2487.809423
790.888984	2555.865000
791.211529	2432.356731
791.534027	2576.029615
791.856480	2492.850577
792.178888	2523.097500
792.501249	2543.262115
792.823566	2455.041923
793.145836	2583.591346
793.468062	2444.959615
793.790241	2480.247692
794.112375	2394.548077
794.434464	2462.603654
794.756507	2495.371154
795.078505	2588.632500
795.400457	2525.618077
795.722364	2407.150962
796.044226	2550.823846
796.366042	2523.097500
796.687812	2492.850577
797.009538	2442.439038
797.331218	2533.179808
797.652852	2465.124231
797.974442	2560.906154
798.295986	2530.659231
798.617484	2455.041923
798.938938	2530.659231
799.260346	2507.974038
799.581709	2450.000769
799.903026	2460.083077
800.224299	2497.891731
800.545526	2450.000769
800.866708	2593.673654
801.187845	2490.330000
801.508936	2560.906154
801.829983	2442.439038
802.150984	2495.371154
802.471940	2419.753846
802.792851	2505.453462
803.113717	2500.412308
803.434538	2470.165385
803.755314	2523.097500
804.076045	2465.124231
804.396731	2548.303269
804.717372	2439.918462
805.037967	2505.453462
805.358518	2555.865000
805.679024	2467.644808
805.999485	2467.644808
806.319901	2480.247692
806.640272	2492.850577
806.960598	2518.056346
807.280879	2487.809423
807.601115	2467.644808
807.921306	2444.959615
808.241453	2480.247692
808.561554	2518.056346
808.881611	2487.809423
809.201623	2502.932885
809.521590	2538.220962
809.841513	2450.000769
810.161390	2442.439038
810.481223	2528.138654
810.801011	2480.247692
811.120755	2513.015192
811.440453	2460.083077
811.760107	2555.865000
812.079716	2366.821731
812.399281	2455.041923
812.718801	2560.906154
813.038276	2485.288846
813.357707	2492.850577
813.677093	2452.521346
813.996434	2417.233269
814.315731	2540.741538
814.634983	2482.768269
814.954191	2495.371154
815.273354	2500.412308
815.592473	2518.056346
815.911547	2475.206538
816.230577	2475.206538
816.549562	2487.809423
816.868502	2419.753846
817.187399	2568.467885
817.506250	2467.644808
817.825058	2467.644808
818.143821	2507.974038
818.462539	2581.070769
818.781213	2492.850577
819.099843	2513.015192
819.418429	2613.838269
819.736970	2462.603654
820.055466	2465.124231
820.373919	2429.836154
820.692327	2485.288846
821.010691	2434.877308
821.329011	2455.041923
821.647286	2497.891731
821.965517	2495.371154
822.283704	2558.385577
822.601847	2523.097500
822.919945	2437.397885
823.237999	2513.015192
823.556010	2497.891731
823.873976	2523.097500
824.191897	2505.453462
824.509775	2507.974038
824.827609	2450.000769
825.145398	2518.056346
825.463144	2439.918462
825.780845	2482.768269
826.098502	2502.932885
826.416116	2495.371154
826.733685	2487.809423
827.051210	2450.000769
827.368692	2485.288846
827.686129	2560.906154
828.003522	2457.562500
828.320872	2422.274423
828.638177	2434.877308
828.955439	2558.385577
829.272656	2485.288846
829.589830	2492.850577
829.906960	2475.206538
830.224046	2422.274423
830.541088	2543.262115
830.858086	2492.850577
831.175041	2470.165385
831.491952	2548.303269
831.808819	2404.630385
832.125642	2475.206538
832.442421	2520.576923
832.759157	2535.700385
833.075849	2523.097500
833.392497	2533.179808
833.709101	2513.015192
834.025662	2505.453462
834.342179	2538.220962
834.658653	2540.741538
834.975083	2520.576923
835.291469	2581.070769
835.607811	2422.274423
835.924110	2457.562500
836.240366	2490.330000
836.556578	2500.412308
836.872746	2545.782692
837.188871	2409.671538
837.504952	2487.809423
837.820990	2490.330000
838.136984	2475.206538
838.452935	2492.850577
838.768842	2520.576923
839.084706	2492.850577
839.400526	2450.000769
839.716303	2518.056346
840.032037	2510.494615
840.347727	2414.712692
840.663373	2510.494615
840.978977	2460.083077
841.294537	2523.097500
841.610054	2475.206538
841.925527	2492.850577
842.240957	2490.330000
842.556344	2525.618077
842.871687	2480.247692
843.186987	2538.220962
843.502244	2495.371154
843.817458	2485.288846
844.132629	2376.904038
844.447756	2439.918462
844.762840	2533.179808
845.077881	2492.850577
845.392879	2482.768269
845.707833	2467.644808
846.022745	2460.083077
846.337613	2576.029615
846.652438	2500.412308
846.967221	2545.782692
847.281960	2502.932885
847.596656	2439.918462
847.911309	2538.220962
848.225919	2540.741538
848.540485	2553.344423
848.855009	2525.618077
849.169490	2495.371154
849.483928	2558.385577
849.798323	2555.865000
850.112675	2510.494615
850.426984	2477.727115
850.741251	2442.439038
851.055474	2538.220962
851.369654	2482.768269
851.683792	2510.494615
851.997887	2502.932885
852.311938	2555.865000
852.625947	2513.015192
852.939914	2485.288846
853.253837	2450.000769
853.567718	2460.083077
853.881555	2492.850577
854.195350	2500.412308
854.509103	2417.233269
854.822812	2455.041923
855.136479	2485.288846
855.450103	2515.535769
855.763685	2535.700385
856.077224	2432.356731
856.390720	2523.097500
856.704173	2477.727115
857.017584	2502.932885
857.330953	2467.644808
857.644278	2460.083077
857.957561	2500.412308
858.270802	2502.932885
858.584000	2495.371154
858.897155	2502.932885
859.210268	2439.918462
859.523339	2495.371154
859.836367	2450.000769
860.149352	2432.356731
860.462295	2495.371154
860.775195	2480.247692
861.088054	2427.315577
861.400869	2470.165385
861.713642	2520.576923
862.026373	2533.179808
862.339062	2414.712692
862.651708	2518.056346
862.964312	2480.247692
863.276873	2429.836154
863.589392	2515.535769
863.901869	2477.727115
864.214303	2432.356731
864.526696	2500.412308
864.839045	2485.288846
865.151353	2462.603654
865.463619	2432.356731
865.775842	2475.206538
866.088023	2394.548077
866.400162	2447.480192
866.712258	2475.206538
867.024313	2515.535769
867.336325	2518.056346
867.648296	2437.397885
867.960224	2452.521346
868.272110	2513.015192
868.583954	2447.480192
868.895755	2513.015192
869.207515	2492.850577
869.519233	2520.576923
869.830909	2555.865000
870.142542	2513.015192
870.454134	2535.700385
870.765684	2540.741538
871.077191	2475.206538
871.388657	2442.439038
871.700081	2495.371154
872.011463	2538.220962
872.322803	2495.371154
872.634101	2518.056346
872.945357	2510.494615
873.256571	2492.850577
873.567744	2507.974038
873.878874	2538.220962
874.189963	2457.562500
874.501010	2434.877308
874.812015	2550.823846
875.122979	2523.097500
875.433900	2548.303269
875.744780	2447.480192
876.055618	2497.891731
876.366415	2460.083077
876.677169	2550.823846
876.987882	2548.303269
877.298554	2432.356731
877.609183	2422.274423
877.919771	2399.589231
878.230317	2460.083077
878.540822	2513.015192
878.851285	2495.371154
879.161707	2490.330000
879.472087	2495.371154
879.782425	2530.659231
880.092722	2490.330000
880.402977	2558.385577
880.713191	2470.165385
881.023363	2513.015192
881.333494	2515.535769
881.643583	2460.083077
881.953631	2472.685962
882.263637	2555.865000
882.573602	2429.836154
882.883526	2392.027500
883.193408	2450.000769
883.503248	2530.659231
883.813048	2497.891731
884.122806	2495.371154
884.432522	2475.206538
884.742197	2530.659231
885.051831	2414.712692
885.361424	2507.974038
885.670975	2583.591346
885.980485	2457.562500
886.289954	2480.247692
886.599382	2472.685962
886.908768	2518.056346
887.218113	2535.700385
887.527417	2467.644808
887.836680	2485.288846
888.145901	2555.865000
888.455082	2528.138654
888.764221	2457.562500
889.073319	2487.809423
889.382376	2417.233269
889.691392	2538.220962
890.000366	2513.015192
890.309300	2518.056346
890.618193	2462.603654
890.927044	2492.850577
891.235855	2462.603654
891.544625	2429.836154
891.853353	2477.727115
892.162041	2465.124231
892.470687	2555.865000
892.779293	2565.947308
893.087858	2470.165385
893.396381	2528.138654
893.704864	2477.727115
894.013306	2533.179808
894.321707	2492.850577
894.630068	2465.124231
894.938387	2528.138654
895.246665	2507.974038
895.554903	2444.959615
895.863100	2495.371154
896.171256	2518.056346
896.479371	2407.150962
896.787446	2442.439038
897.095480	2578.550192
897.403473	2502.932885
897.711425	2528.138654
898.019336	2472.685962
898.327207	2404.630385
898.635038	2563.426731
898.942827	2480.247692
899.250576	2533.179808
899.558284	2424.795000
899.865952	2573.509038
900.173579	2455.041923
900.481165	2444.959615
900.788711	2475.206538
901.096216	2502.932885
901.403681	2485.288846
901.711105	2482.768269
902.018489	2543.262115
902.325832	2518.056346
902.633135	2515.535769
902.940397	2487.809423
903.247619	2485.288846
903.554800	2450.000769
903.861941	2457.562500
904.169041	2492.850577
904.476101	2553.344423
904.783121	2573.509038
905.090100	2530.659231
905.397039	2513.015192
905.703938	2485.288846
906.010796	2450.000769
906.317614	2409.671538
906.624391	2465.124231
906.931129	2500.412308
907.237826	2518.056346
907.544483	2409.671538
907.851099	2510.494615
908.157675	2538.220962
908.464211	2409.671538
908.770707	2538.220962
909.077163	2424.795000
909.383578	2470.165385
909.689954	2583.591346
909.996289	2545.782692
910.302584	2422.274423
910.608839	2548.303269
910.915054	2480.247692
911.221229	2505.453462
911.527363	2432.356731
911.833458	2434.877308
912.139513	2497.891731
912.445527	2439.918462
912.751502	2538.220962
913.057436	2525.618077
913.363331	2518.056346
913.669186	2467.644808
913.975000	2530.659231
914.280775	2492.850577
914.586510	2538.220962
914.892205	2447.480192
915.197859	2518.056346
915.503475	2560.906154
915.809050	2434.877308
916.114585	2507.974038
916.420081	2402.109808
916.725536	2487.809423
917.030952	2505.453462
917.336328	2533.179808
917.641665	2492.850577
917.946961	2429.836154
918.252218	2492.850577
918.557435	2553.344423
918.862612	2525.618077
919.167750	2475.206538
919.472848	2545.782692
919.777906	2535.700385
920.082925	2500.412308
920.387904	2528.138654
920.692843	2492.850577
920.997743	2492.850577
921.302603	2497.891731
921.607423	2510.494615
921.912204	2533.179808
922.216946	2409.671538
922.521647	2475.206538
922.826310	2487.809423
923.130932	2515.535769
923.435516	2495.371154
923.740059	2475.206538
924.044564	2437.397885
924.349028	2513.015192
924.653454	2603.755962
924.957840	2568.467885
925.262186	2427.315577
925.566493	2462.603654
925.870761	2470.165385
926.174989	2520.576923
926.479178	2487.809423
926.783328	2533.179808
927.087438	2485.288846
927.391509	2470.165385
927.695541	2485.288846
927.999533	2447.480192
928.303486	2505.453462
928.607400	2528.138654
928.911275	2550.823846
929.215110	2462.603654
929.518906	2573.509038
929.822663	2452.521346
930.126381	2538.220962
930.430060	2535.700385
930.733699	2495.371154
931.037299	2510.494615
931.340861	2540.741538
931.644383	2588.632500
931.947866	2502.932885
932.251309	2467.644808
932.554714	2450.000769
932.858080	2581.070769
933.161407	2412.192115
933.464694	2535.700385
933.767943	2502.932885
934.071153	2500.412308
934.374323	2439.918462
934.677455	2414.712692
934.980548	2422.274423
935.283602	2465.124231
935.586617	2550.823846
935.889593	2369.342308
936.192530	2543.262115
936.495428	2465.124231
936.798287	2523.097500
937.101108	2520.576923
937.403890	2550.823846
937.706632	2419.753846
938.009336	2523.097500
938.312002	2485.288846
938.614628	2485.288846
938.917216	2550.823846
939.219765	2460.083077
939.522275	2515.535769
939.824747	2472.685962
940.127179	2472.685962
940.429573	2465.124231
940.731929	2525.618077
941.034246	2553.344423
941.336524	2419.753846
941.638763	2515.535769
941.940964	2553.344423
942.243126	2462.603654
942.545250	2495.371154
942.847335	2591.153077
943.149381	2432.356731
943.451389	2465.124231
943.753359	2455.041923
944.055290	2573.509038
944.357182	2505.453462
944.659036	2515.535769
944.960851	2472.685962
945.262628	2492.850577
945.564367	2485.288846
945.866067	2502.932885
946.167729	2497.891731
946.469352	2515.535769
946.770937	2515.535769
947.072484	2558.385577
947.373992	2520.576923
947.675462	2427.315577
947.976893	2533.179808
948.278286	2528.138654
948.579641	2477.727115
948.880958	2515.535769
949.182236	2518.056346
949.483476	2525.618077
949.784678	2457.562500
950.085841	2507.974038
950.386967	2482.768269
950.688054	2518.056346
950.989103	2467.644808
951.290114	2467.644808
951.591087	2447.480192
951.892021	2480.247692
952.192917	2528.138654
952.493776	2558.385577
952.794596	2553.344423
953.095378	2528.138654
953.396122	2570.988462
953.696828	2497.891731
953.997496	2442.439038
954.298126	2505.453462
954.598718	2523.097500
954.899272	2470.165385
955.199788	2457.562500
955.500266	2520.576923
955.800706	2588.632500
956.101108	2505.453462
956.401472	2455.041923
956.701798	2507.974038
957.002087	2540.741538
957.302337	2518.056346
957.602550	2417.233269
957.902724	2402.109808
958.202861	2497.891731
958.502960	2450.000769
958.803022	2487.809423
959.103045	2578.550192
959.403031	2535.700385
959.702979	2518.056346
960.002889	2500.412308
960.302762	2502.932885
960.602596	2513.015192
960.902393	2502.932885
961.202153	2482.768269
961.501875	2505.453462
961.801559	2495.371154
962.101205	2515.535769
962.400814	2470.165385
962.700385	2455.041923
962.999918	2502.932885
963.299414	2497.891731
963.598873	2472.685962
963.898293	2515.535769
964.197677	2457.562500
964.497022	2545.782692
964.796331	2538.220962
965.095601	2480.247692
965.394835	2593.673654
965.694030	2568.467885
965.993189	2502.932885
966.292309	2528.138654
966.591393	2510.494615
966.890439	2520.576923
967.189447	2442.439038
967.488419	2565.947308
967.787353	2427.315577
968.086249	2490.330000
968.385108	2510.494615
968.683930	2500.412308
968.982714	2492.850577
969.281462	2497.891731
969.580172	2490.330000
969.878844	2530.659231
970.177480	2510.494615
970.476078	2500.412308
970.774639	2467.644808
971.073162	2480.247692
971.371649	2535.700385
971.670098	2419.753846
971.968510	2490.330000
972.266885	2507.974038
972.565223	2444.959615
972.863524	2462.603654
973.161788	2419.753846
973.460014	2475.206538
973.758204	2432.356731
974.056356	2452.521346
974.354471	2500.412308
974.652550	2465.124231
974.950591	2472.685962
975.248595	2429.836154
975.546563	2545.782692
975.844493	2450.000769
976.142386	2518.056346
976.440243	2535.700385
976.738062	2550.823846
977.035845	2467.644808
977.333590	2439.918462
977.631299	2518.056346
977.928971	2462.603654
978.226606	2490.330000
978.524204	2467.644808
978.821765	2525.618077
979.119290	2502.932885
979.416777	2515.535769
979.714228	2520.576923
980.011642	2407.150962
980.309020	2518.056346
980.606360	2465.124231
980.903664	2533.179808
981.200931	2460.083077
981.498162	2487.809423
981.795356	2437.397885
982.092513	2397.068654
982.389633	2475.206538
982.686717	2439.918462
982.983764	2528.138654
983.280775	2477.727115
983.577749	2457.562500
983.874686	2533.179808
984.171587	2550.823846
984.468451	2482.768269
984.765279	2497.891731
985.062070	2457.562500
985.358824	2500.412308
985.655543	2455.041923
985.952224	2565.947308
986.248869	2452.521346
986.545478	2422.274423
986.842050	2475.206538
987.138586	2502.932885
987.435086	2492.850577
987.731549	2490.330000
988.027975	2465.124231
988.324366	2432.356731
988.620719	2470.165385
988.917037	2485.288846
989.213318	2490.330000
989.509563	2467.644808
989.805772	2475.206538
990.101944	2439.918462
990.398080	2513.015192
990.694180	2369.342308
990.990244	2492.850577
991.286271	2553.344423
991.582262	2540.741538
991.878217	2444.959615
992.174136	2465.124231
992.470019	2576.029615
992.765865	2455.041923
993.061676	2490.330000
993.357450	2528.138654
993.653188	2457.562500
993.948890	2477.727115
994.244556	2492.850577
994.540186	2581.070769
994.835780	2558.385577
995.131337	2507.974038
995.426859	2366.821731
995.722345	2485.288846
996.017795	2429.836154
996.313208	2497.891731
996.608586	2437.397885
996.903928	2492.850577
997.199234	2553.344423
997.494504	2475.206538
997.789738	2397.068654
998.084936	2507.974038
998.380099	2450.000769
998.675225	2470.165385
998.970316	2462.603654
999.265371	2528.138654
999.560390	2462.603654
999.855373	2495.371154
1000.150320	2515.535769
1000.445232	2480.247692
1000.740108	2462.603654
1001.034948	2530.659231
1001.329752	2447.480192
1001.624521	2472.685962
1001.919254	2500.412308
1002.213951	2394.548077
1002.508613	2460.083077
1002.803239	2518.056346
1003.097829	2465.124231
1003.392384	2394.548077
1003.686903	2563.426731
1003.981386	2475.206538
1004.275834	2422.274423
1004.570246	2472.685962
1004.864623	2422.274423
1005.158964	2419.753846
1005.453270	2533.179808
1005.747540	2601.235385
1006.041775	2444.959615
1006.335974	2470.165385
1006.630138	2455.041923
1006.924266	2434.877308
1007.218359	2460.083077
1007.512416	2472.685962
1007.806438	2480.247692
1008.100425	2477.727115
1008.394376	2407.150962
1008.688292	2495.371154
1008.982172	2444.959615
1009.276017	2460.083077
1009.569827	2548.303269
1009.863602	2452.521346
1010.157341	2523.097500
1010.451045	2497.891731
1010.744714	2470.165385
1011.038347	2507.974038
1011.331945	2439.918462
1011.625508	2565.947308
1011.919036	2457.562500
1012.212528	2515.535769
1012.505986	2513.015192
1012.799408	2424.795000
1013.092795	2422.274423
1013.386147	2447.480192
1013.679464	2487.809423
1013.972745	2460.083077
1014.265992	2472.685962
1014.559204	2480.247692
1014.852380	2523.097500
1015.145521	2482.768269
1015.438628	2434.877308
1015.731699	2540.741538
1016.024736	2495.371154
1016.317737	2500.412308
1016.610703	2525.618077
1016.903635	2457.562500
1017.196531	2434.877308
1017.489393	2492.850577
1017.782219	2520.576923
1018.075011	2402.109808
1018.367768	2588.632500
1018.660490	2513.015192
1018.953177	2513.015192
1019.245829	2513.015192
