Dividing Wavelength (nm)	Counts (n)	Blue Motor Position (mm): 27.500000	Red Motor Position (mm): 0.000000	
326.493990	2153.248207
326.888308	2153.248207
327.282561	2153.248207
327.676750	2131.581328
328.070874	2134.895886
328.464933	2137.101391
328.858929	2146.500623
329.252859	2158.468322
329.646726	2174.395847
330.040528	2185.998063
330.434265	2207.329705
330.827938	2224.174721
331.221547	2242.771538
331.615091	2263.430186
332.008571	2283.539349
332.401986	2303.303192
332.795338	2324.574341
333.188625	2345.784996
333.581847	2364.061699
333.975006	2385.269833
334.368100	2402.492935
334.761129	2419.133784
335.154095	2435.998964
335.546996	2458.812706
335.939833	2491.693632
336.332606	2504.213338
336.725315	2515.646675
337.117960	2523.052130
337.510540	2531.790970
337.903056	2540.665921
338.295508	2546.846376
338.687896	2556.197716
339.080220	2561.891699
339.472480	2566.620302
339.864676	2572.778071
340.256807	2576.828638
340.648875	2577.063052
341.040879	2580.740574
341.432818	2579.971798
341.824694	2579.939030
342.216506	2581.859710
342.608253	2581.015317
342.999937	2576.538772
343.391557	2578.371231
343.783113	2581.383321
344.174605	2575.596076
344.566033	2576.299317
344.957397	2571.656414
345.348697	2570.358317
345.739934	2570.179356
346.131106	2567.961249
346.522215	2565.211299
346.913260	2563.179714
347.304241	2563.983778
347.695159	2558.680484
348.086012	2560.152501
348.476802	2558.148643
348.867528	2559.000598
349.258191	2555.015566
349.648789	2551.950544
350.039324	2553.977088
350.429796	2552.424413
350.820203	2551.065822
351.210548	2549.467776
351.600828	2550.276881
351.991045	2547.194215
352.381198	2548.560368
352.771288	2547.577343
353.161314	2549.538352
353.551276	2547.433670
353.941175	2544.809750
354.331010	2550.072714
354.720782	2548.237734
355.110490	2551.096068
355.500135	2547.499205
355.889717	2549.881150
356.279235	2549.359391
356.668689	2552.247972
357.058080	2550.140770
357.447408	2548.199926
357.836672	2549.840821
358.225873	2547.968033
358.615010	2548.134391
359.004084	2553.495658
359.393095	2551.617828
359.782043	2552.610935
360.170927	2552.694114
360.559748	2556.767367
360.948505	2556.666543
361.337199	2554.929866
361.725830	2556.036399
362.114398	2556.623694
362.502903	2558.194013
362.891344	2557.573951
363.279722	2558.438509
363.668037	2555.668395
364.056289	2556.709393
364.444478	2559.464384
364.832603	2559.537481
365.220665	2558.930022
365.608665	2563.338511
365.996601	2561.027142
366.384474	2561.674930
366.772284	2560.608726
367.160031	2563.139385
367.547715	2562.947821
367.935336	2559.040927
368.322893	2561.102759
368.710388	2563.824982
369.097820	2565.425548
369.485189	2561.564024
369.872495	2562.153839
370.259738	2563.885476
370.646918	2561.614436
371.034035	2567.568039
371.421090	2567.031156
371.808081	2566.567370
372.195010	2565.700291
372.581875	2565.259190
372.968678	2565.909499
373.355418	2566.706001
373.742096	2566.453944
374.128710	2567.477298
374.515262	2569.589541
374.901751	2568.893862
375.288177	2565.738100
375.674540	2569.687844
376.060841	2569.085426
376.447079	2567.137020
376.833254	2567.373954
377.219367	2563.351113
377.605417	2563.106618
377.991404	2563.711556
378.377329	2566.655590
378.763191	2566.927812
379.148991	2569.934860
379.534727	2569.652556
379.920402	2570.438976
380.306013	2569.266907
380.691563	2572.710016
381.077049	2571.762279
381.462474	2571.006106
381.847835	2572.276476
382.233134	2572.213462
382.618371	2570.806980
383.003545	2570.499470
383.388657	2572.773030
383.773706	2572.253791
384.158693	2572.780592
384.543618	2575.162537
384.928480	2572.997361
385.313280	2572.137845
385.698017	2575.432239
386.082692	2574.171950
386.467305	2573.914851
386.851856	2574.040880
387.236344	2576.745459
387.620770	2576.405181
388.005133	2576.763103
388.389435	2576.087589
388.773674	2573.995510
389.157851	2574.499625
389.541965	2576.692527
389.926018	2576.871488
390.310008	2575.293607
390.693936	2577.594894
391.077802	2574.176991
391.461606	2578.184709
391.845348	2579.049267
392.229027	2578.212435
392.612645	2577.050449
392.996200	2577.879719
393.379694	2578.734194
393.763125	2580.831314
394.146494	2577.972980
394.529801	2578.852662
394.913047	2580.669998
395.296230	2578.368711
395.679351	2580.327199
396.062410	2581.075810
396.445408	2579.709658
396.828343	2581.622776
397.211217	2576.231262
397.594028	2574.048442
397.976778	2577.143710
398.359466	2579.177816
398.742092	2578.109091
399.124656	2581.085893
399.507158	2583.976994
399.889598	2580.503639
400.271977	2584.234093
400.654294	2585.721234
401.036549	2581.655543
401.418742	2582.668815
401.800874	2583.009093
402.182944	2583.908939
402.564952	2585.912797
402.946898	2583.528332
403.328783	2584.024885
403.710606	2583.669484
404.092367	2581.768969
404.474067	2585.363312
404.855705	2585.491861
405.237282	2584.302149
405.618797	2585.219639
406.000250	2587.962027
406.381642	2584.642427
406.762972	2585.943044
407.144240	2586.477407
407.525447	2589.060998
407.906593	2586.555545
408.287677	2582.295770
408.668700	2587.515884
409.049661	2588.929928
409.430560	2586.910946
409.811399	2588.428333
410.192176	2587.866245
410.572891	2589.761718
410.953545	2588.060329
411.334138	2587.715010
411.714669	2591.203488
412.095139	2591.631987
412.475547	2588.657706
412.855894	2588.261975
413.236180	2589.991091
413.616405	2590.333889
413.996568	2589.280288
414.376670	2589.333220
414.756711	2591.256421
415.136691	2589.466811
415.516609	2588.388004
415.896466	2593.328335
416.276262	2591.498396
416.655997	2588.388004
417.035670	2588.640062
417.415283	2588.990422
417.794834	2586.865576
418.174324	2590.976637
418.553753	2593.557707
418.933121	2594.371854
419.312428	2592.887234
419.691674	2591.994950
420.070859	2592.186513
420.449983	2589.900350
420.829045	2595.337235
421.208047	2593.398911
421.586988	2593.701380
421.965867	2595.939652
422.344686	2597.121803
422.723444	2596.403439
423.102141	2592.015114
423.480777	2592.796493
423.859352	2594.800352
424.237866	2597.333532
424.616319	2594.868407
424.994712	2598.074581
425.373044	2598.180445
425.751314	2597.880497
426.129524	2595.503593
426.507673	2599.281937
426.885762	2599.985178
427.263789	2598.165322
427.641756	2598.709767
428.019662	2598.876125
428.397508	2596.398397
428.775292	2600.073399
429.153016	2598.266145
429.530679	2599.982658
429.908282	2601.008533
430.285824	2600.078440
430.663305	2600.068357
431.040726	2600.438882
431.418086	2602.820827
431.795385	2603.171188
432.172624	2602.127669
432.549802	2601.477360
432.926920	2604.002978
433.303977	2602.992227
433.680974	2601.734459
434.057910	2607.448607
434.434786	2606.679831
434.811601	2605.245622
435.188355	2606.672269
435.565050	2605.888370
435.941683	2607.473813
436.318257	2605.545571
436.694770	2608.895418
437.071222	2605.759820
437.447614	2608.429111
437.823946	2606.715119
438.200218	2614.017230
438.576429	2611.254678
438.952580	2616.515122
439.328670	2616.046295
439.704700	2617.558641
440.080670	2619.743981
440.456580	2621.087448
440.832429	2622.259517
441.208218	2625.090125
441.583947	2625.284209
441.959616	2626.415948
442.335224	2632.099849
442.710773	2633.763430
443.086261	2639.580921
443.461689	2640.879018
443.837057	2642.451858
444.212365	2650.154742
444.587612	2650.721871
444.962800	2655.082469
445.337927	2663.171001
445.712995	2660.746206
446.088002	2672.025787
446.462949	2682.594567
446.837837	2685.410051
447.212664	2692.087059
447.587431	2710.141952
447.962139	2730.669530
448.336786	2755.260279
448.711374	2764.447782
449.085901	2755.623242
449.460369	2759.953593
449.834776	2767.878287
450.209124	2796.532205
450.583412	2810.350008
450.957640	2828.974551
451.331808	2830.464212
451.705917	2834.068637
452.079965	2847.064731
452.453954	2865.369161
452.827883	2875.819473
453.201752	2892.611556
453.575562	2912.914803
453.949311	2945.210956
454.323001	2959.132102
454.696632	2978.868219
455.070202	3020.430012
455.443713	3042.041439
455.817164	3073.891449
456.190556	3110.598610
456.563888	3126.253914
456.937160	3162.923267
457.310373	3158.907988
457.683526	3194.251517
458.056619	3216.011658
458.429653	3237.630646
458.802628	3274.763785
459.175542	3306.828044
459.548398	3368.282230
459.921194	3442.477933
460.293930	3495.679750
460.666607	3596.182713
461.039224	3688.254347
461.411782	3758.875872
461.784280	3769.384157
462.156719	3806.056030
462.529099	3826.293743
462.901419	3821.325685
463.273680	3815.306548
463.645882	3850.239223
464.018024	3891.722878
464.390106	3950.154892
464.762130	4087.307045
465.134094	4285.081592
465.505999	4580.548660
465.877845	4911.049227
466.249631	5108.362509
466.621358	5129.686590
466.993026	5103.981747
467.364634	5070.745419
467.736184	5005.497765
468.107674	4995.964943
468.479105	5010.251573
468.850477	5036.495820
469.221790	5009.389536
469.593043	4952.013643
469.964238	4950.158499
470.335373	4992.032843
470.706449	5127.743225
471.077467	5282.365496
471.448425	5701.711358
471.819324	6073.289767
472.190164	6152.952601
472.560945	5934.847079
472.931667	5715.511517
473.302330	5665.215925
473.672934	5644.476618
474.043479	5742.516978
474.413965	5732.361573
474.784393	5749.622484
475.154761	5899.962295
475.525070	5957.872550
475.895321	5977.376774
476.265513	6090.500266
476.635645	6249.941880
477.005719	6296.436442
477.375734	6405.597587
477.745691	6533.353029
478.115588	6730.537761
478.485427	6948.353416
478.855207	7348.510126
479.224928	7736.981442
479.594591	8079.507681
479.964194	8144.727609
480.333739	8262.844364
480.703226	8333.760796
481.072653	8469.347669
481.442022	8611.485523
481.811333	8783.605638
482.180584	8712.822797
482.549777	8714.987973
482.918912	8719.303201
483.287988	8754.961802
483.657005	8729.635045
484.025964	8710.367755
484.394864	8808.062796
484.763706	8813.706368
485.132489	8782.708313
485.501213	8812.743508
485.869879	8899.892455
486.238487	8889.487513
486.607036	8991.911157
486.975527	8982.955547
487.343959	9056.526146
487.712333	9135.931881
488.080648	9203.516110
488.448905	9330.011263
488.817104	9371.053817
489.185244	9552.366477
489.553326	9775.805538
489.921350	10235.969623
490.289315	10844.275576
490.657222	11145.650876
491.025070	11340.098262
491.392861	11282.939139
491.760593	11159.272074
492.128267	10950.835486
492.495883	10756.529252
492.863440	10554.341174
493.230939	10363.387307
493.598380	10204.936280
493.965763	10203.202123
494.333088	10091.888405
494.700354	10038.807576
495.067563	10027.535556
495.434713	10044.141117
495.801805	10100.491134
496.168839	10069.588861
496.535815	10051.261746
496.902733	10108.453637
497.269593	10077.581611
497.636395	10095.026523
498.003139	10208.976765
498.369825	10146.786571
498.736453	10247.675183
499.103023	10190.148055
499.469535	10213.596983
499.835989	10266.047668
500.202385	10248.610317
500.568723	10274.075705
500.935003	10341.758237
501.301226	10314.455348
501.667390	10478.008022
502.033497	10583.824362
502.399546	10513.959011
502.765537	10428.128326
503.131470	10530.010045
503.497345	10625.222317
503.863163	10407.315922
504.228923	10550.444362
504.594625	10662.743626
504.960269	10579.912427
505.325856	10734.696014
505.691385	10607.235481
506.056856	10684.208859
506.422270	10784.358942
506.787625	10718.569363
507.152924	10779.080853
507.518164	10839.206695
507.883347	10706.773063
508.248472	10785.336925
508.613540	10894.800540
508.978550	10972.945986
509.343503	10948.788777
509.708398	10997.572023
510.073236	11132.450615
510.438016	11152.353090
510.802738	11066.711448
511.167403	11195.858248
511.532010	11253.992834
511.896561	11353.043945
512.261053	11546.246166
512.625488	11460.019750
512.989866	11454.769389
513.354186	11431.237282
513.718449	11445.657503
514.082655	11596.690472
514.446803	11551.186497
514.810894	11657.743887
515.174927	11652.952270
515.538904	11641.632359
515.902822	11791.072323
516.266684	11677.384222
516.630488	11766.632810
516.994235	11765.881678
517.357925	11880.202444
517.721558	11930.377048
518.085133	11994.939106
518.448651	12022.307530
518.812112	11988.105822
519.175516	11996.942964
519.538863	12086.176428
519.902152	12088.268507
520.265385	12201.288656
520.628560	12230.197153
520.991678	12177.481807
521.354739	12230.086247
521.717743	12310.830408
522.080690	12278.766149
522.443580	12406.466138
522.806413	12427.074375
523.169189	12415.497365
523.531908	12486.557470
523.894569	12446.235801
524.257174	12456.623098
524.619722	12566.779872
524.982213	12534.163606
525.344647	12531.408616
525.707025	12539.247610
526.069345	12643.342396
526.431608	12620.987399
526.793815	12700.907331
527.155964	12594.760796
527.518057	12624.115435
527.880093	12581.590782
528.242072	12709.845297
528.603995	12619.202830
528.965860	12632.153555
529.327669	12667.887774
529.689421	12611.691511
530.051117	12641.013383
530.412755	12664.502639
530.774337	12669.352229
531.135862	12629.844706
531.497331	12680.430164
531.858743	12652.469405
532.220098	12741.516346
532.581396	12667.776868
532.942638	12595.534613
533.303824	12654.732883
533.664953	12634.853093
534.026025	12584.950711
534.387040	12696.183770
534.747999	12669.745439
535.108902	12711.919732
535.469748	12597.074686
535.830537	12611.724279
536.191270	12659.768995
536.551947	12582.707397
536.912567	12646.737613
537.273131	12681.259434
537.633638	12555.114642
537.994089	12618.973458
538.354483	12534.423226
538.714821	12658.806135
539.075103	12748.919281
539.435328	12670.236951
539.795497	12647.897078
540.155609	12640.088331
540.515665	12746.633117
540.875665	12600.621137
541.235609	12701.776930
541.595496	12672.765090
541.955328	12845.931245
542.315102	12701.013196
542.674821	12636.541879
543.034483	12652.461843
543.394090	12648.244918
543.753640	12625.718522
544.113134	12867.232641
544.472571	12632.536682
544.831953	12908.708734
545.191278	12728.101836
545.550548	12655.809169
545.909761	12765.373607
546.268918	12816.314466
546.628019	12881.993139
546.987064	12768.436108
547.346053	12614.902726
547.704986	12807.399186
548.063863	12692.881814
548.422684	12741.221439
548.781449	12704.907487
549.140158	12806.269967
549.498811	12749.214188
549.857408	12620.077471
550.215949	12823.820744
550.574434	12798.473823
550.932864	12736.621386
551.291237	12937.821398
551.649555	12822.043738
552.007817	12886.603274
552.366022	12795.577680
552.724173	12836.037981
553.082267	12919.484200
553.440305	13019.699818
553.798288	12841.719361
554.156215	12916.270465
554.514086	12965.003299
554.871902	12899.790933
555.229661	12928.122218
555.587365	12881.791493
555.945014	12892.435889
556.302606	12882.751833
556.660143	12941.055298
557.017625	12975.025113
557.375050	12930.668000
557.732421	13038.246223
558.089735	13033.205069
558.446994	12997.508659
558.804197	13122.655303
559.161345	13112.242800
559.518437	12935.467179
559.875474	13018.938604
560.232455	13050.375239
560.589381	13092.385695
560.946251	13030.845809
561.303065	13211.298953
561.659825	13162.487980
562.016528	13079.659302
562.373177	13015.225794
562.729770	13140.067449
563.086307	13030.722301
563.442789	13128.699647
563.799216	13175.378211
564.155587	13119.416362
564.511904	13150.600940
564.868164	13149.063388
565.224370	13212.813819
565.580520	13154.671671
565.936615	13219.841188
566.292654	13153.212257
566.648638	13222.714645
567.004567	13223.251528
567.360441	13223.753123
567.716260	13198.411243
568.072023	13284.461218
568.427732	13277.605249
568.783385	13168.209690
569.138982	13288.214357
569.494525	13268.301800
569.850013	13223.284296
570.205445	13205.365514
570.560823	13217.635683
570.916145	13180.230321
571.271412	13188.210468
571.626625	13142.668684
571.981782	13144.042398
572.336884	13088.370416
572.691931	13176.179754
573.046923	13073.274681
573.401860	13036.950647
573.756743	13047.151422
574.111570	13064.961818
574.466342	13039.929969
574.821059	13096.970624
575.175722	12967.264257
575.530330	12986.586999
575.884882	12926.007453
576.239380	12918.186103
576.593823	12901.557857
576.948211	12894.593503
577.302544	12777.300977
577.656823	12799.529945
578.011047	12858.750899
578.365216	12790.347483
578.719330	12730.468658
579.073389	12699.079913
579.427394	12710.467880
579.781344	12707.183568
580.135239	12641.343578
580.489080	12659.620281
580.842866	12541.775748
581.196597	12637.633289
581.550273	12624.889252
581.903895	12588.744179
582.257463	12701.005634
582.610975	12544.182899
582.964434	12603.121550
583.317837	12524.724046
583.671186	12483.305926
584.024481	12539.287939
584.377721	12422.865012
584.730906	12489.809014
585.084037	12506.764935
585.437113	12422.456678
585.790135	12448.005246
586.143103	12359.003675
586.496016	12374.921118
586.848874	12385.971327
587.201679	12381.116696
587.554428	12253.840164
587.907124	12307.331848
588.259765	12240.322310
588.612352	12317.618322
588.964884	12173.464007
589.317362	12227.658932
589.669786	12216.757437
590.022155	12183.667303
590.374470	12282.673044
590.726731	12164.193325
591.078937	12046.011035
591.431090	12069.747308
591.783188	12004.804644
592.135232	11924.741038
592.487222	11988.932571
592.839157	12002.692400
593.191038	11932.970722
593.542866	11880.489790
593.894639	11735.125598
594.246358	11795.082561
594.598022	11796.226903
594.949633	11705.113089
595.301190	11690.241685
595.652692	11645.158646
596.004141	11737.167265
596.355535	11508.291319
596.706876	11495.398568
597.058162	11465.207098
597.409395	11550.768081
597.760573	11585.766292
598.111698	11481.858029
598.462768	11484.766775
598.813785	11491.035449
599.164748	11364.200019
599.515657	11447.837802
599.866511	11317.153450
600.217312	11449.145982
600.568060	11212.660413
600.918753	11372.467511
601.269392	11374.907429
601.619978	11279.044848
601.970510	11321.420787
602.320988	11365.316634
602.671412	11424.900552
603.021783	11364.252951
603.372100	11285.207658
603.722363	11300.434464
604.072572	11297.956737
604.422728	11303.590226
604.772830	11259.744790
605.122878	11258.938206
605.472872	11231.070707
605.822813	11288.786878
606.172701	11255.089285
606.522534	11288.814604
606.872314	11344.791576
607.222041	11274.714497
607.571714	11347.337359
607.921333	11216.947915
608.270899	11278.727255
608.620411	11336.352685
608.969870	11283.249170
609.319276	11262.580439
609.668627	11277.020825
610.017926	11364.376459
610.367171	11393.743701
610.716362	11385.241795
611.065500	11358.390089
611.414585	11363.214473
611.763616	11437.853797
612.112594	11398.968857
612.461518	11430.965060
612.810389	11473.126750
613.159207	11413.678944
613.507971	11410.797924
613.856682	11510.030517
614.205340	11476.350568
614.553945	11601.663571
614.902496	11490.105357
615.250994	11554.274204
615.599439	11535.102696
615.947830	11568.248282
616.296169	11533.600432
616.644454	11546.732638
616.992686	11561.079762
617.340864	11659.203301
617.688990	11547.609798
618.037063	11679.569562
618.385082	11646.292906
618.733048	11682.221209
619.080961	11677.207782
619.428821	11663.589104
619.776628	11664.516677
620.124382	11613.101949
620.472083	11633.939558
620.819731	11647.580920
621.167326	11574.920249
621.514868	11556.575491
621.862357	11463.528393
622.209793	11447.711773
622.557176	11368.802592
622.904506	11313.395270
623.251783	11227.695655
623.599007	11176.822851
623.946179	11132.546397
624.293297	11100.580440
624.640363	10960.577515
624.987376	10950.633839
625.334336	10884.587162
625.681243	10805.025152
626.028097	10778.112952
626.374899	10737.261962
626.721647	10712.852695
627.068343	10671.966417
627.414987	10605.433268
627.761577	10531.103975
628.108115	10597.576630
628.454600	10461.399941
628.801032	10482.464402
629.147412	10460.487492
629.493739	10431.876423
629.840014	10361.179282
630.186236	10402.602443
630.532405	10300.284664
630.878521	10343.550367
631.224585	10291.366863
631.570597	10218.910359
631.916556	10220.392458
632.262462	10206.436023
632.608316	10187.141007
632.954117	10163.223253
633.299866	10141.997474
633.645562	10122.780596
633.991206	10022.164206
634.336797	9923.329865
634.682336	9911.276466
635.027823	9854.485347
635.373257	9819.340943
635.718639	9753.843752
636.063968	9728.229649
636.409245	9600.617881
636.754470	9592.352909
637.099642	9538.677223
637.444762	9445.322616
637.789829	9448.677504
638.134845	9378.938181
638.479808	9356.230304
638.824719	9324.418103
639.169577	9238.761337
639.514383	9228.963854
639.859137	9169.740379
640.203839	9205.519968
640.548489	9121.506619
640.893086	9127.515674
641.237632	9055.550683
641.582125	9060.448164
641.926566	9053.607318
642.270955	9031.557311
642.615292	9028.167135
642.959576	9008.763734
643.303809	8991.974171
643.647990	9015.226493
643.992118	8993.783945
644.336195	8971.491963
644.680219	8965.374523
645.024192	9003.956994
645.368112	9080.587573
645.711981	9058.817350
646.055797	9193.093524
646.399562	9154.231269
646.743274	9306.769023
647.086935	9383.722236
647.430544	9351.128656
647.774101	9378.325681
648.117606	9397.240090
648.461059	9465.325914
648.804460	9395.016942
649.147810	9277.043859
649.491108	9249.166278
649.834354	9182.151700
650.177548	9040.666676
650.520690	8949.880536
650.863781	8945.235113
651.206820	8915.376359
651.549807	8827.551897
651.892742	8730.582782
652.235626	8692.627935
652.578458	8654.128643
652.921238	8551.626862
653.263967	8586.057943
653.606644	8520.212912
653.949269	8497.008481
654.291843	8423.805886
654.634365	8492.355496
654.976836	8413.428670
655.319255	8406.776868
655.661622	8397.465857
656.003938	8356.907253
656.346203	8317.374525
656.688416	8351.755194
657.030577	8308.764234
657.372687	8279.064276
657.714746	8304.648132
658.056753	8323.194537
658.398708	8224.786173
658.740612	8217.007673
659.082465	8257.606605
659.424266	8212.241262
659.766016	8227.400011
660.107715	8198.118469
660.449362	8215.462559
660.790958	8209.967701
661.132503	8209.365283
661.473996	8207.237916
661.815438	8231.475784
662.156829	8254.012262
662.498168	8207.631126
662.839456	8205.854120
663.180693	8224.879434
663.521879	8245.775017
663.863013	8225.910350
664.204097	8214.718989
664.545129	8291.069784
664.886110	8281.579812
665.227040	8285.068291
665.567918	8291.934342
665.908746	8308.723905
666.249522	8331.414138
666.590248	8329.586720
666.930922	8343.006272
667.271545	8329.959766
667.612118	8358.074281
667.952639	8313.694483
668.293109	8321.815782
668.633528	8298.298799
668.973896	8277.834235
669.314213	8279.840614
669.654480	8236.607679
669.994695	8235.465857
670.334859	8215.021458
670.674973	8193.336935
671.015035	8215.092034
671.355047	8209.350160
671.695008	8197.826082
672.034918	8168.352976
672.374777	8176.111312
672.714585	8160.871904
673.054342	8182.122888
673.394049	8152.879154
673.733705	8183.206736
674.073310	8133.296792
674.412864	8150.731623
674.752368	8082.066066
675.091820	8132.510372
675.431223	8065.006802
675.770574	8021.355451
676.109875	7992.242787
676.449125	7950.733926
676.788324	7937.934437
677.127473	7847.475972
677.466571	7836.158582
677.805619	7779.357381
678.144616	7778.916280
678.483562	7754.249914
678.822458	7709.774334
679.161303	7695.228085
679.500098	7673.631782
679.838842	7649.580437
680.177535	7665.102149
680.516179	7698.020884
680.854771	7714.767597
681.193314	7837.292841
681.531805	7993.276224
681.870247	8111.972712
682.208638	8264.220599
682.546978	8338.396137
682.885268	8364.181638
683.223508	8291.568858
683.561697	8237.207576
683.899836	8210.834780
684.237925	8125.094835
684.575963	8100.645239
684.913951	8013.090479
685.251889	8033.136627
685.589776	8029.146554
685.927614	8009.652412
686.265401	8033.839868
686.603137	8039.798512
686.940824	8111.488761
687.278460	8159.609095
687.616046	8175.198863
687.953582	8286.225235
688.291068	8267.230168
688.628504	8325.223602
688.965889	8322.839136
689.303224	8278.983618
689.640510	8241.941219
689.977745	8140.170406
690.314930	8014.270109
690.652065	7946.017927
690.989150	7831.308992
691.326185	7677.092534
691.663170	7566.988693
692.000105	7449.804551
692.336990	7330.724935
692.673825	7259.435458
693.010610	7168.001530
693.347345	7068.867240
693.684030	6961.619213
694.020665	6909.723054
694.357251	6794.058820
694.693786	6787.396936
695.030272	6747.080308
695.366707	6654.701163
695.703093	6602.462207
696.039429	6601.849707
696.375716	6553.772222
696.711952	6537.567433
697.048139	6512.104565
697.384276	6482.608774
697.720363	6506.428226
698.056400	6472.813812
698.392388	6437.099758
698.728326	6434.896773
699.064214	6410.139667
699.400053	6401.615076
699.735842	6344.957548
700.071581	6306.344830
700.407270	6256.064361
700.742910	6231.188788
701.078501	6183.857394
701.414042	6143.205530
701.749533	6090.001192
702.084974	6026.013826
702.420366	6067.200053
702.755709	5999.250340
703.091002	5947.442402
703.426246	5947.598678
703.761440	5931.855155
704.096584	5892.519031
704.431679	5884.002002
704.766725	5863.615576
705.101721	5847.178893
705.436668	5866.264702
705.771565	5808.878727
706.106413	5863.237489
706.441212	5862.309917
706.775961	5882.245160
707.110661	5891.576335
707.445311	5947.752433
707.779913	5915.942753
708.114465	5958.265760
708.448967	6002.701010
708.783421	6114.539008
709.117825	6154.588455
709.452180	6190.163878
709.786485	6252.527992
710.120742	6382.695625
710.454949	6389.420525
710.789107	6462.103881
711.123216	6584.891265
711.457275	6620.950638
711.791286	6722.955866
712.125247	6745.116778
712.459159	6710.063115
712.793023	6843.933476
713.126837	6673.842425
713.460602	6737.413895
713.794318	6690.198448
714.127985	6638.763556
714.461602	6491.143447
714.795171	6495.073027
715.128691	6322.370658
715.462162	6235.322534
715.795584	6168.426422
716.128957	6126.090812
716.462281	6058.080606
716.795556	6017.784142
717.128782	5929.816008
717.461960	5835.589281
717.795088	5823.752652
718.128167	5754.451910
718.461198	5665.989742
718.794180	5649.091794
719.127113	5590.475778
719.459997	5558.978649
719.792833	5489.251929
720.125619	5486.035673
720.458357	5429.244554
720.791046	5400.625924
721.123686	5371.520822
721.456278	5328.229914
721.788821	5320.242205
722.121315	5277.026914
722.453761	5281.758037
722.786158	5268.507364
723.118506	5273.233446
723.450805	5244.017439
723.783056	5272.754536
724.115259	5258.828349
724.447412	5240.302108
724.779518	5291.316065
725.111574	5293.708092
725.443582	5329.908618
725.775542	5319.657432
726.107453	5402.307149
726.439315	5375.399990
726.771129	5443.959682
727.102895	5509.577862
727.434612	5554.497063
727.766281	5583.400518
728.097901	5634.691738
728.429473	5651.904758
728.760996	5664.643754
729.092471	5687.003792
729.423897	5671.376215
729.755276	5641.996370
730.086606	5654.856354
730.417887	5745.637452
730.749120	5840.012893
731.080305	5874.963213
731.411442	5948.448113
731.742530	5979.725952
732.073570	5999.290670
732.404562	6067.794909
732.735506	6054.017436
733.066401	6037.195105
733.397249	5965.214990
733.728048	5876.059664
734.058798	5729.394854
734.389501	5600.570688
734.720156	5515.566752
735.050762	5412.109673
735.381320	5340.621070
735.711831	5277.904075
736.042293	5200.726530
736.372707	5197.510274
736.703073	5153.306916
737.033391	5179.107542
737.363661	5165.171272
737.693883	5181.746586
738.024056	5211.040731
738.354182	5230.872630
738.684260	5283.159478
739.014290	5317.900589
739.344272	5353.672617
739.674207	5410.879631
740.004093	5445.686278
740.333931	5446.603768
740.663722	5464.774607
740.993464	5478.685671
741.323159	5463.448783
741.652806	5421.138379
741.982405	5386.427514
742.311956	5332.698897
742.641460	5319.836392
742.970915	5266.067446
743.300323	5205.714752
743.629683	5174.288199
743.958996	5121.489674
744.288260	5071.216767
744.617477	5007.998177
744.946647	4997.152135
745.275768	4945.066933
745.604842	4913.708436
745.933869	4869.124471
746.262847	4862.644068
746.591778	4856.907235
746.920662	4831.323379
747.249498	4825.702492
747.578286	4851.593859
747.907027	4863.911918
748.235720	4910.678702
748.564365	4918.041308
748.892963	4903.817692
749.221514	4921.431483
749.550017	4898.219491
749.878473	4898.469028
750.206881	4856.549313
750.535242	4850.026060
750.863555	4831.850180
751.191821	4807.660203
751.520039	4817.941636
751.848210	4795.949602
752.176334	4802.301456
752.504411	4778.479484
752.832440	4750.279269
753.160421	4763.817288
753.488356	4746.140482
753.816243	4724.042584
754.144082	4693.679714
754.471875	4681.926264
754.799620	4671.007125
755.127318	4661.925486
755.454969	4660.403058
755.782572	4647.727077
756.110129	4655.576153
756.437638	4635.774501
756.765100	4630.083038
757.092515	4634.877175
757.419882	4642.275069
757.747203	4634.287360
758.074477	4652.067510
758.401703	4641.773474
758.728882	4671.423020
759.056014	4682.206048
759.383099	4704.742527
759.710138	4735.911981
760.037129	4754.289507
760.364073	4762.458697
760.690970	4763.497175
761.017820	4766.826857
761.344623	4799.496054
761.671379	4860.282287
761.998088	4947.436276
762.324751	5180.884548
762.651366	5641.230115
762.977935	6326.411143
763.304456	6886.874024
763.630931	7194.127310
763.957359	7131.508618
764.283740	6837.367373
764.610074	6515.391397
764.936362	6114.667558
765.262602	5799.061080
765.588796	5452.761537
765.914943	5200.098906
766.241044	4974.366119
766.567097	4807.708094
766.893104	4655.412316
767.219064	4556.915731
767.544978	4460.443170
767.870845	4378.131210
768.196665	4327.739836
768.522438	4281.870377
768.848165	4238.319849
769.173846	4202.668809
769.499479	4170.672606
769.825066	4137.398470
770.150607	4093.293415
770.476101	4075.856064
770.801548	4058.063311
771.126949	4028.945607
771.452303	4009.428779
771.777611	3967.887151
772.102872	3966.702480
772.428087	3942.696505
772.753256	3912.479829
773.078378	3896.522057
773.403453	3861.118033
773.728482	3839.743541
774.053465	3826.417251
774.378401	3805.509065
774.703291	3781.924027
775.028135	3756.065428
775.352932	3750.860437
775.677683	3731.053743
776.002388	3708.766802
776.327046	3712.073799
776.651658	3692.196530
776.976224	3673.440917
777.300743	3670.854805
777.625216	3656.865603
777.949643	3648.608193
778.274024	3646.934530
778.598359	3631.536325
778.922647	3631.425420
779.246889	3623.833442
779.571086	3620.201291
779.895236	3619.155252
780.219339	3620.912094
780.543397	3619.888739
780.867409	3631.841315
781.191374	3634.009011
781.515294	3626.384266
781.839167	3645.447389
782.162995	3640.547388
782.486776	3635.586892
782.810511	3628.032723
783.134201	3613.370527
783.457844	3614.663583
783.781441	3603.688992
784.104993	3594.909822
784.428498	3590.181220
784.751958	3587.640478
785.075372	3579.839293
785.398739	3571.102973
785.722061	3577.038932
786.045337	3575.607244
786.368568	3600.384515
786.691752	3596.306222
787.014891	3644.487050
787.337983	3688.438349
787.661030	3776.489663
787.984031	3874.391391
788.306987	3951.049697
788.629897	3996.538549
788.952760	4003.770084
789.275579	3991.600739
789.598351	3937.965382
789.921078	3891.601891
790.243759	3829.557890
790.566395	3784.139614
790.888984	3731.759505
791.211529	3693.935728
791.534027	3651.617762
791.856480	3612.851289
792.178888	3592.853031
792.501249	3574.956935
792.823566	3547.737225
793.145836	3540.026780
793.468062	3526.975233
793.790241	3511.395547
794.112375	3520.411651
794.434464	3541.728170
794.756507	3540.354455
795.078505	3558.547979
795.400457	3596.013835
795.722364	3645.275990
796.044226	3693.383721
796.366042	3738.403746
796.687812	3731.946028
797.009538	3758.797734
797.331218	3751.172988
797.652852	3742.567739
797.974442	3723.272722
798.295986	3709.603634
798.617484	3684.544058
798.938938	3658.070439
799.260346	3643.879591
799.581709	3608.140330
799.903026	3593.347064
800.224299	3576.391143
800.545526	3545.156154
800.866708	3524.996580
801.187845	3514.707585
801.508936	3493.764111
801.829983	3481.861947
802.150984	3452.086372
802.471940	3444.058334
802.792851	3437.512396
803.113717	3429.799431
803.434538	3421.690735
803.755314	3413.841658
804.076045	3408.036770
804.396731	3396.855490
804.717372	3397.329359
805.037967	3394.672671
805.358518	3395.343144
805.679024	3409.907038
805.999485	3407.381420
806.319901	3410.353180
806.640272	3414.388623
806.960598	3427.540994
807.280879	3427.992177
807.601115	3441.459620
807.921306	3428.995367
808.241453	3433.318156
808.561554	3440.867284
808.881611	3431.344544
809.201623	3436.841923
809.521590	3425.025458
809.841513	3426.505037
810.161390	3433.227415
810.481223	3410.648087
810.801011	3412.304106
811.120755	3407.552819
811.440453	3395.834657
811.760107	3388.923235
812.079716	3383.032647
812.399281	3372.743652
812.718801	3373.293137
813.038276	3363.135212
813.357707	3360.405428
813.677093	3369.950852
813.996434	3349.514015
814.315731	3359.172865
814.634983	3355.901157
814.954191	3357.466435
815.273354	3377.333622
815.592473	3385.162534
815.911547	3404.422262
816.230577	3420.997576
816.549562	3445.928603
816.868502	3461.498206
817.187399	3481.864468
817.506250	3508.033097
817.825058	3521.916435
818.143821	3563.032086
818.462539	3606.222171
818.781213	3662.781397
819.099843	3746.731732
819.418429	3901.779980
819.736970	4049.163154
820.055466	4239.519644
820.373919	4477.182321
820.692327	4815.970545
821.010691	5322.435107
821.329011	6395.729529
821.647286	8137.944736
821.965517	10295.278798
822.283704	11920.113259
822.601847	12995.472033
822.919945	12587.662851
823.237999	11916.544122
823.556010	11017.618171
823.873976	10064.174662
824.191897	9109.506152
824.509775	8336.906476
824.827609	7539.675721
825.145398	6993.975858
825.463144	6609.474452
825.780845	6481.623228
826.098502	6545.691253
826.416116	6925.078409
826.733685	7425.748165
827.051210	7711.372380
827.368692	7614.259592
827.686129	7172.404978
828.003522	6622.306709
828.320872	6059.613117
828.638177	5598.912149
828.955439	5233.148711
829.272656	4894.683121
829.589830	4609.164770
829.906960	4344.123586
830.224046	4141.993482
830.541088	3970.833706
830.858086	3856.964122
831.175041	3756.337651
831.491952	3715.539593
831.808819	3696.693239
832.125642	3730.847056
832.442421	3832.920339
832.759157	4049.332033
833.075849	4425.644085
833.392497	4888.122059
833.709101	5279.870125
834.025662	5388.040683
834.342179	5264.804637
834.658653	4995.788503
834.975083	4716.367427
835.291469	4478.712312
835.607811	4252.185543
835.924110	4092.572530
836.240366	3933.995474
836.556578	3771.239301
836.872746	3636.075884
837.188871	3523.796785
837.504952	3427.394800
837.820990	3352.122812
838.136984	3297.627939
838.452935	3267.892693
838.768842	3254.092534
839.084706	3284.112605
839.400526	3423.243410
839.716303	3646.417812
840.032037	3856.003783
840.347727	3924.117333
840.663373	3835.917305
840.978977	3686.454655
841.294537	3553.950447
841.610054	3448.373562
841.925527	3371.564022
842.240957	3305.625729
842.556344	3243.173395
842.871687	3185.341278
843.186987	3123.690487
843.502244	3069.044379
843.817458	3030.408976
844.132629	2999.662979
844.447756	2976.773620
844.762840	2955.396607
845.077881	2938.259204
845.392879	2925.507606
845.707833	2914.008734
846.022745	2900.972310
846.337613	2899.084398
846.652438	2886.975546
846.967221	2883.487068
847.281960	2874.082795
847.596656	2872.915768
847.911309	2868.194728
848.225919	2858.172914
848.540485	2857.048737
848.855009	2854.175279
849.169490	2850.381811
849.483928	2848.534228
849.798323	2845.315451
850.112675	2842.928465
850.426984	2842.386541
850.741251	2839.714729
851.055474	2839.782785
851.369654	2838.192301
851.683792	2836.158195
851.997887	2837.854543
852.311938	2838.908144
852.625947	2837.453772
852.939914	2833.856908
853.253837	2836.332115
853.567718	2835.071826
853.881555	2833.892196
854.195350	2837.194152
854.509103	2837.499142
854.822812	2837.274811
855.136479	2833.864470
855.450103	2831.880776
855.763685	2829.942452
856.077224	2834.723987
856.390720	2833.375478
856.704173	2837.773885
857.017584	2838.827486
857.330953	2839.508042
857.644278	2842.046263
857.957561	2843.261181
858.270802	2844.193794
858.584000	2845.002899
858.897155	2842.668845
859.210268	2843.528362
859.523339	2838.885459
859.836367	2840.695233
860.149352	2837.156343
860.462295	2839.311437
860.775195	2832.881445
861.088054	2832.029490
861.400869	2830.665858
861.713642	2829.554283
862.026373	2829.561845
862.339062	2835.903617
862.651708	2835.732217
862.964312	2840.092816
863.276873	2843.989627
863.589392	2853.497244
863.901869	2857.920856
864.214303	2863.972761
864.526696	2868.872763
864.839045	2877.110008
865.151353	2883.083776
865.463619	2884.792727
865.775842	2889.299518
866.088023	2894.217164
866.400162	2895.762278
866.712258	2897.052813
867.024313	2896.682288
867.336325	2897.219171
867.648296	2897.635066
867.960224	2899.344017
868.272110	2901.365520
868.583954	2902.025911
868.895755	2905.532034
869.207515	2903.286200
869.519233	2911.072262
869.830909	2912.808939
870.142542	2918.157603
870.454134	2919.301945
870.765684	2923.569282
871.077191	2929.686722
871.388657	2934.929522
871.700081	2939.217024
872.011463	2948.303703
872.322803	2951.731688
872.634101	2957.806278
872.945357	2964.931949
873.256571	2974.376551
873.567744	2981.419043
873.878874	2982.991883
874.189963	2994.279027
874.501010	2996.958400
874.812015	2999.310098
875.122979	3003.844616
875.433900	3007.139010
875.744780	3009.289062
876.055618	3015.013292
876.366415	3017.516225
876.677169	3021.594519
876.987882	3028.805889
877.298554	3036.501211
877.609183	3050.213149
877.919771	3069.079667
878.230317	3094.179572
878.540822	3131.282465
878.851285	3181.946061
879.161707	3245.036101
879.472087	3354.103985
879.782425	3515.672966
880.092722	3790.120943
880.402977	4210.653997
880.713191	4754.239096
881.023363	5351.799828
881.333494	5789.505573
881.643583	6073.632565
881.953631	6149.080994
882.263637	6092.090750
882.573602	5953.438855
882.883526	5786.561539
883.193408	5581.426907
883.503248	5361.882136
883.813048	5152.613758
884.122806	4929.850210
884.432522	4691.267522
884.742197	4464.486175
885.051831	4262.671143
885.361424	4065.017583
885.670975	3898.868714
885.980485	3753.456631
886.289954	3625.494502
886.599382	3523.995911
886.908768	3437.482149
887.218113	3357.264789
887.527417	3298.552990
887.836680	3238.936305
888.145901	3191.990560
888.455082	3156.621824
888.764221	3119.997842
889.073319	3090.353337
889.382376	3074.244329
889.691392	3055.650033
890.000366	3048.763817
890.309300	3042.963970
890.618193	3040.508928
890.927044	3031.984337
891.235855	3033.831920
891.544625	3038.041283
891.853353	3041.970862
892.162041	3058.016855
892.470687	3082.821853
892.779293	3113.777058
893.087858	3161.352947
893.396381	3239.735328
893.704864	3346.262470
894.013306	3504.045545
894.321707	3690.006148
894.630068	3839.620033
894.938387	3921.851334
895.246665	3930.297788
895.554903	3869.456102
895.863100	3783.998462
896.171256	3711.272256
896.479371	3635.556646
896.787446	3560.778690
897.095480	3486.033502
897.403473	3430.190120
897.711425	3376.002758
898.019336	3325.591219
898.327207	3268.626181
898.635038	3223.943913
898.942827	3173.040862
899.250576	3131.605098
899.558284	3089.834098
899.865952	3066.123031
900.173579	3034.338556
900.481165	3014.904908
900.788711	2993.900940
901.096216	2979.901656
901.403681	2964.500931
901.711105	2960.503296
902.018489	2952.729837
902.325832	2962.023204
902.633135	2968.601909
902.940397	3008.825276
903.247619	3099.240891
903.554800	3274.932664
903.861941	3550.998852
904.169041	3809.710867
904.476101	3982.120849
904.783121	4003.429806
905.090100	3937.317594
905.397039	3835.019980
905.703938	3728.986870
906.010796	3625.081128
906.317614	3537.281872
906.624391	3454.092751
906.931129	3380.716236
907.237826	3317.076710
907.544483	3248.632964
907.851099	3176.463806
908.157675	3102.681478
908.464211	3030.681198
908.770707	2971.155254
909.077163	2925.374015
909.383578	2890.574930
909.689954	2862.016794
909.996289	2843.364524
910.302584	2829.645024
910.608839	2818.662871
910.915054	2812.066521
911.221229	2805.578556
911.527363	2806.372537
911.833458	2806.480922
912.139513	2809.646767
912.445527	2812.830256
912.751502	2823.577996
913.057436	2839.679441
913.363331	2856.524457
913.669186	2888.334137
913.975000	2925.676484
914.280775	2986.135043
914.586510	3063.962896
914.892205	3176.617561
915.197859	3319.930003
915.503475	3505.575535
915.809050	3679.069365
916.114585	3810.887976
916.420081	3887.574009
916.725536	3914.224068
917.030952	3878.278121
917.336328	3844.066330
917.641665	3794.403403
917.946961	3733.292016
918.252218	3671.336235
918.557435	3599.519957
918.862612	3535.734238
919.167750	3477.423211
919.472848	3399.434041
919.777906	3331.771674
920.082925	3261.745006
920.387904	3190.725230
920.692843	3135.421252
920.997743	3085.959971
921.302603	3037.295192
921.607423	3002.448216
921.912204	2967.621405
922.216946	2940.830193
922.521647	2916.620052
922.826310	2897.256980
923.130932	2877.082282
923.435516	2856.474045
923.740059	2844.339988
924.044564	2828.846001
924.349028	2815.870071
924.653454	2799.975313
924.957840	2784.254475
925.262186	2776.851541
925.566493	2767.275869
925.870761	2752.228025
926.174989	2749.654516
926.479178	2744.749473
926.783328	2732.413769
927.087438	2726.583675
927.391509	2721.298025
927.695541	2712.589432
927.999533	2708.024667
928.303486	2703.890921
928.607400	2702.242464
928.911275	2699.837833
929.215110	2694.731144
929.518906	2692.747450
929.822663	2689.523632
930.126381	2689.586647
930.430060	2689.581606
930.733699	2692.926411
931.037299	2688.449867
931.340861	2687.905422
931.644383	2690.521781
931.947866	2690.332738
932.251309	2691.560259
932.554714	2690.715865
932.858080	2691.083870
933.161407	2691.041020
933.464694	2684.517767
933.767943	2686.796368
934.071153	2687.308045
934.374323	2684.099351
934.677455	2683.403672
934.980548	2681.102385
935.283602	2680.162210
935.586617	2679.363187
935.889593	2679.655574
936.192530	2681.845955
936.495428	2682.564320
936.798287	2684.275791
937.101108	2687.887778
937.403890	2697.027390
937.706632	2705.322609
938.009336	2716.176213
938.312002	2727.259190
938.614628	2739.667990
938.917216	2747.701068
939.219765	2755.860176
939.522275	2766.030704
939.824747	2765.945004
940.127179	2765.201434
940.429573	2765.579521
940.731929	2766.744027
941.034246	2763.883172
941.336524	2764.387288
941.638763	2768.173194
941.940964	2764.241094
942.243126	2756.954106
942.545250	2751.512181
942.847335	2749.868765
943.149381	2739.136148
943.451389	2735.836713
943.753359	2732.131465
944.055290	2728.640466
944.357182	2720.478838
944.659036	2718.424567
944.960851	2718.079248
945.262628	2709.791592
945.564367	2711.124977
945.866067	2709.804194
946.167729	2710.474668
946.469352	2708.924513
946.770937	2707.790253
947.072484	2705.902341
947.373992	2705.126004
947.675462	2701.960159
947.976893	2701.430838
948.278286	2696.687112
948.579641	2696.644262
948.880958	2701.264480
949.182236	2699.139633
949.483476	2693.972451
949.784678	2696.656865
950.085841	2695.436906
950.386967	2698.048224
950.688054	2695.147040
950.989103	2699.797504
951.290114	2703.631302
951.591087	2708.364945
951.892021	2710.129349
952.192917	2717.292828
952.493776	2721.217367
952.794596	2722.644013
953.095378	2724.967985
953.396122	2725.698952
953.696828	2726.412276
953.997496	2724.267265
954.298126	2719.337016
954.598718	2720.287274
954.899272	2715.422560
955.199788	2712.899463
955.500266	2705.219265
955.800706	2697.317256
956.101108	2693.165866
956.401472	2688.245700
956.701798	2679.688341
957.002087	2669.343894
957.302337	2670.251301
957.602550	2666.775426
957.902724	2660.431134
958.202861	2654.288488
958.502960	2652.380411
958.803022	2645.123670
959.103045	2639.147382
959.403031	2637.982876
959.702979	2635.079171
960.002889	2630.811834
960.302762	2627.749333
960.602596	2625.896709
960.902393	2621.475617
961.202153	2621.309259
961.501875	2619.648199
961.801559	2619.328086
962.101205	2617.528394
962.400814	2615.852210
962.700385	2614.344905
962.999918	2616.888167
963.299414	2611.025305
963.598873	2610.064966
963.898293	2612.086468
964.197677	2612.010851
964.497022	2608.509770
964.796331	2610.891715
965.095601	2607.710747
965.394835	2610.886674
965.694030	2607.856940
965.993189	2609.432301
966.292309	2607.287290
966.591393	2605.119594
966.890439	2606.629419
967.189447	2606.460541
967.488419	2607.178905
967.787353	2607.529265
968.086249	2608.850047
968.385108	2609.754935
968.683930	2606.926847
968.982714	2609.613782
969.281462	2608.764348
969.580172	2610.954729
969.878844	2607.771241
970.177480	2614.327261
970.476078	2611.189143
970.774639	2615.534617
971.073162	2615.353136
971.371649	2614.780965
971.670098	2615.093517
971.968510	2616.265585
972.266885	2613.777775
972.565223	2619.607870
972.863524	2621.238683
973.161788	2624.212964
973.460014	2624.046606
973.758204	2621.652058
974.056356	2624.573406
974.354471	2624.649024
974.652550	2626.446195
974.950591	2626.219343
975.248595	2625.939559
975.546563	2624.129785
975.844493	2623.232459
976.142386	2619.933024
976.440243	2617.949330
976.738062	2621.730196
977.035845	2620.096862
977.333590	2621.062243
977.631299	2617.253651
977.928971	2616.573095
978.226606	2614.914556
978.524204	2615.511932
978.821765	2617.639299
979.119290	2614.833897
979.416777	2613.881119
979.714228	2614.912035
980.011642	2615.363218
980.309020	2617.059567
980.606360	2618.599639
980.903664	2622.516616
981.200931	2626.703294
981.498162	2632.180507
981.795356	2647.125008
982.092513	2661.580517
982.389633	2679.400996
982.686717	2696.651824
982.983764	2710.204966
983.280775	2726.155177
983.577749	2728.965620
983.874686	2730.130127
984.171587	2727.944787
984.468451	2721.522357
984.765279	2716.892057
985.062070	2710.217569
985.358824	2702.570139
985.655543	2693.080167
985.952224	2683.292766
986.248869	2672.169460
986.545478	2655.987357
986.842050	2640.558905
987.138586	2635.835344
987.435086	2625.695063
987.731549	2616.000924
988.027975	2611.912548
988.324366	2611.103443
988.620719	2607.993051
988.917037	2604.053390
989.213318	2599.987699
989.509563	2597.759509
989.805772	2600.406115
990.101944	2597.550301
990.398080	2598.137596
990.694180	2594.923860
990.990244	2598.429982
991.286271	2595.680033
991.582262	2598.283789
991.878217	2597.446957
992.174136	2597.376381
992.470019	2600.101125
992.765865	2600.617843
993.061676	2597.157091
993.357450	2603.791250
993.653188	2602.543564
993.948890	2605.177567
994.244556	2607.791405
994.540186	2611.945316
994.835780	2617.087293
995.131337	2622.259517
995.426859	2630.302678
995.722345	2639.159985
996.017795	2650.290853
996.313208	2657.124137
996.608586	2665.225271
996.903928	2668.439007
997.199234	2668.587721
997.494504	2669.394305
997.789738	2668.784326
998.084936	2664.131341
998.380099	2659.596823
998.675225	2657.759322
998.970316	2648.866727
999.265371	2643.404637
999.560390	2637.095632
999.855373	2628.891155
1000.150320	2622.312449
1000.445232	2618.864300
1000.740108	2610.553957
1001.034948	2609.079420
1001.329752	2607.292331
1001.624521	2602.561208
1001.919254	2596.383274
1002.213951	2593.736668
1002.508613	2594.679364
1002.803239	2594.099631
1003.097829	2590.046544
1003.392384	2592.161308
1003.686903	2591.601740
1003.981386	2593.366143
1004.275834	2591.493355
1004.570246	2590.517892
1004.864623	2589.265165
1005.158964	2588.728282
1005.453270	2588.430854
1005.747540	2584.639906
1006.041775	2587.064701
1006.335974	2587.651996
1006.630138	2585.290215
1006.924266	2587.057139
1007.218359	2584.198805
1007.512416	2584.362643
1007.806438	2584.773497
1008.100425	2584.183682
1008.394376	2584.934814
1008.688292	2583.924062
1008.982172	2587.435226
1009.276017	2586.288363
1009.569827	2587.725092
1009.863602	2587.183168
1010.157341	2584.592015
1010.451045	2582.625965
1010.744714	2585.247365
1011.038347	2583.520770
1011.331945	2583.341809
1011.625508	2584.592015
1011.919036	2581.746284
1012.212528	2584.108064
1012.505986	2581.418609
1012.799408	2582.076479
1013.092795	2581.312745
1013.386147	2583.109916
1013.679464	2582.673856
1013.972745	2579.200501
1014.265992	2581.489185
1014.559204	2583.515729
1014.852380	2583.246027
1015.145521	2583.941706
1015.438628	2582.567992
1015.731699	2582.479772
1016.024736	2580.974987
1016.317737	2581.191757
1016.610703	2585.131419
1016.903635	2576.879050
1017.196531	2579.628999
1017.489393	2582.469689
1017.782219	2579.482806
1018.075011	2580.733012
1018.367768	2584.886923
1018.660490	2582.678897
1018.953177	2582.678897
1019.245829	2582.678897
