Dividing Wavelength (nm)	Counts (n)	Blue Motor Position (mm): 15.000000	Red Motor Position (mm): 0.000000	
326.493990	2135.273973
326.888308	2135.273973
327.282561	2135.273973
327.676750	2103.479416
328.070874	2102.070413
328.464933	2103.726432
328.858929	2111.656167
329.252859	2120.090018
329.646726	2131.770371
330.040528	2145.988945
330.434265	2164.079126
330.827938	2176.198060
331.221547	2196.607171
331.615091	2215.645089
332.008571	2235.540002
332.401986	2253.426016
332.795338	2274.810591
333.188625	2293.871193
333.581847	2312.619245
333.975006	2330.911071
334.368100	2352.083918
334.761129	2367.383819
335.154095	2382.323279
335.546996	2402.535785
335.939833	2423.985895
336.332606	2437.130703
336.725315	2451.492951
337.117960	2455.866152
337.510540	2468.839561
337.903056	2476.620582
338.295508	2485.142653
338.687896	2493.538694
339.080220	2501.208810
339.472480	2509.204080
339.864676	2513.569719
340.256807	2517.169103
340.648875	2519.354443
341.040879	2522.205216
341.432818	2522.943745
341.824694	2524.962727
342.216506	2526.192768
342.608253	2523.286543
342.999937	2523.140350
343.391557	2527.868952
343.783113	2528.398273
344.174605	2525.728982
344.566033	2522.447191
344.957397	2520.753363
345.348697	2519.682118
345.739934	2518.293280
346.131106	2515.182888
346.522215	2514.358660
346.913260	2509.544358
347.304241	2511.873371
347.695159	2508.636950
348.086012	2506.612927
348.476802	2504.699809
348.867528	2504.011692
349.258191	2501.055055
349.648789	2501.279386
350.039324	2502.461537
350.429796	2499.209993
350.820203	2493.268993
351.210548	2494.851915
351.600828	2495.731596
351.991045	2494.052892
352.381198	2493.581544
352.771288	2493.669764
353.161314	2493.458036
353.551276	2493.553818
353.941175	2493.720176
354.331010	2491.857470
354.720782	2493.268993
355.110490	2492.880824
355.500135	2494.441061
355.889717	2494.375526
356.279235	2492.981647
356.668689	2494.516678
357.058080	2493.188334
357.447408	2494.173880
357.836672	2490.952583
358.225873	2491.048364
358.615010	2490.987871
359.004084	2494.796462
359.393095	2497.070023
359.782043	2497.657317
360.170927	2498.753768
360.559748	2497.798469
360.948505	2500.896258
361.337199	2497.614467
361.725830	2501.062617
362.114398	2500.354334
362.502903	2500.195538
362.891344	2499.457009
363.279722	2503.096722
363.668037	2498.912564
364.056289	2502.758965
364.444478	2501.891886
364.832603	2501.521362
365.220665	2503.416835
365.608665	2500.833244
365.996601	2503.500014
366.384474	2503.351300
366.772284	2506.393637
367.160031	2502.085971
367.547715	2506.519666
367.935336	2504.941784
368.322893	2505.423215
368.710388	2509.894718
369.097820	2510.708864
369.485189	2506.101250
369.872495	2506.426404
370.259738	2506.433966
370.646918	2507.180057
371.034035	2509.239368
371.421090	2509.630058
371.808081	2509.118380
372.195010	2509.060407
372.581875	2509.168792
372.968678	2507.681652
373.355418	2507.941271
373.742096	2509.125942
374.128710	2510.217352
374.515262	2510.729029
374.901751	2511.956550
375.288177	2508.745335
375.674540	2509.776251
376.060841	2507.815242
376.447079	2509.642660
376.833254	2511.573422
377.219367	2505.486229
377.605417	2509.320027
377.991404	2508.168123
378.377329	2507.923627
378.763191	2506.985972
379.148991	2514.678773
379.534727	2511.371776
379.920402	2514.441839
380.306013	2514.782117
380.691563	2514.671211
381.077049	2516.208763
381.462474	2513.852024
381.847835	2515.944103
382.233134	2513.163906
382.618371	2513.252127
383.003545	2514.522497
383.388657	2514.918228
383.773706	2513.751201
384.158693	2512.753052
384.543618	2515.392096
384.928480	2514.633403
385.313280	2517.726151
385.698017	2515.505522
386.082692	2517.395955
386.467305	2514.540141
386.851856	2516.939731
387.236344	2518.066428
387.620770	2518.951151
388.005133	2515.530728
388.389435	2516.876716
388.773674	2515.618948
389.157851	2516.244051
389.541965	2516.944772
389.926018	2519.248579
390.310008	2516.380163
390.693936	2519.528363
391.077802	2518.192457
391.461606	2520.702952
391.845348	2520.092972
392.229027	2522.149763
392.612645	2518.973836
392.996200	2519.377128
393.379694	2518.479803
393.763125	2522.490041
394.146494	2519.127591
394.529801	2521.287726
394.913047	2519.674557
395.296230	2522.595905
395.679351	2520.239166
396.062410	2518.152128
396.445408	2521.557427
396.828343	2522.905936
397.211217	2519.104906
397.594028	2520.357633
397.976778	2518.144566
398.359466	2521.479290
398.742092	2517.668177
399.124656	2523.911646
399.507158	2521.199506
399.889598	2523.548683
400.271977	2522.694208
400.654294	2523.858714
401.036549	2522.386697
401.418742	2522.537932
401.800874	2523.515916
402.182944	2523.019362
402.564952	2524.501461
402.946898	2522.633714
403.328783	2520.594567
403.710606	2525.562624
404.092367	2524.635052
404.474067	2525.905423
404.855705	2526.621267
405.237282	2523.878879
405.618797	2522.704290
406.000250	2526.832995
406.381642	2525.252593
406.762972	2525.950793
407.144240	2527.753006
407.525447	2527.750485
407.906593	2527.274096
408.287677	2528.025228
408.668700	2528.252080
409.049661	2528.136133
409.430560	2526.790145
409.811399	2524.998015
410.192176	2526.041534
410.572891	2528.660413
410.953545	2523.473066
411.334138	2529.661082
411.714669	2528.274765
412.095139	2527.299302
412.475547	2527.120341
412.855894	2531.922040
413.236180	2528.335259
413.616405	2530.659231
413.996568	2529.252749
414.376670	2528.940197
414.756711	2528.010104
415.136691	2528.380629
415.516609	2529.618233
415.896466	2529.784591
416.276262	2527.949611
416.655997	2527.190917
417.035670	2524.940042
417.415283	2526.722090
417.794834	2526.984230
418.174324	2529.935825
418.553753	2531.085208
418.933121	2530.513037
419.312428	2532.748789
419.691674	2530.896165
420.070859	2530.762574
420.449983	2531.465815
420.829045	2531.884231
421.208047	2532.456402
421.586988	2530.389529
421.965867	2529.242667
422.344686	2529.033459
422.723444	2533.688964
423.102141	2533.046217
423.480777	2533.043697
423.859352	2532.935312
424.237866	2533.956145
424.616319	2532.421114
424.994712	2534.089736
425.373044	2532.237112
425.751314	2533.706608
426.129524	2532.670651
426.507673	2531.859025
426.885762	2533.268028
427.263789	2536.063348
427.641756	2532.726104
428.019662	2534.770292
428.397508	2536.035621
428.775292	2533.903213
429.153016	2533.487318
429.530679	2534.787936
429.908282	2531.760723
430.285824	2534.697195
430.663305	2533.598223
431.040726	2532.884900
431.418086	2531.362472
431.795385	2532.945394
432.172624	2533.545291
432.549802	2536.731301
432.926920	2536.030580
433.303977	2537.938657
433.680974	2535.604603
434.057910	2535.317257
434.434786	2534.795498
434.811601	2535.776002
435.188355	2534.561084
435.565050	2536.597710
435.941683	2533.562935
436.318257	2533.855322
436.694770	2529.860208
437.071222	2533.913296
437.447614	2532.673172
437.823946	2534.079654
438.200218	2537.101825
438.576429	2536.774150
438.952580	2537.626105
439.328670	2537.479912
439.704700	2535.465971
440.080670	2536.837165
440.456580	2536.325488
440.832429	2537.928575
441.208218	2537.484953
441.583947	2540.754141
441.959616	2537.653832
442.335224	2539.085519
442.710773	2535.778523
443.086261	2540.544933
443.461689	2536.471681
443.837057	2536.242309
444.212365	2537.096784
444.587612	2539.738349
444.962800	2537.416898
445.337927	2539.478729
445.712995	2539.367824
446.088002	2539.934954
446.462949	2536.479243
446.837837	2540.708771
447.212664	2539.665252
447.587431	2540.489481
447.962139	2541.706919
448.336786	2543.027702
448.711374	2536.965714
449.085901	2539.836651
449.460369	2538.213400
449.834776	2537.472350
450.209124	2540.078627
450.583412	2540.950746
450.957640	2541.331353
451.331808	2539.125849
451.705917	2539.231713
452.079965	2540.716333
452.453954	2538.997299
452.827883	2540.645757
453.201752	2539.808925
453.575562	2540.612989
453.949311	2539.650129
454.323001	2541.293545
454.696632	2540.489481
455.070202	2543.393185
455.443713	2539.241795
455.817164	2537.648791
456.190556	2534.682072
456.563888	2539.713143
456.937160	2533.144520
457.310373	2542.808412
457.683526	2542.521066
458.056619	2542.231199
458.429653	2541.442259
458.802628	2541.210366
459.175542	2541.661549
459.548398	2543.534338
459.921194	2542.828576
460.293930	2541.981662
460.666607	2542.478216
461.039224	2541.565767
461.411782	2542.011909
461.784280	2543.022661
462.156719	2542.165664
462.529099	2541.817825
462.901419	2545.376879
463.273680	2543.345294
463.645882	2541.880839
464.018024	2542.110212
464.390106	2542.233720
464.762130	2543.824204
465.134094	2542.584080
465.505999	2544.592980
465.877845	2542.793288
466.249631	2543.612476
466.621358	2545.429812
466.993026	2547.995759
467.364634	2552.139587
467.736184	2546.967363
468.107674	2542.742877
468.479105	2543.945192
468.850477	2545.422250
469.221790	2545.472661
469.593043	2545.429812
469.964238	2545.248330
470.335373	2544.799667
470.706449	2542.604245
471.077467	2547.410985
471.448425	2546.795964
471.819324	2545.271015
472.190164	2547.476520
472.560945	2548.300749
472.931667	2546.405275
473.302330	2544.356046
473.672934	2549.195553
474.043479	2545.422250
474.413965	2545.117260
474.784393	2541.346477
475.154761	2544.643392
475.525070	2542.644574
475.895321	2541.462423
476.265513	2541.054090
476.635645	2546.445604
477.005719	2546.601880
477.375734	2547.630275
477.745691	2546.858979
478.115588	2549.515667
478.485427	2547.751263
478.855207	2547.287477
479.224928	2545.762528
479.594591	2546.009544
479.964194	2545.187836
480.333739	2546.765717
480.703226	2547.105995
481.072653	2548.656150
481.442022	2549.608928
481.811333	2549.929041
482.180584	2549.966850
482.549777	2549.210677
482.918912	2548.338557
483.287988	2549.455173
483.657005	2549.742519
484.025964	2549.487940
484.394864	2550.274360
484.763706	2548.514998
485.132489	2548.875440
485.501213	2551.970709
485.869879	2552.442057
486.238487	2547.940306
486.607036	2549.321582
486.975527	2548.096582
487.343959	2548.149514
487.712333	2550.261758
488.080648	2547.282436
488.448905	2549.180430
488.817104	2551.068342
489.185244	2548.893084
489.553326	2551.771583
489.921350	2552.119423
490.289315	2550.763352
490.657222	2553.364588
491.025070	2551.280071
491.392861	2550.130687
491.760593	2550.271840
492.128267	2551.963147
492.495883	2549.117416
492.863440	2553.291491
493.230939	2553.846018
493.598380	2553.110009
493.965763	2546.231355
494.333088	2550.478527
494.700354	2545.754966
495.067563	2548.620862
495.434713	2547.297559
495.801805	2552.973898
496.168839	2550.710420
496.535815	2550.458363
496.902733	2551.428785
497.269593	2553.523384
497.636395	2550.284443
498.003139	2552.696635
498.369825	2552.729402
498.736453	2550.844011
499.103023	2553.215874
499.469535	2550.075235
499.835989	2553.205791
500.202385	2553.694783
500.568723	2552.381563
500.935003	2549.412323
501.301226	2548.310831
501.667390	2552.124464
502.033497	2550.216387
502.399546	2552.658826
502.765537	2554.488765
503.131470	2553.077242
503.497345	2554.241748
503.863163	2556.353992
504.228923	2553.210832
504.594625	2553.470452
504.960269	2554.627397
505.325856	2553.656975
505.691385	2554.592109
506.056856	2554.934907
506.422270	2554.692932
506.787625	2554.569423
507.152924	2554.967675
507.518164	2555.086142
507.883347	2552.545400
508.248472	2558.803993
508.613540	2552.701676
508.978550	2556.795093
509.343503	2556.046482
509.708398	2554.569423
510.073236	2557.626883
510.438016	2556.406924
510.802738	2557.321893
511.167403	2556.371636
511.532010	2557.957079
511.896561	2558.995557
512.261053	2561.110321
512.625488	2557.765515
512.989866	2555.686039
513.354186	2556.916081
513.718449	2555.943138
514.082655	2557.452963
514.446803	2560.212995
514.810894	2559.003118
515.174927	2563.807338
515.538904	2559.237532
515.902822	2562.133675
516.266684	2560.407080
516.630488	2563.038562
516.994235	2561.309446
517.357925	2562.912533
517.721558	2564.190466
518.085133	2564.802966
518.448651	2562.814231
518.812112	2561.460681
519.175516	2563.411607
519.538863	2564.321536
519.902152	2567.323543
520.265385	2564.661813
520.628560	2566.164077
520.991678	2564.760116
521.354739	2567.358831
521.717743	2566.131310
522.080690	2565.385219
522.443580	2571.134655
522.806413	2566.769016
523.169189	2567.068964
523.531908	2569.135837
523.894569	2570.000395
524.257174	2567.910837
524.619722	2568.634243
524.982213	2571.994172
525.344647	2568.427555
525.707025	2571.132134
526.069345	2571.900910
526.431608	2572.523493
526.793815	2570.088616
527.155964	2571.537947
527.518057	2572.500808
527.880093	2572.909141
528.242072	2572.495767
528.603995	2573.572053
528.965860	2575.613720
529.327669	2576.246385
529.689421	2573.526682
530.051117	2575.086920
530.412755	2578.353587
530.774337	2575.432239
531.135862	2575.328895
531.497331	2576.480799
531.858743	2572.828483
532.220098	2577.294945
532.581396	2572.679769
532.942638	2578.290573
533.303824	2578.693865
533.664953	2582.434401
534.026025	2582.192426
534.387040	2583.987077
534.747999	2584.523960
535.108902	2584.639906
535.469748	2586.870617
535.830537	2586.558065
536.191270	2588.012438
536.551947	2586.951275
536.912567	2588.735844
537.273131	2589.897830
537.633638	2590.885896
537.994089	2592.002511
538.354483	2592.151225
538.714821	2594.439909
539.075103	2594.455033
539.435328	2599.670106
539.795497	2599.070209
540.155609	2600.489294
540.515665	2603.922320
540.875665	2602.790581
541.235609	2608.240068
541.595496	2609.512959
541.955328	2610.657301
542.315102	2612.905656
542.674821	2615.222066
543.034483	2618.302211
543.394090	2617.669546
543.753640	2619.219701
544.113134	2622.630042
544.472571	2622.176338
544.831953	2627.620784
545.191278	2628.437451
545.550548	2630.688326
545.909761	2634.864922
546.268918	2637.572022
546.628019	2643.253402
546.987064	2644.233906
547.346053	2644.375059
547.704986	2651.538538
548.063863	2655.568941
548.422684	2657.834939
548.781449	2660.146308
549.140158	2663.869201
549.498811	2666.034376
549.857408	2667.816424
550.215949	2673.926302
550.574434	2674.944616
550.932864	2682.682787
551.291237	2687.912984
551.649555	2697.622246
552.007817	2701.274562
552.366022	2703.666590
552.724173	2707.878474
553.082267	2710.764534
553.440305	2723.501009
553.798288	2722.752398
554.156215	2734.725138
554.514086	2739.330232
554.871902	2741.286200
555.229661	2747.194432
555.587365	2756.535691
555.945014	2761.717997
556.302606	2772.438010
556.660143	2777.890018
557.017625	2788.909981
557.375050	2793.890641
557.732421	2807.708443
558.089735	2811.743887
558.446994	2821.077583
558.804197	2832.105107
559.161345	2840.198680
559.518437	2841.726149
559.875474	2856.942872
560.232455	2867.070550
560.589381	2873.162785
560.946251	2890.332955
561.303065	2895.464849
561.659825	2909.847261
562.016528	2918.021492
562.373177	2917.093920
562.729770	2939.267435
563.086307	2946.435956
563.442789	2962.257617
563.799216	2974.875625
564.155587	2987.102944
564.511904	2995.151146
564.868164	3007.653208
565.224370	3019.416740
565.580520	3038.686551
565.936615	3042.686706
566.292654	3054.258675
566.648638	3073.135276
567.004567	3089.403079
567.360441	3105.481839
567.716260	3116.083386
568.072023	3133.815644
568.427732	3151.678973
568.783385	3155.094355
569.138982	3181.903211
569.494525	3195.990715
569.850013	3204.714432
570.205445	3236.151067
570.560823	3239.904207
570.916145	3255.398193
571.271412	3280.404837
571.626625	3293.257258
571.981782	3308.519352
572.336884	3329.152794
572.691931	3339.587983
573.046923	3367.979761
573.401860	3379.196328
573.756743	3392.971281
574.111570	3422.683842
574.466342	3433.134154
574.821059	3457.157773
575.175722	3466.080615
575.530330	3494.374091
575.884882	3511.718181
576.239380	3526.887013
576.593823	3535.656100
576.948211	3567.075091
577.302544	3558.973957
577.656823	3598.884772
578.011047	3615.697020
578.365216	3641.134682
578.719330	3650.077689
579.073389	3681.269829
579.427394	3685.176723
579.781344	3709.112121
580.135239	3724.827918
580.489080	3745.841968
580.842866	3758.286057
581.196597	3788.820325
581.550273	3817.098678
581.903895	3841.452492
582.257463	3871.724621
582.610975	3885.728946
582.964434	3909.654262
583.317837	3926.484155
583.671186	3939.334056
584.024481	3970.604333
584.377721	3978.559274
584.730906	4002.792100
585.084037	4034.374929
585.437113	4034.085063
585.790135	4078.268256
586.143103	4076.871856
586.496016	4091.874330
586.848874	4131.762460
587.201679	4149.935819
587.554428	4155.536541
587.907124	4191.117005
588.259765	4206.298440
588.612352	4250.844596
588.964884	4233.177872
589.317362	4268.677678
589.669786	4295.605001
590.022155	4329.491637
590.374470	4361.495402
590.726731	4364.908263
591.078937	4354.369731
591.431090	4416.592693
591.783188	4399.377153
592.135232	4433.311680
592.487222	4443.792239
592.839157	4496.089169
593.191038	4496.978932
593.542866	4504.361702
593.894639	4504.402032
594.246358	4542.772774
594.598022	4577.702929
594.949633	4570.272268
595.301190	4583.298610
595.652692	4617.107108
596.004141	4689.828273
596.355535	4627.320486
596.706876	4652.019619
597.058162	4657.189322
597.409395	4705.569276
597.760573	4758.836628
598.111698	4743.564452
598.462768	4770.854739
598.813785	4777.723311
599.164748	4800.249707
599.515657	4811.496521
599.866511	4821.478006
600.217312	4880.429259
600.568060	4851.941698
600.918753	4919.412501
601.269392	4931.286939
601.619978	4920.549282
601.970510	4973.093228
602.320988	4992.685673
602.671412	5051.384868
603.021783	5040.795924
603.372100	5059.007093
603.722363	5089.906845
604.072572	5100.833546
604.422728	5131.816478
604.772830	5123.296928
605.122878	5150.481350
605.472872	5161.012320
605.822813	5205.072005
606.172701	5206.975040
606.522534	5268.719092
606.872314	5289.564264
607.222041	5306.318538
607.571714	5357.796281
607.921333	5361.383062
608.270899	5390.077310
608.620411	5456.055931
608.969870	5430.978711
609.319276	5456.426456
609.668627	5488.992310
610.017926	5532.563002
610.367171	5583.191311
610.716362	5595.030460
611.065500	5615.008553
611.414585	5657.407177
611.763616	5669.848745
612.112594	5684.500859
612.461518	5720.845057
612.810389	5775.042503
613.159207	5765.665956
613.507971	5755.634060
613.856682	5857.793043
614.205340	5847.408266
614.553945	5917.036683
614.902496	5885.408484
615.250994	5938.811947
615.599439	5945.196568
615.947830	5980.618236
616.296169	5979.869624
616.644454	6010.776939
616.992686	6031.123036
617.340864	6087.538588
617.688990	6051.612805
618.037063	6122.430935
618.385082	6113.198061
618.733048	6191.608168
619.080961	6168.915414
619.428821	6201.352719
619.776628	6233.749694
620.124382	6222.790225
620.472083	6237.172637
620.819731	6271.505416
621.167326	6228.738787
621.514868	6253.778198
621.862357	6198.612852
622.209793	6236.350929
622.557176	6212.274378
622.904506	6214.424431
623.251783	6184.114493
623.599007	6180.825140
623.946179	6202.502102
624.293297	6197.176123
624.640363	6156.627602
624.987376	6162.039280
625.334336	6146.762064
625.681243	6131.547861
626.028097	6141.335262
626.374899	6140.969778
626.721647	6159.680020
627.068343	6119.088650
627.414987	6116.197548
627.761577	6098.833293
628.108115	6139.033975
628.454600	6084.791159
628.801032	6138.930631
629.147412	6111.738647
629.493739	6126.925123
629.840014	6089.124031
630.186236	6143.210571
630.532405	6071.850518
630.878521	6123.419001
631.224585	6107.728409
631.570597	6054.889555
631.916556	6100.537203
632.262462	6108.028358
632.608316	6096.385813
632.954117	6090.986738
633.299866	6090.490184
633.645562	6102.901505
633.991206	6051.012908
634.336797	6017.491756
634.682336	5997.385113
635.027823	5984.353731
635.373257	5991.834803
635.718639	5952.859122
636.063968	5965.963602
636.409245	5897.232510
636.754470	5911.284726
637.099642	5887.664400
637.444762	5846.589078
637.789829	5870.685794
638.134845	5833.840000
638.479808	5835.402758
638.824719	5844.993553
639.169577	5798.473786
639.514383	5831.510987
639.859137	5775.788593
640.203839	5785.195386
640.548489	5784.671106
640.893086	5773.295743
641.237632	5759.858547
641.582125	5789.929030
641.926566	5772.733654
642.270955	5787.642867
642.615292	5794.463548
642.959576	5815.059182
643.303809	5811.555580
643.647990	5828.193908
643.992118	5820.969935
644.336195	5785.167660
644.680219	5817.244522
645.024192	5811.608512
645.368112	5902.704683
645.711981	5928.553199
646.055797	5998.579867
646.399562	5971.405527
646.743274	6084.181180
647.086935	6138.703779
647.430544	6133.259333
647.774101	6163.586915
648.117606	6174.337175
648.461059	6176.560324
648.804460	6148.055120
649.147810	6079.777732
649.491108	6056.772426
649.834354	6043.236928
650.177548	5975.246886
650.520690	5908.544859
650.863781	5889.738835
651.206820	5916.741775
651.549807	5856.431931
651.892742	5807.386546
652.235626	5816.453061
652.578458	5811.341331
652.921238	5733.331996
653.263967	5774.213233
653.606644	5724.804884
653.949269	5732.240586
654.291843	5680.389798
654.634365	5729.604062
654.976836	5694.666346
655.319255	5694.142066
655.661622	5681.140930
656.003938	5680.651938
656.346203	5652.267721
656.688416	5686.308112
657.030577	5641.298170
657.372687	5621.630109
657.714746	5616.664572
658.056753	5654.876518
658.398708	5602.839208
658.740612	5598.380307
659.082465	5648.842257
659.424266	5636.982943
659.766016	5645.376464
660.107715	5625.259739
660.449362	5641.716586
660.790958	5637.643334
661.132503	5626.956088
661.473996	5666.526625
661.815438	5661.480430
662.156829	5661.578732
662.498168	5654.301827
662.839456	5635.294156
663.180693	5672.243293
663.521879	5675.648593
663.863013	5671.613149
664.204097	5684.485735
664.545129	5730.075410
664.886110	5733.488271
665.227040	5762.139669
665.567918	5731.859979
665.908746	5762.666470
666.249522	5765.794506
666.590248	5755.681951
666.930922	5788.580521
667.271545	5801.115350
667.612118	5806.713552
667.952639	5778.306650
668.293109	5809.350075
668.633528	5765.892808
668.973896	5772.416061
669.314213	5766.301142
669.654480	5756.947281
669.994695	5745.826495
670.334859	5744.669551
670.674973	5736.260906
671.015035	5741.675105
671.355047	5741.876751
671.695008	5732.732098
672.034918	5702.147418
672.374777	5716.270210
672.714585	5704.791503
673.054342	5708.335434
673.394049	5704.680598
673.733705	5736.848200
674.073310	5722.085181
674.412864	5691.429925
674.752368	5682.744017
675.091820	5687.333987
675.431223	5629.678311
675.770574	5628.874247
676.109875	5585.510241
676.449125	5588.413946
676.788324	5558.726591
677.127473	5512.206823
677.466571	5502.134598
677.805619	5484.367051
678.144616	5479.918233
678.483562	5455.740859
678.822458	5433.486685
679.161303	5429.978042
679.500098	5418.398512
679.838842	5403.469135
680.177535	5411.691257
680.516179	5420.835910
680.854771	5433.118681
681.193314	5518.788050
681.531805	5623.631447
681.870247	5766.351553
682.208638	5862.380493
682.546978	5879.359099
682.885268	5856.966294
683.223508	5774.631648
683.561697	5724.394030
683.899836	5699.379824
684.237925	5653.684285
684.575963	5620.397547
684.913951	5577.144447
685.251889	5639.929497
685.589776	5605.727789
685.927614	5583.098049
686.265401	5652.267721
686.603137	5634.485051
686.940824	5708.917687
687.278460	5732.359053
687.616046	5743.721814
687.953582	5810.849818
688.291068	5798.488909
688.628504	5852.686354
688.965889	5817.007588
689.303224	5765.252582
689.640510	5719.483946
689.977745	5642.417307
690.314930	5548.561104
690.652065	5497.441284
690.989150	5406.088014
691.326185	5334.060008
691.663170	5284.197955
692.000105	5204.020924
692.336990	5133.122136
692.673825	5107.669351
693.010610	5039.858270
693.347345	4975.553311
693.684030	4966.012928
694.020665	4921.696144
694.357251	4829.649716
694.693786	4839.474925
695.030272	4811.297395
695.366707	4775.858084
695.703093	4743.433382
696.039429	4770.025469
696.375716	4748.784567
696.711952	4722.683993
697.048139	4711.563208
697.384276	4690.929765
697.720363	4705.607084
698.056400	4714.194690
698.392388	4663.889016
698.728326	4646.139113
699.064214	4625.256133
699.400053	4617.281028
699.735842	4583.454886
700.071581	4558.042429
700.407270	4539.435530
700.742910	4516.387375
701.078501	4465.675888
701.414042	4463.445177
701.749533	4436.142288
702.084974	4372.888410
702.420366	4426.725412
702.755709	4368.772308
703.091002	4318.259946
703.426246	4364.373901
703.761440	4316.848423
704.096584	4287.929844
704.431679	4302.468532
704.766725	4288.597797
705.101721	4281.338536
705.436668	4308.280982
705.771565	4251.305862
706.106413	4282.447589
706.441212	4313.606961
706.775961	4323.049043
707.110661	4303.212102
707.445311	4331.203109
707.779913	4353.878219
708.114465	4367.660733
708.448967	4388.795771
708.783421	4449.120738
709.117825	4489.485257
709.452180	4494.576823
709.786485	4538.429820
710.120742	4624.578098
710.454949	4606.593782
710.789107	4670.656765
711.123216	4743.821551
711.457275	4741.656376
711.791286	4810.168177
712.125247	4831.058718
712.459159	4731.937031
712.793023	4808.307991
713.126837	4766.010190
713.460602	4757.936782
713.794318	4677.447199
714.127985	4689.490516
714.461602	4602.603708
714.795171	4574.017846
715.128691	4508.618957
715.462162	4454.366059
715.795584	4405.018204
716.128957	4389.524218
716.462281	4337.202082
716.795556	4317.473526
717.128782	4272.181280
717.461960	4210.724573
717.795088	4219.896953
718.128167	4176.936239
718.461198	4116.323926
718.794180	4113.037094
719.127113	4098.057305
719.459997	4075.021753
719.792833	4027.791182
720.125619	4018.565871
720.458357	3985.967249
720.791046	3989.606962
721.123686	3964.754074
721.456278	3921.049791
721.788821	3941.214406
722.121315	3913.099891
722.453761	3890.767580
722.786158	3902.268972
723.118506	3922.370573
723.450805	3876.745610
723.783056	3897.404259
724.115259	3910.090322
724.447412	3924.366870
724.779518	3912.752052
725.111574	3918.816560
725.443582	3947.825879
725.775542	3930.678395
726.107453	3984.228051
726.439315	3980.863081
726.771129	3998.678519
727.102895	4035.156308
727.434612	4082.283535
727.766281	4091.171089
728.097901	4092.612859
728.429473	4099.383129
728.760996	4103.779015
729.092471	4094.115123
729.423897	4083.069955
729.755276	4088.577415
730.086606	4087.118001
730.417887	4127.434629
730.749120	4191.207746
731.080305	4254.078496
731.411442	4279.818628
731.742530	4248.349225
732.073570	4249.861571
732.404562	4306.758554
732.735506	4300.494920
733.066401	4261.171400
733.397249	4198.280485
733.728048	4120.929020
734.058798	4039.179149
734.389501	3965.570741
734.720156	3905.898603
735.050762	3865.191286
735.381320	3859.378835
735.711831	3807.865805
736.042293	3778.995117
736.372707	3802.058395
736.703073	3774.770630
737.033391	3764.277468
737.363661	3780.008388
737.693883	3806.350938
738.024056	3811.180363
738.354182	3808.700116
738.684260	3873.476422
739.014290	3896.423754
739.344272	3886.485119
739.674207	3932.851132
740.004093	3935.860701
740.333931	3927.273095
740.663722	3931.795010
740.993464	3929.130760
741.323159	3905.805342
741.652806	3873.995661
741.982405	3849.299048
742.311956	3814.774706
742.641460	3810.940908
742.970915	3785.243627
743.300323	3744.601844
743.629683	3711.284859
743.958996	3703.332438
744.288260	3675.396884
744.617477	3644.068634
744.946647	3629.698825
745.275768	3602.983230
745.604842	3601.856532
745.933869	3556.471024
746.262847	3545.446021
746.591778	3586.423040
746.920662	3556.740726
747.249498	3527.249976
747.578286	3571.617171
747.907027	3587.479161
748.235720	3585.566043
748.564365	3611.414560
748.892963	3609.312399
749.221514	3590.224070
749.550017	3568.761357
749.878473	3570.684557
750.206881	3541.019887
750.535242	3536.157695
750.863555	3535.797252
751.191821	3532.782642
751.520039	3514.097605
751.848210	3490.966271
752.176334	3527.146632
752.504411	3533.357334
752.832440	3492.408041
753.160421	3473.118066
753.488356	3480.773058
753.816243	3495.982219
754.144082	3452.124181
754.471875	3438.114814
754.799620	3456.890592
755.127318	3452.149386
755.454969	3448.260136
755.782572	3452.966053
756.110129	3432.299843
756.437638	3420.059922
756.765100	3434.623815
757.092515	3446.483129
757.419882	3452.487144
757.747203	3424.791044
758.074477	3428.491251
758.401703	3441.988941
758.728882	3463.938125
759.056014	3469.296871
759.383099	3474.827017
759.710138	3468.397025
760.037129	3485.211794
760.364073	3515.637678
760.690970	3500.683095
761.017820	3479.621154
761.344623	3496.214112
761.671379	3542.615413
761.998088	3592.263216
762.324751	3717.971949
762.651366	3964.945638
762.977935	4429.669446
763.304456	4865.356209
763.630931	4949.097336
763.957359	4596.329993
764.283740	4261.088221
764.610074	4069.932708
764.936362	3878.883059
765.262602	3722.332547
765.588796	3612.508490
765.914943	3526.103113
766.241044	3439.617078
766.567097	3413.844179
766.893104	3363.112527
767.219064	3335.802076
767.544978	3309.767037
767.870845	3253.336361
768.196665	3235.583938
768.522438	3243.478385
768.848165	3239.198445
769.173846	3203.398691
769.499479	3189.565765
769.825066	3170.263187
770.150607	3156.478152
770.476101	3171.019360
770.801548	3166.860408
771.126949	3119.773510
771.452303	3104.660131
771.777611	3110.459979
772.102872	3113.774537
772.428087	3089.695466
772.753256	3080.492840
773.078378	3073.868763
773.403453	3040.942467
773.728482	3029.262114
774.053465	3050.981925
774.378401	3037.348124
774.703291	3007.877539
775.028135	3009.054648
775.352932	3004.704133
775.677683	2992.759119
776.002388	2988.055722
776.327046	2990.228459
776.651658	2976.929896
776.976224	2966.887917
777.300743	2969.171560
777.625216	2959.646300
777.949643	2955.714200
778.274024	2953.727985
778.598359	2945.790688
778.922647	2951.288067
779.246889	2948.273457
779.571086	2934.548915
779.895236	2930.853749
780.219339	2940.046293
780.543397	2950.310083
780.867409	2955.111782
781.191374	2947.900411
781.515294	2945.969649
781.839167	2944.835390
782.162995	2936.174687
782.486776	2944.832869
782.810511	2943.822118
783.134201	2931.065478
783.457844	2934.150664
783.781441	2925.104313
784.104993	2906.230233
784.428498	2908.897004
784.751958	2921.930907
785.075372	2914.303641
785.398739	2898.282854
785.722061	2915.543765
786.045337	2928.557504
786.368568	2910.686613
786.691752	2903.931467
787.014891	2954.300156
787.337983	2982.780155
787.661030	3007.877539
787.984031	3071.529668
788.306987	3118.770321
788.629897	3111.112808
788.952760	3096.269131
789.275579	3080.029053
789.598351	3023.963861
789.921078	2977.592807
790.243759	2970.477219
790.566395	2955.245372
790.888984	2929.016249
791.211529	2912.887077
791.534027	2905.063206
791.856480	2894.507030
792.178888	2879.277704
792.501249	2872.230171
792.823566	2868.582897
793.145836	2869.059286
793.468062	2862.838502
793.790241	2859.743233
794.112375	2865.711959
794.434464	2879.970863
794.756507	2880.976573
795.078505	2887.424209
795.400457	2900.488359
795.722364	2936.827517
796.044226	2961.438430
796.366042	2962.403811
796.687812	2951.749332
797.009538	2973.123824
797.331218	2959.295939
797.652852	2947.887808
797.974442	2931.526743
798.295986	2923.102975
798.617484	2920.398396
798.938938	2903.540778
799.260346	2890.295146
799.581709	2883.857593
799.903026	2875.320399
800.224299	2871.073227
800.545526	2864.847402
800.866708	2847.331912
801.187845	2839.515603
801.508936	2838.550222
801.829983	2846.946264
802.150984	2833.677947
802.471940	2820.475165
802.792851	2817.364773
803.113717	2819.053560
803.434538	2824.563541
803.755314	2817.798313
804.076045	2813.346974
804.396731	2811.020481
804.717372	2809.989565
805.037967	2806.861529
805.358518	2815.002993
805.679024	2826.206957
805.999485	2823.336020
806.319901	2824.029179
806.640272	2816.555668
806.960598	2820.868375
807.280879	2833.849347
807.601115	2839.853361
807.921306	2824.276195
808.241453	2821.317038
808.561554	2827.646207
808.881611	2832.314315
809.201623	2827.825168
809.521590	2826.209478
809.841513	2818.705720
810.161390	2826.408603
810.481223	2818.080617
810.801011	2807.453865
811.120755	2803.385654
811.440453	2808.973773
811.760107	2805.366827
812.079716	2805.691982
812.399281	2794.543470
812.718801	2787.798406
813.038276	2785.555093
813.357707	2790.064405
813.677093	2796.900209
813.996434	2791.274282
814.315731	2790.777728
814.634983	2783.762962
814.954191	2783.614248
815.273354	2799.372895
815.592473	2806.105356
815.911547	2807.889925
816.230577	2813.725060
816.549562	2824.941628
816.868502	2820.170176
817.187399	2833.340190
817.506250	2852.025227
817.825058	2843.387210
818.143821	2854.064373
818.462539	2868.832434
818.781213	2894.590209
819.099843	2933.550767
819.418429	2991.650065
819.736970	3049.908159
820.055466	3118.767800
820.373919	3222.025754
820.692327	3359.135057
821.010691	3525.316693
821.329011	3956.158907
821.647286	4835.797403
821.965517	6173.470097
822.283704	6886.009467
822.601847	6858.751948
822.919945	6241.969295
823.237999	5753.368062
823.556010	5190.374521
823.873976	4657.073376
824.191897	4257.788785
824.509775	3973.203048
824.827609	3708.960887
825.145398	3590.531580
825.463144	3580.252667
825.780845	3669.244156
826.098502	3774.969755
826.416116	4051.353535
826.733685	4351.453424
827.051210	4411.639760
827.368692	4301.062050
827.686129	4042.055127
828.003522	3725.538721
828.320872	3475.588231
828.638177	3281.511370
828.955439	3151.855413
829.272656	3071.905234
829.589830	3005.309071
829.906960	2957.438274
830.224046	2912.692993
830.541088	2881.193343
830.858086	2867.501569
831.175041	2851.816019
831.491952	2851.054805
831.808819	2864.123996
832.125642	2886.136194
832.442421	2926.730086
832.759157	3011.013137
833.075849	3181.666277
833.392497	3456.961168
833.709101	3654.972650
834.025662	3604.876183
834.342179	3447.060342
834.658653	3273.203548
834.975083	3126.342134
835.291469	3037.380892
835.607811	2953.591874
835.924110	2897.226733
836.240366	2850.185206
836.556578	2805.641570
836.872746	2786.180196
837.188871	2762.302771
837.504952	2748.253075
837.820990	2741.346694
838.136984	2727.697770
838.452935	2716.604711
838.768842	2720.040257
839.084706	2734.936867
839.400526	2810.143321
839.716303	2940.061417
840.032037	3017.692666
840.347727	2999.680623
840.663373	2946.103240
840.978977	2870.508617
841.294537	2801.480098
841.610054	2757.911926
841.925527	2733.427041
842.240957	2714.973898
842.556344	2689.911801
842.871687	2674.967301
843.186987	2665.714263
843.502244	2664.060764
843.817458	2657.938283
844.132629	2646.691469
844.447756	2640.379944
844.762840	2633.980199
845.077881	2635.104377
845.392879	2633.705457
845.707833	2630.224540
846.022745	2621.883951
846.337613	2626.395783
846.652438	2623.124075
846.967221	2624.548201
847.281960	2621.284053
847.596656	2620.853035
847.911309	2619.607870
848.225919	2617.949330
848.540485	2615.648043
848.855009	2614.390276
849.169490	2614.730553
849.483928	2612.315841
849.798323	2616.442025
850.112675	2613.790378
850.426984	2611.857096
850.741251	2610.107815
851.055474	2611.279884
851.369654	2616.200050
851.683792	2617.314145
851.997887	2611.088320
852.311938	2611.408433
852.625947	2612.441870
852.939914	2613.724843
853.253837	2614.523866
853.567718	2608.955912
853.881555	2613.044287
854.195350	2614.352467
854.509103	2611.209307
854.822812	2609.573453
855.136479	2609.016406
855.450103	2613.003958
855.763685	2614.982611
856.077224	2610.821139
856.390720	2608.207300
856.704173	2611.872219
857.017584	2615.166613
857.330953	2616.419340
857.644278	2620.853035
857.957561	2617.523353
858.270802	2613.538321
858.584000	2612.540172
858.897155	2617.644340
859.210268	2618.256841
859.523339	2612.731736
859.836367	2606.699995
860.149352	2609.482712
860.462295	2611.768876
860.775195	2607.642691
861.088054	2607.214193
861.400869	2605.873246
861.713642	2604.010540
862.026373	2605.215376
862.339062	2607.688062
862.651708	2612.537652
862.964312	2614.201232
863.276873	2611.426077
863.589392	2615.375821
863.901869	2620.033847
864.214303	2624.913684
864.526696	2626.746144
864.839045	2628.586165
865.151353	2630.204375
865.463619	2631.870477
865.775842	2630.786628
866.088023	2630.504324
866.400162	2631.683954
866.712258	2630.332925
867.024313	2630.038017
867.336325	2624.525515
867.648296	2627.640948
867.960224	2634.653193
868.272110	2631.263017
868.583954	2623.978550
868.895755	2627.512399
869.207515	2631.436937
869.519233	2636.546147
869.830909	2634.635549
870.142542	2628.208078
870.454134	2631.860394
870.765684	2635.847947
871.077191	2639.288534
871.388657	2641.733494
871.700081	2638.602937
872.011463	2638.184522
872.322803	2642.766931
872.634101	2644.697692
872.945357	2650.157262
873.256571	2655.957110
873.567744	2654.137253
873.878874	2652.168682
874.189963	2653.396203
874.501010	2659.637152
874.812015	2660.557162
875.122979	2661.575476
875.433900	2650.429484
875.744780	2649.910246
876.055618	2659.004487
876.366415	2662.747544
876.677169	2661.396515
876.987882	2660.405928
877.298554	2653.252531
877.609183	2666.097391
877.919771	2671.917403
878.230317	2677.238341
878.540822	2687.325689
878.851285	2702.219778
879.161707	2725.187275
879.472087	2763.288316
879.782425	2807.993268
880.092722	2916.234403
880.402977	3099.182917
880.713191	3347.497553
881.023363	3623.041981
881.333494	3803.767347
881.643583	3971.819251
881.953631	3969.477635
882.263637	3796.510606
882.573602	3583.640323
882.883526	3461.800675
883.193408	3354.759335
883.503248	3257.787700
883.813048	3148.664363
884.122806	3037.569935
884.432522	2955.131946
884.742197	2896.331928
885.051831	2858.006556
885.361424	2825.692760
885.670975	2792.118675
885.980485	2763.638676
886.289954	2746.997827
886.599382	2734.029459
886.908768	2723.657285
887.218113	2704.032073
887.527417	2689.566482
887.836680	2682.617252
888.145901	2677.692044
888.455082	2671.176353
888.764221	2659.160763
889.073319	2654.164979
889.382376	2651.183137
889.691392	2654.180103
890.000366	2654.268323
890.309300	2649.819505
890.618193	2653.406286
890.927044	2651.349495
891.235855	2655.548776
891.544625	2655.919301
891.853353	2653.766728
892.162041	2662.901299
892.470687	2684.008610
892.779293	2691.343489
893.087858	2703.487629
893.396381	2721.466904
893.704864	2761.443254
894.013306	2826.892554
894.321707	2918.384455
894.630068	2959.979016
894.938387	2982.744867
895.246665	2977.411326
895.554903	2937.434976
895.863100	2896.652041
896.171256	2839.611385
896.479371	2781.118877
896.787446	2743.433732
897.095480	2726.263562
897.403473	2720.506564
897.711425	2708.450645
898.019336	2686.851821
898.327207	2674.904286
898.635038	2677.238341
898.942827	2671.647701
899.250576	2659.637152
899.558284	2651.989722
899.865952	2649.937972
900.173579	2645.927734
900.481165	2644.344812
900.788711	2636.531023
901.096216	2630.383336
901.403681	2626.153808
901.711105	2628.865949
902.018489	2626.748664
902.325832	2630.272431
902.633135	2628.220681
902.940397	2645.824390
903.247619	2678.208763
903.554800	2748.565626
903.861941	2864.935622
904.169041	2983.075062
904.476101	3039.541026
904.783121	3035.772764
905.090100	2978.263281
905.397039	2912.529155
905.703938	2844.219000
906.010796	2783.621810
906.317614	2735.166239
906.624391	2699.873121
906.931129	2675.277332
907.237826	2652.748415
907.544483	2635.381640
907.851099	2619.754063
908.157675	2615.721140
908.464211	2606.732763
908.770707	2596.284972
909.077163	2591.516040
909.383578	2589.010587
909.689954	2587.765422
909.996289	2586.167376
910.302584	2589.673498
910.608839	2583.301480
910.915054	2585.217118
911.221229	2584.791141
911.527363	2589.310535
911.833458	2586.174937
912.139513	2587.674681
912.445527	2590.038982
912.751502	2594.321442
913.057436	2600.600199
913.363331	2605.164964
913.669186	2618.874382
913.975000	2631.361320
914.280775	2643.555871
914.586510	2661.199910
914.892205	2694.970599
915.197859	2759.073912
915.503475	2837.189111
915.809050	2899.568349
916.114585	2908.748290
916.420081	2921.328489
916.725536	2933.608740
917.030952	2910.124525
917.336328	2863.292206
917.641665	2819.650937
917.946961	2773.620161
918.252218	2739.862074
918.557435	2716.561861
918.862612	2695.671320
919.167750	2679.249761
919.472848	2666.094870
919.777906	2651.168013
920.082925	2639.454892
920.387904	2628.082049
920.692843	2622.332613
920.997743	2617.052005
921.302603	2612.003289
921.607423	2609.235696
921.912204	2603.902155
922.216946	2598.929057
922.521647	2595.304467
922.826310	2596.665579
923.130932	2589.184506
923.435516	2582.525142
923.740059	2582.956161
924.044564	2580.468351
924.349028	2581.053125
924.653454	2571.260684
924.957840	2571.177505
925.262186	2569.075344
925.566493	2567.643656
925.870761	2563.625856
926.174989	2566.809345
926.479178	2563.577965
926.783328	2563.870352
927.087438	2560.757440
927.391509	2563.265414
927.695541	2558.869528
927.999533	2559.366081
928.303486	2561.667368
928.607400	2555.660833
928.911275	2555.126471
929.215110	2556.865669
929.518906	2554.435833
929.822663	2554.806358
930.126381	2556.369115
930.430060	2556.936245
930.733699	2555.880123
931.037299	2557.997408
931.340861	2558.622511
931.644383	2557.473128
931.947866	2556.353992
932.251309	2555.998591
932.554714	2554.690411
932.858080	2557.460525
933.161407	2554.834084
933.464694	2555.318035
933.767943	2556.038920
934.071153	2553.314176
934.374323	2554.554300
934.677455	2555.280226
934.980548	2554.902140
935.283602	2552.353836
935.586617	2553.561193
935.889593	2553.145297
936.192530	2553.026830
936.495428	2554.203940
936.798287	2557.717624
937.101108	2556.474980
937.403890	2558.330124
937.706632	2559.529919
938.009336	2564.956721
938.312002	2566.980744
938.614628	2569.375292
938.917216	2572.306723
939.219765	2574.008113
939.522275	2575.931313
939.824747	2575.006261
940.127179	2568.147771
940.429573	2565.937225
940.731929	2568.152812
941.034246	2562.627708
941.336524	2563.923284
941.638763	2565.488563
941.940964	2564.558470
942.243126	2567.116855
942.545250	2561.120403
942.847335	2560.696946
943.149381	2560.863304
943.451389	2559.015721
943.753359	2558.335165
944.055290	2557.213509
944.357182	2558.534291
944.659036	2554.234187
944.960851	2556.772408
945.262628	2554.987839
945.564367	2559.338355
945.866067	2558.390618
946.167729	2557.279044
946.469352	2558.090669
946.770937	2554.486244
947.072484	2556.522871
947.373992	2557.717624
947.675462	2553.667057
947.976893	2557.475649
948.278286	2554.884496
948.579641	2554.483724
948.880958	2550.886861
949.182236	2553.835936
949.483476	2556.101934
949.784678	2555.050854
950.085841	2552.162272
950.386967	2556.235525
950.688054	2552.159752
950.989103	2556.366595
951.290114	2555.837274
951.591087	2558.161246
951.892021	2556.230484
952.192917	2556.351471
952.493776	2559.585372
952.794596	2559.809703
953.095378	2561.881617
953.396122	2560.631411
953.696828	2561.213664
953.997496	2556.424568
954.298126	2556.003632
954.598718	2556.948848
954.899272	2552.396686
955.199788	2554.715617
955.500266	2554.473642
955.800706	2545.772610
956.101108	2545.712116
956.401472	2547.436191
956.701798	2542.969728
957.002087	2544.822352
957.302337	2545.689431
957.602550	2546.090203
957.902724	2543.549461
958.202861	2545.240768
958.502960	2545.107178
958.803022	2545.525593
959.103045	2544.318237
959.403031	2544.023330
959.702979	2543.115922
960.002889	2543.284801
960.302762	2542.795809
960.602596	2541.016281
960.902393	2542.153062
961.202153	2540.434028
961.501875	2542.450490
961.801559	2543.057949
962.101205	2541.336395
962.400814	2540.676003
962.700385	2540.428987
962.999918	2544.285470
963.299414	2540.539892
963.598873	2541.656508
963.898293	2540.587783
964.197677	2541.774975
964.497022	2537.300951
964.796331	2541.255736
965.095601	2541.492670
965.394835	2541.235572
965.694030	2538.588966
965.993189	2541.860675
966.292309	2542.289173
966.591393	2537.842875
966.890439	2534.866074
967.189447	2539.750952
967.488419	2540.350849
967.787353	2539.065355
968.086249	2540.562578
968.385108	2541.222969
968.683930	2540.943185
968.982714	2541.306148
969.281462	2538.379758
969.580172	2539.955118
969.878844	2541.568288
970.177480	2539.287166
970.476078	2542.821014
970.774639	2542.788247
971.073162	2541.351518
971.371649	2538.314223
971.670098	2537.021167
971.968510	2540.970911
972.266885	2536.244829
972.565223	2542.561395
972.863524	2539.531662
973.161788	2543.252033
973.460014	2541.676672
973.758204	2542.493339
974.056356	2541.096940
974.354471	2542.642053
974.652550	2542.042156
974.950591	2541.033925
975.248595	2540.229861
975.546563	2540.365972
975.844493	2541.492670
976.142386	2540.252547
976.440243	2539.899666
976.738062	2540.998637
977.035845	2541.132228
977.333590	2540.560057
977.631299	2540.214738
977.928971	2539.955118
978.226606	2542.369831
978.524204	2539.342618
978.821765	2540.003009
979.119290	2536.577545
979.416777	2541.177598
979.714228	2539.451003
980.011642	2540.018133
980.309020	2544.378731
980.606360	2542.498381
980.903664	2538.954449
981.200931	2538.702392
981.498162	2543.350336
981.795356	2544.555171
982.092513	2544.625747
982.389633	2547.441232
982.686717	2550.181099
982.983764	2551.375852
983.280775	2553.641851
983.577749	2552.368960
983.874686	2552.941131
984.171587	2549.515667
984.468451	2551.159083
984.765279	2546.276725
985.062070	2545.691952
985.358824	2544.988711
985.655543	2542.304296
985.952224	2545.591128
986.248869	2543.718340
986.545478	2533.918337
986.842050	2539.939995
987.138586	2536.348173
987.435086	2535.972607
987.731549	2535.428162
988.027975	2538.624254
988.324366	2538.372196
988.620719	2536.703574
988.917037	2535.607123
989.213318	2536.466640
989.509563	2536.880015
989.805772	2536.895138
990.101944	2539.899666
990.398080	2537.971424
990.694180	2537.936136
990.990244	2536.416228
991.286271	2535.624767
991.582262	2539.140972
991.878217	2538.629295
992.174136	2538.412525
992.470019	2538.891435
992.765865	2537.661393
993.061676	2537.452186
993.357450	2535.876825
993.653188	2538.442772
993.948890	2539.549306
994.244556	2539.057793
994.540186	2539.045190
994.835780	2536.764068
995.131337	2537.802546
995.426859	2539.473688
995.722345	2540.222300
996.017795	2539.929913
996.313208	2538.939326
996.608586	2541.417053
996.903928	2542.261446
997.199234	2539.771116
997.494504	2541.386806
997.789738	2540.754141
998.084936	2539.536703
998.380099	2534.329191
998.675225	2536.819521
998.970316	2537.568132
999.265371	2537.384130
999.560390	2538.369676
999.855373	2535.715508
1000.150320	2537.641229
1000.445232	2539.082999
1000.740108	2533.910775
1001.034948	2532.431196
1001.329752	2536.438914
1001.624521	2536.950591
1001.919254	2531.092770
1002.213951	2532.610157
1002.508613	2532.453882
1002.803239	2535.786084
1003.097829	2531.924560
1003.392384	2535.299613
1003.686903	2535.276928
1003.981386	2535.125693
1004.275834	2537.817669
1004.570246	2535.783564
1004.864623	2536.295241
1005.158964	2534.392205
1005.453270	2536.242309
1005.747540	2536.617875
1006.041775	2535.783564
1006.335974	2533.812473
1006.630138	2535.831455
1006.924266	2535.788605
1007.218359	2535.861702
1007.512416	2536.191897
1007.806438	2534.840868
1008.100425	2537.772299
1008.394376	2536.630478
1008.688292	2535.975128
1008.982172	2533.809952
1009.276017	2540.378575
1009.569827	2534.863553
1009.863602	2536.564942
1010.157341	2534.727442
1010.451045	2536.592669
1010.744714	2534.437576
1011.038347	2537.316074
1011.331945	2533.946063
1011.625508	2534.563604
1011.919036	2534.419932
1012.212528	2534.243491
1012.505986	2536.396064
1012.799408	2533.416742
1013.092795	2534.475384
1013.386147	2535.256763
1013.679464	2535.813811
1013.972745	2536.489325
1014.265992	2535.090405
1014.559204	2535.251722
1014.852380	2538.291538
1015.145521	2535.912113
1015.438628	2535.675179
1015.731699	2535.153419
1016.024736	2533.499921
1016.317737	2534.114942
1016.610703	2533.603265
1016.903635	2530.250897
1017.196531	2530.558408
1017.489393	2534.760209
1017.782219	2531.465815
1018.075011	2534.853471
1018.367768	2536.287679
1018.660490	2537.016126
1018.953177	2537.016126
1019.245829	2537.016126
