Dividing Wavelength (nm)	Counts (n)	Blue Motor Position (mm): 22.500000	Red Motor Position (mm): 0.000000	
326.493990	2133.597789
326.888308	2133.597789
327.282561	2133.597789
327.676750	2098.871801
328.070874	2098.607140
328.464933	2102.408170
328.858929	2107.719026
329.252859	2117.904677
329.646726	2130.278189
330.040528	2141.623306
330.434265	2158.261634
330.827938	2177.964984
331.221547	2193.073322
331.615091	2214.755325
332.008571	2234.322564
332.401986	2257.148908
332.795338	2272.272370
333.188625	2291.290123
333.581847	2309.433235
333.975006	2328.647593
334.368100	2347.226766
334.761129	2366.574714
335.154095	2382.882847
335.546996	2401.782133
335.939833	2425.556214
336.332606	2437.622216
336.725315	2452.516305
337.117960	2457.743982
337.510540	2468.950467
337.903056	2479.748618
338.295508	2487.005359
338.687896	2494.526761
339.080220	2503.716784
339.472480	2509.977897
339.864676	2512.082579
340.256807	2517.675739
340.648875	2524.395597
341.040879	2523.830988
341.432818	2527.455578
341.824694	2526.084384
342.216506	2528.942718
342.608253	2530.008922
342.999937	2529.066226
343.391557	2528.410876
343.783113	2527.949611
344.174605	2524.453570
344.566033	2524.070443
344.957397	2524.370391
345.348697	2517.320338
345.739934	2519.472910
346.131106	2518.835204
346.522215	2517.027951
346.913260	2511.908659
347.304241	2510.199708
347.695159	2510.451766
348.086012	2509.062928
348.476802	2507.497649
348.867528	2506.270128
349.258191	2503.472288
349.648789	2503.948677
350.039324	2499.968686
350.429796	2502.393481
350.820203	2496.102121
351.210548	2497.606906
351.600828	2497.944663
351.991045	2497.349807
352.381198	2496.664210
352.771288	2495.436689
353.161314	2496.984323
353.551276	2494.680516
353.941175	2495.794611
354.331010	2497.110352
354.720782	2494.851915
355.110490	2494.670433
355.500135	2494.798983
355.889717	2493.697491
356.279235	2495.761843
356.668689	2498.166474
357.058080	2493.717655
357.447408	2495.524909
357.836672	2490.249342
358.225873	2498.027842
358.615010	2491.257572
359.004084	2499.212513
359.393095	2497.768222
359.782043	2496.139930
360.170927	2499.073881
360.559748	2498.877276
360.948505	2500.412308
361.337199	2501.811228
361.725830	2503.036228
362.114398	2503.515138
362.502903	2501.042452
362.891344	2502.529592
363.279722	2505.665190
363.668037	2500.936588
364.056289	2505.491270
364.444478	2503.915910
364.832603	2505.919768
365.220665	2503.714263
365.608665	2503.779798
365.996601	2505.755931
366.384474	2506.272649
366.772284	2507.575787
367.160031	2504.876249
367.547715	2505.584532
367.935336	2506.736435
368.322893	2509.030160
368.710388	2507.522855
369.097820	2511.018895
369.485189	2508.873884
369.872495	2508.483195
370.259738	2510.797085
370.646918	2509.539317
371.034035	2507.709378
371.421090	2512.921931
371.808081	2507.527896
372.195010	2508.967146
372.581875	2506.630571
372.968678	2512.712723
373.355418	2510.577794
373.742096	2509.665346
374.128710	2512.737929
374.515262	2513.965450
374.901751	2511.843124
375.288177	2509.713237
375.674540	2512.841273
376.060841	2514.121726
376.447079	2512.110305
376.833254	2513.478978
377.219367	2508.939419
377.605417	2513.224400
377.991404	2508.926817
378.377329	2513.279853
378.763191	2511.260871
379.148991	2513.453773
379.534727	2513.184071
379.920402	2516.511232
380.306013	2515.853362
380.691563	2519.314114
381.077049	2515.500481
381.462474	2513.698269
381.847835	2518.174813
382.233134	2517.159021
382.618371	2513.826818
383.003545	2517.673218
383.388657	2518.026099
383.773706	2516.281860
384.158693	2516.901922
384.543618	2517.451408
384.928480	2514.887981
385.313280	2518.643641
385.698017	2517.108609
386.082692	2517.708507
386.467305	2516.428053
386.851856	2518.131963
387.236344	2520.483662
387.620770	2519.956861
388.005133	2520.667664
388.389435	2522.490041
388.773674	2517.839577
389.157851	2517.718589
389.541965	2521.149094
389.926018	2522.217819
390.310008	2520.511388
390.693936	2520.113137
391.077802	2518.154649
391.461606	2522.474918
391.845348	2521.998528
392.229027	2521.479290
392.612645	2523.480628
392.996200	2522.210257
393.379694	2521.164218
393.763125	2525.580268
394.146494	2521.499454
394.529801	2523.624301
394.913047	2523.861235
395.296230	2522.542973
395.679351	2523.916687
396.062410	2527.387522
396.445408	2523.273940
396.828343	2525.502130
397.211217	2520.193795
397.594028	2521.706142
397.976778	2520.929804
398.359466	2525.469363
398.742092	2520.869310
399.124656	2525.363499
399.507158	2525.451719
399.889598	2527.339631
400.271977	2525.497089
400.654294	2527.828623
401.036549	2524.748478
401.418742	2527.009435
401.800874	2527.566483
402.182944	2527.390042
402.564952	2525.915505
402.946898	2528.239477
403.328783	2526.419620
403.710606	2525.542460
404.092367	2526.107069
404.474067	2525.791997
404.855705	2526.298633
405.237282	2527.208561
405.618797	2529.202337
406.000250	2528.703263
406.381642	2528.405835
406.762972	2528.186545
407.144240	2527.266534
407.525447	2531.186031
407.906593	2529.235105
408.287677	2527.062368
408.668700	2528.620084
409.049661	2530.258459
409.430560	2528.420958
409.811399	2530.341638
410.192176	2527.004394
410.572891	2532.690816
410.953545	2529.620753
411.334138	2529.088911
411.714669	2530.475229
412.095139	2533.073943
412.475547	2533.275590
412.855894	2532.416073
413.236180	2531.894313
413.616405	2532.733666
413.996568	2532.037986
414.376670	2535.498738
414.756711	2530.873480
415.136691	2530.828109
415.516609	2530.351720
415.896466	2531.357431
416.276262	2529.847605
416.655997	2528.725948
417.035670	2530.835671
417.415283	2531.732997
417.794834	2528.816689
418.174324	2532.607637
418.553753	2533.444468
418.933121	2532.761392
419.312428	2536.970755
419.691674	2535.355066
420.070859	2534.150230
420.449983	2537.384130
420.829045	2533.197452
421.208047	2536.416228
421.586988	2534.056968
421.965867	2534.608975
422.344686	2534.641742
422.723444	2533.164684
423.102141	2535.508821
423.480777	2538.745242
423.859352	2536.038142
424.237866	2538.321785
424.616319	2535.637370
424.994712	2536.852288
425.373044	2534.971938
425.751314	2534.924047
426.129524	2536.123842
426.507673	2537.144675
426.885762	2537.593338
427.263789	2540.723894
427.641756	2537.658873
428.019662	2540.066024
428.397508	2538.898997
428.775292	2539.158616
429.153016	2534.102339
429.530679	2540.552495
429.908282	2539.385468
430.285824	2538.558719
430.663305	2538.518390
431.040726	2539.264480
431.418086	2539.876981
431.795385	2538.730118
432.172624	2540.635674
432.549802	2541.038967
432.926920	2539.997968
433.303977	2540.275232
433.680974	2540.325643
434.057910	2540.542413
434.434786	2539.811446
434.811601	2541.517876
435.188355	2541.666590
435.565050	2542.140459
435.941683	2539.541744
436.318257	2538.788091
436.694770	2535.690302
437.071222	2537.300951
437.447614	2538.084850
437.823946	2539.566950
438.200218	2541.366642
438.576429	2539.395550
438.952580	2541.817825
439.328670	2541.210366
439.704700	2541.107022
440.080670	2541.976621
440.456580	2543.025181
440.832429	2544.197249
441.208218	2540.824718
441.583947	2545.150028
441.959616	2542.347146
442.335224	2543.050387
442.710773	2542.263967
443.086261	2544.454348
443.461689	2543.781354
443.837057	2544.794626
444.212365	2544.275387
444.587612	2546.503577
444.962800	2544.136756
445.337927	2545.336550
445.712995	2545.286139
446.088002	2545.243289
446.462949	2548.139432
446.837837	2544.713968
447.212664	2544.061138
447.587431	2546.473330
447.962139	2544.918134
448.336786	2545.865871
448.711374	2547.673125
449.085901	2545.812939
449.460369	2545.366797
449.834776	2545.891077
450.209124	2546.574153
450.583412	2547.035419
450.957640	2548.658671
451.331808	2549.099772
451.705917	2546.962322
452.079965	2549.901315
452.453954	2549.808054
452.827883	2549.689587
453.201752	2546.349822
453.575562	2548.512477
453.949311	2547.862168
454.323001	2546.647250
454.696632	2546.599359
455.070202	2549.485420
455.443713	2548.653629
455.817164	2546.591797
456.190556	2547.428629
456.563888	2547.022816
456.937160	2547.330327
457.310373	2550.407951
457.683526	2549.992056
458.056619	2551.799309
458.429653	2552.719320
458.802628	2549.170348
459.175542	2550.334854
459.548398	2552.689073
459.921194	2550.866696
460.293930	2555.585216
460.666607	2553.543549
461.039224	2554.992880
461.411782	2552.207643
461.784280	2556.842984
462.156719	2556.220401
462.529099	2557.468087
462.901419	2556.306101
463.273680	2556.041440
463.645882	2560.175187
464.018024	2557.410114
464.390106	2556.374157
464.762130	2561.750547
465.134094	2561.695094
465.505999	2571.230437
465.877845	2573.519121
466.249631	2574.575242
466.621358	2573.758576
466.993026	2579.543300
467.364634	2579.772672
467.736184	2579.926427
468.107674	2581.698393
468.479105	2582.394072
468.850477	2587.833477
469.221790	2587.682242
469.593043	2588.723241
469.964238	2594.502924
470.335373	2595.420414
470.706449	2602.982144
471.077467	2607.710747
471.448425	2629.307050
471.819324	2645.370687
472.190164	2651.082314
472.560945	2643.087044
472.931667	2639.989255
473.302330	2644.251550
473.672934	2647.614000
474.043479	2661.767039
474.413965	2665.938594
474.784393	2671.133503
475.154761	2684.757222
475.525070	2694.194262
475.895321	2701.879501
476.265513	2713.141438
476.635645	2729.341186
477.005719	2745.505646
477.375734	2758.665578
477.745691	2777.002775
478.115588	2796.922895
478.485427	2820.893581
478.855207	2860.751464
479.224928	2924.353182
479.594591	2968.856488
479.964194	2981.240082
480.333739	2985.706544
480.703226	3011.945750
481.072653	3041.668393
481.442022	3095.833071
481.811333	3131.479070
482.180584	3144.601193
482.549777	3158.217350
482.918912	3170.495080
483.287988	3207.466902
483.657005	3237.156778
484.025964	3246.321595
484.394864	3286.517236
484.763706	3318.505877
485.132489	3327.438802
485.501213	3360.420551
485.869879	3397.654513
486.238487	3428.728186
486.607036	3469.800987
486.975527	3494.568175
487.343959	3549.763769
487.712333	3598.299998
488.080648	3629.192189
488.448905	3687.909028
488.817104	3724.391859
489.185244	3806.605516
489.553326	3886.495202
489.921350	4033.676729
490.289315	4268.357564
490.657222	4377.128020
491.025070	4435.305456
491.392861	4470.593533
491.760593	4465.948110
492.128267	4458.247747
492.495883	4454.988642
492.863440	4451.101912
493.230939	4447.678968
493.598380	4493.573633
493.965763	4535.952093
494.333088	4561.324220
494.700354	4619.967963
495.067563	4685.150082
495.434713	4716.606882
495.801805	4810.848733
496.168839	4858.285990
496.535815	4918.716822
496.902733	4973.005008
497.269593	5033.899626
497.636395	5116.594713
498.003139	5202.314493
498.369825	5216.311257
498.736453	5346.786401
499.103023	5380.695722
499.469535	5469.374660
499.835989	5526.531262
500.202385	5596.492395
500.568723	5611.099138
500.935003	5752.248925
501.301226	5780.789418
501.667390	5932.616369
502.033497	6051.428803
502.399546	6061.440535
502.765537	6103.171206
503.131470	6210.157094
503.497345	6363.181319
503.863163	6263.177429
504.228923	6479.135419
504.594625	6572.500109
504.960269	6535.112391
505.325856	6708.545728
505.691385	6692.764396
506.056856	6833.150448
506.422270	6928.009840
506.787625	6927.571259
507.152924	7070.470327
507.518164	7130.664224
507.883347	7168.886253
508.248472	7186.028697
508.613540	7393.656179
508.978550	7405.137407
509.343503	7458.782846
509.708398	7602.047397
510.073236	7746.224397
510.438016	7821.471180
510.802738	7869.213427
511.167403	7964.773540
511.532010	7984.333217
511.896561	8175.128287
512.261053	8295.306874
512.625488	8283.371942
512.989866	8342.056014
513.354186	8404.377279
513.718449	8407.608658
514.082655	8592.581196
514.446803	8594.746371
514.810894	8738.951098
515.174927	8719.671205
515.538904	8790.229715
515.902822	8968.056417
516.266684	8944.539434
516.630488	8962.768246
516.994235	9056.052278
517.357925	9167.325666
517.721558	9287.489130
518.085133	9363.194658
518.448651	9419.343029
518.812112	9387.031754
519.175516	9460.985481
519.538863	9605.593499
519.902152	9585.655736
520.265385	9775.498028
520.628560	9746.090457
520.991678	9787.037229
521.354739	9876.961332
521.717743	9867.098314
522.080690	9897.226770
522.443580	10062.067460
522.806413	10069.868645
523.169189	10138.438420
523.531908	10236.105734
523.894569	10113.472105
524.257174	10170.333800
524.619722	10313.162292
524.982213	10293.716041
525.344647	10390.612059
525.707025	10380.577642
526.069345	10495.067287
526.431608	10463.302977
526.793815	10593.521022
527.155964	10440.464029
527.518057	10514.505976
527.880093	10500.972999
528.242072	10594.226783
528.603995	10541.118227
528.965860	10495.952009
529.327669	10572.015459
529.689421	10551.623992
530.051117	10546.668538
530.412755	10668.881230
530.774337	10590.622358
531.135862	10595.973543
531.497331	10634.896292
531.858743	10517.180308
532.220098	10692.337719
532.581396	10595.146794
532.942638	10599.956054
533.303824	10579.098280
533.664953	10613.725966
534.026025	10548.203569
534.387040	10658.700620
534.747999	10677.980513
535.108902	10746.199928
535.469748	10525.036947
535.830537	10641.348969
536.191270	10636.484255
536.551947	10669.375263
536.912567	10682.008395
537.273131	10619.442635
537.633638	10610.439134
537.994089	10612.705133
538.354483	10568.496734
538.714821	10720.089271
539.075103	10737.362785
539.435328	10710.337159
539.795497	10550.895545
540.155609	10710.876562
540.515665	10805.728393
540.875665	10555.379652
541.235609	10632.539552
541.595496	10624.133428
541.955328	10784.011102
542.315102	10675.966572
542.674821	10635.039965
543.034483	10644.340893
543.394090	10651.496811
543.753640	10585.382079
544.113134	10805.960286
544.472571	10667.958699
544.831953	10817.285238
545.191278	10619.651842
545.550548	10655.890177
545.909761	10788.989241
546.268918	10776.116655
546.628019	10854.415857
546.987064	10723.350898
547.346053	10650.559157
547.704986	10752.017419
548.063863	10743.737324
548.422684	10734.292722
548.781449	10651.143931
549.140158	10755.521021
549.498811	10637.431992
549.857408	10494.961423
550.215949	10716.870494
550.574434	10580.688764
550.932864	10678.343476
551.291237	10743.359237
551.649555	10692.007524
552.007817	10704.799452
552.366022	10666.579944
552.724173	10664.087093
553.082267	10645.543209
553.440305	10783.391040
553.798288	10586.836452
554.156215	10740.463094
554.514086	10724.384334
554.871902	10570.697197
555.229661	10606.252456
555.587365	10582.730432
555.945014	10480.316871
556.302606	10606.113824
556.660143	10496.927473
557.017625	10650.856585
557.375050	10556.271936
557.732421	10692.879643
558.089735	10594.488923
558.446994	10605.534091
558.804197	10640.262600
559.161345	10641.419545
559.518437	10494.169962
559.875474	10583.675648
560.232455	10610.300502
560.589381	10562.656557
560.946251	10567.894316
561.303065	10669.261838
561.659825	10600.346744
562.016528	10532.618842
562.373177	10413.748434
562.729770	10533.800993
563.086307	10446.062230
563.442789	10528.785044
563.799216	10414.784391
564.155587	10467.167021
564.511904	10413.004864
564.868164	10413.075440
565.224370	10428.458521
565.580520	10350.232416
565.936615	10355.026554
566.292654	10227.568540
566.648638	10355.949085
567.004567	10312.398557
567.360441	10297.201998
567.716260	10210.393329
568.072023	10304.864552
568.427732	10253.124670
568.783385	10169.295323
569.138982	10233.249921
569.494525	10248.219627
569.850013	10132.459611
570.205445	10214.408608
570.560823	10106.875756
570.916145	10025.604794
571.271412	10093.970402
571.626625	10038.878152
571.981782	10020.611531
572.336884	9994.405093
572.691931	9999.632769
573.046923	9943.265107
573.401860	9896.359692
573.756743	9837.020270
574.111570	9881.090037
574.466342	9865.916163
574.821059	9888.374504
575.175722	9784.405747
575.530330	9797.812696
575.884882	9780.849213
576.239380	9715.294048
576.593823	9696.485503
576.948211	9707.553357
577.302544	9587.200850
577.656823	9603.241801
578.011047	9605.260783
578.365216	9577.330270
578.719330	9498.514351
579.073389	9512.495991
579.427394	9462.828023
579.781344	9440.233571
580.135239	9388.899501
580.489080	9399.064988
580.842866	9300.268455
581.196597	9306.751379
581.550273	9339.599537
581.903895	9312.531062
582.257463	9378.008088
582.610975	9259.631714
582.964434	9284.671125
583.317837	9210.417449
583.671186	9185.998100
584.024481	9182.776803
584.377721	9105.352242
584.730906	9081.293335
585.084037	9108.374413
585.437113	9045.354949
585.790135	9067.309174
586.143103	8966.332342
586.496016	8947.803581
586.848874	8996.309563
587.201679	8990.759253
587.554428	8877.048466
587.907124	8925.693080
588.259765	8889.936176
588.612352	8891.221670
588.964884	8773.757744
589.317362	8788.041854
589.669786	8788.482955
590.022155	8831.279830
590.374470	8850.219445
590.726731	8789.486144
591.078937	8640.096591
591.431090	8747.100123
591.783188	8626.107389
592.135232	8619.024568
592.487222	8618.104558
592.839157	8664.836054
593.191038	8603.386909
593.542866	8552.614928
593.894639	8444.590563
594.246358	8502.596600
594.598022	8514.745780
594.949633	8414.812467
595.301190	8392.727172
595.652692	8419.755318
596.004141	8529.405456
596.355535	8306.402454
596.706876	8287.717417
597.058162	8221.867345
597.409395	8297.371227
597.760573	8353.592695
598.111698	8273.481198
598.462768	8248.038495
598.813785	8217.693269
599.164748	8190.133281
599.515657	8182.034668
599.866511	8091.213240
600.217312	8212.415181
600.568060	8076.485509
600.918753	8181.969133
601.269392	8145.955130
601.619978	8053.956592
601.970510	8125.036862
602.320988	8118.112837
602.671412	8170.349273
603.021783	8112.680994
603.372100	8083.424657
603.722363	8089.743744
604.072572	8063.431441
604.422728	8074.859737
604.772830	8004.432297
605.122878	8011.484871
605.472872	8009.145776
605.822813	8033.071092
606.172701	7982.767938
606.522534	8061.258704
606.872314	8049.732106
607.222041	8024.654886
607.571714	8077.211435
607.921333	8034.812811
608.270899	8043.440746
608.620411	8133.286710
608.969870	8041.020992
609.319276	8032.448510
609.668627	8046.646919
610.017926	8085.395748
610.367171	8129.347048
610.716362	8104.501722
611.065500	8097.302954
611.414585	8125.455277
611.763616	8108.698482
612.112594	8092.211388
612.461518	8108.217052
612.810389	8169.313316
613.159207	8114.067311
613.507971	8060.366420
613.856682	8175.307248
614.205340	8131.807131
614.553945	8210.194553
614.902496	8111.493802
615.250994	8158.857963
615.599439	8146.633165
615.947830	8156.660020
616.296169	8126.392932
616.644454	8145.957650
616.992686	8142.262484
617.340864	8194.418262
617.688990	8107.130683
618.037063	8193.551184
618.385082	8141.097978
618.733048	8228.821617
619.080961	8164.985485
619.428821	8187.355606
619.776628	8182.160697
620.124382	8138.809294
620.472083	8121.424875
620.819731	8150.600553
621.167326	8046.316724
621.514868	8051.771252
621.862357	7940.376876
622.209793	7959.407232
622.557176	7888.889051
622.904506	7861.497942
623.251783	7798.773385
623.599007	7755.081704
623.946179	7758.391222
624.293297	7714.548307
624.640363	7632.674927
624.987376	7615.666074
625.334336	7562.618012
625.681243	7509.302769
626.028097	7501.297417
626.374899	7476.557954
626.721647	7470.256512
627.068343	7403.695637
627.414987	7373.710854
627.761577	7327.743093
628.108115	7364.886314
628.454600	7264.748834
628.801032	7313.965619
629.147412	7267.796212
629.493739	7260.292454
629.840014	7193.368617
630.186236	7253.466732
630.532405	7136.595142
630.878521	7188.057761
631.224585	7141.878271
631.570597	7074.896460
631.916556	7102.700944
632.262462	7099.898062
632.608316	7062.580921
632.954117	7035.404061
633.299866	7024.268152
633.645562	7018.934611
633.991206	6938.934020
634.336797	6882.483179
634.682336	6837.629513
635.027823	6807.622045
635.373257	6800.309851
635.718639	6733.567495
636.063968	6745.237766
636.409245	6642.874617
636.754470	6633.556044
637.099642	6596.879129
637.444762	6537.779162
637.789829	6547.720317
638.134845	6490.457851
638.479808	6474.699204
638.824719	6482.684391
639.169577	6409.832157
639.514383	6427.219096
639.859137	6356.418611
640.203839	6371.373194
640.548489	6358.500607
640.893086	6331.384241
641.237632	6300.333254
641.582125	6322.169012
641.926566	6294.573736
642.270955	6309.503113
642.615292	6299.561957
642.959576	6315.187014
643.303809	6303.632689
643.647990	6312.487476
643.992118	6303.247041
644.336195	6248.101859
644.680219	6275.654285
645.024192	6266.267657
645.368112	6358.004054
645.711981	6385.737962
646.055797	6459.663962
646.399562	6414.434730
646.743274	6541.338216
647.086935	6594.356031
647.430544	6587.941163
647.774101	6606.386745
648.117606	6611.677436
648.461059	6606.432115
648.804460	6568.053811
649.147810	6473.839687
649.491108	6450.821778
649.834354	6420.438744
650.177548	6340.518812
650.520690	6258.284990
650.863781	6237.412092
651.206820	6250.758547
651.549807	6172.492113
651.892742	6114.705366
652.235626	6125.034691
652.578458	6104.653306
652.921238	6017.700963
653.263967	6060.515483
653.606644	5996.979301
653.949269	5998.746225
654.291843	5939.018634
654.634365	5989.634339
654.976836	5945.315035
655.319255	5941.360250
655.661622	5918.758237
656.003938	5915.491569
656.346203	5875.671495
656.688416	5908.996043
657.030577	5861.601635
657.372687	5834.303787
657.714746	5823.740049
658.056753	5862.730853
658.398708	5805.057533
658.740612	5790.901973
659.082465	5845.195199
659.424266	5836.607594
659.766016	5836.978119
660.107715	5811.048944
660.449362	5820.760727
660.790958	5815.165046
661.132503	5804.066946
661.473996	5847.672927
661.815438	5829.570143
662.156829	5823.157795
662.498168	5818.620757
662.839456	5792.953722
663.180693	5828.055276
663.521879	5834.409651
663.863013	5818.225026
664.204097	5842.346948
664.545129	5876.246187
664.886110	5872.581268
665.227040	5903.755763
665.567918	5872.238469
665.908746	5901.933386
666.249522	5904.935393
666.590248	5890.888218
666.930922	5919.879894
667.271545	5928.840545
667.612118	5936.586278
667.952639	5907.579478
668.293109	5926.909783
668.633528	5883.495366
668.973896	5888.231530
669.314213	5882.096446
669.654480	5859.479309
669.994695	5859.514597
670.334859	5849.858267
670.674973	5839.796124
671.015035	5844.214695
671.355047	5841.598336
671.695008	5829.106357
672.034918	5803.159538
672.374777	5809.176155
672.714585	5796.245596
673.054342	5798.567047
673.394049	5794.607221
673.733705	5826.313558
674.073310	5812.851156
674.412864	5773.643582
674.752368	5766.535555
675.091820	5771.138129
675.431223	5700.798909
675.770574	5705.371236
676.109875	5659.050594
676.449125	5664.699207
676.788324	5629.136387
677.127473	5573.741668
677.466571	5567.019289
677.805619	5550.355755
678.144616	5541.198499
678.483562	5524.136714
678.822458	5490.333257
679.161303	5483.845292
679.500098	5472.197706
679.838842	5458.800839
680.177535	5461.941478
680.516179	5476.633921
680.854771	5486.464171
681.193314	5568.133384
681.531805	5678.590106
681.870247	5824.859185
682.208638	5927.025729
682.546978	5935.109219
682.885268	5919.947949
683.223508	5832.095761
683.561697	5777.860508
683.899836	5751.835551
684.237925	5702.122212
684.575963	5668.931255
684.913951	5631.656964
685.251889	5687.649059
685.589776	5659.141334
685.927614	5629.827025
686.265401	5698.926121
686.603137	5678.668244
686.940824	5764.584629
687.278460	5785.107166
687.616046	5793.788033
687.953582	5859.191963
688.291068	5843.571948
688.628504	5905.283233
688.965889	5865.843766
689.303224	5812.644469
689.640510	5767.354743
689.977745	5686.804666
690.314930	5591.085757
690.652065	5536.593405
690.989150	5446.049241
691.326185	5366.131829
691.663170	5315.672399
692.000105	5239.664402
692.336990	5166.292929
692.673825	5137.928877
693.010610	5071.385646
693.347345	5004.071118
693.684030	4985.862471
694.020665	4951.413746
694.357251	4858.580898
694.693786	4867.044995
695.030272	4834.335468
695.366707	4799.924552
695.703093	4767.895581
696.039429	4788.491215
696.375716	4771.288278
696.711952	4746.321963
697.048139	4734.266044
697.384276	4710.265111
697.720363	4724.483685
698.056400	4735.107917
698.392388	4685.082027
698.728326	4666.316331
699.064214	4644.609123
699.400053	4635.754336
699.735842	4605.782156
700.071581	4575.227723
700.407270	4550.301737
700.742910	4537.887896
701.078501	4480.280110
701.414042	4481.976459
701.749533	4455.550730
702.084974	4388.185791
702.420366	4443.260397
702.755709	4384.067169
703.091002	4329.226977
703.426246	4375.182135
703.761440	4334.946166
704.096584	4296.991318
704.431679	4318.345646
704.766725	4304.454747
705.101721	4290.480668
705.436668	4320.364628
705.771565	4269.017956
706.106413	4292.272798
706.441212	4324.437880
706.775961	4337.151670
707.110661	4315.051252
707.445311	4344.431097
707.779913	4370.206516
708.114465	4381.418042
708.448967	4402.885796
708.783421	4462.462152
709.117825	4501.952031
709.452180	4512.863608
709.786485	4554.823652
710.120742	4640.941683
710.454949	4624.908294
710.789107	4691.169220
711.123216	4759.015589
711.457275	4750.367489
711.791286	4823.312986
712.125247	4841.884596
712.459159	4743.143516
712.793023	4824.311134
713.126837	4777.756078
713.460602	4775.411942
713.794318	4694.302297
714.127985	4703.651117
714.461602	4621.671873
714.795171	4589.063169
715.128691	4523.825597
715.462162	4468.327535
715.795584	4419.118311
716.128957	4398.671391
716.462281	4349.522662
716.795556	4322.900328
717.128782	4286.324237
717.461960	4219.970049
717.795088	4227.698138
718.128167	4186.358156
718.461198	4127.691728
718.794180	4122.695945
719.127113	4103.519395
719.459997	4087.586829
719.792833	4037.127399
720.125619	4029.716903
720.458357	3996.339423
720.791046	4001.572141
721.123686	3973.873521
721.456278	3936.052265
721.788821	3951.518525
722.121315	3922.657919
722.453761	3897.646234
722.786158	3909.739962
723.118506	3933.786266
723.450805	3882.426991
723.783056	3905.679313
724.115259	3923.653547
724.447412	3928.465328
724.779518	3914.904624
725.111574	3925.415430
725.443582	3953.277887
725.775542	3944.753296
726.107453	3987.930779
726.439315	3989.702744
726.771129	4004.160774
727.102895	4038.901885
727.434612	4091.249227
727.766281	4098.586626
728.097901	4099.274744
728.429473	4103.607616
728.760996	4111.791929
729.092471	4106.584417
729.423897	4093.051439
729.755276	4097.069239
730.086606	4097.124692
730.417887	4132.891678
730.749120	4201.181669
731.080305	4260.967233
731.411442	4285.873053
731.742530	4260.211060
732.073570	4263.379425
732.404562	4318.093588
732.735506	4307.308040
733.066401	4270.447123
733.397249	4210.301116
733.728048	4127.543014
734.058798	4052.323957
734.389501	3974.768326
734.720156	3917.236158
735.050762	3871.827965
735.381320	3868.304198
735.711831	3814.749500
736.042293	3788.817805
736.372707	3810.265394
736.703073	3781.893780
737.033391	3769.227881
737.363661	3788.716982
737.693883	3815.835869
738.024056	3823.430367
738.354182	3819.379800
738.684260	3882.099316
739.014290	3900.146646
739.344272	3893.517529
739.674207	3938.182152
740.004093	3944.665076
740.333931	3936.697532
740.663722	3939.129889
740.993464	3935.298612
741.323159	3915.290272
741.652806	3884.647619
741.982405	3856.840614
742.311956	3825.794668
742.641460	3818.361487
742.970915	3794.758805
743.300323	3752.229110
743.629683	3719.161662
743.958996	3707.287224
744.288260	3683.228317
744.617477	3652.328564
744.946647	3636.985813
745.275768	3611.462451
745.604842	3608.732666
745.933869	3562.081828
746.262847	3553.237124
746.591778	3591.743977
746.920662	3560.284657
747.249498	3531.857590
747.578286	3579.297369
747.907027	3591.070983
748.235720	3592.830346
748.564365	3616.465796
748.892963	3615.986886
749.221514	3600.727314
749.550017	3577.379210
749.878473	3572.942994
750.206881	3545.423335
750.535242	3543.149775
750.863555	3543.391750
751.191821	3538.267417
751.520039	3518.339736
751.848210	3499.581603
752.176334	3531.971016
752.504411	3540.896379
752.832440	3498.737210
753.160421	3480.349601
753.488356	3489.748832
753.816243	3503.188548
754.144082	3460.860500
754.471875	3444.922892
754.799620	3464.038948
755.127318	3453.689459
755.454969	3453.961681
755.782572	3464.235553
756.110129	3436.642797
756.437638	3423.117381
756.765100	3442.152778
757.092515	3450.596711
757.419882	3456.590643
757.747203	3428.332455
758.074477	3432.874535
758.401703	3448.030764
758.728882	3468.165132
759.056014	3477.219044
759.383099	3479.661483
759.710138	3475.242912
760.037129	3494.147239
760.364073	3524.129502
760.690970	3509.343797
761.017820	3486.184737
761.344623	3505.774660
761.671379	3549.098337
761.998088	3598.189093
762.324751	3725.934452
762.651366	3971.723469
762.977935	4444.276190
763.304456	4879.047982
763.630931	4963.744408
763.957359	4609.608392
764.283740	4272.554325
764.610074	4082.144903
764.936362	3887.679873
765.262602	3729.957293
765.588796	3621.282618
765.914943	3534.935215
766.241044	3445.484981
766.567097	3419.770055
766.893104	3372.184083
767.219064	3340.293744
767.544978	3312.169147
767.870845	3259.652927
768.196665	3242.160123
768.522438	3250.893922
768.848165	3246.487953
769.173846	3208.301213
769.499479	3192.812268
769.825066	3176.940195
770.150607	3160.178358
770.476101	3176.879701
770.801548	3169.839730
771.126949	3125.008749
771.452303	3107.057200
771.777611	3118.324179
772.102872	3118.447687
772.428087	3095.341558
772.753256	3085.539035
773.078378	3078.148703
773.403453	3043.379865
773.728482	3032.584234
774.053465	3055.239179
774.378401	3042.807694
774.703291	3009.838548
775.028135	3009.107581
775.352932	3005.392250
775.677683	2994.571413
776.002388	2990.409941
776.327046	2992.113851
776.651658	2981.819815
776.976224	2969.416056
777.300743	2971.442600
777.625216	2961.730817
777.949643	2957.022379
778.274024	2957.425671
778.598359	2947.807150
778.922647	2953.294446
779.246889	2950.272274
779.571086	2939.118721
779.895236	2932.764347
780.219339	2942.516459
780.543397	2954.622790
780.867409	2959.326186
781.191374	2950.302521
781.515294	2947.353446
781.839167	2947.683642
782.162995	2941.044442
782.486776	2948.666667
782.810511	2944.333795
783.134201	2931.012546
783.457844	2940.283228
783.781441	2929.976589
784.104993	2909.761562
784.428498	2911.354566
784.751958	2923.743202
785.075372	2917.167017
785.398739	2905.617733
785.722061	2919.538880
786.045337	2929.709408
786.368568	2915.510998
786.691752	2906.177301
787.014891	2957.183696
787.337983	2982.596153
787.661030	3009.556243
787.984031	3079.328333
788.306987	3124.136629
788.629897	3115.594394
788.952760	3102.620984
789.275579	3085.586926
789.598351	3028.238759
789.921078	2982.147490
790.243759	2973.635502
790.566395	2954.176648
790.888984	2933.427258
791.211529	2917.489651
791.534027	2909.348187
791.856480	2898.338307
792.178888	2884.538148
792.501249	2874.133207
792.823566	2869.570963
793.145836	2869.016436
793.468062	2863.418234
793.790241	2862.762884
794.112375	2870.014584
794.434464	2879.020606
794.756507	2888.384549
795.078505	2888.729868
795.400457	2904.465830
795.722364	2940.724329
796.044226	2965.244501
796.366042	2966.829944
796.687812	2957.496248
797.009538	2974.880667
797.331218	2965.662917
797.652852	2948.099537
797.974442	2932.189655
798.295986	2927.405600
798.617484	2922.631628
798.938938	2910.240471
799.260346	2892.808161
799.581709	2883.522356
799.903026	2880.336347
800.224299	2876.608413
800.545526	2867.405787
800.866708	2850.326358
801.187845	2840.145748
801.508936	2844.339988
801.829983	2848.294773
802.150984	2837.904955
802.471940	2823.018427
802.792851	2824.626556
803.113717	2821.110351
803.434538	2829.403049
803.755314	2824.845846
804.076045	2815.507108
804.396731	2814.423260
804.717372	2814.692962
805.037967	2809.412353
805.358518	2817.304280
805.679024	2828.314160
805.999485	2823.953562
806.319901	2828.273830
806.640272	2820.278560
806.960598	2824.487924
807.280879	2836.528720
807.601115	2842.580625
807.921306	2828.818275
808.241453	2824.487924
808.561554	2831.790035
808.881611	2837.665500
809.201623	2828.024293
809.521590	2825.120589
809.841513	2824.472800
810.161390	2827.379026
810.481223	2821.879127
810.801011	2812.855461
811.120755	2808.893114
811.440453	2814.488795
811.760107	2809.399750
812.079716	2809.440080
812.399281	2797.268214
812.718801	2792.763943
813.038276	2786.954013
813.357707	2794.518264
813.677093	2801.132258
813.996434	2796.529685
814.315731	2791.027265
814.634983	2783.538631
814.954191	2786.785134
815.273354	2802.894141
815.592473	2810.052580
815.911547	2809.964360
816.230577	2818.078097
816.549562	2829.372802
816.868502	2828.253666
817.187399	2834.050993
817.506250	2851.422809
817.825058	2845.779237
818.143821	2858.752647
818.462539	2874.385265
818.781213	2900.223699
819.099843	2935.713422
819.418429	2993.618635
819.736970	3055.276988
820.055466	3123.345168
820.373919	3229.965572
820.692327	3369.446737
821.010691	3532.853218
821.329011	3967.622491
821.647286	4859.823542
821.965517	6222.361727
822.283704	6937.575429
822.601847	6912.079794
822.919945	6290.195493
823.237999	5800.235669
823.556010	5226.615376
823.873976	4679.677910
824.191897	4281.620840
824.509775	3991.126870
824.827609	3724.089389
825.145398	3601.022221
825.463144	3591.968309
825.780845	3684.720498
826.098502	3785.082310
826.416116	4067.137388
826.733685	4377.523751
827.051210	4434.723203
827.368692	4320.301614
827.686129	4058.935431
828.003522	3739.815269
828.320872	3486.230107
828.638177	3295.261117
828.955439	3161.259686
829.272656	3079.023343
829.589830	3011.925586
829.906960	2964.657207
830.224046	2919.896802
830.541088	2886.282388
830.858086	2870.836292
831.175041	2853.814836
831.491952	2855.886751
831.808819	2866.392515
832.125642	2890.534601
832.442421	2932.832402
832.759157	3014.466327
833.075849	3190.805889
833.392497	3466.781335
833.709101	3666.267355
834.025662	3616.596866
834.342179	3459.252372
834.658653	3285.992956
834.975083	3137.120121
835.291469	3045.635781
835.607811	2961.390539
835.924110	2904.463309
836.240366	2853.063704
836.556578	2814.624906
836.872746	2787.558951
837.188871	2769.325098
837.504952	2751.368508
837.820990	2745.709813
838.136984	2728.779097
838.452935	2720.768704
838.768842	2720.405741
839.084706	2738.884090
839.400526	2817.750422
839.716303	2948.308745
840.032037	3024.228522
840.347727	3010.420801
840.663373	2948.480144
840.978977	2875.917775
841.294537	2803.569656
841.610054	2759.457039
841.925527	2735.156157
842.240957	2717.141594
842.556344	2691.519929
842.871687	2678.780934
843.186987	2668.756599
843.502244	2666.440189
843.817458	2659.364930
844.132629	2648.087868
844.447756	2640.042187
844.762840	2632.482977
845.077881	2635.459778
845.392879	2632.273769
845.707833	2631.681433
846.022745	2622.768673
846.337613	2626.995681
846.652438	2625.369909
846.967221	2625.523664
847.281960	2625.586678
847.596656	2624.485186
847.911309	2621.273971
848.225919	2618.332458
848.540485	2613.934051
848.855009	2614.435646
849.169490	2615.932869
849.483928	2614.007148
849.798323	2613.308948
850.112675	2612.336005
850.426984	2614.922117
850.741251	2610.725357
851.055474	2610.909359
851.369654	2617.762807
851.683792	2613.936572
851.997887	2614.029833
852.311938	2611.095882
852.625947	2614.730553
852.939914	2614.294494
853.253837	2614.186109
853.567718	2614.342385
853.881555	2611.315172
854.195350	2617.989659
854.509103	2613.508074
854.822812	2611.423557
855.136479	2611.978083
855.450103	2611.705861
855.763685	2617.591408
856.077224	2612.230141
856.390720	2611.163937
856.704173	2612.968670
857.017584	2616.573095
857.330953	2620.323714
857.644278	2620.570730
857.957561	2620.643827
858.270802	2617.283898
858.584000	2614.049998
858.897155	2617.251130
859.210268	2621.432767
859.523339	2616.341202
859.836367	2608.340891
860.149352	2610.828700
860.462295	2612.265429
860.775195	2610.919441
861.088054	2609.626385
861.400869	2609.031529
861.713642	2604.620519
862.026373	2608.875253
862.339062	2609.560850
862.651708	2616.799947
862.964312	2616.883126
863.276873	2614.511263
863.589392	2614.155862
863.901869	2623.706328
864.214303	2625.518623
864.526696	2628.074488
864.839045	2631.353758
865.151353	2632.762761
865.463619	2632.296454
865.775842	2630.085908
866.088023	2634.743934
866.400162	2633.990282
866.712258	2633.602113
867.024313	2631.409211
867.336325	2625.959724
867.648296	2630.723614
867.960224	2633.859212
868.272110	2633.329891
868.583954	2625.057357
868.895755	2629.415435
869.207515	2633.201341
869.519233	2639.457413
869.830909	2635.215282
870.142542	2631.542802
870.454134	2635.311064
870.765684	2640.448000
871.077191	2642.630819
871.388657	2645.516880
871.700081	2641.846920
872.011463	2641.297434
872.322803	2642.182157
872.634101	2647.394710
872.945357	2652.468631
873.256571	2659.828716
873.567744	2658.071874
873.878874	2652.703045
874.189963	2654.918632
874.501010	2660.267296
874.812015	2665.444561
875.122979	2667.531599
875.433900	2656.138591
875.744780	2654.588436
876.055618	2661.847698
876.366415	2666.213337
876.677169	2666.591424
876.987882	2660.892399
877.298554	2656.821667
877.609183	2671.166271
877.919771	2676.633402
878.230317	2683.701100
878.540822	2693.526309
878.851285	2705.917465
879.161707	2728.758933
879.472087	2766.028183
879.782425	2811.799340
880.092722	2927.067843
880.402977	3107.478136
880.713191	3367.266438
881.023363	3646.846310
881.333494	3833.426975
881.643583	4003.207996
881.953631	4004.148171
882.263637	3828.852128
882.573602	3610.340794
882.883526	3480.243737
883.193408	3372.927654
883.503248	3274.179012
883.813048	3163.296312
884.122806	3053.689025
884.432522	2968.077629
884.742197	2904.301992
885.051831	2866.974768
885.361424	2834.406394
885.670975	2799.680406
885.980485	2768.032042
886.289954	2750.740884
886.599382	2736.406363
886.908768	2728.232132
887.218113	2707.122301
887.527417	2692.497913
887.836680	2688.641431
888.145901	2684.517767
888.455082	2674.392609
888.764221	2661.940959
889.073319	2655.258910
889.382376	2653.376039
889.691392	2656.267141
890.000366	2656.362923
890.309300	2653.696152
890.618193	2654.626245
890.927044	2657.945845
891.235855	2658.575989
891.544625	2657.519867
891.853353	2657.287974
892.162041	2665.741989
892.470687	2683.983404
892.779293	2698.575024
893.087858	2704.551312
893.396381	2727.075187
893.704864	2768.067330
894.013306	2836.679954
894.321707	2928.129006
894.630068	2974.142138
894.938387	2994.813389
895.246665	2989.744509
895.554903	2948.855710
895.863100	2902.948442
896.171256	2848.503981
896.479371	2788.330248
896.787446	2747.065883
897.095480	2729.505024
897.403473	2724.463870
897.711425	2711.203115
898.019336	2694.733665
898.327207	2680.099195
898.635038	2676.966118
898.942827	2674.848834
899.250576	2667.050169
899.558284	2655.674805
899.865952	2653.706234
900.173579	2648.818836
900.481165	2647.412354
900.788711	2637.012453
901.096216	2631.792339
901.403681	2629.574231
901.711105	2629.831330
902.018489	2626.831843
902.325832	2629.657410
902.633135	2634.330560
902.940397	2647.243475
903.247619	2683.819567
903.554800	2748.094278
903.861941	2873.661859
904.169041	2995.433451
904.476101	3053.537790
904.783121	3049.890515
905.090100	2992.870024
905.397039	2921.225146
905.703938	2849.378621
906.010796	2790.034158
906.317614	2738.705129
906.624391	2704.992413
906.931129	2677.999555
907.237826	2655.558858
907.544483	2638.774337
907.851099	2625.546349
908.157675	2617.692231
908.464211	2610.609410
908.770707	2599.264293
909.077163	2597.366299
909.383578	2594.064343
909.689954	2591.112748
909.996289	2588.309866
910.302584	2589.025710
910.608839	2583.616552
910.915054	2589.660895
911.221229	2586.384145
911.527363	2591.082501
911.833458	2588.796337
912.139513	2589.728951
912.445527	2591.909250
912.751502	2598.946701
913.057436	2602.742690
913.363331	2611.284925
913.669186	2618.990328
913.975000	2631.177318
914.280775	2647.601397
914.586510	2665.268121
914.892205	2702.948225
915.197859	2768.183277
915.503475	2846.797550
915.809050	2912.143507
916.114585	2921.721699
916.420081	2934.657300
916.725536	2945.634413
917.030952	2921.310845
917.336328	2877.299052
917.641665	2830.587720
917.946961	2781.401182
918.252218	2746.259298
918.557435	2723.319528
918.862612	2701.496373
919.167750	2684.006090
919.472848	2668.290292
919.777906	2653.681029
920.082925	2641.264667
920.387904	2628.381998
920.692843	2626.257152
920.997743	2622.655247
921.302603	2614.569237
921.607423	2606.337032
921.912204	2606.687392
922.216946	2601.308481
922.521647	2601.202617
922.826310	2593.638366
923.130932	2594.886051
923.435516	2586.200143
923.740059	2584.037488
924.044564	2580.899370
924.349028	2583.215780
924.653454	2572.861250
924.957840	2568.866136
925.262186	2568.772874
925.566493	2572.765468
925.870761	2564.828172
926.174989	2568.866136
926.479178	2565.700291
926.783328	2563.908161
927.087438	2564.351782
927.391509	2564.339180
927.695541	2561.619477
927.999533	2561.737944
928.303486	2557.485731
928.607400	2557.279044
928.911275	2556.185113
929.215110	2557.959599
929.518906	2554.632438
929.822663	2554.660164
930.126381	2558.405742
930.430060	2557.067315
930.733699	2558.413303
931.037299	2557.407593
931.340861	2554.377860
931.644383	2557.140412
931.947866	2557.936914
932.251309	2558.647717
932.554714	2555.950700
932.858080	2559.960938
933.161407	2555.580175
933.464694	2556.664023
933.767943	2556.820299
934.071153	2555.234856
934.374323	2553.515822
934.677455	2553.840977
934.980548	2553.946841
935.283602	2553.672098
935.586617	2554.990360
935.889593	2555.572613
936.192530	2553.954403
936.495428	2554.793755
936.798287	2554.738302
937.101108	2555.668395
937.403890	2559.950855
937.706632	2563.215002
938.009336	2563.998902
938.312002	2570.970817
938.614628	2573.428380
938.917216	2574.925603
939.219765	2575.031467
939.522275	2575.250757
939.824747	2576.722774
940.127179	2568.425035
940.429573	2569.259346
940.731929	2567.300857
941.034246	2566.731207
941.336524	2567.222720
941.638763	2568.193142
941.940964	2567.641135
942.243126	2562.201730
942.545250	2564.195507
942.847335	2563.925805
943.149381	2564.369427
943.451389	2560.142419
943.753359	2557.165618
944.055290	2558.168807
944.357182	2557.006821
944.659036	2556.260731
944.960851	2555.950700
945.262628	2557.115206
945.564367	2557.304249
945.866067	2555.948179
946.167729	2559.008159
946.469352	2556.850546
946.770937	2557.198385
947.072484	2557.752912
947.373992	2555.759136
947.675462	2558.768705
947.976893	2556.661502
948.278286	2553.263765
948.579641	2554.289639
948.880958	2556.117058
949.182236	2553.485575
949.483476	2556.343910
949.784678	2552.588250
950.085841	2554.493806
950.386967	2555.890206
950.688054	2556.732078
950.989103	2557.669733
951.290114	2557.374826
951.591087	2560.679302
951.892021	2559.527398
952.192917	2558.491441
952.493776	2561.644683
952.794596	2558.867007
953.095378	2563.290620
953.396122	2561.359858
953.696828	2562.519323
953.997496	2557.848694
954.298126	2558.967830
954.598718	2557.052192
954.899272	2554.524053
955.199788	2554.188816
955.500266	2555.335679
955.800706	2549.119936
956.101108	2544.439225
956.401472	2550.405430
956.701798	2545.636499
957.002087	2544.310675
957.302337	2547.093392
957.602550	2548.807385
957.902724	2543.320089
958.202861	2547.048022
958.502960	2542.735315
958.803022	2544.766900
959.103045	2540.829759
959.403031	2543.781354
959.702979	2543.085675
960.002889	2539.705581
960.302762	2540.920499
960.602596	2543.990562
960.902393	2539.216589
961.202153	2537.815149
961.501875	2541.464944
961.801559	2539.753472
962.101205	2539.750952
962.400814	2539.279604
962.700385	2538.866229
962.999918	2543.937630
963.299414	2539.758513
963.598873	2540.164326
963.898293	2539.420756
964.197677	2542.132897
964.497022	2541.535520
964.796331	2542.349667
965.095601	2541.026364
965.394835	2538.079809
965.694030	2538.682227
965.993189	2539.927392
966.292309	2540.854964
966.591393	2539.496373
966.890439	2539.861857
967.189447	2541.454862
967.488419	2539.587114
967.787353	2540.237423
968.086249	2538.493184
968.385108	2543.022661
968.683930	2537.605941
968.982714	2538.853626
969.281462	2543.312527
969.580172	2540.239944
969.878844	2541.522917
970.177480	2541.772454
970.476078	2541.790098
970.774639	2544.038453
971.073162	2543.055428
971.371649	2537.605941
971.670098	2537.507638
971.968510	2539.816487
972.266885	2536.721218
972.565223	2540.676003
972.863524	2538.122659
973.161788	2540.839841
973.460014	2542.062321
973.758204	2541.951415
974.056356	2540.701209
974.354471	2541.404450
974.652550	2538.198276
974.950591	2541.550644
975.248595	2541.608617
975.546563	2541.495191
975.844493	2542.594162
976.142386	2539.972762
976.440243	2539.473688
976.738062	2539.549306
977.035845	2539.256919
977.333590	2540.726415
977.631299	2540.179450
977.928971	2540.917979
978.226606	2539.720705
978.524204	2540.159285
978.821765	2538.712474
979.119290	2539.660211
979.416777	2539.410674
979.714228	2539.022505
980.011642	2536.920344
980.309020	2543.118442
980.606360	2537.285828
980.903664	2538.440252
981.200931	2544.121632
981.498162	2542.871426
981.795356	2544.650953
982.092513	2548.676315
982.389633	2549.321582
982.686717	2550.549103
982.983764	2550.652447
983.280775	2556.898437
983.577749	2553.651933
983.874686	2553.452808
984.171587	2549.034237
984.468451	2548.860317
984.765279	2546.450645
985.062070	2546.276725
985.358824	2539.907227
985.655543	2543.055428
985.952224	2540.542413
986.248869	2541.167516
986.545478	2534.200641
986.842050	2535.884387
987.138586	2534.931609
987.435086	2536.721218
987.731549	2530.205527
988.027975	2535.962525
988.324366	2534.883718
988.620719	2536.393543
988.917037	2537.321116
989.213318	2539.032587
989.509563	2536.305323
989.805772	2537.439583
990.101944	2536.322967
990.398080	2537.295910
990.694180	2537.374048
990.990244	2538.848585
991.286271	2537.908410
991.582262	2537.394212
991.878217	2534.581248
992.174136	2540.512166
992.470019	2534.467822
992.765865	2538.588966
993.061676	2538.984696
993.357450	2538.125180
993.653188	2536.784233
993.948890	2535.347504
994.244556	2537.356404
994.540186	2537.250539
994.835780	2537.729449
995.131337	2539.408153
995.426859	2535.465971
995.722345	2539.698020
996.017795	2539.524100
996.313208	2539.609799
996.608586	2537.618544
996.903928	2539.725746
997.199234	2538.568801
997.494504	2538.533513
997.789738	2536.822041
998.084936	2537.782381
998.380099	2539.655170
998.675225	2537.008564
998.970316	2538.354552
999.265371	2536.935467
999.560390	2536.557381
999.855373	2538.949408
1000.150320	2535.831455
1000.445232	2536.448996
1000.740108	2533.777184
1001.034948	2534.568646
1001.329752	2534.291382
1001.624521	2536.728780
1001.919254	2532.146371
1002.213951	2535.390354
1002.508613	2532.549663
1002.803239	2532.746268
1003.097829	2533.157123
1003.392384	2535.750796
1003.686903	2532.965559
1003.981386	2536.101156
1004.275834	2534.989582
1004.570246	2537.358924
1004.864623	2534.356917
1005.158964	2536.506969
1005.453270	2533.988913
1005.747540	2534.266176
1006.041775	2533.026053
1006.335974	2535.266845
1006.630138	2536.234747
1006.924266	2534.911444
1007.218359	2532.388347
1007.512416	2536.852288
1007.806438	2535.085364
1008.100425	2535.108049
1008.394376	2532.552184
1008.688292	2535.095446
1008.982172	2534.344314
1009.276017	2535.418080
1009.569827	2536.249870
1009.863602	2533.946063
1010.157341	2532.602596
1010.451045	2534.349355
1010.744714	2537.182484
1011.038347	2533.414221
1011.331945	2531.944725
1011.625508	2531.727955
1011.919036	2533.424304
1012.212528	2534.480425
1012.505986	2533.610826
1012.799408	2533.731814
1013.092795	2534.402288
1013.386147	2532.716022
1013.679464	2533.462112
1013.972745	2535.022349
1014.265992	2535.218954
1014.559204	2536.746424
1014.852380	2532.877338
1015.145521	2533.043697
1015.438628	2532.587472
1015.731699	2535.193749
1016.024736	2533.991433
1016.317737	2533.850281
1016.610703	2536.932947
1016.903635	2530.654190
1017.196531	2529.187214
1017.489393	2533.129396
1017.782219	2531.067564
1018.075011	2534.293903
1018.367768	2534.833306
1018.660490	2533.865405
1018.953177	2533.865405
1019.245829	2533.865405
