Dividing Wavelength (nm)	Counts (n)	Blue Motor Position (mm): 23.600000	Red Motor Position (mm): 0.000000	
326.493990	2133.534775
326.888308	2133.534775
327.282561	2133.534775
327.676750	2100.099322
328.070874	2099.328025
328.464933	2103.323140
328.858929	2107.814808
329.252859	2118.791920
329.646726	2130.258025
330.040528	2143.329737
330.434265	2159.889927
330.827938	2176.369459
331.221547	2196.392922
331.615091	2214.949409
332.008571	2234.415825
332.401986	2253.446181
332.795338	2271.256577
333.188625	2292.341203
333.581847	2313.183854
333.975006	2327.825885
334.368100	2343.463544
334.761129	2364.782584
335.154095	2381.249513
335.546996	2403.501166
335.939833	2426.027562
336.332606	2438.217072
336.725315	2453.464042
337.117960	2460.693057
337.510540	2470.505663
337.903056	2481.921355
338.295508	2487.270020
338.687896	2498.340393
339.080220	2504.069665
339.472480	2512.989987
339.864676	2514.456962
340.256807	2520.365195
340.648875	2523.710000
341.040879	2525.887779
341.432818	2527.652183
341.824694	2531.644776
342.216506	2532.993285
342.608253	2531.135620
342.999937	2531.692667
343.391557	2529.608150
343.783113	2525.943231
344.174605	2526.119672
344.566033	2523.919208
344.957397	2525.479445
345.348697	2521.086080
345.739934	2520.851666
346.131106	2517.179185
346.522215	2518.953672
346.913260	2514.562827
347.304241	2512.574091
347.695159	2511.454955
348.086012	2509.738442
348.476802	2507.474964
348.867528	2507.658966
349.258191	2507.084275
349.648789	2504.573780
350.039324	2501.665034
350.429796	2502.499345
350.820203	2501.034890
351.210548	2499.877945
351.600828	2499.023470
351.991045	2499.003305
352.381198	2496.863335
352.771288	2497.561535
353.161314	2497.566576
353.551276	2496.671772
353.941175	2495.464415
354.331010	2498.166474
354.720782	2495.035917
355.110490	2494.257059
355.500135	2494.430979
355.889717	2495.782008
356.279235	2495.328304
356.668689	2498.194200
357.058080	2495.555156
357.447408	2496.475167
357.836672	2493.906699
358.225873	2495.287975
358.615010	2493.455515
359.004084	2498.287461
359.393095	2498.562204
359.782043	2499.693943
360.170927	2498.201762
360.559748	2499.847698
360.948505	2501.158398
361.337199	2501.168481
361.725830	2502.474140
362.114398	2505.594614
362.502903	2503.361383
362.891344	2504.339367
363.279722	2501.725528
363.668037	2507.008657
364.056289	2504.576301
364.444478	2504.485560
364.832603	2505.944974
365.220665	2508.147958
365.608665	2507.474964
365.996601	2508.490757
366.384474	2508.258864
366.772284	2509.476302
367.160031	2507.217865
367.547715	2510.923113
367.935336	2510.355984
368.322893	2509.191477
368.710388	2507.414470
369.097820	2514.179699
369.485189	2508.949502
369.872495	2509.065448
370.259738	2508.054697
370.646918	2508.089985
371.034035	2509.778772
371.421090	2510.570233
371.808081	2512.216169
372.195010	2512.644668
372.581875	2511.497805
372.968678	2512.397651
373.355418	2512.344719
373.742096	2514.494771
374.128710	2513.085768
374.515262	2512.818587
374.901751	2513.181550
375.288177	2513.569719
375.674540	2512.019564
376.060841	2513.511746
376.447079	2513.461334
376.833254	2514.393948
377.219367	2508.684841
377.605417	2513.662981
377.991404	2508.659635
378.377329	2510.875223
378.763191	2510.640809
379.148991	2517.211953
379.534727	2517.741274
379.920402	2514.502333
380.306013	2516.521315
380.691563	2516.783455
381.077049	2517.844618
381.462474	2513.352950
381.847835	2518.245389
382.233134	2515.482837
382.618371	2517.262364
383.003545	2517.461490
383.388657	2517.958044
383.773706	2518.600791
384.158693	2518.709176
384.543618	2519.046933
384.928480	2515.891171
385.313280	2519.251100
385.698017	2516.969978
386.082692	2519.130112
386.467305	2517.716068
386.851856	2519.591378
387.236344	2520.201357
387.620770	2521.552386
388.005133	2519.467869
388.389435	2521.822088
388.773674	2521.499454
389.157851	2519.301511
389.541965	2522.331245
389.926018	2522.106913
390.310008	2522.447191
390.693936	2523.251255
391.077802	2520.115657
391.461606	2521.365864
391.845348	2522.900895
392.229027	2525.146729
392.612645	2523.064732
392.996200	2522.588343
393.379694	2523.629342
393.763125	2522.192613
394.146494	2525.562624
394.529801	2522.288395
394.913047	2525.277799
395.296230	2523.969620
395.679351	2524.582120
396.062410	2522.618590
396.445408	2525.358458
396.828343	2524.738396
397.211217	2521.844773
397.594028	2523.606657
397.976778	2523.107582
398.359466	2524.335103
398.742092	2521.998528
399.124656	2525.242511
399.507158	2523.344517
399.889598	2526.855680
400.271977	2526.119672
400.654294	2529.640918
401.036549	2527.236287
401.418742	2526.636390
401.800874	2528.572193
402.182944	2530.346679
402.564952	2526.696884
402.946898	2527.195958
403.328783	2527.120341
403.710606	2528.995650
404.092367	2531.163346
404.474067	2528.690660
404.855705	2529.683767
405.237282	2526.878365
405.618797	2530.732328
406.000250	2529.487162
406.381642	2527.959693
406.762972	2529.116638
407.144240	2528.970444
407.525447	2532.476567
407.906593	2531.967410
408.287677	2529.633356
408.668700	2528.365506
409.049661	2532.615198
409.430560	2533.121834
409.811399	2534.387164
410.192176	2530.321473
410.572891	2533.023532
410.953545	2531.128058
411.334138	2529.081350
411.714669	2531.213758
412.095139	2534.646783
412.475547	2531.793490
412.855894	2529.905578
413.236180	2532.174098
413.616405	2534.324150
413.996568	2531.364992
414.376670	2533.910775
414.756711	2531.760723
415.136691	2534.366999
415.516609	2536.333049
415.896466	2535.322298
416.276262	2535.072761
416.655997	2532.017822
417.035670	2531.881711
417.415283	2533.585621
417.794834	2531.304498
418.174324	2533.177287
418.553753	2534.571166
418.933121	2536.328008
419.312428	2537.527803
419.691674	2537.192566
420.070859	2533.416742
420.449983	2536.441434
420.829045	2535.977648
421.208047	2535.405477
421.586988	2537.432021
421.965867	2536.728780
422.344686	2537.149716
422.723444	2539.035108
423.102141	2539.226672
423.480777	2539.251877
423.859352	2538.561239
424.237866	2539.443441
424.616319	2538.180632
424.994712	2541.018802
425.373044	2537.502597
425.751314	2539.430838
426.129524	2537.447144
426.507673	2539.229192
426.885762	2537.900848
427.263789	2539.488812
427.641756	2539.385468
428.019662	2537.001002
428.397508	2538.445293
428.775292	2539.962680
429.153016	2541.321271
429.530679	2540.628113
429.908282	2540.774306
430.285824	2539.491332
430.663305	2538.730118
431.040726	2543.604914
431.418086	2540.234903
431.795385	2546.281767
432.172624	2540.328164
432.549802	2542.959646
432.926920	2541.757331
433.303977	2541.560726
433.680974	2544.829914
434.057910	2541.134748
434.434786	2540.023174
434.811601	2541.197763
435.188355	2542.856302
435.565050	2543.650284
435.941683	2543.141128
436.318257	2542.251364
436.694770	2537.353883
437.071222	2541.031405
437.447614	2539.370345
437.823946	2542.163144
438.200218	2545.888557
438.576429	2545.444935
438.952580	2545.079451
439.328670	2545.462579
439.704700	2541.878319
440.080670	2545.641540
440.456580	2543.872095
440.832429	2544.600542
441.208218	2545.170192
441.583947	2546.354863
441.959616	2544.497198
442.335224	2544.676159
442.710773	2547.854607
443.086261	2543.824204
443.461689	2548.290666
443.837057	2545.291180
444.212365	2549.031716
444.587612	2547.905018
444.962800	2546.180943
445.337927	2546.380069
445.712995	2549.082127
446.088002	2546.276725
446.462949	2547.983156
446.837837	2549.019113
447.212664	2548.406613
447.587431	2547.468958
447.962139	2549.974412
448.336786	2553.624207
448.711374	2549.883671
449.085901	2550.057591
449.460369	2551.360729
449.834776	2552.253013
450.209124	2549.666901
450.583412	2552.386604
450.957640	2550.019782
451.331808	2552.374001
451.705917	2548.202446
452.079965	2551.320400
452.453954	2551.141439
452.827883	2552.898281
453.201752	2553.851059
453.575562	2553.591440
453.949311	2556.376677
454.323001	2554.166131
454.696632	2553.520863
455.070202	2554.430792
455.443713	2554.995401
455.817164	2554.045143
456.190556	2552.837787
456.563888	2554.957592
456.937160	2554.851728
457.310373	2560.081925
457.683526	2560.931360
458.056619	2560.371792
458.429653	2561.669889
458.802628	2562.814231
459.175542	2566.370765
459.548398	2569.823955
459.921194	2567.898234
460.293930	2575.147413
460.666607	2582.036150
461.039224	2588.861872
461.411782	2591.929415
461.784280	2594.334045
462.156719	2597.827565
462.529099	2599.619695
462.901419	2599.118100
463.273680	2605.913575
463.645882	2608.567743
464.018024	2608.756786
464.390106	2620.023765
464.762130	2633.445837
465.134094	2652.932417
465.505999	2682.539114
465.877845	2720.211657
466.249631	2739.509193
466.621358	2738.516086
466.993026	2734.248749
467.364634	2738.566498
467.736184	2738.311919
468.107674	2744.129411
468.479105	2758.685743
468.850477	2763.104314
469.221790	2771.487753
469.593043	2771.535644
469.964238	2780.944957
470.335373	2796.875004
470.706449	2813.203301
471.077467	2831.061588
471.448425	2917.325813
471.819324	2990.402379
472.190164	3010.718229
472.560945	2961.556897
472.931667	2941.931685
473.302330	2956.757718
473.672934	2955.346195
474.043479	3001.071981
474.413965	3019.731812
474.784393	3039.412477
475.154761	3076.522931
475.525070	3107.689865
475.895321	3119.034981
476.265513	3160.057371
476.635645	3207.570246
477.005719	3247.637337
477.375734	3286.635703
477.745691	3351.822863
478.115588	3404.704567
478.485427	3473.571770
478.855207	3590.377825
479.224928	3766.672016
479.594591	3901.033889
479.964194	3924.490378
480.333739	3945.630457
480.703226	3996.762880
481.072653	4069.017738
481.442022	4190.660781
481.811333	4283.528917
482.180584	4305.924243
482.549777	4322.623065
482.918912	4349.154658
483.287988	4420.910442
483.657005	4483.919823
484.025964	4484.335719
484.394864	4577.420624
484.763706	4640.563597
485.132489	4639.552846
485.501213	4704.984502
485.869879	4781.852016
486.238487	4829.148121
486.607036	4912.901851
486.975527	4938.352116
487.343959	5053.910486
487.712333	5147.983458
488.080648	5194.162948
488.448905	5292.709944
488.817104	5346.443602
489.185244	5504.882027
489.553326	5652.050952
489.921350	5929.400113
490.289315	6395.527882
490.657222	6604.723164
491.025070	6672.133473
491.392861	6716.775411
491.760593	6672.012486
492.128267	6626.876515
492.495883	6579.398928
492.863440	6530.209869
493.230939	6471.490509
493.598380	6522.822058
493.965763	6559.826648
494.333088	6581.405307
494.700354	6637.309183
495.067563	6732.609676
495.434713	6745.943528
495.801805	6877.724330
496.168839	6925.862308
496.535815	6983.021431
496.902733	7046.313118
497.269593	7105.644978
497.636395	7218.793676
498.003139	7309.665515
498.369825	7297.821324
498.736453	7476.595763
499.103023	7500.722725
499.469535	7599.751152
499.835989	7673.175557
500.202385	7727.546922
500.568723	7703.669497
500.935003	7903.591576
501.301226	7881.221456
501.667390	8095.740196
502.033497	8241.263184
502.399546	8210.862506
502.765537	8224.120741
503.131470	8338.998554
503.497345	8533.705560
503.863163	8324.994229
504.228923	8617.287891
504.594625	8729.884582
504.960269	8606.945964
505.325856	8830.468205
505.691385	8743.974608
506.056856	8921.161083
506.422270	8997.433741
506.787625	8971.829720
507.152924	9123.175241
507.518164	9164.595882
507.883347	9163.874997
508.248472	9148.149117
508.613540	9390.041323
508.978550	9358.004790
509.343503	9387.964367
509.708398	9538.871308
510.073236	9676.605713
510.438016	9736.837419
510.802738	9737.323891
511.167403	9827.590791
511.532010	9789.429257
511.896561	10022.791830
512.261053	10130.498602
512.625488	10064.167100
512.989866	10090.222304
513.354186	10119.879412
513.718449	10077.795860
514.082655	10282.033167
514.446803	10227.898736
514.810894	10372.037927
515.174927	10290.401482
515.538904	10342.015336
515.902822	10518.480926
516.266684	10440.043093
516.630488	10419.873436
516.994235	10504.584985
517.357925	10591.219735
517.721558	10697.197392
518.085133	10745.531975
518.448651	10773.409555
518.812112	10702.089831
519.175516	10739.903526
519.538863	10874.900585
519.902152	10813.121245
520.265385	10987.789664
520.628560	10923.706516
520.991678	10923.479664
521.354739	11006.817499
521.717743	10954.278594
522.080690	10960.285128
522.443580	11108.275761
522.806413	11082.255846
523.169189	11124.097423
523.531908	11192.727691
523.894569	11034.755574
524.257174	11050.683099
524.619722	11179.436689
524.982213	11131.197888
525.344647	11204.264372
525.707025	11161.966570
526.069345	11264.579257
526.431608	11192.866323
526.793815	11313.521299
527.155964	11120.072061
527.518057	11173.679691
527.880093	11134.663681
528.242072	11209.355937
528.603995	11115.686257
528.965860	11054.900024
529.327669	11106.682757
529.689421	11059.381610
530.051117	11035.826819
530.412755	11145.512244
530.774337	11040.764629
531.135862	11025.593277
531.497331	11053.478419
531.858743	10915.184446
532.220098	11075.858622
532.581396	10955.014602
532.942638	10948.428335
533.303824	10909.997098
533.664953	10927.419326
534.026025	10847.088539
534.387040	10937.942735
534.747999	10948.466143
535.108902	11009.126347
535.469748	10774.372416
535.830537	10881.822089
536.191270	10850.685403
536.551947	10879.384692
536.912567	10877.355627
537.273131	10804.221088
537.633638	10783.532192
537.994089	10779.486666
538.354483	10734.217105
538.714821	10878.063909
539.075103	10889.189736
539.435328	10854.241937
539.795497	10675.646459
540.155609	10840.794659
540.515665	10924.513101
540.875665	10666.141363
541.235609	10732.477907
541.595496	10731.331044
541.955328	10882.331246
542.315102	10766.425037
542.674821	10728.104706
543.034483	10725.992462
543.394090	10729.712834
543.753640	10658.803964
544.113134	10880.309743
544.472571	10732.525798
544.831953	10874.807324
545.191278	10689.066010
545.550548	10717.150278
545.909761	10849.561225
546.268918	10827.528862
546.628019	10904.454350
546.987064	10770.372260
547.346053	10694.570950
547.704986	10792.994438
548.063863	10786.955136
548.422684	10772.217323
548.781449	10696.912566
549.140158	10796.550972
549.498811	10674.537405
549.857408	10535.169666
550.215949	10757.640826
550.574434	10604.349420
550.932864	10705.180059
551.291237	10771.279668
551.649555	10713.026615
552.007817	10727.961033
552.366022	10692.620024
552.724173	10686.973932
553.082267	10666.847125
553.440305	10805.158742
553.798288	10609.461150
554.156215	10758.197874
554.514086	10743.848229
554.871902	10590.554303
555.229661	10626.301124
555.587365	10603.442012
555.945014	10504.285037
556.302606	10620.886925
556.660143	10518.062510
557.017625	10673.682929
557.375050	10567.470859
557.732421	10700.128822
558.089735	10615.729825
558.446994	10623.566298
558.804197	10654.743314
559.161345	10653.851030
559.518437	10508.446509
559.875474	10593.878943
560.232455	10623.518408
560.589381	10572.181817
560.946251	10568.350540
561.303065	10673.453557
561.659825	10613.604978
562.016528	10543.376664
562.373177	10427.863665
562.729770	10535.550273
563.086307	10457.747625
563.442789	10550.736749
563.799216	10421.859651
564.155587	10475.295882
564.511904	10422.794785
564.868164	10416.914279
565.224370	10432.950189
565.580520	10358.265495
565.936615	10360.206339
566.292654	10234.784952
566.648638	10366.900992
567.004567	10320.229989
567.360441	10302.066712
567.716260	10218.058404
568.072023	10310.223299
568.427732	10259.428633
568.783385	10168.183748
569.138982	10248.360779
569.494525	10253.656512
569.850013	10135.416248
570.205445	10211.971210
570.560823	10111.407753
570.916145	10028.483293
571.271412	10100.768398
571.626625	10053.671418
571.981782	10021.188743
572.336884	9998.127985
572.691931	10006.161063
573.046923	9948.510428
573.401860	9902.623325
573.756743	9835.457512
574.111570	9883.063648
574.466342	9859.755873
574.821059	9893.818950
575.175722	9790.588722
575.530330	9794.097365
575.884882	9787.541345
576.239380	9720.751097
576.593823	9697.140853
576.948211	9709.723573
577.302544	9596.854659
577.656823	9613.435014
578.011047	9612.252864
578.365216	9582.131969
578.719330	9506.779322
579.073389	9517.965643
579.427394	9466.702149
579.781344	9441.319940
580.135239	9392.519050
580.489080	9399.243949
580.842866	9304.654259
581.196597	9300.056727
581.550273	9341.661369
581.903895	9320.445673
582.257463	9385.814315
582.610975	9263.210933
582.964434	9285.598697
583.317837	9208.325371
583.671186	9188.364922
584.024481	9185.579684
584.377721	9109.314588
584.730906	9086.737781
585.084037	9113.629816
585.437113	9052.226042
585.790135	9074.707067
586.143103	8971.759144
586.496016	8945.598076
586.848874	9005.302982
587.201679	8992.942072
587.554428	8876.206593
587.907124	8923.570754
588.259765	8898.349862
588.612352	8897.389522
588.964884	8777.397457
589.317362	8787.605794
589.669786	8791.149725
590.022155	8836.923402
590.374470	8850.900001
590.726731	8793.403121
591.078937	8646.037591
591.431090	8756.116227
591.783188	8625.351216
592.135232	8625.941031
592.487222	8621.464487
592.839157	8675.177981
593.191038	8607.354297
593.542866	8554.018889
593.894639	8452.036347
594.246358	8507.151282
594.598022	8523.560238
594.949633	8420.133405
595.301190	8398.940394
595.652692	8429.227647
596.004141	8534.668420
596.355535	8311.194070
596.706876	8293.328221
597.058162	8229.532419
597.409395	8300.060682
597.760573	8359.241308
598.111698	8273.982793
598.462768	8261.614322
598.813785	8224.423210
599.164748	8199.008233
599.515657	8184.061212
599.866511	8094.447140
600.217312	8215.707055
600.568060	8078.635561
600.918753	8184.419133
601.269392	8154.358733
601.619978	8068.134838
601.970510	8134.073130
602.320988	8127.978375
602.671412	8177.439656
603.021783	8115.947661
603.372100	8091.064526
603.722363	8092.957479
604.072572	8072.278666
604.422728	8077.108092
604.772830	8012.258688
605.122878	8020.180862
605.472872	8012.364553
605.822813	8039.942185
606.172701	7986.032086
606.522534	8059.789207
606.872314	8056.209988
607.222041	8032.398098
607.571714	8084.155625
607.921333	8044.564923
608.270899	8042.787916
608.620411	8141.173595
608.969870	8048.270171
609.319276	8041.754480
609.668627	8057.437509
610.017926	8090.673837
610.367171	8137.443141
610.716362	8112.570088
611.065500	8106.803008
611.414585	8134.383161
611.763616	8121.170297
612.112594	8101.882842
612.461518	8119.237014
612.810389	8175.715581
613.159207	8120.164587
613.507971	8068.822955
613.856682	8186.158332
614.205340	8135.991289
614.553945	8219.137560
614.902496	8115.277188
615.250994	8168.481526
615.599439	8150.537538
615.947830	8167.697626
616.296169	8140.674521
616.644454	8149.282291
616.992686	8150.542580
617.340864	8203.930919
617.688990	8107.297041
618.037063	8198.385650
618.385082	8153.549628
618.733048	8236.733708
619.080961	8176.257505
619.428821	8196.049075
619.776628	8191.552366
620.124382	8148.442939
620.472083	8126.546687
620.819731	8160.582037
621.167326	8048.834780
621.514868	8061.367089
621.862357	7947.986498
622.209793	7961.315308
622.557176	7899.167964
622.904506	7872.175105
623.251783	7811.182185
623.599007	7762.784587
623.946179	7765.710977
624.293297	7722.946869
624.640363	7635.034187
624.987376	7620.445088
625.334336	7571.835762
625.681243	7515.142946
626.028097	7506.721698
626.374899	7488.175293
626.721647	7476.966288
627.068343	7411.244765
627.414987	7382.227884
627.761577	7341.737336
628.108115	7377.496761
628.454600	7271.831656
628.801032	7318.111968
629.147412	7278.591843
629.493739	7274.022037
629.840014	7199.715429
630.186236	7264.539627
630.532405	7145.480176
630.878521	7199.203752
631.224585	7157.389902
631.570597	7081.500372
631.916556	7112.689990
632.262462	7104.409895
632.608316	7066.860861
632.954117	7048.069960
633.299866	7036.329112
633.645562	7024.731938
633.991206	6944.978364
634.336797	6890.148254
634.682336	6846.817016
635.027823	6814.432644
635.373257	6802.028885
635.718639	6741.351036
636.063968	6748.764053
636.409245	6645.901829
636.754470	6639.575181
637.099642	6605.431446
637.444762	6549.356172
637.789829	6557.268262
638.134845	6501.659294
638.479808	6486.959290
638.824719	6488.363251
639.169577	6417.940852
639.514383	6441.362053
639.859137	6364.691144
640.203839	6377.684718
640.548489	6359.307192
640.893086	6334.013203
641.237632	6308.066384
641.582125	6331.180074
641.926566	6302.241331
642.270955	6311.753988
642.615292	6309.649306
642.959576	6326.632953
643.303809	6312.638710
643.647990	6320.646583
643.992118	6310.377753
644.336195	6262.514518
644.680219	6285.313136
645.024192	6276.254182
645.368112	6370.092741
645.711981	6393.967645
646.055797	6465.433563
646.399562	6424.393529
646.743274	6546.759977
647.086935	6602.878102
647.430544	6595.016423
647.774101	6615.327231
648.117606	6622.604137
648.461059	6618.145236
648.804460	6575.489513
649.147810	6487.317212
649.491108	6459.172450
649.834354	6433.618841
650.177548	6347.548701
650.520690	6263.177429
650.863781	6242.281847
651.206820	6260.934116
651.549807	6181.238515
651.892742	6123.161902
652.235626	6130.552233
652.578458	6119.239884
652.921238	6027.304362
653.263967	6065.710392
653.606644	6005.400548
653.949269	6006.305435
654.291843	5946.373678
654.634365	5997.004506
654.976836	5951.621519
655.319255	5952.208813
655.661622	5933.448159
656.003938	5928.729639
656.346203	5884.682558
656.688416	5922.279483
657.030577	5879.079315
657.372687	5844.807031
657.714746	5829.905380
658.056753	5867.227562
658.398708	5809.828985
658.740612	5802.113499
659.082465	5851.242063
659.424266	5837.346123
659.766016	5841.706721
660.107715	5820.246529
660.449362	5833.744218
660.790958	5827.692313
661.132503	5810.464170
661.473996	5850.437999
661.815438	5834.397048
662.156829	5835.072563
662.498168	5828.675338
662.839456	5800.878416
663.180693	5837.336041
663.521879	5839.430640
663.863013	5826.253064
664.204097	5845.734603
664.545129	5891.057097
664.886110	5883.565942
665.227040	5917.452578
665.567918	5882.250201
665.908746	5911.037710
666.249522	5914.947125
666.590248	5902.066977
666.930922	5925.702426
667.271545	5940.072235
667.612118	5945.403256
667.952639	5917.742444
668.293109	5941.382935
668.633528	5896.151183
668.973896	5902.739971
669.314213	5893.355863
669.654480	5874.670826
669.994695	5866.239496
670.334859	5860.003589
670.674973	5847.405745
671.015035	5852.091498
671.355047	5852.262897
671.695008	5836.910063
672.034918	5811.880734
672.374777	5820.480943
672.714585	5804.568541
673.054342	5810.222195
673.394049	5801.241379
673.733705	5833.623231
674.073310	5821.297610
674.412864	5784.532475
674.752368	5775.967554
675.091820	5772.335403
675.431223	5711.833995
675.770574	5713.285847
676.109875	5666.166182
676.449125	5670.254558
676.788324	5637.154342
677.127473	5581.782308
677.466571	5576.617646
677.805619	5562.837652
678.144616	5550.605292
678.483562	5526.387589
678.822458	5499.866079
679.161303	5494.524976
679.500098	5485.967617
679.838842	5468.605884
680.177535	5469.296522
680.516179	5485.587010
680.854771	5499.598897
681.193314	5577.545218
681.531805	5684.052196
681.870247	5837.951061
682.208638	5939.346309
682.546978	5947.162618
682.885268	5925.755358
683.223508	5839.138253
683.561697	5786.294358
683.899836	5759.120018
684.237925	5711.778542
684.575963	5674.418551
684.913951	5637.978571
685.251889	5699.155493
685.589776	5665.205843
685.927614	5640.461339
686.265401	5709.169745
686.603137	5695.583836
686.940824	5771.153252
687.278460	5790.980110
687.616046	5802.173993
687.953582	5873.617225
688.291068	5849.361713
688.628504	5915.219347
688.965889	5876.291557
689.303224	5820.939688
689.640510	5772.809271
689.977745	5700.080545
690.314930	5597.644299
690.652065	5546.872318
690.989150	5451.201300
691.326185	5374.903437
691.663170	5326.422660
692.000105	5250.258387
692.336990	5172.911964
692.673825	5148.232995
693.010610	5076.373868
693.347345	5008.988764
693.684030	4994.147607
694.020665	4953.094971
694.357251	4867.687742
694.693786	4875.882138
695.030272	4843.238146
695.366707	4806.213392
695.703093	4772.510758
696.039429	4791.594046
696.375716	4775.512765
696.711952	4753.228344
697.048139	4741.212754
697.384276	4723.780444
697.720363	4736.761415
698.056400	4738.994646
698.392388	4687.867264
698.728326	4670.944111
699.064214	4650.792098
699.400053	4644.639370
699.735842	4613.348928
700.071581	4584.022015
700.407270	4559.274991
700.742910	4541.615829
701.078501	4487.254547
701.414042	4487.728415
701.749533	4457.824291
702.084974	4387.220410
702.420366	4451.636274
702.755709	4393.675608
703.091002	4335.122606
703.426246	4381.455851
703.761440	4342.490252
704.096584	4303.552380
704.431679	4322.668435
704.766725	4308.311229
705.101721	4297.571051
705.436668	4325.804033
705.771565	4272.755971
706.106413	4298.385197
706.441212	4335.500693
706.775961	4342.908668
707.110661	4325.138601
707.445311	4352.229762
707.779913	4373.989902
708.114465	4387.656470
708.448967	4406.379316
708.783421	4469.030776
709.117825	4511.159698
709.452180	4516.064741
709.786485	4560.673911
710.120742	4642.816993
710.454949	4627.504488
710.789107	4696.719530
711.123216	4769.967496
711.457275	4759.406278
711.791286	4839.152291
712.125247	4850.199980
712.459159	4752.026029
712.793023	4824.565712
713.126837	4790.568171
713.460602	4780.276655
713.794318	4702.733627
714.127985	4709.748392
714.461602	4622.843941
714.795171	4592.377728
715.128691	4524.518756
715.462162	4476.017815
715.795584	4423.257099
716.128957	4409.346035
716.462281	4353.303527
716.795556	4328.198581
717.128782	4291.085607
717.461960	4221.898291
717.795088	4230.269127
718.128167	4193.841749
718.461198	4133.294971
718.794180	4127.096872
719.127113	4108.691619
719.459997	4086.800409
719.792833	4041.392215
720.125619	4032.330741
720.458357	3998.436543
720.791046	4009.038090
721.123686	3977.230930
721.456278	3935.074281
721.788821	3950.981642
722.121315	3926.544648
722.453761	3902.213519
722.786158	3915.234820
723.118506	3935.492697
723.450805	3885.915469
723.783056	3912.547885
724.115259	3927.086572
724.447412	3933.042696
724.779518	3926.789144
725.111574	3929.836522
725.443582	3958.676963
725.775542	3942.973769
726.107453	3997.377901
726.439315	3993.697859
726.771129	4010.338708
727.102895	4045.026887
727.434612	4097.008745
727.766281	4102.412862
728.097901	4105.223305
728.429473	4110.753451
728.760996	4115.456848
729.092471	4109.026856
729.423897	4096.665947
729.755276	4102.412862
730.086606	4100.192234
730.417887	4139.251094
730.749120	4203.112431
731.080305	4266.121813
731.411442	4293.709527
731.742530	4261.017644
732.073570	4264.901853
732.404562	4323.361594
732.735506	4315.651149
733.066401	4272.067854
733.397249	4215.246488
733.728048	4130.050988
734.058798	4050.234399
734.389501	3983.786950
734.720156	3919.303031
735.050762	3874.890466
735.381320	3871.490207
735.711831	3815.823266
736.042293	3794.332827
736.372707	3811.044252
736.703073	3783.418729
737.033391	3775.534364
737.363661	3794.065646
737.693883	3821.444152
738.024056	3828.032941
738.354182	3820.478772
738.684260	3888.254564
739.014290	3903.125968
739.344272	3898.218405
739.674207	3939.606278
740.004093	3944.145837
740.333931	3940.259107
740.663722	3944.120631
740.993464	3940.186011
741.323159	3913.944284
741.652806	3887.596694
741.982405	3860.457642
742.311956	3830.039320
742.641460	3818.714368
742.970915	3794.607570
743.300323	3754.822784
743.629683	3721.962023
743.958996	3710.490877
744.288260	3684.382741
744.617477	3653.858555
744.946647	3640.706184
745.275768	3614.834983
745.604842	3613.178964
745.933869	3563.576530
746.262847	3556.483627
746.591778	3594.685491
746.920662	3561.900347
747.249498	3535.023435
747.578286	3579.942636
747.907027	3597.127930
748.235720	3592.701797
748.564365	3619.987042
748.892963	3620.695324
749.221514	3601.302005
749.550017	3580.489602
749.878473	3574.067172
750.206881	3545.405691
750.535242	3541.892007
750.863555	3547.361659
751.191821	3540.281358
751.520039	3520.898122
751.848210	3501.093949
752.176334	3532.331459
752.504411	3539.041235
752.832440	3501.134278
753.160421	3481.985455
753.488356	3494.926097
753.816243	3503.649814
754.144082	3457.064511
754.471875	3447.332564
754.799620	3465.856284
755.127318	3456.598205
755.454969	3459.615335
755.782572	3460.789924
756.110129	3439.312088
756.437638	3428.246755
756.765100	3442.079682
757.092515	3456.141980
757.419882	3460.217753
757.747203	3432.504010
758.074477	3433.729010
758.401703	3452.119139
758.728882	3472.752582
759.056014	3477.387923
759.383099	3481.960250
759.710138	3475.411791
760.037129	3493.348216
760.364073	3524.376518
760.690970	3510.427645
761.017820	3484.823625
761.344623	3507.239116
761.671379	3551.467679
761.998088	3602.126234
762.324751	3731.152046
762.651366	3976.792349
762.977935	4443.756951
763.304456	4883.607706
763.630931	4971.583403
763.957359	4608.756437
764.283740	4276.947691
764.610074	4084.862085
764.936362	3888.753639
765.262602	3734.496852
765.588796	3623.382259
765.914943	3536.071995
766.241044	3447.007409
766.567097	3421.272319
766.893104	3373.058724
767.219064	3341.705267
767.544978	3314.609065
767.870845	3260.547732
768.196665	3240.766244
768.522438	3252.156731
768.848165	3244.879825
769.173846	3211.547716
769.499479	3195.673123
769.825066	3174.427180
770.150607	3159.941424
770.476101	3176.877181
770.801548	3173.688651
771.126949	3124.993625
771.452303	3107.072323
771.777611	3116.731174
772.102872	3121.613532
772.428087	3097.993205
772.753256	3086.837132
773.078378	3079.114084
773.403453	3043.019423
773.728482	3032.727907
774.053465	3055.173644
774.378401	3042.732077
774.703291	3011.330729
775.028135	3011.643281
775.352932	3005.727487
775.677683	2992.607884
776.002388	2993.280878
776.327046	2992.439005
776.651658	2981.381234
776.976224	2971.167857
777.300743	2973.806901
777.625216	2961.382977
777.949643	2957.652523
778.274024	2959.477421
778.598359	2951.474589
778.922647	2953.942234
779.246889	2953.236473
779.571086	2938.896910
779.895236	2931.481373
780.219339	2943.335646
780.543397	2955.331072
780.867409	2958.312914
781.191374	2950.567182
781.515294	2948.258333
781.839167	2950.569702
782.162995	2940.903290
782.486776	2949.092644
782.810511	2948.172633
783.134201	2935.174018
783.457844	2941.558640
783.781441	2930.120262
784.104993	2909.302817
784.428498	2912.284659
784.751958	2924.267482
785.075372	2919.145670
785.398739	2906.131931
785.722061	2917.267840
786.045337	2932.489604
786.368568	2915.899167
786.691752	2906.905748
787.014891	2956.125054
787.337983	2988.340547
787.661030	3011.323168
787.984031	3078.579722
788.306987	3121.580764
788.629897	3116.945423
788.952760	3097.184100
789.275579	3087.530290
789.598351	3026.393697
789.921078	2979.999958
790.243759	2972.443269
790.566395	2956.130095
790.888984	2935.902465
791.211529	2917.930752
791.534027	2908.287024
791.856480	2899.162536
792.178888	2881.097561
792.501249	2875.411139
792.823566	2872.784698
793.145836	2870.357383
793.468062	2866.074922
793.790241	2862.692308
794.112375	2870.652290
794.434464	2878.277035
794.756507	2883.504712
795.078505	2890.804303
795.400457	2906.721746
795.722364	2942.556788
796.044226	2966.787094
796.366042	2968.410346
796.687812	2957.097996
797.009538	2978.235554
797.331218	2962.103862
797.652852	2948.777572
797.974442	2932.144285
798.295986	2929.613626
798.617484	2924.461566
798.938938	2909.698547
799.260346	2893.438306
799.581709	2888.790362
799.903026	2882.025133
800.224299	2876.510111
800.545526	2865.331352
800.866708	2850.555730
801.187845	2841.816890
801.508936	2844.100533
801.829983	2850.926255
802.150984	2837.007629
802.471940	2825.065136
802.792851	2824.704693
803.113717	2822.050526
803.434538	2829.937411
803.755314	2821.455670
804.076045	2815.857468
804.396731	2815.227324
804.717372	2817.241265
805.037967	2810.483598
805.358518	2817.248827
805.679024	2827.968841
805.999485	2826.940445
806.319901	2829.135868
806.640272	2820.031544
806.960598	2824.702173
807.280879	2833.748523
807.601115	2841.030470
807.921306	2829.995384
808.241453	2824.931545
808.561554	2831.003615
808.881611	2833.957731
809.201623	2830.229798
809.521590	2825.763336
809.841513	2820.946513
810.161390	2825.854077
810.481223	2818.476348
810.801011	2812.341264
811.120755	2807.698361
811.440453	2809.036787
811.760107	2809.394709
812.079716	2808.436890
812.399281	2799.393060
812.718801	2794.069602
813.038276	2785.976029
813.357707	2792.290074
813.677093	2800.550005
813.996434	2793.908285
814.315731	2790.223201
814.634983	2786.999383
814.954191	2785.146759
815.273354	2802.543781
815.592473	2809.611479
815.911547	2811.723722
816.230577	2818.821667
816.549562	2831.104438
816.868502	2826.176710
817.187399	2837.499142
817.506250	2852.000021
817.825058	2844.970132
818.143821	2857.439426
818.462539	2872.396529
818.781213	2900.011970
819.099843	2936.136879
819.418429	2995.877072
819.736970	3052.685835
820.055466	3122.604118
820.373919	3227.820561
820.692327	3366.268289
821.010691	3529.279040
821.329011	3963.476142
821.647286	4854.515207
821.965517	6215.919133
822.283704	6939.299504
822.601847	6913.360247
822.919945	6288.955370
823.237999	5796.232993
823.556010	5222.975662
823.873976	4678.846119
824.191897	4275.049696
824.509775	3988.571005
824.827609	3720.915983
825.145398	3600.555914
825.463144	3595.411417
825.780845	3681.824356
826.098502	3788.477527
826.416116	4065.521698
826.733685	4373.228688
827.051210	4434.541722
827.368692	4324.286646
827.686129	4061.781162
828.003522	3738.640680
828.320872	3486.966115
828.638177	3292.475879
828.955439	3157.640137
829.272656	3078.521748
829.589830	3014.955319
829.906960	2964.642083
830.224046	2919.594332
830.541088	2885.133005
830.858086	2871.874770
831.175041	2854.487830
831.491952	2856.174096
831.808819	2866.153060
832.125642	2890.378325
832.442421	2933.528082
832.759157	3013.624454
833.075849	3190.125333
833.392497	3467.807210
833.709101	3667.328518
834.025662	3611.603603
834.342179	3457.921508
834.658653	3287.165024
834.975083	3141.516007
835.291469	3043.969680
835.607811	2963.830457
835.924110	2903.127403
836.240366	2850.999352
836.556578	2811.814463
836.872746	2789.313273
837.188871	2766.287803
837.504952	2751.373549
837.820990	2744.373907
838.136984	2728.953017
838.452935	2723.284240
838.768842	2721.245093
839.084706	2737.545664
839.400526	2815.144145
839.716303	2946.864454
840.032037	3020.714837
840.347727	3010.655215
840.663373	2949.682459
840.978977	2877.357025
841.294537	2806.168371
841.610054	2759.789755
841.925527	2737.679255
842.240957	2715.984649
842.556344	2694.884900
842.871687	2679.325378
843.186987	2672.371107
843.502244	2667.450940
843.817458	2662.253511
844.132629	2645.768938
844.447756	2640.523617
844.762840	2635.290899
845.077881	2638.131590
845.392879	2636.301651
845.707833	2630.363172
846.022745	2624.270937
846.337613	2625.720269
846.652438	2624.235649
846.967221	2627.643469
847.281960	2621.339506
847.596656	2622.635083
847.911309	2622.330093
848.225919	2620.651389
848.540485	2615.398506
848.855009	2615.312807
849.169490	2616.492437
849.483928	2614.170985
849.798323	2616.477313
850.112675	2616.351284
850.426984	2613.465224
850.741251	2615.756428
851.055474	2611.710902
851.369654	2614.889350
851.683792	2616.376490
851.997887	2614.982611
852.311938	2612.162086
852.625947	2615.499329
852.939914	2612.777106
853.253837	2618.738271
853.567718	2610.987497
853.881555	2610.112857
854.195350	2615.295163
854.509103	2614.062601
854.822812	2612.683845
855.136479	2611.582353
855.450103	2614.077724
855.763685	2614.236520
856.077224	2612.416664
856.390720	2608.310644
856.704173	2612.235182
857.017584	2617.694752
857.330953	2620.830350
857.644278	2618.526542
857.957561	2618.004783
858.270802	2615.327930
858.584000	2615.159052
858.897155	2618.244238
859.210268	2622.327572
859.523339	2614.554113
859.836367	2610.034719
860.149352	2611.582353
860.462295	2613.414812
860.775195	2609.132352
861.088054	2608.222424
861.400869	2609.376848
861.713642	2606.473143
862.026373	2608.406426
862.339062	2611.388268
862.651708	2617.145266
862.964312	2618.004783
863.276873	2613.797940
863.589392	2617.483023
863.901869	2622.337655
864.214303	2625.657254
864.526696	2630.332925
864.839045	2629.881741
865.151353	2630.547174
865.463619	2631.114303
865.775842	2632.397277
866.088023	2631.822586
866.400162	2636.226033
866.712258	2632.185549
867.024313	2631.066412
867.336325	2628.034158
867.648296	2631.426855
867.960224	2634.252422
868.272110	2630.206896
868.583954	2625.546349
868.895755	2628.868469
869.207515	2635.903400
869.519233	2640.132928
869.830909	2634.154119
870.142542	2632.041876
870.454134	2635.328708
870.765684	2636.425159
871.077191	2640.221148
871.388657	2642.124183
871.700081	2640.785757
872.011463	2643.288690
872.322803	2642.966056
872.634101	2648.949906
872.945357	2652.130874
873.256571	2660.942811
873.567744	2657.025834
873.878874	2656.340237
874.189963	2657.368633
874.501010	2659.004487
874.812015	2664.779129
875.122979	2662.969355
875.433900	2656.136071
875.744780	2655.720175
876.055618	2660.625218
876.366415	2666.238543
876.677169	2664.731238
876.987882	2659.556493
877.298554	2660.932728
877.609183	2667.564366
877.919771	2674.465706
878.230317	2682.589525
878.540822	2691.431709
878.851285	2707.797815
879.161707	2729.290775
879.472087	2766.643204
879.782425	2811.844710
880.092722	2922.760177
880.402977	3105.824638
880.713191	3360.503730
881.023363	3643.579642
881.333494	3829.338599
881.643583	3999.056605
881.953631	4000.926873
882.263637	3822.893484
882.573602	3606.396091
882.883526	3480.084940
883.193408	3371.548898
883.503248	3274.352931
883.813048	3161.408400
884.122806	3048.806667
884.432522	2967.213072
884.742197	2904.417939
885.051831	2867.972917
885.361424	2833.972855
885.670975	2798.631846
885.980485	2766.872577
886.289954	2751.660895
886.599382	2735.256980
886.908768	2726.694580
887.218113	2708.614482
887.527417	2695.182328
887.836680	2687.489527
888.145901	2680.913342
888.455082	2674.160716
888.764221	2664.940446
889.073319	2654.205309
889.382376	2654.722027
889.691392	2656.284785
890.000366	2656.163797
890.309300	2656.307470
890.618193	2654.958961
890.927044	2660.647903
891.235855	2659.967347
891.544625	2658.510454
891.853353	2657.023314
892.162041	2665.986485
892.470687	2686.877027
892.779293	2693.952286
893.087858	2702.365972
893.396381	2728.259859
893.704864	2768.047165
894.013306	2835.971672
894.321707	2926.170518
894.630068	2973.171715
894.938387	2993.003615
895.246665	2985.144456
895.554903	2946.821604
895.863100	2901.985582
896.171256	2847.168075
896.479371	2787.138015
896.787446	2749.992273
897.095480	2729.137019
897.403473	2726.634087
897.711425	2712.838969
898.019336	2692.293747
898.327207	2679.542148
898.635038	2677.528207
898.942827	2675.718433
899.250576	2666.820796
899.558284	2653.933086
899.865952	2653.045843
900.173579	2647.240955
900.481165	2646.383958
900.788711	2639.921199
901.096216	2633.569345
901.403681	2631.487349
901.711105	2632.162863
902.018489	2630.557256
902.325832	2630.443830
902.633135	2632.505662
902.940397	2650.573157
903.247619	2683.658250
903.554800	2749.105030
903.861941	2875.038094
904.169041	2995.504027
904.476101	3053.583160
904.783121	3046.437325
905.090100	2993.873214
905.397039	2920.131215
905.703938	2850.081862
906.010796	2790.921401
906.317614	2739.889801
906.624391	2703.790098
906.931129	2679.509380
907.237826	2656.267141
907.544483	2637.085550
907.851099	2625.841257
908.157675	2616.676439
908.464211	2608.731580
908.770707	2598.782863
909.077163	2598.135075
909.383578	2594.581062
909.689954	2591.326997
909.996289	2589.161821
910.302584	2587.747778
910.608839	2585.499423
910.915054	2588.209043
911.221229	2590.313725
911.527363	2592.594847
911.833458	2586.835329
912.139513	2590.999322
912.445527	2594.160125
912.751502	2597.751947
913.057436	2604.078595
913.363331	2610.256529
913.669186	2618.776079
913.975000	2632.586320
914.280775	2646.832621
914.586510	2663.871721
914.892205	2699.520241
915.197859	2766.376023
915.503475	2848.929958
915.809050	2911.347005
916.114585	2922.518202
916.420081	2936.618309
916.725536	2947.774382
917.030952	2918.800351
917.336328	2873.866026
917.641665	2826.025476
917.946961	2780.453445
918.252218	2749.437746
918.557435	2724.484034
918.862612	2699.411856
919.167750	2684.185051
919.472848	2669.333811
919.777906	2654.553148
920.082925	2641.625109
920.387904	2633.597072
920.692843	2626.330248
920.997743	2623.575258
921.302603	2613.709720
921.607423	2610.558999
921.912204	2603.758482
922.216946	2600.406115
922.521647	2599.286979
922.826310	2595.375043
923.130932	2592.652820
923.435516	2586.293405
923.740059	2584.889443
924.044564	2581.549679
924.349028	2583.359453
924.653454	2573.733370
924.957840	2570.592731
925.262186	2571.142217
925.566493	2570.973338
925.870761	2567.933522
926.174989	2568.311609
926.479178	2561.755588
926.783328	2565.667524
927.087438	2564.928995
927.391509	2563.741803
927.695541	2561.806000
927.999533	2560.482697
928.303486	2558.670402
928.607400	2559.973540
928.911275	2556.117058
929.215110	2557.674774
929.518906	2556.238045
929.822663	2557.866338
930.126381	2558.352809
930.430060	2559.514795
930.733699	2559.340876
931.037299	2557.941955
931.340861	2554.700493
931.644383	2560.515464
931.947866	2559.179559
932.251309	2557.052192
932.554714	2558.735937
932.858080	2560.162584
933.161407	2555.575134
933.464694	2557.828529
933.767943	2556.258210
934.071153	2554.811399
934.374323	2553.152859
934.677455	2554.201419
934.980548	2556.953889
935.283602	2553.745195
935.586617	2555.698642
935.889593	2557.011862
936.192530	2554.574465
936.495428	2554.997922
936.798287	2558.010011
937.101108	2558.516647
937.403890	2562.698284
937.706632	2563.615774
938.009336	2563.492266
938.312002	2570.600293
938.614628	2571.384192
938.917216	2574.151786
939.219765	2575.157496
939.522275	2577.461303
939.824747	2572.475602
940.127179	2568.745148
940.429573	2567.346228
940.731929	2568.127607
941.034246	2564.785322
941.336524	2568.326732
941.638763	2564.389591
941.940964	2570.980900
942.243126	2564.344221
942.545250	2564.205589
942.847335	2563.545198
943.149381	2563.663665
943.451389	2561.934549
943.753359	2559.787018
944.055290	2560.833057
944.357182	2560.301215
944.659036	2557.568910
944.960851	2560.349106
945.262628	2557.054712
945.564367	2558.251986
945.866067	2559.161915
946.167729	2556.311142
946.469352	2557.697459
946.770937	2558.209137
947.072484	2559.608057
947.373992	2558.378015
947.675462	2557.904147
947.976893	2554.183775
948.278286	2556.664023
948.579641	2555.602860
948.880958	2555.068498
949.182236	2555.010524
949.483476	2552.583209
949.784678	2554.786193
950.085841	2553.367108
950.386967	2553.210832
950.688054	2553.483055
950.989103	2557.412634
951.290114	2558.874569
951.591087	2559.318190
951.892021	2556.369115
952.192917	2562.829354
952.493776	2557.450443
952.794596	2564.830692
953.095378	2562.468912
953.396122	2562.368088
953.696828	2561.803479
953.997496	2558.839281
954.298126	2555.933056
954.598718	2556.041440
954.899272	2555.996070
955.199788	2554.561862
955.500266	2558.292316
955.800706	2548.580533
956.101108	2546.029709
956.401472	2547.819318
956.701798	2542.097609
957.002087	2543.950233
957.302337	2547.887374
957.602550	2544.479554
957.902724	2546.415357
958.202861	2546.692621
958.502960	2544.013247
958.803022	2546.864020
959.103045	2546.168341
959.403031	2543.587270
959.702979	2542.463092
960.002889	2544.252702
960.302762	2544.217414
960.602596	2544.562733
960.902393	2543.632640
961.202153	2544.043494
961.501875	2539.007382
961.801559	2544.688762
962.101205	2542.140459
962.400814	2539.975283
962.700385	2543.259595
962.999918	2539.272042
963.299414	2539.259439
963.598873	2539.892104
963.898293	2539.846734
964.197677	2541.918648
964.497022	2543.468803
964.796331	2540.928061
965.095601	2540.794471
965.394835	2542.153062
965.694030	2539.082999
965.993189	2540.053421
966.292309	2541.880839
966.591393	2538.609130
966.890439	2540.943185
967.189447	2541.273380
967.488419	2541.059131
967.787353	2537.426980
968.086249	2539.526620
968.385108	2541.313709
968.683930	2541.464944
968.982714	2539.824048
969.281462	2539.866898
969.580172	2539.309851
969.878844	2541.477547
970.177480	2542.132897
970.476078	2539.526620
970.774639	2539.750952
971.073162	2539.483771
971.371649	2538.546116
971.670098	2538.609130
971.968510	2537.968904
972.266885	2539.032587
972.565223	2541.195242
972.863524	2541.306148
973.161788	2544.638350
973.460014	2540.255067
973.758204	2541.762372
974.056356	2541.119625
974.354471	2542.664739
974.652550	2540.441590
974.950591	2541.984183
975.248595	2540.912938
975.546563	2542.183308
975.844493	2538.916641
976.142386	2540.512166
976.440243	2540.091230
976.738062	2540.204656
977.035845	2542.258926
977.333590	2541.177598
977.631299	2539.201466
977.928971	2540.492001
978.226606	2539.498894
978.524204	2541.283462
978.821765	2539.710623
979.119290	2542.541230
979.416777	2539.319933
979.714228	2538.462937
980.011642	2540.829759
980.309020	2540.098791
980.606360	2539.607279
980.903664	2540.751621
981.200931	2539.410674
981.498162	2540.693648
981.795356	2546.208670
982.092513	2546.954761
982.389633	2545.820501
982.686717	2548.366284
982.983764	2553.465411
983.280775	2554.597150
983.577749	2554.037582
983.874686	2551.431305
984.171587	2549.039278
984.468451	2547.796633
984.765279	2547.209339
985.062070	2543.620037
985.358824	2545.470141
985.655543	2543.259595
985.952224	2540.411343
986.248869	2539.992927
986.545478	2535.486136
986.842050	2539.806404
987.138586	2535.014788
987.435086	2537.426980
987.731549	2534.674510
988.027975	2537.981507
988.324366	2538.485622
988.620719	2536.832124
988.917037	2536.259953
989.213318	2535.992772
989.509563	2538.888914
989.805772	2539.461085
990.101944	2537.605941
990.398080	2538.233564
990.694180	2536.569984
990.990244	2535.886907
991.286271	2538.349511
991.582262	2537.323636
991.878217	2536.801877
992.174136	2534.462781
992.470019	2537.966383
992.765865	2535.501259
993.061676	2539.118287
993.357450	2538.523431
993.653188	2536.822041
993.948890	2537.822710
994.244556	2536.638039
994.540186	2538.707433
994.835780	2534.303985
995.131337	2541.094419
995.426859	2539.443441
995.722345	2538.213400
996.017795	2540.907897
996.313208	2539.819007
996.608586	2539.793802
996.903928	2542.132897
997.199234	2541.596014
997.494504	2544.376210
997.789738	2540.630633
998.084936	2540.164326
998.380099	2538.183153
998.675225	2537.913451
998.970316	2539.231713
999.265371	2537.021167
999.560390	2535.728111
999.855373	2539.322454
1000.150320	2535.972607
1000.445232	2536.063348
1000.740108	2535.367668
1001.034948	2535.740714
1001.329752	2536.824562
1001.624521	2535.750796
1001.919254	2531.909437
1002.213951	2533.333563
1002.508613	2527.231246
1002.803239	2534.976979
1003.097829	2532.088398
1003.392384	2536.007895
1003.686903	2533.862884
1003.981386	2536.885056
1004.275834	2536.133924
1004.570246	2536.728780
1004.864623	2535.002185
1005.158964	2535.322298
1005.453270	2534.626619
1005.747540	2533.716691
1006.041775	2535.581917
1006.335974	2533.744417
1006.630138	2535.539068
1006.924266	2536.287679
1007.218359	2537.820190
1007.512416	2534.329191
1007.806438	2535.912113
1008.100425	2534.939170
1008.394376	2534.440096
1008.688292	2532.456402
1008.982172	2535.886907
1009.276017	2535.622247
1009.569827	2535.962525
1009.863602	2534.737524
1010.157341	2533.104190
1010.451045	2534.775333
1010.744714	2534.379602
1011.038347	2535.178625
1011.331945	2533.953625
1011.625508	2533.462112
1011.919036	2535.357586
1012.212528	2534.994623
1012.505986	2533.918337
1012.799408	2533.527647
1013.092795	2534.820703
1013.386147	2533.668800
1013.679464	2533.908254
1013.972745	2533.371372
1014.265992	2534.094777
1014.559204	2537.815149
1014.852380	2534.026722
1015.145521	2535.022349
1015.438628	2535.045035
1015.731699	2538.324305
1016.024736	2535.597041
1016.317737	2535.549150
1016.610703	2536.539737
1016.903635	2531.967410
1017.196531	2531.531350
1017.489393	2532.678213
1017.782219	2528.839374
1018.075011	2533.754499
1018.367768	2532.048069
1018.660490	2534.598893
1018.953177	2534.598893
1019.245829	2534.598893
