Dividing Wavelength (nm)	Counts (n)	Blue Motor Position (mm): 43.500000	Red Motor Position (mm): 0.000000	
326.493990	2131.115021
326.888308	2131.115021
327.282561	2131.115021
327.676750	2096.472212
328.070874	2095.582448
328.464933	2099.693509
328.858929	2107.663573
329.252859	2113.914604
329.646726	2128.412963
330.040528	2140.090795
330.434265	2157.011428
330.827938	2170.897287
331.221547	2192.559125
331.615091	2209.565457
332.008571	2229.951883
332.401986	2251.709503
332.795338	2266.220465
333.188625	2287.410955
333.581847	2307.540282
333.975006	2326.807572
334.368100	2344.532269
334.761129	2360.943745
335.154095	2379.701879
335.546996	2397.363561
335.939833	2427.073602
336.332606	2441.128338
336.725315	2452.755760
337.117960	2464.841926
337.510540	2470.810652
337.903056	2482.821201
338.295508	2486.201295
338.687896	2497.576659
339.080220	2507.409429
339.472480	2513.607528
339.864676	2514.088958
340.256807	2523.541122
340.648875	2526.356606
341.040879	2526.180166
341.432818	2527.944569
341.824694	2527.105217
342.216506	2531.949766
342.608253	2530.444982
342.999937	2528.446164
343.391557	2531.140661
343.783113	2528.700742
344.174605	2528.884745
344.566033	2525.885258
344.957397	2528.032790
345.348697	2525.991122
345.739934	2522.936183
346.131106	2517.799247
346.522215	2518.222704
346.913260	2514.567868
347.304241	2514.278001
347.695159	2511.485202
348.086012	2512.932013
348.476802	2511.142404
348.867528	2508.901611
349.258191	2505.438338
349.648789	2506.297855
350.039324	2502.557319
350.429796	2505.990344
350.820203	2501.196207
351.210548	2500.971876
351.600828	2500.140085
351.991045	2502.532113
352.381198	2498.627739
352.771288	2499.635970
353.161314	2495.842502
353.551276	2498.650424
353.941175	2496.218068
354.331010	2497.690085
354.720782	2495.930722
355.110490	2499.736793
355.500135	2497.730414
355.889717	2498.751247
356.279235	2498.005157
356.668689	2501.412977
357.058080	2499.273007
357.447408	2497.768223
357.836672	2495.414004
358.225873	2499.812410
358.615010	2496.457522
359.004084	2500.802997
359.393095	2502.821979
359.782043	2501.150837
360.170927	2503.711743
360.559748	2505.135869
360.948505	2502.025477
361.337199	2505.720643
361.725830	2504.576301
362.114398	2503.953718
362.502903	2505.997906
362.891344	2507.573267
363.279722	2506.565036
363.668037	2507.152330
364.056289	2508.049656
364.444478	2512.140552
364.832603	2511.908659
365.220665	2512.564009
365.608665	2510.139214
365.996601	2512.853875
366.384474	2512.868999
366.772284	2510.988648
367.160031	2512.188443
367.547715	2514.220028
367.935336	2512.410254
368.322893	2514.335975
368.710388	2513.781448
369.097820	2518.515091
369.485189	2514.469565
369.872495	2516.848990
370.259738	2512.238855
370.646918	2520.292098
371.034035	2518.414268
371.421090	2518.653723
371.808081	2515.434946
372.195010	2520.264372
372.581875	2520.448374
372.968678	2518.580626
373.355418	2518.079031
373.742096	2518.734381
374.128710	2518.857890
374.515262	2521.421316
374.901751	2519.551048
375.288177	2521.380987
375.674540	2525.174455
376.060841	2522.835360
376.447079	2522.709331
376.833254	2525.255114
377.219367	2520.844104
377.605417	2529.565300
377.991404	2526.144878
378.377329	2528.287368
378.763191	2531.284334
379.148991	2540.151723
379.534727	2543.864533
379.920402	2554.168652
380.306013	2558.413303
380.691563	2569.037535
381.077049	2581.282498
381.462474	2589.645772
381.847835	2603.929881
382.233134	2615.713578
382.618371	2625.624487
383.003545	2647.588794
383.388657	2659.818633
383.773706	2679.824452
384.158693	2697.997812
384.543618	2721.217367
384.928480	2741.699575
385.313280	2771.878442
385.698017	2789.572892
386.082692	2824.755105
386.467305	2842.255471
386.851856	2872.860316
387.236344	2902.076323
387.620770	2938.914554
388.005133	2967.853298
388.389435	3008.749659
388.773674	3034.489790
389.157851	3079.502253
389.541965	3112.002572
389.926018	3116.600104
390.310008	3181.343643
390.693936	3220.722616
391.077802	3267.096190
391.461606	3287.621248
391.845348	3356.143132
392.229027	3380.136504
392.612645	3411.981473
392.996200	3492.715551
393.379694	3541.087943
393.763125	3618.562916
394.146494	3620.957464
394.529801	3692.849359
394.913047	3754.512753
395.296230	3754.109461
395.679351	3817.232268
396.062410	3861.473435
396.445408	3867.974002
396.828343	3915.683482
397.211217	3952.385603
397.594028	3903.897265
397.976778	3978.024912
398.359466	4021.898073
398.742092	4058.789237
399.124656	4000.037110
399.507158	4085.706478
399.889598	4122.015389
400.271977	4187.031150
400.654294	4174.541691
401.036549	4191.003579
401.418742	4166.763191
401.800874	4271.599026
402.182944	4300.124395
402.564952	4370.050240
402.946898	4363.171586
403.328783	4362.347357
403.710606	4285.076551
404.092367	4474.757526
404.474067	4443.885500
404.855705	4455.205411
405.237282	4382.373341
405.618797	4494.355012
406.000250	4527.440105
406.381642	4610.818269
406.762972	4575.820058
407.144240	4586.756841
407.525447	4587.518056
407.906593	4644.972086
408.287677	4690.566802
408.668700	4618.818580
409.049661	4668.153832
409.430560	4710.076067
409.811399	4637.556549
410.192176	4798.800375
410.572891	4742.163012
410.953545	4844.314432
411.334138	4726.837904
411.714669	4793.486999
412.095139	4688.353735
412.475547	4826.914890
412.855894	4808.839833
413.236180	4821.248633
413.616405	4766.889871
413.996568	4857.582749
414.376670	4803.276920
414.756711	4761.122791
415.136691	4787.830824
415.516609	4866.349316
415.896466	4903.868103
416.276262	4935.201395
416.655997	4915.808076
417.035670	5099.863124
417.415283	5189.986352
417.794834	5133.976612
418.174324	5089.735446
418.553753	4995.848997
418.933121	5184.574673
419.312428	5246.505248
419.691674	5186.565929
420.070859	5313.018232
420.449983	5226.549841
420.829045	5340.094269
421.208047	5246.785032
421.586988	5320.383358
421.965867	5332.497250
422.344686	5465.724864
422.723444	5320.161547
423.102141	5136.850070
423.480777	5434.028609
423.859352	5207.579979
424.237866	5464.328465
424.616319	5455.216579
424.994712	5568.771090
425.373044	5440.196461
425.751314	5583.884469
426.129524	5391.607300
426.507673	5585.003605
426.885762	5663.965719
427.263789	5594.249082
427.641756	5477.984950
428.019662	5597.319144
428.397508	5607.411534
428.775292	5553.977824
429.153016	5655.136138
429.530679	5579.541515
429.908282	5663.123846
430.285824	5533.851017
430.663305	5809.544159
431.040726	5543.555238
431.418086	5547.744437
431.795385	5654.291744
432.172624	5664.656357
432.549802	5651.864429
432.926920	5668.369167
433.303977	5677.440723
433.680974	5714.788111
434.057910	5732.480041
434.434786	5737.929528
434.811601	5705.567841
435.188355	5947.207989
435.565050	5815.855684
435.941683	5796.500174
436.318257	6013.277351
436.694770	5996.709599
437.071222	6026.585997
437.447614	5957.993537
437.823946	5878.497062
438.200218	6025.928127
438.576429	5898.659157
438.952580	5995.328323
439.328670	6032.211925
439.704700	5946.479542
440.080670	5931.562768
440.456580	6205.501588
440.832429	6087.778043
441.208218	5929.105205
441.583947	6086.951294
441.959616	6090.349032
442.335224	6015.697105
442.710773	6153.736500
443.086261	6181.609040
443.461689	5974.145394
443.837057	6126.242047
444.212365	6277.935407
444.587612	6171.103275
444.962800	6327.517676
445.337927	6308.139481
445.712995	5917.384523
446.088002	6491.662686
446.462949	6323.706564
446.837837	6257.291882
447.212664	6425.240443
447.587431	6565.656742
447.962139	7115.876000
448.336786	8038.891104
448.711374	7777.093903
449.085901	6848.231060
449.460369	6771.850017
449.834776	6713.236521
450.209124	7095.983607
450.583412	7247.303922
450.957640	7390.467650
451.331808	7162.632702
451.705917	6714.209464
452.079965	6636.618545
452.453954	6848.276430
452.827883	6722.650876
453.201752	6819.846843
453.575562	6616.471573
453.949311	6814.856101
454.323001	6707.431633
454.696632	6782.595237
455.070202	6927.949346
455.443713	7079.993067
455.817164	7177.483941
456.190556	7263.395285
456.563888	7329.794842
456.937160	7383.911629
457.310373	7033.533793
457.683526	7058.858029
458.056619	6948.986081
458.429653	6941.386542
458.802628	6878.213322
459.175542	6988.039900
459.548398	7339.642737
459.921194	7499.298599
460.293930	7498.151737
460.666607	8029.690998
461.039224	8336.382196
461.411782	8462.269889
461.784280	8481.658167
462.156719	8372.164306
462.529099	8252.996470
462.901419	7838.144796
463.273680	7737.551092
463.645882	7749.352433
464.018024	7613.458049
464.390106	7779.092720
464.762130	8170.039242
465.134094	8638.695151
465.505999	9656.511674
465.877845	10880.392922
466.249631	11533.171934
466.621358	11141.433951
466.993026	10516.683755
467.364634	10265.225960
467.736184	9899.253314
468.107674	9569.899610
468.479105	9594.059339
468.850477	9359.229790
469.221790	9136.819124
469.593043	8811.042118
469.964238	8668.004419
470.335373	8681.844907
470.706449	8738.310871
471.077467	8723.162204
471.448425	10034.192399
471.819324	11095.108267
472.190164	11121.750766
472.560945	9874.750786
472.931667	9086.268954
473.302330	8952.330537
473.672934	8599.858101
474.043479	8956.842370
474.413965	8893.560766
474.784393	8776.885780
475.154761	8932.415459
475.525070	9020.292853
475.895321	8845.122839
476.265513	9033.218371
476.635645	9197.164256
477.005719	9197.237353
477.375734	9313.320002
477.745691	9548.424294
478.115588	9681.629223
478.485427	9925.421943
478.855207	10461.339447
479.224928	11278.495362
479.594591	11907.928790
479.964194	11717.448792
480.333739	11655.523258
480.703226	11581.158677
481.072653	11662.941316
481.442022	11900.480485
481.811333	12089.377561
482.180584	11888.830379
482.549777	11603.546442
482.918912	11423.312589
483.287988	11442.675661
483.657005	11463.077210
484.025964	11142.139712
484.394864	11271.672160
484.763706	11244.825496
485.132489	11004.274237
485.501213	10960.738832
485.869879	11042.241687
486.238487	10885.708819
486.607036	10992.054480
486.975527	10774.264031
487.343959	10960.128853
487.712333	11016.259580
488.080648	10941.864752
488.448905	10990.002730
488.817104	10923.305744
489.185244	11190.713750
489.553326	11353.623678
489.921350	11886.561860
490.289315	12946.771966
490.657222	13288.053040
491.025070	13198.474257
491.392861	13073.564547
491.760593	12695.951877
492.128267	12335.771517
492.495883	12008.172134
492.863440	11675.932370
493.230939	11333.602735
493.598380	11273.945721
493.965763	11142.885803
494.333088	11040.245390
494.700354	10965.411982
495.067563	11018.470126
495.434713	10843.963024
495.801805	10979.489404
496.168839	10898.301621
496.535815	10839.090749
496.902733	10838.213588
497.269593	10772.257652
497.636395	10870.958403
498.003139	10861.662515
498.369825	10727.663605
498.736453	10882.537933
499.103023	10813.464043
499.469535	10841.462612
499.835989	10829.474748
500.202385	10799.391662
500.568723	10646.412808
500.935003	10869.128464
501.301226	10673.521613
501.667390	10932.868813
502.033497	11033.427230
502.399546	10890.195446
502.765537	10798.206991
503.131470	10873.683147
503.497345	11044.028776
503.863163	10651.552264
504.228923	10965.026334
504.594625	11027.198884
504.960269	10778.110431
505.325856	10993.264357
505.691385	10791.217431
506.056856	10943.409866
506.422270	10978.760957
506.787625	10862.375838
507.152924	10980.429579
507.518164	10954.770106
507.883347	10872.145595
508.248472	10794.247165
508.613540	11033.006293
508.978550	10908.129351
509.343503	10889.918183
509.708398	11006.641059
510.073236	11125.854265
510.438016	11132.571602
510.802738	11076.284599
511.167403	11130.555141
511.532010	11021.033553
511.896561	11249.261711
512.261053	11331.084679
512.625488	11197.453773
512.989866	11176.565752
513.354186	11165.316417
513.718449	11069.315204
514.082655	11263.525656
514.446803	11159.607310
514.810894	11281.595672
515.174927	11145.061061
515.538904	11173.072232
515.902822	11324.574029
516.266684	11204.148425
516.630488	11147.470732
516.994235	11209.171935
517.357925	11267.795513
517.721558	11351.977741
518.085133	11371.393745
518.448651	11383.986547
518.812112	11261.393248
519.175516	11279.674992
519.538863	11395.424926
519.902152	11315.066413
520.265385	11478.472894
520.628560	11387.376723
520.991678	11363.756397
521.354739	11426.944740
521.717743	11366.952489
522.080690	11344.199241
522.443580	11477.867956
522.806413	11440.709611
523.169189	11466.691717
523.531908	11516.596620
523.894569	11345.361227
524.257174	11345.167142
524.619722	11472.564662
524.982213	11411.533933
525.344647	11460.702827
525.707025	11414.914026
526.069345	11514.633091
526.431608	11425.112281
526.793815	11536.272243
527.155964	11320.339460
527.518057	11379.694005
527.880093	11327.286170
528.242072	11389.952753
528.603995	11295.957919
528.965860	11217.734335
529.327669	11268.029927
529.689421	11211.316946
530.051117	11189.942454
530.412755	11293.810387
530.774337	11180.240753
531.135862	11162.367342
531.497331	11185.748214
531.858743	11046.176308
532.220098	11206.714372
532.581396	11078.840464
532.942638	11064.866386
533.303824	11022.172854
533.664953	11040.767150
534.026025	10954.823038
534.387040	11050.128572
534.747999	11053.443131
535.108902	11112.268355
535.469748	10871.039061
535.830537	10975.005298
536.191270	10955.102822
536.551947	10974.392798
536.912567	10967.299894
537.273131	10892.650488
537.633638	10883.125228
537.994089	10870.708866
538.354483	10813.859774
538.714821	10963.755963
539.075103	10976.815072
539.435328	10937.912488
539.795497	10765.928483
540.155609	10913.145299
540.515665	11006.925884
540.875665	10744.808569
541.235609	10818.185084
541.595496	10805.604884
541.955328	10965.296035
542.315102	10848.363951
542.674821	10788.560743
543.034483	10789.541248
543.394090	10807.248301
543.753640	10726.403316
544.113134	10953.109046
544.472571	10807.114710
544.831953	10946.752151
545.191278	10743.991902
545.550548	10783.897676
545.909761	10916.963973
546.268918	10892.453883
546.628019	10974.760802
546.987064	10840.245173
547.346053	10760.801630
547.704986	10857.740497
548.063863	10851.567605
548.422684	10841.339103
548.781449	10758.333985
549.140158	10859.033553
549.498811	10733.884389
549.857408	10588.926010
550.215949	10818.943778
550.574434	10671.971458
550.932864	10776.010791
551.291237	10832.476755
551.649555	10787.928078
552.007817	10792.568461
552.366022	10754.795095
552.724173	10753.300393
553.082267	10737.445964
553.440305	10873.927643
553.798288	10667.827629
554.156215	10819.450413
554.514086	10798.771600
554.871902	10650.589404
555.229661	10683.825731
555.587365	10663.734212
555.945014	10550.378827
556.302606	10690.386793
556.660143	10576.365975
557.017625	10735.101827
557.375050	10627.707606
557.732421	10758.331464
558.089735	10676.979844
558.446994	10673.572024
558.804197	10714.697757
559.161345	10711.405884
559.518437	10557.743953
559.875474	10648.920782
560.232455	10680.009578
560.589381	10636.038113
560.946251	10622.989086
561.303065	10735.313556
561.659825	10672.415079
562.016528	10601.864131
562.373177	10485.486574
562.729770	10595.736609
563.086307	10513.530513
563.442789	10601.687691
563.799216	10482.335853
564.155587	10535.111693
564.511904	10485.292490
564.868164	10478.083640
565.224370	10490.018571
565.580520	10413.088043
565.936615	10425.723695
566.292654	10291.949116
566.648638	10424.241596
567.004567	10376.796777
567.360441	10364.887051
567.716260	10274.239543
568.072023	10368.882165
568.427732	10327.504374
568.783385	10235.483152
569.138982	10299.846084
569.494525	10312.320419
569.850013	10193.931441
570.205445	10273.869018
570.560823	10168.675261
570.916145	10082.123690
571.271412	10159.172686
571.626625	10102.366443
571.981782	10076.787629
572.336884	10053.401716
572.691931	10055.329958
573.046923	9998.634621
573.401860	9960.034506
573.756743	9891.729392
574.111570	9935.607595
574.466342	9918.765100
574.821059	9951.623341
575.175722	9843.702319
575.530330	9848.435963
575.884882	9846.144758
576.239380	9770.832440
576.593823	9743.577442
576.948211	9763.406821
577.302544	9636.508375
577.656823	9658.581067
578.011047	9659.672477
578.365216	9633.692891
578.719330	9550.576867
579.073389	9569.304753
579.427394	9515.175364
579.781344	9491.381118
580.135239	9440.692316
580.489080	9449.347977
580.842866	9354.879275
581.196597	9364.628866
581.550273	9400.158918
581.903895	9370.464002
582.257463	9439.421945
582.610975	9314.600455
582.964434	9336.811779
583.317837	9259.147763
583.671186	9250.620651
584.024481	9225.301456
584.377721	9159.476590
584.730906	9128.246642
585.084037	9161.387187
585.437113	9105.430379
585.790135	9120.891598
586.143103	9018.288994
586.496016	8991.989294
586.848874	9052.767966
587.201679	9042.065596
587.554428	8929.342876
587.907124	8969.601530
588.259765	8944.539434
588.612352	8940.836706
588.964884	8817.857758
589.317362	8831.584820
589.669786	8833.550870
590.022155	8886.114981
590.374470	8899.602588
590.726731	8836.953649
591.078937	8685.366153
591.431090	8797.748596
591.783188	8674.147065
592.135232	8669.592383
592.487222	8668.521137
592.839157	8720.931493
593.191038	8651.451790
593.542866	8591.416689
593.894639	8498.735076
594.246358	8548.481182
594.598022	8565.401815
594.949633	8465.627298
595.301190	8440.842465
595.652692	8467.033780
596.004141	8576.353722
596.355535	8352.319803
596.706876	8338.728853
597.058162	8267.530116
597.409395	8344.758073
597.760573	8408.674862
598.111698	8316.207498
598.462768	8307.725757
598.813785	8266.418542
599.164748	8230.654076
599.515657	8226.389260
599.866511	8133.402657
600.217312	8258.551821
600.568060	8119.859597
600.918753	8225.885144
601.269392	8194.889610
601.619978	8105.154551
601.970510	8174.881270
602.320988	8162.729569
602.671412	8219.568579
603.021783	8157.716142
603.372100	8133.901731
603.722363	8135.446844
604.072572	8109.910880
604.422728	8117.868341
604.772830	8050.205974
605.122878	8058.274341
605.472872	8051.453660
605.822813	8082.945748
606.172701	8023.626490
606.522534	8101.345959
606.872314	8101.729087
607.222041	8071.792195
607.571714	8127.580124
607.921333	8078.212104
608.270899	8089.378260
608.620411	8180.988628
608.969870	8085.887261
609.319276	8074.693379
609.668627	8095.556194
610.017926	8130.980382
610.367171	8177.280860
610.716362	8153.017786
611.065500	8146.809605
611.414585	8168.085795
611.763616	8159.258735
612.112594	8141.037484
612.461518	8152.720358
612.810389	8219.072025
613.159207	8158.510123
613.507971	8103.400229
613.856682	8227.425217
614.205340	8174.966970
614.553945	8261.589117
614.902496	8160.279568
615.250994	8214.958443
615.599439	8189.041872
615.947830	8209.254378
616.296169	8178.261364
616.644454	8188.232766
616.992686	8187.625307
617.340864	8250.034792
617.688990	8147.139801
618.037063	8241.066579
618.385082	8195.466822
618.733048	8276.435315
619.080961	8214.726550
619.428821	8234.548367
619.776628	8233.605672
620.124382	8190.826440
620.472083	8171.992689
620.819731	8203.943522
621.167326	8095.803211
621.514868	8099.410156
621.862357	7988.915626
622.209793	8002.869539
622.557176	7940.344108
622.904506	7908.874705
623.251783	7846.712237
623.599007	7794.213661
623.946179	7804.837893
624.293297	7761.151254
624.640363	7678.511619
624.987376	7659.486304
625.334336	7611.141639
625.681243	7557.037455
626.028097	7541.845938
626.374899	7523.836416
626.721647	7518.301229
627.068343	7446.341278
627.414987	7418.562000
627.761577	7372.329578
628.108115	7409.729898
628.454600	7302.328116
628.801032	7351.471804
629.147412	7315.636762
629.493739	7298.645553
629.840014	7237.030050
630.186236	7293.735469
630.532405	7177.945206
630.878521	7231.174750
631.224585	7185.264962
631.570597	7113.393231
631.916556	7141.815257
632.262462	7137.958774
632.608316	7101.382682
632.954117	7080.008190
633.299866	7063.858854
633.645562	7057.630508
633.991206	6980.100083
634.336797	6921.968017
634.682336	6878.548559
635.027823	6847.626121
635.373257	6836.641447
635.718639	6765.725015
636.063968	6783.573220
636.409245	6674.394431
636.754470	6671.185737
637.099642	6631.665611
637.444762	6578.466314
637.789829	6587.056441
638.134845	6530.673655
638.479808	6513.258989
638.824719	6514.889803
639.169577	6446.138547
639.514383	6463.429704
639.859137	6392.495628
640.203839	6401.017699
640.548489	6386.973044
640.893086	6358.750145
641.237632	6335.727195
641.582125	6357.149578
641.926566	6328.278890
642.270955	6343.097362
642.615292	6336.571588
642.959576	6351.823599
643.303809	6333.980435
643.647990	6346.394277
643.992118	6335.512946
644.336195	6285.489576
644.680219	6306.511188
645.024192	6295.115660
645.368112	6392.840947
645.711981	6411.916674
646.055797	6487.985165
646.399562	6448.354134
646.743274	6577.531180
647.086935	6632.290714
647.430544	6627.005064
647.774101	6648.124978
648.117606	6655.666544
648.461059	6644.598691
648.804460	6603.288956
649.147810	6515.333424
649.491108	6485.457026
649.834354	6461.428366
650.177548	6370.954778
650.520690	6285.101407
650.863781	6269.836794
651.206820	6288.247087
651.549807	6215.714966
651.892742	6148.770963
652.235626	6157.136758
652.578458	6144.135622
652.921238	6051.259925
653.263967	6091.054793
653.606644	6028.983066
653.949269	6035.970105
654.291843	5977.747299
654.634365	6022.558115
654.976836	5978.861394
655.319255	5974.304191
655.661622	5955.034380
656.003938	5951.717301
656.346203	5912.542494
656.688416	5943.669099
657.030577	5892.934926
657.372687	5866.554568
657.714746	5858.647518
658.056753	5900.610083
658.398708	5838.732440
658.740612	5829.229865
659.082465	5872.046905
659.424266	5865.899218
659.766016	5867.484661
660.107715	5840.958110
660.449362	5856.389082
660.790958	5847.488924
661.132503	5837.925856
661.473996	5876.604108
661.815438	5864.160020
662.156829	5860.026274
662.498168	5847.821641
662.839456	5827.699875
663.180693	5862.103229
663.521879	5862.950143
663.863013	5850.962279
664.204097	5872.150249
664.545129	5912.640797
664.886110	5906.525877
665.227040	5942.822185
665.567918	5909.671557
665.908746	5936.316576
666.249522	5937.513850
666.590248	5923.118835
666.930922	5953.154030
667.271545	5970.114992
667.612118	5967.748170
667.952639	5940.367143
668.293109	5964.237006
668.633528	5922.098001
668.973896	5930.302479
669.314213	5913.434778
669.654480	5895.654629
669.994695	5890.857971
670.334859	5883.583586
670.674973	5872.737543
671.015035	5876.906578
671.355047	5874.887596
671.695008	5860.023753
672.034918	5837.913253
672.374777	5841.915929
672.714585	5828.662735
673.054342	5830.825390
673.394049	5826.941181
673.733705	5863.542479
674.073310	5844.978430
674.412864	5803.890505
674.752368	5800.210463
675.091820	5801.324558
675.431223	5740.656792
675.770574	5738.920115
676.109875	5689.544533
676.449125	5694.696592
676.788324	5663.995966
677.127473	5601.203353
677.466571	5594.155820
677.805619	5592.900573
678.144616	5573.645886
678.483562	5553.372886
678.822458	5519.745869
679.161303	5516.181773
679.500098	5501.058312
679.838842	5488.815869
680.177535	5496.017158
680.516179	5506.895968
680.854771	5517.898286
681.193314	5602.627479
681.531805	5710.682091
681.870247	5861.538620
682.208638	5967.037367
682.546978	5974.510878
682.885268	5948.669923
683.223508	5865.095154
683.561697	5812.291588
683.899836	5783.272186
684.237925	5737.586729
684.575963	5702.906112
684.913951	5662.092930
685.251889	5719.123503
685.589776	5688.506056
685.927614	5666.287170
686.265401	5737.233849
686.603137	5721.749945
686.940824	5793.624196
687.278460	5819.933978
687.616046	5827.452858
687.953582	5894.807715
688.291068	5878.444130
688.628504	5942.234890
688.965889	5903.289456
689.303224	5844.386094
689.640510	5796.066635
689.977745	5721.265994
690.314930	5626.431808
690.652065	5568.206481
690.989150	5475.177028
691.326185	5403.474176
691.663170	5346.609961
692.000105	5270.382673
692.336990	5190.906362
692.673825	5166.474410
693.010610	5099.724492
693.347345	5028.056928
693.684030	5014.639898
694.020665	4974.169514
694.357251	4883.958066
694.693786	4895.928286
695.030272	4860.312534
695.366707	4822.531607
695.703093	4790.626144
696.039429	4813.223116
696.375716	4797.708965
696.711952	4768.800468
697.048139	4756.434518
697.384276	4738.556066
697.720363	4749.271038
698.056400	4762.761166
698.392388	4709.098083
698.728326	4690.216442
699.064214	4668.443698
699.400053	4659.641844
699.735842	4626.143376
700.071581	4605.477166
700.407270	4578.093618
700.742910	4559.496802
701.078501	4503.666023
701.414042	4499.900281
701.749533	4473.764419
702.084974	4408.748658
702.420366	4465.023058
702.755709	4406.548194
703.091002	4354.052139
703.426246	4399.046957
703.761440	4355.486347
704.096584	4319.142148
704.431679	4336.844160
704.766725	4323.278415
705.101721	4305.089932
705.436668	4339.657124
705.771565	4287.418167
706.106413	4314.831962
706.441212	4349.782281
706.775961	4354.445349
707.110661	4337.650745
707.445311	4365.530846
707.779913	4388.629413
708.114465	4398.782297
708.448967	4421.792643
708.783421	4483.914782
709.117825	4524.816184
709.452180	4529.252399
709.786485	4579.674020
710.120742	4663.392462
710.454949	4646.103825
710.789107	4714.242581
711.123216	4790.432060
711.457275	4777.309936
711.791286	4853.496894
712.125247	4869.563052
712.459159	4772.064616
712.793023	4849.050597
713.126837	4806.283968
713.460602	4795.541269
713.794318	4720.286924
714.127985	4722.663828
714.461602	4642.885048
714.795171	4610.392291
715.128691	4545.341242
715.462162	4491.327799
715.795584	4440.916261
716.128957	4420.862551
716.462281	4372.021332
716.795556	4343.420345
717.128782	4306.544305
717.461960	4237.911516
717.795088	4247.855192
718.128167	4206.248028
718.461198	4148.307527
718.794180	4142.663955
719.127113	4125.829022
719.459997	4101.331535
719.792833	4056.548444
720.125619	4051.136766
720.458357	4013.113863
720.791046	4019.906818
721.123686	3992.092251
721.456278	3950.553144
721.788821	3965.074187
722.121315	3941.605096
722.453761	3915.252464
722.786158	3926.600101
723.118506	3948.450982
723.450805	3902.480701
723.783056	3925.206222
724.115259	3937.786422
724.447412	3944.889407
724.779518	3938.608130
725.111574	3948.105663
725.443582	3973.313953
725.775542	3955.362404
726.107453	4007.911392
726.439315	4005.753778
726.771129	4021.220038
727.102895	4061.065318
727.434612	4106.440744
727.766281	4114.844348
728.097901	4120.520687
728.429473	4127.795072
728.760996	4133.292450
729.092471	4125.947489
729.423897	4113.984831
729.755276	4119.310810
730.086606	4118.526910
730.417887	4154.732477
730.749120	4219.665059
731.080305	4285.023619
731.411442	4312.311385
731.742530	4278.974234
732.073570	4283.970018
732.404562	4340.887165
732.735506	4329.350485
733.066401	4293.003766
733.397249	4228.955906
733.728048	4149.101508
734.058798	4067.666709
734.389501	3996.304135
734.720156	3936.566462
735.050762	3887.657188
735.381320	3882.757186
735.711831	3830.964372
736.042293	3803.845484
736.372707	3825.003207
736.703073	3793.198568
737.033391	3786.559368
737.363661	3806.918068
737.693883	3829.633507
738.024056	3837.401925
738.354182	3833.936132
738.684260	3894.445101
739.014290	3916.805139
739.344272	3915.711209
739.674207	3958.326603
740.004093	3962.840956
740.333931	3953.968525
740.663722	3957.126808
740.993464	3953.976087
741.323159	3930.801903
741.652806	3904.466915
741.982405	3869.730845
742.311956	3843.723532
742.641460	3830.828260
742.970915	3808.884118
743.300323	3768.607819
743.629683	3733.279413
743.958996	3723.030747
744.288260	3696.128630
744.617477	3666.100997
744.946647	3651.058194
745.275768	3626.880820
745.604842	3621.945530
745.933869	3574.422573
746.262847	3568.254721
746.591778	3606.358282
746.920662	3577.898448
747.249498	3544.394940
747.578286	3590.783638
747.907027	3611.104529
748.235720	3606.489353
748.564365	3629.613125
748.892963	3631.576655
749.221514	3612.478243
749.550017	3588.598297
749.878473	3591.224739
750.206881	3559.679718
750.535242	3555.709810
750.863555	3556.370201
751.191821	3551.812998
751.520039	3533.296840
751.848210	3510.402440
752.176334	3543.679096
752.504411	3550.507339
752.832440	3509.474867
753.160421	3492.077845
753.488356	3501.900534
753.816243	3514.959643
754.144082	3471.275524
754.471875	3459.340592
754.799620	3475.394147
755.127318	3469.261583
755.454969	3467.635811
755.782572	3473.458344
756.110129	3449.843058
756.437638	3437.885442
756.765100	3455.978143
757.092515	3465.810913
757.419882	3470.010194
757.747203	3441.948612
758.074477	3446.752831
758.401703	3463.502065
758.728882	3481.415805
759.056014	3487.331599
759.383099	3493.335613
759.710138	3487.092144
760.037129	3506.898838
760.364073	3537.922098
760.690970	3521.039274
761.017820	3500.199144
761.344623	3515.935106
761.671379	3562.883372
761.998088	3614.686269
762.324751	3742.323243
762.651366	3990.509329
762.977935	4465.822081
763.304456	4914.686420
763.630931	5008.419114
763.957359	4646.796984
764.283740	4298.554076
764.610074	4105.331690
764.936362	3910.024787
765.262602	3750.600818
765.588796	3638.407418
765.914943	3549.743604
766.241044	3462.035089
766.567097	3433.383691
766.893104	3385.119684
767.219064	3354.804706
767.544978	3326.443174
767.870845	3267.943104
768.196665	3254.866351
768.522438	3260.681322
768.848165	3253.059097
769.173846	3220.498285
769.499479	3204.999257
769.825066	3183.448325
770.150607	3169.880059
770.476101	3185.951257
770.801548	3178.528158
771.126949	3131.809265
771.452303	3117.421812
771.777611	3123.655199
772.102872	3126.516054
772.428087	3104.937395
772.753256	3094.030858
773.078378	3084.949220
773.403453	3052.464024
773.728482	3039.009185
774.053465	3061.563307
774.378401	3047.528735
774.703291	3018.690814
775.028135	3016.177799
775.352932	3010.987931
775.677683	3002.168432
776.002388	2996.902947
776.327046	2998.405211
776.651658	2988.227121
776.976224	2975.367138
777.300743	2978.782520
777.625216	2968.576704
777.949643	2961.365333
778.274024	2964.682412
778.598359	2953.445680
778.922647	2960.130250
779.246889	2959.631176
779.571086	2944.379165
779.895236	2936.222578
780.219339	2948.558282
780.543397	2962.257617
780.867409	2963.868266
781.191374	2956.737554
781.515294	2952.341668
781.839167	2953.407872
782.162995	2946.917386
782.486776	2955.404169
782.810511	2953.155814
783.134201	2938.082764
783.457844	2944.240533
783.781441	2938.092846
784.104993	2917.487130
784.428498	2918.351688
784.751958	2931.652772
785.075372	2924.753953
785.398739	2909.859864
785.722061	2924.038109
786.045337	2937.137548
786.368568	2922.160280
786.691752	2912.418250
787.014891	2958.872483
787.337983	2991.972699
787.661030	3019.603263
787.984031	3086.819488
788.306987	3131.728607
788.629897	3126.841208
788.952760	3110.785133
789.275579	3094.749223
789.598351	3033.763864
789.921078	2989.192502
790.243759	2980.947695
790.566395	2962.870118
790.888984	2942.239195
791.211529	2924.375867
791.534027	2912.579567
791.856480	2905.794174
792.178888	2888.790362
792.501249	2879.877602
792.823566	2877.044473
793.145836	2874.155892
793.468062	2870.705222
793.790241	2867.650283
794.112375	2872.623381
794.434464	2888.195506
794.756507	2892.104920
795.078505	2896.296640
795.400457	2909.880029
795.722364	2948.301183
796.044226	2976.645070
796.366042	2975.523414
796.687812	2968.359934
797.009538	2982.694455
797.331218	2972.685244
797.652852	2955.961216
797.974442	2937.379523
798.295986	2936.361210
798.617484	2932.343410
798.938938	2913.371028
799.260346	2899.601116
799.581709	2896.052144
799.903026	2886.816750
800.224299	2881.725185
800.545526	2871.489122
800.866708	2855.009590
801.187845	2845.796881
801.508936	2847.533559
801.829983	2856.121164
802.150984	2840.367558
802.471940	2830.262566
802.792851	2826.965651
803.113717	2827.051351
803.434538	2833.362875
803.755314	2824.986998
804.076045	2821.322079
804.396731	2820.197902
804.717372	2820.306287
805.037967	2815.393682
805.358518	2819.897953
805.679024	2832.952021
805.999485	2827.515137
806.319901	2835.926302
806.640272	2824.487924
806.960598	2830.106290
807.280879	2839.445027
807.601115	2847.210925
807.921306	2832.858760
808.241453	2828.273830
808.561554	2840.458299
808.881611	2836.569049
809.201623	2833.229285
809.521590	2831.858091
809.841513	2828.452791
810.161390	2831.593430
810.481223	2825.259220
810.801011	2816.061635
811.120755	2812.774803
811.440453	2813.294042
811.760107	2813.525935
812.079716	2812.222797
812.399281	2804.310706
812.718801	2797.827782
813.038276	2792.917698
813.357707	2797.676547
813.677093	2806.203659
813.996434	2798.858698
814.315731	2793.565486
814.634983	2790.013993
814.954191	2791.054992
815.273354	2805.029070
815.592473	2815.769248
815.911547	2816.643888
816.230577	2823.570434
816.549562	2833.652742
816.868502	2830.083605
817.187399	2844.498784
817.506250	2858.878675
817.825058	2852.325175
818.143821	2866.369830
818.462539	2883.875237
818.781213	2909.380955
819.099843	2943.738939
819.418429	3000.338493
819.736970	3064.628328
820.055466	3138.488794
820.373919	3245.862850
820.692327	3384.970970
821.010691	3557.564954
821.329011	4002.698839
821.647286	4907.873300
821.965517	6301.926258
822.283704	7050.658592
822.601847	7030.650253
822.919945	6394.900259
823.237999	5881.151229
823.556010	5295.013751
823.873976	4735.821240
824.191897	4326.124146
824.509775	4029.369063
824.827609	3755.059718
825.145398	3629.824854
825.463144	3618.774644
825.780845	3710.173284
826.098502	3816.912155
826.416116	4098.480762
826.733685	4422.246347
827.051210	4486.269001
827.368692	4371.648286
827.686129	4100.885393
828.003522	3770.626801
828.320872	3514.135414
828.638177	3317.684169
828.955439	3176.730987
829.272656	3094.459356
829.589830	3022.234745
829.906960	2976.655153
830.224046	2928.033224
830.541088	2893.413100
830.858086	2877.903990
831.175041	2859.748274
831.491952	2864.401259
831.808819	2874.097919
832.125642	2898.255128
832.442421	2945.977211
832.759157	3025.115765
833.075849	3203.799463
833.392497	3485.685662
833.709101	3691.899102
834.025662	3645.210455
834.342179	3484.080055
834.658653	3303.163126
834.975083	3157.133502
835.291469	3058.621794
835.607811	2972.997796
835.924110	2911.152920
836.240366	2863.032586
836.556578	2816.021306
836.872746	2794.959365
837.188871	2772.380037
837.504952	2755.172058
837.820990	2746.597056
838.136984	2732.474263
838.452935	2724.174003
838.768842	2727.294478
839.084706	2743.882394
839.400526	2820.495330
839.716303	2956.435085
840.032037	3036.160933
840.347727	3020.223325
840.663373	2957.171093
840.978977	2884.127294
841.294537	2810.844041
841.610054	2762.045672
841.925527	2739.209245
842.240957	2719.334496
842.556344	2697.128213
842.871687	2681.588856
843.186987	2671.113339
843.502244	2667.098060
843.817458	2660.710918
844.132629	2650.474855
844.447756	2641.768782
844.762840	2636.450365
845.077881	2637.415746
845.392879	2635.858029
845.707833	2630.983233
846.022745	2624.550721
846.337613	2627.671195
846.652438	2626.768829
846.967221	2627.139354
847.281960	2622.914867
847.596656	2625.044754
847.911309	2623.086266
848.225919	2619.675925
848.540485	2616.361367
848.855009	2616.958743
849.169490	2617.409927
849.483928	2616.235338
849.798323	2613.929010
850.112675	2611.718464
850.426984	2614.322220
850.741251	2615.388424
851.055474	2612.673763
851.369654	2615.791716
851.683792	2616.502519
851.997887	2617.414968
852.311938	2613.124946
852.625947	2614.153341
852.939914	2614.377673
853.253837	2617.805657
853.567718	2613.112343
853.881555	2612.646036
854.195350	2615.983280
854.509103	2615.925307
854.822812	2614.100409
855.136479	2610.367435
855.450103	2612.373814
855.763685	2615.882457
856.077224	2613.558485
856.390720	2609.896087
856.704173	2614.286932
857.017584	2616.091665
857.330953	2617.258692
857.644278	2619.416306
857.957561	2621.145422
858.270802	2618.327417
858.584000	2614.478496
858.897155	2622.138529
859.210268	2617.019237
859.523339	2615.900101
859.836367	2609.636468
860.149352	2609.747373
860.462295	2612.101592
860.775195	2610.296859
861.088054	2608.986159
861.400869	2608.540017
861.713642	2605.175046
862.026373	2606.710078
862.339062	2609.732249
862.651708	2616.936058
862.964312	2619.776748
863.276873	2612.817436
863.589392	2620.918570
863.901869	2624.442336
864.214303	2625.662296
864.526696	2631.071454
864.839045	2630.532050
865.151353	2635.187556
865.463619	2634.575056
865.775842	2632.908954
866.088023	2634.322998
866.400162	2635.812659
866.712258	2634.587658
867.024313	2631.988944
867.336325	2630.007770
867.648296	2629.304529
867.960224	2634.320477
868.272110	2633.652524
868.583954	2629.259159
868.895755	2631.157153
869.207515	2632.079684
869.519233	2641.085706
869.830909	2638.469347
870.142542	2635.182515
870.454134	2635.661424
870.765684	2638.376086
871.077191	2641.337763
871.388657	2646.257930
871.700081	2642.744245
872.011463	2641.431025
872.322803	2646.182312
872.634101	2650.898312
872.945357	2656.060453
873.256571	2664.509427
873.567744	2660.095897
873.878874	2659.208654
874.189963	2658.313849
874.501010	2664.088491
874.812015	2668.612926
875.122979	2666.326763
875.433900	2660.761329
875.744780	2659.059940
876.055618	2665.142092
876.366415	2666.281393
876.677169	2667.332473
876.987882	2664.963131
877.298554	2660.620177
877.609183	2674.858916
877.919771	2682.639937
878.230317	2689.445495
878.540822	2698.874973
878.851285	2711.951726
879.161707	2736.439131
879.472087	2776.533948
879.782425	2822.718479
880.092722	2940.825152
880.402977	3132.827578
880.713191	3398.808938
881.023363	3695.468238
881.333494	3887.833628
881.643583	4063.157397
881.953631	4065.224270
882.263637	3882.081672
882.573602	3660.971623
882.883526	3527.290305
883.193408	3408.031728
883.503248	3306.094557
883.813048	3190.558872
884.122806	3072.064030
884.432522	2986.490444
884.742197	2921.310845
885.051831	2881.397510
885.361424	2846.190091
885.670975	2811.806901
885.980485	2779.349432
886.289954	2760.475352
886.599382	2745.792992
886.908768	2732.126424
887.218113	2713.874926
887.527417	2703.487629
887.836680	2691.756864
888.145901	2687.663447
888.455082	2680.315965
888.764221	2668.975889
889.073319	2659.213695
889.382376	2659.750578
889.691392	2661.756957
890.000366	2658.870897
890.309300	2658.376863
890.618193	2658.218067
890.927044	2666.145282
891.235855	2661.230157
891.544625	2662.545898
891.853353	2663.034890
892.162041	2669.497649
892.470687	2691.078828
892.779293	2701.947556
893.087858	2712.533979
893.396381	2737.089440
893.704864	2777.809360
894.013306	2849.965915
894.321707	2944.674073
894.630068	2997.601147
894.938387	3017.017151
895.246665	3010.725791
895.554903	2963.240642
895.863100	2919.450659
896.171256	2860.070908
896.479371	2799.564459
896.787446	2760.641710
897.095480	2738.407701
897.403473	2732.622977
897.711425	2718.331306
898.019336	2700.621733
898.327207	2685.289063
898.635038	2685.982222
898.942827	2681.530883
899.250576	2672.890345
899.558284	2660.589930
899.865952	2657.051040
900.173579	2651.213384
900.481165	2653.812099
900.788711	2642.305665
901.096216	2636.861219
901.403681	2635.578245
901.711105	2636.934316
902.018489	2631.807462
902.325832	2636.800725
902.633135	2638.711322
902.940397	2653.033240
903.247619	2689.773170
903.554800	2761.476021
903.861941	2888.142573
904.169041	3023.467307
904.476101	3084.314034
904.783121	3081.669949
905.090100	3022.098634
905.397039	2945.531069
905.703938	2866.384953
906.010796	2801.643935
906.317614	2751.436563
906.624391	2714.469782
906.931129	2686.909794
907.237826	2664.050682
907.544483	2642.895480
907.851099	2630.398460
908.157675	2619.353292
908.464211	2611.567229
908.770707	2602.674634
909.077163	2599.428131
909.383578	2595.097780
909.689954	2593.963520
909.996289	2592.529312
910.302584	2593.509816
910.608839	2586.369022
910.915054	2587.039495
911.221229	2592.017635
911.527363	2595.627101
911.833458	2591.886565
912.139513	2591.899168
912.445527	2592.839343
912.751502	2599.284458
913.057436	2606.180757
913.363331	2614.221397
913.669186	2624.286061
913.975000	2635.885756
914.280775	2652.196409
914.586510	2674.861437
914.892205	2708.821169
915.197859	2780.178702
915.503475	2865.142309
915.809050	2935.521858
916.114585	2951.766976
916.420081	2961.486321
916.725536	2972.644915
917.030952	2946.635082
917.336328	2897.572052
917.641665	2848.423322
917.946961	2796.353244
918.252218	2760.855959
918.557435	2733.532906
918.862612	2711.719833
919.167750	2692.752492
919.472848	2677.198011
919.777906	2660.302584
920.082925	2646.623413
920.387904	2636.566311
920.692843	2631.419293
920.997743	2630.852163
921.302603	2618.498816
921.607423	2613.641664
921.912204	2606.052207
922.216946	2602.256218
922.521647	2600.373347
922.826310	2599.660024
923.130932	2592.678026
923.435516	2586.353898
923.740059	2586.580750
924.044564	2582.888105
924.349028	2584.486151
924.653454	2572.823442
924.957840	2571.669017
925.262186	2570.073492
925.566493	2572.851168
925.870761	2567.789849
926.174989	2567.439489
926.479178	2566.726166
926.783328	2564.140054
927.087438	2560.306257
927.391509	2561.886658
927.695541	2560.505382
927.999533	2557.740309
928.303486	2557.591595
928.607400	2557.727706
928.911275	2556.046482
929.215110	2558.158725
929.518906	2555.557490
929.822663	2554.786193
930.126381	2554.463559
930.430060	2557.112686
930.733699	2556.747202
931.037299	2559.597974
931.340861	2560.467573
931.644383	2559.366081
931.947866	2555.431461
932.251309	2557.153015
932.554714	2557.374826
932.858080	2556.850546
933.161407	2554.095555
933.464694	2555.345761
933.767943	2557.624363
934.071153	2556.641338
934.374323	2556.076728
934.677455	2553.833415
934.980548	2552.310987
935.283602	2554.836605
935.586617	2550.632282
935.889593	2554.380380
936.192530	2552.343754
936.495428	2552.437015
936.798287	2557.694939
937.101108	2554.022458
937.403890	2556.837943
937.706632	2564.135013
938.009336	2565.828841
938.312002	2569.166084
938.614628	2572.710016
938.917216	2575.275963
939.219765	2576.695048
939.522275	2579.818043
939.824747	2577.015161
940.127179	2573.113308
940.429573	2569.418142
940.731929	2572.117680
941.034246	2565.029818
941.336524	2565.463357
941.638763	2567.757082
941.940964	2569.561815
942.243126	2566.128789
942.545250	2564.124931
942.847335	2565.082750
943.149381	2563.179714
943.451389	2561.281720
943.753359	2560.361709
944.055290	2555.623025
944.357182	2555.928014
944.659036	2558.188972
944.960851	2554.960113
945.262628	2557.105124
945.564367	2557.689898
945.866067	2555.928014
946.167729	2560.185269
946.469352	2557.518498
946.770937	2557.405072
947.072484	2556.001111
947.373992	2558.236863
947.675462	2554.990360
947.976893	2554.798796
948.278286	2554.090514
948.579641	2555.360885
948.880958	2551.549772
949.182236	2553.725030
949.483476	2554.521532
949.784678	2552.850390
950.085841	2554.927345
950.386967	2552.868034
950.688054	2552.552962
950.989103	2556.979095
951.290114	2554.236707
951.591087	2561.236349
951.892021	2555.751574
952.192917	2559.998746
952.493776	2559.358520
952.794596	2561.979920
953.095378	2561.077553
953.396122	2561.813562
953.696828	2559.817265
953.997496	2559.638304
954.298126	2553.747715
954.598718	2556.537994
954.899272	2556.603529
955.199788	2553.331820
955.500266	2554.072870
955.800706	2547.771428
956.101108	2544.444266
956.401472	2547.320244
956.701798	2543.168854
957.002087	2544.098947
957.302337	2546.115408
957.602550	2543.977959
957.902724	2544.792106
958.202861	2540.597866
958.502960	2542.463093
958.803022	2541.104502
959.103045	2541.873278
959.403031	2541.182639
959.702979	2539.345139
960.002889	2541.296065
960.302762	2538.805735
960.602596	2540.849923
960.902393	2541.674152
961.202153	2542.463092
961.501875	2541.633823
961.801559	2539.771116
962.101205	2538.120138
962.400814	2541.996786
962.700385	2538.442772
962.999918	2541.858154
963.299414	2538.452855
963.598873	2540.068544
963.898293	2539.566950
964.197677	2539.897145
964.497022	2539.171219
964.796331	2536.201979
965.095601	2535.607123
965.394835	2539.650129
965.694030	2537.484953
965.993189	2537.893287
966.292309	2537.484953
966.591393	2537.815149
966.890439	2538.344470
967.189447	2539.418236
967.488419	2538.382278
967.787353	2536.958152
968.086249	2538.969573
968.385108	2534.855991
968.683930	2538.762886
968.982714	2537.772299
969.281462	2537.794984
969.580172	2536.040663
969.878844	2536.491846
970.177480	2538.107536
970.476078	2539.710623
970.774639	2539.589635
971.073162	2537.046373
971.371649	2533.661238
971.670098	2532.842050
971.968510	2538.094933
972.266885	2532.869777
972.565223	2539.191384
972.863524	2538.399922
973.161788	2538.248688
973.460014	2537.905889
973.758204	2538.954449
974.056356	2540.350849
974.354471	2538.281455
974.652550	2535.579397
974.950591	2539.750952
975.248595	2539.929913
975.546563	2536.464119
975.844493	2538.548637
976.142386	2536.945550
976.440243	2537.827752
976.738062	2542.122815
977.035845	2535.377751
977.333590	2535.188708
977.631299	2538.520910
977.928971	2535.967566
978.226606	2536.438914
978.524204	2536.219623
978.821765	2538.483102
979.119290	2536.433873
979.416777	2536.227185
979.714228	2539.496373
980.011642	2539.214069
980.309020	2538.150385
980.606360	2537.061496
980.903664	2536.610313
981.200931	2539.004861
981.498162	2539.042670
981.795356	2540.247505
982.092513	2543.914945
982.389633	2546.768238
982.686717	2550.985163
982.983764	2551.517005
983.280775	2555.381049
983.577749	2554.362736
983.874686	2551.517005
984.171587	2546.218752
984.468451	2545.097095
984.765279	2545.157589
985.062070	2543.572146
985.358824	2540.988555
985.655543	2538.251208
985.952224	2541.071734
986.248869	2539.612320
986.545478	2533.605785
986.842050	2533.076464
987.138586	2534.908923
987.435086	2533.383974
987.731549	2529.295599
988.027975	2534.611495
988.324366	2533.600744
988.620719	2537.197607
988.917037	2535.007226
989.213318	2531.632173
989.509563	2533.119314
989.805772	2532.511855
990.101944	2533.129396
990.398080	2534.666948
990.694180	2534.356917
990.990244	2534.283820
991.286271	2532.683254
991.582262	2533.416742
991.878217	2532.282482
992.174136	2534.646783
992.470019	2532.519417
992.765865	2534.107380
993.061676	2534.372041
993.357450	2533.537730
993.653188	2532.242153
993.948890	2535.115611
994.244556	2535.024870
994.540186	2533.462112
994.835780	2535.700385
995.131337	2537.835313
995.426859	2534.689633
995.722345	2535.960004
996.017795	2537.338760
996.313208	2539.904707
996.608586	2538.220962
996.903928	2538.553678
997.199234	2536.375899
997.494504	2536.784233
997.789738	2535.430683
998.084936	2540.068544
998.380099	2537.303472
998.675225	2535.244160
998.970316	2534.767771
999.265371	2534.016639
999.560390	2534.130065
999.855373	2534.787936
1000.150320	2533.290713
1000.445232	2534.457740
1000.740108	2535.357586
1001.034948	2533.305837
1001.329752	2530.099663
1001.624521	2533.807431
1001.919254	2527.788294
1002.213951	2531.458254
1002.508613	2528.680578
1002.803239	2531.911957
1003.097829	2524.198992
1003.392384	2534.283820
1003.686903	2531.364992
1003.981386	2532.060672
1004.275834	2532.476567
1004.570246	2534.755168
1004.864623	2533.759540
1005.158964	2532.670651
1005.453270	2533.353728
1005.747540	2535.004705
1006.041775	2533.043697
1006.335974	2531.057482
1006.630138	2530.815507
1006.924266	2533.285672
1007.218359	2531.193593
1007.512416	2531.470857
1007.806438	2529.804755
1008.100425	2531.180990
1008.394376	2531.009591
1008.688292	2532.799201
1008.982172	2531.117976
1009.276017	2531.294416
1009.569827	2531.440610
1009.863602	2532.537061
1010.157341	2530.082019
1010.451045	2532.148892
1010.744714	2533.646114
1011.038347	2532.461443
1011.331945	2533.210055
1011.625508	2534.503111
1011.919036	2532.106042
1012.212528	2532.000178
1012.505986	2533.295754
1012.799408	2531.019673
1013.092795	2531.440610
1013.386147	2532.791639
1013.679464	2531.097811
1013.972745	2529.358613
1014.265992	2531.992616
1014.559204	2533.918337
1014.852380	2530.339117
1015.145521	2532.413552
1015.438628	2530.969262
1015.731699	2532.693336
1016.024736	2531.271731
1016.317737	2533.434386
1016.610703	2532.456402
1016.903635	2527.969775
1017.196531	2525.154291
1017.489393	2527.044723
1017.782219	2527.415248
1018.075011	2528.274765
1018.367768	2528.584796
1018.660490	2532.726104
1018.953177	2532.726104
1019.245829	2532.726104
