Dividing Wavelength (nm)	Counts (n)	Blue Motor Position (mm): 4.000000	Red Motor Position (mm): 0.000000	
326.493990	2064.965000
326.888308	2064.965000
327.282561	2064.965000
327.676750	2039.759231
328.070874	2040.160003
328.464933	2045.821218
328.858929	2053.493855
329.252859	2066.258056
329.646726	2081.933524
330.040528	2097.515731
330.434265	2113.985180
330.827938	2136.045269
331.221547	2154.828609
331.615091	2177.659994
332.008571	2195.830833
332.401986	2215.887064
332.795338	2238.322719
333.188625	2254.872827
333.581847	2275.153389
333.975006	2292.210133
334.368100	2309.844089
334.761129	2327.704898
335.154095	2343.206446
335.546996	2358.234125
335.939833	2371.910776
336.332606	2385.957951
336.725315	2394.606050
337.117960	2406.793040
337.510540	2417.351736
337.903056	2426.534198
338.295508	2431.018304
338.687896	2437.990220
339.080220	2442.129008
339.472480	2446.693772
339.864676	2454.023610
340.256807	2452.975050
340.648875	2456.763477
341.040879	2458.101903
341.432818	2459.954527
341.824694	2462.059209
342.216506	2458.704321
342.608253	2460.544342
342.999937	2458.245576
343.391557	2455.997222
343.783113	2455.530915
344.174605	2454.290791
344.566033	2454.084104
344.957397	2449.988166
345.348697	2448.629575
345.739934	2448.662343
346.131106	2448.853907
346.522215	2444.624379
346.913260	2441.629933
347.304241	2443.069183
347.695159	2440.415015
348.086012	2440.374686
348.476802	2438.307813
348.867528	2435.610796
349.258191	2428.850608
349.648789	2431.923192
350.039324	2426.950093
350.429796	2433.498552
350.820203	2429.561411
351.210548	2429.095104
351.600828	2428.880855
351.991045	2428.757347
352.381198	2427.338262
352.771288	2428.533016
353.161314	2429.440423
353.551276	2426.667789
353.941175	2428.616195
354.331010	2427.605443
354.720782	2428.585948
355.110490	2427.681061
355.500135	2425.828437
355.889717	2431.492173
356.279235	2429.301792
356.668689	2429.407656
357.058080	2429.702563
357.447408	2432.407142
357.836672	2432.129879
358.225873	2432.097111
358.615010	2430.849426
359.004084	2432.003850
359.393095	2434.794129
359.782043	2433.639704
360.170927	2431.978644
360.559748	2436.361927
360.948505	2433.780857
361.337199	2437.019798
361.725830	2434.779005
362.114398	2436.036773
362.502903	2435.026022
362.891344	2437.332350
363.279722	2436.775302
363.668037	2439.265632
364.056289	2436.427463
364.444478	2440.107505
364.832603	2438.857299
365.220665	2440.694799
365.608665	2436.903852
365.996601	2438.088523
366.384474	2438.985848
366.772284	2442.560026
367.160031	2439.742021
367.547715	2443.502722
367.935336	2439.061465
368.322893	2439.527772
368.710388	2438.345622
369.097820	2439.288317
369.485189	2437.468461
369.872495	2440.029367
370.259738	2441.335026
370.646918	2440.006682
371.034035	2444.140428
371.421090	2445.753597
371.808081	2442.653288
372.195010	2443.749738
372.581875	2442.491971
372.968678	2442.101281
373.355418	2442.640685
373.742096	2443.112032
374.128710	2444.458021
374.515262	2446.439194
374.901751	2446.270315
375.288177	2446.008175
375.674540	2444.848710
376.060841	2444.803340
376.447079	2446.245110
376.833254	2447.931376
377.219367	2448.690069
377.605417	2446.587908
377.991404	2447.961623
378.377329	2448.987497
378.763191	2448.221242
379.148991	2447.865841
379.534727	2449.403392
379.920402	2447.754935
380.306013	2448.977415
380.691563	2450.527570
381.077049	2449.622683
381.462474	2447.608742
381.847835	2449.663012
382.233134	2447.379369
382.618371	2448.022116
383.003545	2451.339196
383.388657	2449.413475
383.773706	2451.923969
384.158693	2450.618311
384.543618	2454.043775
384.928480	2452.743157
385.313280	2450.698969
385.698017	2450.807354
386.082692	2450.419185
386.467305	2453.196861
386.851856	2453.423713
387.236344	2451.225770
387.620770	2448.216201
388.005133	2449.862138
388.389435	2451.636624
388.773674	2448.627055
389.157851	2454.205092
389.541965	2453.602674
389.926018	2454.701645
390.310008	2454.444546
390.693936	2456.579475
391.077802	2453.968157
391.461606	2454.933538
391.845348	2455.619135
392.229027	2454.013528
392.612645	2454.084104
392.996200	2455.407407
393.379694	2455.427571
393.763125	2455.500668
394.146494	2455.515792
394.529801	2457.875052
394.913047	2456.849177
395.296230	2456.418158
395.679351	2456.413117
396.062410	2456.387911
396.445408	2456.501337
396.828343	2457.645679
397.211217	2456.960082
397.594028	2457.625514
397.976778	2457.920422
398.359466	2457.285237
398.742092	2458.452264
399.124656	2456.955041
399.507158	2457.025617
399.889598	2460.622480
400.271977	2454.252983
400.654294	2459.941925
401.036549	2459.762964
401.418742	2456.024948
401.800874	2459.127778
402.182944	2458.908488
402.564952	2459.878910
402.946898	2459.863787
403.328783	2460.625001
403.710606	2460.083077
404.092367	2460.899744
404.474067	2459.400001
404.855705	2460.171297
405.237282	2461.628191
405.618797	2462.424693
406.000250	2459.871348
406.381642	2460.534260
406.762972	2461.774384
407.144240	2455.546038
407.525447	2459.732717
407.906593	2457.191975
408.287677	2462.606174
408.668700	2464.045424
409.049661	2460.443519
409.430560	2462.853191
409.811399	2462.066771
410.192176	2462.606174
410.572891	2463.800928
410.953545	2461.970989
411.334138	2464.312605
411.714669	2463.080043
412.095139	2463.866463
412.475547	2461.154322
412.855894	2463.637090
413.236180	2462.999384
413.616405	2464.773871
413.996568	2466.046762
414.376670	2466.946608
414.756711	2461.454271
415.136691	2465.739252
415.516609	2465.875363
415.896466	2464.403346
416.276262	2466.006433
416.655997	2465.963583
417.035670	2466.054324
417.415283	2467.009622
417.794834	2463.576597
418.174324	2466.291258
418.553753	2464.942749
418.933121	2468.022894
419.312428	2465.320836
419.691674	2466.442492
420.070859	2466.525672
420.449983	2468.476598
420.829045	2466.276134
421.208047	2468.211937
421.586988	2468.098512
421.965867	2466.944087
422.344686	2466.611371
422.723444	2465.769498
423.102141	2464.300002
423.480777	2466.218161
423.859352	2466.714715
424.237866	2469.182360
424.616319	2466.686988
424.994712	2468.302678
425.373044	2469.472226
425.751314	2466.127420
426.129524	2466.321505
426.507673	2467.871660
426.885762	2465.134313
427.263789	2469.782257
427.641756	2466.553398
428.019662	2469.462144
428.397508	2467.206227
428.775292	2472.529686
429.153016	2469.409212
429.530679	2469.648666
429.908282	2468.965590
430.285824	2468.443831
430.663305	2469.956177
431.040726	2469.661269
431.418086	2469.799901
431.795385	2470.427525
432.172624	2470.530868
432.549802	2471.987762
432.926920	2471.309727
433.303977	2472.307875
433.680974	2470.848461
434.057910	2471.481126
434.434786	2470.422483
434.811601	2472.133955
435.188355	2468.395940
435.565050	2470.006588
435.941683	2470.147741
436.318257	2472.018009
436.694770	2470.367031
437.071222	2470.490539
437.447614	2472.224696
437.823946	2474.074799
438.200218	2472.832155
438.576429	2470.001547
438.952580	2470.649335
439.328670	2474.309213
439.704700	2472.559933
440.080670	2473.474902
440.456580	2473.187556
440.832429	2474.001703
441.208218	2473.205200
441.583947	2473.989100
441.959616	2471.939871
442.335224	2473.729480
442.710773	2471.687813
443.086261	2473.830303
443.461689	2471.970118
443.837057	2474.992289
444.212365	2475.151086
444.587612	2471.705457
444.962800	2472.315437
445.337927	2473.432052
445.712995	2470.906434
446.088002	2472.663276
446.462949	2474.957001
446.837837	2476.124028
447.212664	2474.704944
447.587431	2473.966415
447.962139	2474.967084
448.336786	2475.395582
448.711374	2474.316775
449.085901	2476.446662
449.460369	2473.278297
449.834776	2474.193267
450.209124	2473.739563
450.583412	2477.369193
450.957640	2474.049594
451.331808	2475.695530
451.705917	2476.486992
452.079965	2476.086220
452.453954	2474.893987
452.827883	2475.390541
453.201752	2475.256950
453.575562	2475.115798
453.949311	2479.075624
454.323001	2476.310551
454.696632	2477.280973
455.070202	2474.021867
455.443713	2476.849955
455.817164	2475.798874
456.190556	2477.931282
456.563888	2479.400778
456.937160	2477.835500
457.310373	2477.719554
457.683526	2475.105715
458.056619	2475.854327
458.429653	2476.784420
458.802628	2476.489512
459.175542	2477.059162
459.548398	2477.313741
459.921194	2474.581435
460.293930	2480.892960
460.666607	2474.949440
461.039224	2478.536221
461.411782	2477.331385
461.784280	2480.272898
462.156719	2476.739049
462.529099	2477.621251
462.901419	2477.780048
463.273680	2474.664614
463.645882	2476.819708
464.018024	2476.073617
464.390106	2475.975314
464.762130	2477.601087
465.134094	2475.549337
465.505999	2477.631333
465.877845	2478.881540
466.249631	2477.212918
466.621358	2478.914307
466.993026	2479.660398
467.364634	2479.133597
467.736184	2477.364152
468.107674	2478.904225
468.479105	2476.262660
468.850477	2478.679893
469.221790	2476.988586
469.593043	2479.307517
469.964238	2478.115284
470.335373	2478.263998
470.706449	2479.090748
471.077467	2478.773155
471.448425	2477.966570
471.819324	2477.011272
472.190164	2479.347846
472.560945	2480.928248
472.931667	2477.258288
473.302330	2479.678042
473.672934	2479.902373
474.043479	2481.079483
474.413965	2479.294914
474.784393	2479.282311
475.154761	2477.149903
475.525070	2479.642754
475.895321	2478.359780
476.265513	2478.720223
476.635645	2481.510501
477.005719	2479.330202
477.375734	2479.330202
477.745691	2478.790799
478.115588	2481.644092
478.485427	2481.699545
478.855207	2479.990593
479.224928	2479.781386
479.594591	2480.167034
479.964194	2480.043526
480.333739	2482.359936
480.703226	2480.764411
481.072653	2482.435553
481.442022	2479.695686
481.811333	2480.890439
482.180584	2477.102012
482.549777	2477.359111
482.918912	2474.520942
483.287988	2482.433033
483.657005	2478.765593
484.025964	2481.013948
484.394864	2480.794658
484.763706	2480.406489
485.132489	2481.888588
485.501213	2478.347177
485.869879	2481.182826
486.238487	2482.143166
486.607036	2480.877837
486.975527	2481.417240
487.343959	2478.384986
487.712333	2482.233907
488.080648	2479.912456
488.448905	2483.894967
488.817104	2478.697538
489.185244	2481.334061
489.553326	2482.170893
489.921350	2483.736171
490.289315	2480.293063
490.657222	2480.698876
491.025070	2481.137456
491.392861	2483.320276
491.760593	2480.953454
492.128267	2482.914463
492.495883	2481.986890
492.863440	2483.219452
493.230939	2480.295583
493.598380	2482.523773
493.965763	2480.202322
494.333088	2484.646099
494.700354	2478.090078
495.067563	2483.491675
495.434713	2482.165851
495.801805	2483.489154
496.168839	2483.411016
496.535815	2483.852117
496.902733	2480.719040
497.269593	2481.996973
497.636395	2484.058805
498.003139	2482.574185
498.369825	2484.802375
498.736453	2481.790285
499.103023	2481.818012
499.469535	2482.191057
499.835989	2482.599391
500.202385	2480.451859
500.568723	2478.687455
500.935003	2480.219966
501.301226	2479.236941
501.667390	2482.780872
502.033497	2480.809781
502.399546	2485.031747
502.765537	2482.110399
503.131470	2482.806078
503.497345	2483.625265
503.863163	2485.349340
504.228923	2481.452528
504.594625	2484.222642
504.960269	2482.916983
505.325856	2484.147025
505.691385	2481.734833
506.056856	2485.510657
506.422270	2483.476551
506.787625	2484.194916
507.152924	2481.442446
507.518164	2484.809937
507.883347	2482.110399
508.248472	2484.941007
508.613540	2483.176603
508.978550	2482.601911
509.343503	2483.756335
509.708398	2482.556541
510.073236	2484.174751
510.438016	2482.261633
510.802738	2483.327837
511.167403	2481.316417
511.532010	2481.830615
511.896561	2480.668629
512.261053	2483.209370
512.625488	2484.883033
512.989866	2483.526963
513.354186	2484.515029
513.718449	2482.095275
514.082655	2484.711634
514.446803	2483.237097
514.810894	2483.282467
515.174927	2484.401603
515.538904	2482.483444
515.902822	2484.731799
516.266684	2483.418578
516.630488	2482.581747
516.994235	2483.577374
517.357925	2483.348002
517.721558	2484.779690
518.085133	2486.105513
518.448651	2483.557210
518.812112	2481.634010
519.175516	2480.429174
519.538863	2479.110912
519.902152	2483.300111
520.265385	2483.884885
520.628560	2485.392190
520.991678	2482.551500
521.354739	2483.957982
521.717743	2485.233393
522.080690	2484.245327
522.443580	2484.555358
522.806413	2488.084166
523.169189	2485.881182
523.531908	2484.010914
523.894569	2483.083341
524.257174	2485.596357
524.619722	2486.309680
524.982213	2483.907570
525.344647	2483.877323
525.707025	2484.678867
526.069345	2482.559061
526.431608	2484.343630
526.793815	2484.759525
527.155964	2485.813126
527.518057	2483.952940
527.880093	2485.498054
528.242072	2484.792293
528.603995	2484.351192
528.965860	2485.614001
529.327669	2485.175420
529.689421	2483.945379
530.051117	2484.300780
530.412755	2481.863382
530.774337	2485.583754
531.135862	2486.531491
531.497331	2486.821357
531.858743	2484.729278
532.220098	2484.585605
532.581396	2482.193578
532.942638	2486.652478
533.303824	2486.614670
533.664953	2485.850935
534.026025	2485.155256
534.387040	2484.273054
534.747999	2486.685246
535.108902	2486.566779
535.469748	2484.212560
535.830537	2486.425626
536.191270	2483.113588
536.551947	2484.653661
536.912567	2479.894812
537.273131	2487.128867
537.633638	2479.630151
537.994089	2487.983343
538.354483	2483.080821
538.714821	2485.722385
539.075103	2487.600215
539.435328	2485.271202
539.795497	2487.015441
540.155609	2484.885554
540.515665	2485.782879
540.875665	2482.821201
541.235609	2486.995277
541.595496	2485.664412
541.955328	2484.673825
542.315102	2485.805564
542.674821	2485.573671
543.034483	2486.589464
543.394090	2486.276912
543.753640	2484.600729
544.113134	2483.796665
544.472571	2485.407313
544.831953	2483.910091
545.191278	2484.656181
545.550548	2486.959989
545.909761	2485.498054
546.268918	2487.330513
546.628019	2485.886223
546.987064	2485.944196
547.346053	2485.619042
547.704986	2485.669453
548.063863	2484.479741
548.422684	2487.388487
548.781449	2484.421768
549.140158	2485.790441
549.498811	2484.182313
549.857408	2486.355050
550.215949	2488.106851
550.574434	2484.517550
550.932864	2486.166007
551.291237	2485.800523
551.649555	2488.328662
552.007817	2485.727427
552.366022	2485.724906
552.724173	2485.959320
553.082267	2486.203816
553.440305	2484.885554
553.798288	2487.799341
554.156215	2486.551655
554.514086	2483.040492
554.871902	2482.932107
555.229661	2484.595688
555.587365	2479.930100
555.945014	2485.982005
556.302606	2484.814978
556.660143	2485.664412
557.017625	2485.752632
557.375050	2487.829588
557.732421	2486.375215
558.089735	2484.066366
558.446994	2488.603405
558.804197	2485.684577
559.161345	2485.442601
559.518437	2485.661892
559.875474	2486.453353
560.232455	2485.152735
560.589381	2481.775162
560.946251	2483.017806
561.303065	2486.723054
561.659825	2485.954278
562.016528	2488.389156
562.373177	2485.787920
562.729770	2484.247848
563.086307	2488.812613
563.442789	2486.276912
563.799216	2486.831439
564.155587	2487.423775
564.511904	2485.125009
564.868164	2486.970071
565.224370	2486.871768
565.580520	2485.787920
565.936615	2486.163486
566.292654	2487.217087
566.648638	2488.081645
567.004567	2488.268168
567.360441	2484.217601
567.716260	2485.785400
568.072023	2485.835811
568.427732	2487.920328
568.783385	2487.086018
569.138982	2485.412354
569.494525	2487.980822
569.850013	2487.484269
570.205445	2486.778507
570.560823	2484.096613
570.916145	2484.930924
571.271412	2486.896974
571.626625	2487.080976
571.981782	2484.535194
572.336884	2483.370687
572.691931	2481.621407
573.046923	2483.738691
573.401860	2481.288691
573.756743	2488.278250
574.111570	2486.007211
574.466342	2488.227839
574.821059	2485.326655
575.175722	2485.278764
575.530330	2487.524598
575.884882	2484.469659
576.239380	2488.210195
576.593823	2487.421254
576.948211	2485.893785
577.302544	2485.258599
577.656823	2487.592653
578.011047	2487.300267
578.365216	2487.091059
578.719330	2487.433857
579.073389	2484.474700
579.427394	2488.288333
579.781344	2485.608959
580.135239	2485.306490
580.489080	2485.737509
580.842866	2488.711790
581.196597	2485.218270
581.550273	2485.014103
581.903895	2484.562920
582.257463	2485.563589
582.610975	2487.519557
582.964434	2485.729947
583.317837	2484.343630
583.671186	2486.297077
584.024481	2486.400421
584.377721	2488.341265
584.730906	2486.173569
585.084037	2486.133239
585.437113	2487.920328
585.790135	2484.709113
586.143103	2486.183651
586.496016	2487.176758
586.848874	2486.712972
587.201679	2486.949906
587.554428	2487.365802
587.907124	2484.497385
588.259765	2487.305308
588.612352	2488.250524
588.964884	2486.813795
589.317362	2485.598877
589.669786	2487.834629
590.022155	2484.590646
590.374470	2483.438743
590.726731	2485.462766
591.078937	2482.324648
591.431090	2487.086018
591.783188	2482.894298
592.135232	2487.597695
592.487222	2487.963178
592.839157	2483.443784
593.191038	2485.982005
593.542866	2487.096100
593.894639	2487.406131
594.246358	2488.220277
594.598022	2486.309680
594.949633	2486.488641
595.301190	2486.476038
595.652692	2488.643734
596.004141	2485.835811
596.355535	2484.273054
596.706876	2483.975626
597.058162	2486.440750
597.409395	2486.153404
597.760573	2484.018475
598.111698	2488.860504
598.462768	2485.538383
598.813785	2486.450832
599.164748	2486.637355
599.515657	2486.350009
599.866511	2485.898826
600.217312	2487.224649
600.568060	2485.475369
600.918753	2486.430668
601.269392	2487.038127
601.619978	2488.237921
601.970510	2485.460245
602.320988	2487.154073
602.671412	2489.004177
603.021783	2486.997797
603.372100	2486.927221
603.722363	2487.222129
604.072572	2485.853455
604.422728	2488.676502
604.772830	2487.874958
605.122878	2488.152222
605.472872	2485.311531
605.822813	2486.801192
606.172701	2485.762715
606.522534	2487.816985
606.872314	2488.303456
607.222041	2484.109216
607.571714	2486.470997
607.921333	2481.167703
608.270899	2482.538897
608.620411	2480.179637
608.969870	2484.401603
609.319276	2487.174238
609.668627	2487.736326
610.017926	2487.138950
610.367171	2487.718682
610.716362	2484.018475
611.065500	2485.994608
611.414585	2485.513178
611.763616	2485.782879
612.112594	2485.677015
612.461518	2487.065853
612.810389	2485.137612
613.159207	2489.606594
613.507971	2486.241624
613.856682	2484.542755
614.205340	2484.179792
614.553945	2485.243476
614.902496	2485.571151
615.250994	2485.243476
615.599439	2484.338589
615.947830	2486.934783
616.296169	2487.264978
616.644454	2487.943014
616.992686	2486.697849
617.340864	2485.429998
617.688990	2486.090390
618.037063	2484.189875
618.385082	2485.029227
618.733048	2485.944196
619.080961	2486.344968
619.428821	2485.591315
619.776628	2484.557879
620.124382	2486.634834
620.472083	2486.135760
620.819731	2488.048878
621.167326	2486.203816
621.514868	2487.264978
621.862357	2485.382108
622.209793	2486.418065
622.557176	2485.606439
622.904506	2484.814978
623.251783	2487.862355
623.599007	2485.034268
623.946179	2486.498723
624.293297	2485.687097
624.640363	2485.707262
624.987376	2484.199957
625.334336	2483.617704
625.681243	2484.767087
626.028097	2481.308855
626.374899	2486.413023
626.721647	2489.031903
627.068343	2486.980153
627.414987	2484.820019
627.761577	2486.102993
628.108115	2486.886892
628.454600	2485.190544
628.801032	2486.254227
629.147412	2486.639875
629.493739	2486.302118
629.840014	2485.306490
630.186236	2484.799854
630.532405	2486.647437
630.878521	2486.193733
631.224585	2488.563076
631.570597	2486.634834
631.916556	2488.663899
632.262462	2487.600215
632.608316	2483.716006
632.954117	2485.064515
633.299866	2486.571820
633.645562	2485.840852
633.991206	2486.007211
634.336797	2488.626090
634.682336	2486.614670
635.027823	2484.935965
635.373257	2484.154587
635.718639	2487.509474
636.063968	2486.743219
636.409245	2484.593167
636.754470	2486.750781
637.099642	2487.927890
637.444762	2485.873620
637.789829	2486.836480
638.134845	2488.789928
638.479808	2482.929586
638.824719	2487.751450
639.169577	2484.520070
639.514383	2485.974443
639.859137	2485.404793
640.203839	2485.561068
640.548489	2486.045019
640.893086	2486.927221
641.237632	2486.274392
641.582125	2486.937303
641.926566	2483.627786
642.270955	2485.094762
642.615292	2478.223669
642.959576	2482.944710
643.303809	2481.127374
643.647990	2484.620893
643.992118	2485.798003
644.336195	2488.154742
644.680219	2487.219608
645.024192	2487.622900
645.368112	2486.523929
645.711981	2484.885554
646.055797	2482.848928
646.399562	2486.254227
646.743274	2487.325472
647.086935	2487.597695
647.430544	2486.758342
647.774101	2489.732623
648.117606	2485.556027
648.461059	2487.673312
648.804460	2485.997128
649.147810	2489.004177
649.491108	2482.760707
649.834354	2485.520739
650.177548	2485.372025
650.520690	2487.207005
650.863781	2484.865389
651.206820	2486.171048
651.549807	2484.033599
651.892742	2487.643065
652.235626	2487.005359
652.578458	2484.724237
652.921238	2487.569968
653.263967	2486.266830
653.606644	2488.731954
653.949269	2484.116778
654.291843	2485.596357
654.634365	2485.374546
654.976836	2484.320945
655.319255	2485.805564
655.661622	2483.836994
656.003938	2486.546614
656.346203	2485.495533
656.688416	2484.331027
657.030577	2483.713486
657.372687	2488.875627
657.714746	2482.972436
658.056753	2485.409834
658.398708	2486.700369
658.740612	2485.245996
659.082465	2485.704741
659.424266	2484.068887
659.766016	2480.623258
660.107715	2485.455204
660.449362	2479.247023
660.790958	2487.242293
661.132503	2483.106027
661.473996	2488.374032
661.815438	2486.060143
662.156829	2487.103662
662.498168	2485.982005
662.839456	2483.088383
663.180693	2487.411172
663.521879	2486.239104
663.863013	2486.163486
664.204097	2483.988228
664.545129	2483.569813
664.886110	2484.807416
665.227040	2483.834473
665.567918	2486.672643
665.908746	2486.511326
666.249522	2484.028558
666.590248	2486.118116
666.930922	2486.644917
667.271545	2483.010245
667.612118	2485.855976
667.952639	2484.026037
668.293109	2485.530822
668.633528	2484.628455
668.973896	2484.162148
669.314213	2483.652992
669.654480	2487.617859
669.994695	2485.432519
670.334859	2488.079125
670.674973	2485.172900
671.015035	2482.954792
671.355047	2485.414875
671.695008	2485.455204
672.034918	2484.817498
672.374777	2485.974443
672.714585	2486.360091
673.054342	2483.567292
673.394049	2486.826398
673.733705	2484.686428
674.073310	2485.475369
674.412864	2482.710296
674.752368	2484.693990
675.091820	2485.450163
675.431223	2487.322952
675.770574	2483.025368
676.109875	2484.671305
676.449125	2483.312714
676.788324	2482.135604
677.127473	2484.320945
677.466571	2480.696355
677.805619	2484.341109
678.144616	2484.951089
678.483562	2484.010914
678.822458	2484.373877
679.161303	2487.436378
679.500098	2484.454535
679.838842	2484.527632
680.177535	2484.288177
680.516179	2488.152222
680.854771	2486.453353
681.193314	2485.601398
681.531805	2483.360605
681.870247	2483.199288
682.208638	2486.269351
682.546978	2484.729278
682.885268	2486.665081
683.223508	2486.352530
683.561697	2484.862869
683.899836	2483.169041
684.237925	2485.447643
684.575963	2486.758343
684.913951	2487.824547
685.251889	2485.825729
685.589776	2484.174751
685.927614	2484.918321
686.265401	2485.543424
686.603137	2485.515698
686.940824	2483.010245
687.278460	2487.378404
687.616046	2482.680049
687.953582	2488.855463
688.291068	2484.487303
688.628504	2486.934783
688.965889	2485.351861
689.303224	2487.766573
689.640510	2484.575523
689.977745	2485.482931
690.314930	2482.468321
690.652065	2485.533342
690.989150	2485.785400
691.326185	2486.390338
691.663170	2484.772128
692.000105	2483.045533
692.336990	2484.489823
692.673825	2484.144504
693.010610	2483.118629
693.347345	2483.290029
693.684030	2479.254585
694.020665	2485.550986
694.357251	2477.074286
694.693786	2483.529483
695.030272	2484.177272
695.366707	2481.913794
695.703093	2487.020483
696.039429	2484.779690
696.375716	2486.347488
696.711952	2483.819350
697.048139	2485.334217
697.384276	2485.233393
697.720363	2484.159628
698.056400	2484.935965
698.392388	2484.905718
698.728326	2484.139463
699.064214	2482.359936
699.400053	2483.007724
699.735842	2482.390183
700.071581	2485.130050
700.407270	2485.230873
700.742910	2483.559730
701.078501	2486.286995
701.414042	2485.266161
701.749533	2482.032261
702.084974	2483.282467
702.420366	2483.864720
702.755709	2486.110554
703.091002	2482.856489
703.426246	2483.688280
703.761440	2486.536532
704.096584	2485.067035
704.431679	2484.920842
704.766725	2485.324134
705.101721	2487.786738
705.436668	2485.450163
705.771565	2484.094093
706.106413	2483.877323
706.441212	2486.246665
706.775961	2485.019144
707.110661	2483.963023
707.445311	2483.521922
707.779913	2485.329175
708.114465	2483.751294
708.448967	2484.469659
708.783421	2484.104175
709.117825	2482.617035
709.452180	2485.535863
709.786485	2483.070738
710.120742	2483.978146
710.454949	2481.288691
710.789107	2482.304483
711.123216	2477.633854
711.457275	2484.600729
711.791286	2480.482106
712.125247	2485.624083
712.459159	2484.872951
712.793023	2482.748105
713.126837	2486.680205
713.460602	2483.784062
713.794318	2484.315903
714.127985	2484.832622
714.461602	2484.527632
714.795171	2484.872951
715.128691	2481.641571
715.462162	2485.429998
715.795584	2483.912611
716.128957	2487.335555
716.462281	2483.574854
716.795556	2484.389000
717.128782	2484.850266
717.461960	2484.512508
717.795088	2483.214411
718.128167	2485.248517
718.461198	2484.257930
718.794180	2484.840183
719.127113	2485.044350
719.459997	2483.816829
719.792833	2483.957982
720.125619	2484.837663
720.458357	2483.063177
720.791046	2481.966726
721.123686	2483.968064
721.456278	2482.357415
721.788821	2484.257930
722.121315	2484.484782
722.453761	2482.208701
722.786158	2485.671974
723.118506	2481.031592
723.450805	2483.955461
723.783056	2483.363125
724.115259	2483.113588
724.447412	2485.031747
724.779518	2483.610142
725.111574	2484.149545
725.443582	2483.529483
725.775542	2483.436222
726.107453	2485.997128
726.439315	2483.037971
726.771129	2486.849083
727.102895	2480.494709
727.434612	2483.529483
727.766281	2479.211735
728.097901	2483.075780
728.429473	2483.516881
728.760996	2485.545945
729.092471	2484.383959
729.423897	2482.357415
729.755276	2482.916983
730.086606	2483.325317
730.417887	2484.381438
730.749120	2484.530153
731.080305	2484.658702
731.411442	2484.673825
731.742530	2482.720378
732.073570	2482.112919
732.404562	2483.153917
732.735506	2484.915801
733.066401	2480.779534
733.397249	2483.879844
733.728048	2484.207519
734.058798	2482.032261
734.389501	2485.417396
734.720156	2484.227683
735.050762	2484.245327
735.381320	2483.070738
735.711831	2484.242807
736.042293	2484.898157
736.372707	2480.552682
736.703073	2484.653661
737.033391	2483.809268
737.363661	2485.707262
737.693883	2484.908239
738.024056	2482.178454
738.354182	2482.911942
738.684260	2480.056128
739.014290	2483.756335
739.344272	2484.930924
739.674207	2484.842704
740.004093	2484.414206
740.333931	2486.450832
740.663722	2483.186685
740.993464	2483.491675
741.323159	2485.235914
741.652806	2483.600060
741.982405	2483.131232
742.311956	2483.539566
742.641460	2484.716675
742.970915	2484.341109
743.300323	2480.834987
743.629683	2479.922538
743.958996	2481.994452
744.288260	2480.716520
744.617477	2484.988897
744.946647	2483.708444
745.275768	2483.063177
745.604842	2483.138794
745.933869	2483.053094
746.262847	2483.095944
746.591778	2483.975626
746.920662	2483.209370
747.249498	2481.843218
747.578286	2484.555358
747.907027	2481.878506
748.235720	2480.434215
748.564365	2483.584936
748.892963	2482.657364
749.221514	2482.518732
749.550017	2483.617704
749.878473	2480.713999
750.206881	2486.528970
750.535242	2482.407827
750.863555	2480.409009
751.191821	2484.273054
751.520039	2484.268013
751.848210	2483.196767
752.176334	2483.544607
752.504411	2482.685090
752.832440	2482.445635
753.160421	2484.941007
753.488356	2484.283136
753.816243	2483.680718
754.144082	2481.896150
754.471875	2484.691469
754.799620	2481.805409
755.127318	2482.370018
755.454969	2483.617704
755.782572	2484.913280
756.110129	2480.749287
756.437638	2484.172231
756.765100	2483.179123
757.092515	2481.732312
757.419882	2482.412868
757.747203	2482.617035
758.074477	2479.413381
758.401703	2481.137456
758.728882	2484.764566
759.056014	2483.600060
759.383099	2486.430668
759.710138	2481.795327
760.037129	2477.984214
760.364073	2480.227528
760.690970	2478.004379
761.017820	2483.811788
761.344623	2481.951602
761.671379	2482.395224
761.998088	2481.875985
762.324751	2481.639051
762.651366	2482.012096
762.977935	2482.680049
763.304456	2485.866058
763.630931	2483.353043
763.957359	2483.620224
764.283740	2482.657364
764.610074	2482.163331
764.936362	2483.103506
765.262602	2483.020327
765.588796	2482.753146
765.914943	2483.489154
766.241044	2482.659884
766.567097	2482.672487
766.893104	2483.912611
767.219064	2482.717858
767.544978	2485.916470
767.870845	2482.969915
768.196665	2479.788947
768.522438	2481.976808
768.848165	2482.763228
769.173846	2480.202322
769.499479	2482.894298
769.825066	2483.050574
770.150607	2482.932107
770.476101	2481.253402
770.801548	2484.331027
771.126949	2481.500419
771.452303	2480.905563
771.777611	2481.911273
772.102872	2486.536532
772.428087	2482.047384
772.753256	2480.187198
773.078378	2484.041161
773.403453	2484.782210
773.728482	2483.665595
774.053465	2485.011583
774.378401	2482.614514
774.703291	2480.971098
775.028135	2479.481437
775.352932	2481.865903
775.677683	2484.641058
776.002388	2479.582260
776.327046	2477.389358
776.651658	2477.560757
776.976224	2476.547485
777.300743	2485.543424
777.625216	2481.767600
777.949643	2483.947899
778.274024	2479.536890
778.598359	2483.741212
778.922647	2481.417240
779.246889	2481.770121
779.571086	2480.255254
779.895236	2483.085862
780.219339	2484.688949
780.543397	2480.648464
780.867409	2482.425471
781.191374	2482.019658
781.515294	2482.087713
781.839167	2484.041161
782.162995	2482.884216
782.486776	2483.773979
782.810511	2481.513022
783.134201	2484.895636
783.457844	2480.020840
783.781441	2483.017806
784.104993	2480.726602
784.428498	2481.152579
784.751958	2481.818012
785.075372	2481.921355
785.398739	2479.640233
785.722061	2480.174596
786.045337	2480.837507
786.368568	2483.852117
786.691752	2481.243320
787.014891	2480.973618
787.337983	2483.025368
787.661030	2482.455718
787.984031	2479.667960
788.306987	2481.898670
788.629897	2482.266674
788.952760	2484.741881
789.275579	2479.554534
789.598351	2484.389000
789.921078	2482.382621
790.243759	2481.623927
790.566395	2481.984370
790.888984	2481.616366
791.211529	2482.279277
791.534027	2484.273054
791.856480	2481.291211
792.178888	2479.380614
792.501249	2478.538741
792.823566	2479.385655
793.145836	2476.824749
793.468062	2483.143835
793.790241	2480.585450
794.112375	2479.476396
794.434464	2484.376397
794.756507	2479.599904
795.078505	2482.803557
795.400457	2483.421099
795.722364	2482.755666
796.044226	2479.403299
796.366042	2483.262302
796.687812	2480.126705
797.009538	2481.911273
797.331218	2483.219452
797.652852	2483.378249
797.974442	2483.458907
798.295986	2480.015799
798.617484	2485.808085
798.938938	2480.708958
799.260346	2483.423619
799.581709	2479.544451
799.903026	2482.294401
800.224299	2480.751808
800.545526	2482.443115
800.866708	2478.957157
801.187845	2481.326499
801.508936	2481.475213
801.829983	2482.075111
802.150984	2484.371356
802.471940	2481.893629
802.792851	2481.376911
803.113717	2483.743733
803.434538	2482.352374
803.755314	2482.675008
804.076045	2481.671818
804.396731	2481.223156
804.717372	2481.820532
805.037967	2482.410347
805.358518	2479.660398
805.679024	2480.484627
805.999485	2480.814822
806.319901	2482.092755
806.640272	2480.834987
806.960598	2478.329533
807.280879	2477.979173
807.601115	2481.704586
807.921306	2480.429174
808.241453	2479.395737
808.561554	2477.399440
808.881611	2478.702579
809.201623	2477.757362
809.521590	2483.746253
809.841513	2482.014617
810.161390	2482.402786
810.481223	2481.260964
810.801011	2480.754328
811.120755	2481.311376
811.440453	2481.800368
811.760107	2480.098978
812.079716	2483.441263
812.399281	2477.797692
812.718801	2481.593680
813.038276	2478.480768
813.357707	2482.554020
813.677093	2480.456900
813.996434	2481.381952
814.315731	2479.158803
814.634983	2481.555872
814.954191	2479.892291
815.273354	2481.548310
815.592473	2480.822384
815.911547	2482.720378
816.230577	2480.257775
816.549562	2483.847076
816.868502	2480.262816
817.187399	2481.031592
817.506250	2479.804071
817.825058	2477.525469
818.143821	2482.120481
818.462539	2479.970429
818.781213	2480.025882
819.099843	2478.148052
819.418429	2482.370018
819.736970	2481.374390
820.055466	2481.427322
820.373919	2481.213073
820.692327	2481.691983
821.010691	2482.962354
821.329011	2479.539410
821.647286	2481.850779
821.965517	2481.444966
822.283704	2481.245841
822.601847	2481.525625
822.919945	2482.188537
823.237999	2481.008907
823.556010	2481.931438
823.873976	2481.419761
824.191897	2481.213073
824.509775	2478.392548
824.827609	2482.032261
825.145398	2474.929275
825.463144	2482.783393
825.780845	2480.504791
826.098502	2479.073103
826.416116	2480.227528
826.733685	2483.169041
827.051210	2481.429843
827.368692	2483.854638
827.686129	2480.318268
828.003522	2482.871613
828.320872	2481.502940
828.638177	2481.581077
828.955439	2481.563433
829.272656	2479.630151
829.589830	2480.230048
829.906960	2482.407827
830.224046	2481.533187
830.541088	2482.765749
830.858086	2479.972949
831.175041	2481.439925
831.491952	2482.732981
831.808819	2481.223156
832.125642	2479.413381
832.442421	2477.711992
832.759157	2479.567137
833.075849	2480.676190
833.392497	2481.306335
833.709101	2479.932620
834.025662	2479.257106
834.342179	2481.419761
834.658653	2480.184678
834.975083	2478.634523
835.291469	2482.987559
835.607811	2481.273567
835.924110	2481.611324
836.240366	2480.542600
836.556578	2481.139977
836.872746	2481.782724
837.188871	2480.290542
837.504952	2479.138638
837.820990	2480.686273
838.136984	2481.132415
838.452935	2478.001858
838.768842	2479.562095
839.084706	2481.865903
839.400526	2480.409009
839.716303	2477.401961
840.032037	2477.704430
840.347727	2474.036991
840.663373	2477.961529
840.978977	2474.498256
841.294537	2479.761221
841.610054	2483.025368
841.925527	2481.092086
842.240957	2480.378762
842.556344	2481.205512
842.871687	2479.942702
843.186987	2481.891108
843.502244	2478.642085
843.817458	2481.986890
844.132629	2480.771972
844.447756	2477.122177
844.762840	2478.233751
845.077881	2479.945223
845.392879	2478.747949
845.707833	2478.634523
846.022745	2478.632002
846.337613	2479.161324
846.652438	2481.555872
846.967221	2478.571509
847.281960	2479.753659
847.596656	2479.027733
847.911309	2481.013948
848.225919	2479.191571
848.540485	2481.293732
848.855009	2481.931438
849.169490	2481.722230
849.483928	2480.363639
849.798323	2481.568475
850.112675	2480.923207
850.426984	2481.167703
850.741251	2477.563278
851.055474	2478.079996
851.369654	2480.608135
851.683792	2480.043526
851.997887	2483.504278
852.311938	2478.027064
852.625947	2480.124184
852.939914	2479.105871
853.253837	2479.088227
853.567718	2477.956488
853.881555	2480.419092
854.195350	2481.651654
854.509103	2479.851962
854.822812	2479.438587
855.136479	2481.414719
855.450103	2481.994452
855.763685	2476.991107
856.077224	2476.542444
856.390720	2477.618731
856.704173	2476.708802
857.017584	2480.189719
857.330953	2480.371201
857.644278	2479.584781
857.957561	2483.443784
858.270802	2479.471355
858.584000	2480.514873
858.897155	2481.739874
859.210268	2478.649647
859.523339	2479.597383
859.836367	2478.818525
860.149352	2481.989411
860.462295	2478.695017
860.775195	2479.917497
861.088054	2479.005048
861.400869	2479.027733
861.713642	2479.342805
862.026373	2478.765593
862.339062	2480.419092
862.651708	2481.762559
862.964312	2480.845069
863.276873	2482.738022
863.589392	2481.311376
863.901869	2480.340954
864.214303	2479.667960
864.526696	2479.796509
864.839045	2479.156283
865.151353	2480.955974
865.463619	2478.516056
865.775842	2480.741725
866.088023	2480.393886
866.400162	2477.414564
866.712258	2477.492702
867.024313	2478.838690
867.336325	2482.657364
867.648296	2480.353557
867.960224	2482.667446
868.272110	2478.740387
868.583954	2478.498412
868.895755	2479.100830
869.207515	2479.380614
869.519233	2480.993783
869.830909	2482.246510
870.142542	2477.696868
870.454134	2481.455049
870.765684	2480.862713
871.077191	2478.947075
871.388657	2476.015644
871.700081	2476.860037
872.011463	2479.766262
872.322803	2476.376086
872.634101	2478.011941
872.945357	2482.034781
873.256571	2481.374390
873.567744	2477.452373
873.878874	2478.203504
874.189963	2481.381952
874.501010	2478.223669
874.812015	2478.198463
875.122979	2481.689462
875.433900	2480.570326
875.744780	2479.584781
876.055618	2480.847590
876.366415	2479.970429
876.677169	2477.051601
876.987882	2480.524956
877.298554	2478.037146
877.609183	2479.176447
877.919771	2478.669811
878.230317	2478.664770
878.540822	2483.978146
878.851285	2479.741056
879.161707	2480.240131
879.472087	2478.369863
879.782425	2478.957157
880.092722	2479.035295
880.402977	2479.315079
880.713191	2482.566623
881.023363	2479.403299
881.333494	2478.750470
881.643583	2479.138638
881.953631	2479.108392
882.263637	2478.027064
882.573602	2481.331540
882.883526	2478.548823
883.193408	2478.936992
883.503248	2476.862557
883.813048	2476.325675
884.122806	2478.374904
884.432522	2477.739718
884.742197	2478.448000
885.051831	2477.074286
885.361424	2478.879019
885.670975	2477.800212
885.980485	2479.872126
886.289954	2480.078814
886.599382	2476.918010
886.908768	2476.970942
887.218113	2477.139821
887.527417	2477.298617
887.836680	2474.163020
888.145901	2479.461272
888.455082	2479.330202
888.764221	2480.139307
889.073319	2479.141159
889.382376	2479.350367
889.691392	2478.614358
890.000366	2479.554534
890.309300	2478.440439
890.618193	2481.059318
890.927044	2479.892291
891.235855	2477.923720
891.544625	2478.916828
891.853353	2481.230717
892.162041	2478.054790
892.470687	2479.045377
892.779293	2477.711992
893.087858	2478.115284
893.396381	2478.261478
893.704864	2480.829946
894.013306	2476.426498
894.321707	2477.533031
894.630068	2478.387507
894.938387	2479.206694
895.246665	2478.332054
895.554903	2478.233751
895.863100	2479.725933
896.171256	2474.732670
896.479371	2478.788278
896.787446	2478.624441
897.095480	2478.959677
897.403473	2478.206025
897.711425	2481.029071
898.019336	2479.181488
898.327207	2479.234420
898.635038	2478.011941
898.942827	2478.730305
899.250576	2479.226859
899.558284	2478.921869
899.865952	2478.700058
900.173579	2480.482106
900.481165	2478.914307
900.788711	2480.751808
901.096216	2480.789616
901.403681	2477.729636
901.711105	2479.231900
902.018489	2479.070583
902.325832	2479.025213
902.633135	2474.132773
902.940397	2479.022692
903.247619	2475.902218
903.554800	2478.929431
903.861941	2478.072434
904.169041	2477.477578
904.476101	2476.744090
904.783121	2476.774337
905.090100	2479.173927
905.397039	2477.502784
905.703938	2478.717702
906.010796	2478.894143
906.317614	2478.954636
906.624391	2478.926910
906.931129	2476.068576
907.237826	2477.573360
907.544483	2478.402630
907.851099	2476.663432
908.157675	2477.596045
908.464211	2478.324492
908.770707	2475.816518
909.077163	2478.085037
909.383578	2477.780047
909.689954	2478.682414
909.996289	2479.761221
910.302584	2478.581591
910.608839	2478.374904
910.915054	2477.870788
911.221229	2476.479430
911.527363	2479.544451
911.833458	2478.868937
912.139513	2478.309369
912.445527	2481.686942
912.751502	2477.109574
913.057436	2479.799030
913.363331	2479.262147
913.669186	2479.504122
913.975000	2480.308186
914.280775	2477.459934
914.586510	2480.812302
914.892205	2476.897846
915.197859	2479.625110
915.503475	2479.562095
915.809050	2476.668473
916.114585	2478.432877
916.420081	2478.359780
916.725536	2475.929944
917.030952	2480.978660
917.336328	2478.679893
917.641665	2476.340798
917.946961	2473.220324
918.252218	2476.471868
918.557435	2475.856847
918.862612	2477.742239
919.167750	2475.851806
919.472848	2477.575881
919.777906	2477.825418
920.082925	2479.607466
920.387904	2480.005717
920.692843	2474.531024
920.997743	2477.099492
921.302603	2478.894142
921.607423	2478.188381
921.912204	2477.291056
922.216946	2478.276601
922.521647	2477.417084
922.826310	2479.488999
923.130932	2477.790130
923.435516	2477.921200
923.740059	2477.157465
924.044564	2475.783751
924.349028	2478.223669
924.653454	2478.236272
924.957840	2479.864565
925.262186	2478.659729
925.566493	2476.945737
925.870761	2477.127218
926.174989	2477.223000
926.479178	2476.126549
926.783328	2476.718885
927.087438	2476.633185
927.391509	2481.500419
927.695541	2475.723257
927.999533	2477.386837
928.303486	2477.427167
928.607400	2477.727115
928.911275	2476.665952
929.215110	2476.895325
929.518906	2477.822897
929.822663	2476.721405
930.126381	2479.294914
930.430060	2478.848772
930.733699	2477.223000
931.037299	2478.014461
931.340861	2477.001189
931.644383	2476.595376
931.947866	2479.589822
932.251309	2478.236272
932.554714	2476.466827
932.858080	2473.900880
933.161407	2474.120170
933.464694	2476.481950
933.767943	2475.332567
934.071153	2478.029585
934.374323	2476.544965
934.677455	2478.571509
934.980548	2479.824235
935.283602	2477.971611
935.586617	2474.299131
935.889593	2479.105871
936.192530	2476.129070
936.495428	2478.518577
936.798287	2476.673514
937.101108	2477.654019
937.403890	2475.698051
937.706632	2479.294914
938.009336	2476.529841
938.312002	2478.969760
938.614628	2477.003710
938.917216	2477.959008
939.219765	2478.022023
939.522275	2475.007413
939.824747	2478.566467
940.127179	2477.873309
940.429573	2476.708802
940.731929	2475.854327
941.034246	2480.179637
941.336524	2473.913483
941.638763	2477.147383
941.940964	2475.771148
942.243126	2476.555047
942.545250	2477.286014
942.847335	2476.691158
943.149381	2478.261478
943.451389	2479.181488
943.753359	2477.548154
944.055290	2477.694348
944.357182	2477.550675
944.659036	2476.492033
944.960851	2480.020840
945.262628	2478.374904
945.564367	2477.316261
945.866067	2476.486992
946.167729	2478.695017
946.469352	2475.360294
946.770937	2475.501446
947.072484	2476.408854
947.373992	2477.822897
947.675462	2476.398771
947.976893	2474.649491
948.278286	2472.219655
948.579641	2476.050932
948.880958	2474.208390
949.182236	2477.976653
949.483476	2476.096302
949.784678	2478.642085
950.085841	2476.935654
950.386967	2475.115798
950.688054	2477.013792
950.989103	2475.889615
951.290114	2477.946406
951.591087	2476.721405
951.892021	2477.588484
952.192917	2478.173257
952.493776	2477.626292
952.794596	2477.159986
953.095378	2478.649647
953.396122	2477.396920
953.696828	2476.610500
953.997496	2475.335088
954.298126	2478.327013
954.598718	2476.739049
954.899272	2477.719554
955.199788	2478.180819
955.500266	2473.353914
955.800706	2475.932465
956.101108	2476.950778
956.401472	2477.517908
956.701798	2475.511528
957.002087	2475.259471
957.302337	2477.228041
957.602550	2477.467496
957.902724	2477.205356
958.202861	2475.181333
958.502960	2477.303658
958.803022	2477.520428
959.103045	2476.867599
959.403031	2478.790799
959.702979	2476.716364
960.002889	2476.822228
960.302762	2478.316930
960.602596	2478.843731
960.902393	2475.677886
961.202153	2478.208546
961.501875	2477.182671
961.801559	2480.116622
962.101205	2478.052270
962.400814	2477.376755
962.700385	2476.814667
962.999918	2472.590180
963.299414	2473.510190
963.598873	2474.483133
963.898293	2472.219655
964.197677	2478.281642
964.497022	2475.443473
964.796331	2475.453555
965.095601	2474.644450
965.394835	2477.467496
965.694030	2478.072434
965.993189	2478.387507
966.292309	2476.842393
966.591393	2477.389358
966.890439	2476.567650
967.189447	2476.895325
967.488419	2475.836683
967.787353	2476.045891
968.086249	2475.224182
968.385108	2478.279122
968.683930	2475.211580
968.982714	2475.209059
969.281462	2477.096971
969.580172	2475.955150
969.878844	2473.558081
970.177480	2478.672332
970.476078	2476.076137
970.774639	2477.830459
971.073162	2477.134780
971.371649	2479.791468
971.670098	2477.487661
971.968510	2476.786940
972.266885	2479.151241
972.565223	2476.635706
972.863524	2473.457258
973.161788	2478.576550
973.460014	2476.723926
973.758204	2478.677373
974.056356	2476.728967
974.354471	2477.326344
974.652550	2476.212249
974.950591	2476.383648
975.248595	2478.193422
975.546563	2474.984728
975.844493	2478.299286
976.142386	2477.563278
976.440243	2477.623772
976.738062	2477.527990
977.035845	2476.567650
977.333590	2477.185191
977.631299	2476.960860
977.928971	2475.020016
978.226606	2473.623616
978.524204	2475.014975
978.821765	2471.934830
979.119290	2476.275263
979.416777	2476.171919
979.714228	2480.035964
980.011642	2475.708133
980.309020	2476.237454
980.606360	2477.785089
980.903664	2475.834162
981.200931	2476.008082
981.498162	2476.111426
981.795356	2476.587815
982.092513	2476.297948
982.389633	2474.863740
982.686717	2479.909935
982.983764	2475.884574
983.280775	2476.023205
983.577749	2477.654019
983.874686	2477.217959
984.171587	2476.000520
984.468451	2476.124028
984.765279	2475.657722
985.062070	2472.252422
985.358824	2476.991107
985.655543	2477.475058
985.952224	2474.594038
986.248869	2476.739049
986.545478	2476.171919
986.842050	2475.403143
987.138586	2477.230562
987.435086	2477.343988
987.731549	2477.124697
988.027975	2475.619913
988.324366	2475.501446
988.620719	2475.360294
988.917037	2476.539924
989.213318	2476.416415
989.509563	2472.282669
989.805772	2477.389358
990.101944	2475.279635
990.398080	2478.248875
990.694180	2479.201653
990.990244	2476.096302
991.286271	2475.934985
991.582262	2475.461117
991.878217	2476.476909
992.174136	2474.856178
992.470019	2475.345170
992.765865	2471.733183
993.061676	2472.375931
993.357450	2474.674697
993.653188	2470.606486
993.948890	2475.940026
994.244556	2474.029429
994.540186	2473.968935
994.835780	2473.822742
995.131337	2475.216621
995.426859	2477.200315
995.722345	2477.003710
996.017795	2476.444142
996.313208	2475.188894
996.608586	2474.720067
996.903928	2479.287353
997.199234	2476.892804
997.494504	2475.826600
997.789738	2474.657053
998.084936	2474.828452
998.380099	2477.951447
998.675225	2477.913638
998.970316	2479.158803
999.265371	2475.761065
999.560390	2477.454893
999.855373	2480.146869
1000.150320	2473.464820
1000.445232	2477.631333
1000.740108	2474.707464
1001.034948	2477.318782
1001.329752	2477.081848
1001.624521	2477.674183
1001.919254	2476.965901
1002.213951	2475.680407
1002.508613	2478.011941
1002.803239	2474.142855
1003.097829	2474.732670
1003.392384	2476.179481
1003.686903	2476.910448
1003.981386	2475.773668
1004.275834	2474.165540
1004.570246	2474.684779
1004.864623	2476.111426
1005.158964	2477.182671
1005.453270	2474.193267
1005.747540	2474.523462
1006.041775	2475.992958
1006.335974	2476.058493
1006.630138	2475.072948
1006.924266	2474.546147
1007.218359	2476.492033
1007.512416	2473.762248
1007.806438	2471.758389
1008.100425	2474.503297
1008.394376	2470.649335
1008.688292	2476.542444
1008.982172	2475.685448
1009.276017	2475.080510
1009.569827	2474.606641
1009.863602	2475.088071
1010.157341	2476.844913
1010.451045	2474.316775
1010.744714	2475.451034
1011.038347	2476.670994
1011.331945	2477.046560
1011.625508	2476.837352
1011.919036	2472.743935
1012.212528	2475.766107
1012.505986	2476.058493
1012.799408	2475.544296
1013.092795	2473.280818
1013.386147	2475.604790
1013.679464	2476.648308
1013.972745	2476.199646
1014.265992	2474.657053
1014.559204	2476.877681
1014.852380	2477.694348
1015.145521	2475.014975
1015.438628	2474.341981
1015.731699	2476.915490
1016.024736	2475.302320
1016.317737	2474.699902
1016.610703	2474.788123
1016.903635	2475.375417
1017.196531	2473.094295
1017.489393	2474.634367
1017.782219	2474.468009
1018.075011	2474.561271
1018.367768	2476.224852
1018.660490	2475.564460
1018.953177	2475.564460
1019.245829	2475.564460
