Dividing Wavelength (nm)	Counts (n)	Blue Motor Position (mm): 15.900000	Red Motor Position (mm): 0.000000	
326.493990	2136.418315
326.888308	2136.418315
327.282561	2136.418315
327.676750	2104.235589
328.070874	2102.430856
328.464933	2105.543768
328.858929	2108.981835
329.252859	2120.697477
329.646726	2132.965124
330.040528	2147.841569
330.434265	2165.735145
330.827938	2180.939265
331.221547	2198.701771
331.615091	2218.826057
332.008571	2235.429097
332.401986	2256.624628
332.795338	2274.805550
333.188625	2295.355813
333.581847	2314.363484
333.975006	2330.850578
334.368100	2350.942096
334.761129	2369.644777
335.154095	2385.297560
335.546996	2402.954201
335.939833	2422.917170
336.332606	2438.607762
336.725315	2452.450770
337.117960	2459.271451
337.510540	2467.753193
337.903056	2479.357929
338.295508	2487.675833
338.687896	2494.032727
339.080220	2504.853564
339.472480	2509.740963
339.864676	2517.718589
340.256807	2519.510719
340.648875	2522.245545
341.040879	2524.292253
341.432818	2526.296112
341.824694	2527.616894
342.216506	2530.344159
342.608253	2526.961544
342.999937	2530.732328
343.391557	2527.417769
343.783113	2526.769981
344.174605	2525.897861
344.566033	2524.622449
344.957397	2521.070956
345.348697	2523.503313
345.739934	2520.463497
346.131106	2516.289422
346.522215	2517.630369
346.913260	2512.448062
347.304241	2513.736077
347.695159	2512.392610
348.086012	2509.627537
348.476802	2506.801970
348.867528	2506.539830
349.258191	2503.126969
349.648789	2503.835251
350.039324	2501.123110
350.429796	2500.747544
350.820203	2495.666061
351.210548	2496.313850
351.600828	2497.337204
351.991045	2497.672441
352.381198	2496.076915
352.771288	2497.100270
353.161314	2494.405773
353.551276	2495.968531
353.941175	2495.018273
354.331010	2496.954076
354.720782	2493.941987
355.110490	2493.742861
355.500135	2492.699342
355.889717	2497.344766
356.279235	2495.819817
356.668689	2497.309477
357.058080	2496.729745
357.447408	2493.148005
357.836672	2495.116576
358.225873	2493.296719
358.615010	2493.846205
359.004084	2498.209323
359.393095	2498.191679
359.782043	2498.305105
360.170927	2500.460199
360.559748	2501.849037
360.948505	2499.469612
361.337199	2502.232164
361.725830	2502.489263
362.114398	2502.038080
362.502903	2502.580004
362.891344	2503.303409
363.279722	2502.176712
363.668037	2501.768378
364.056289	2503.910868
364.444478	2502.297699
364.832603	2506.360869
365.220665	2501.508759
365.608665	2504.213338
365.996601	2508.891528
366.384474	2503.563029
366.772284	2504.213338
367.160031	2504.523369
367.547715	2508.722650
367.935336	2507.560664
368.322893	2509.085613
368.710388	2508.647032
369.097820	2509.584687
369.485189	2509.763648
369.872495	2506.630571
370.259738	2510.902949
370.646918	2508.934378
371.034035	2508.221055
371.421090	2511.283556
371.808081	2511.989317
372.195010	2511.084430
372.581875	2510.476971
372.968678	2510.948319
373.355418	2511.482682
373.742096	2512.281704
374.128710	2513.539472
374.515262	2511.835562
374.901751	2510.426560
375.288177	2511.961591
375.674540	2512.392610
376.060841	2510.315654
376.447079	2516.906963
376.833254	2510.529903
377.219367	2508.105108
377.605417	2510.628206
377.991404	2510.643329
378.377329	2511.437311
378.763191	2510.063597
379.148991	2514.525018
379.534727	2514.519977
379.920402	2515.618948
380.306013	2515.213135
380.691563	2513.821777
381.077049	2514.023423
381.462474	2517.413599
381.847835	2515.097189
382.233134	2516.544000
382.618371	2517.481655
383.003545	2515.747498
383.388657	2516.639782
383.773706	2518.283198
384.158693	2515.109792
384.543618	2519.306552
384.928480	2516.317148
385.313280	2517.322858
385.698017	2517.786644
386.082692	2518.073990
386.467305	2518.094155
386.851856	2520.949968
387.236344	2521.509537
387.620770	2521.353261
388.005133	2517.111130
388.389435	2520.949968
388.773674	2520.392921
389.157851	2516.969977
389.541965	2518.608353
389.926018	2517.993332
390.310008	2519.911491
390.693936	2519.503157
391.077802	2519.787983
391.461606	2523.425175
391.845348	2521.559948
392.229027	2520.365195
392.612645	2522.031296
392.996200	2521.191944
393.379694	2523.072294
393.763125	2521.156656
394.146494	2522.439629
394.529801	2523.362161
394.913047	2522.991636
395.296230	2525.176976
395.679351	2521.996008
396.062410	2521.673374
396.445408	2524.677902
396.828343	2525.139167
397.211217	2521.159176
397.594028	2520.818898
397.976778	2520.771007
398.359466	2522.396780
398.742092	2520.614732
399.124656	2524.894671
399.507158	2526.328880
399.889598	2524.574558
400.271977	2525.497089
400.654294	2527.364837
401.036549	2526.744775
401.418742	2521.867458
401.800874	2525.058509
402.182944	2525.504651
402.564952	2525.862573
402.946898	2524.909795
403.328783	2526.066740
403.710606	2525.618077
404.092367	2523.717562
404.474067	2528.423479
404.855705	2524.826616
405.237282	2526.331400
405.618797	2529.121679
406.000250	2524.950124
406.381642	2527.349713
406.762972	2528.035310
407.144240	2528.136133
407.525447	2531.818696
407.906593	2529.378778
408.287677	2525.585309
408.668700	2527.450536
409.049661	2529.169570
409.430560	2530.318953
409.811399	2531.148223
410.192176	2528.171421
410.572891	2530.790301
410.953545	2529.119158
411.334138	2527.667306
411.714669	2530.949097
412.095139	2531.911958
412.475547	2527.828623
412.855894	2531.276772
413.236180	2532.408511
413.616405	2533.867925
413.996568	2530.444982
414.376670	2530.152595
414.756711	2529.202337
415.136691	2531.201155
415.516609	2531.712832
415.896466	2529.124199
416.276262	2533.192411
416.655997	2528.839374
417.035670	2527.178314
417.415283	2531.286854
417.794834	2528.541946
418.174324	2531.846422
418.553753	2535.140817
418.933121	2532.093439
419.312428	2531.922040
419.691674	2532.504293
420.070859	2531.548994
420.449983	2531.385157
420.829045	2531.501103
421.208047	2533.406660
421.586988	2533.540250
421.965867	2534.389685
422.344686	2534.253573
422.723444	2532.088398
423.102141	2533.998995
423.480777	2532.126207
423.859352	2531.775846
424.237866	2533.459592
424.616319	2534.021680
424.994712	2536.380940
425.373044	2534.470343
425.751314	2536.144006
426.129524	2533.754499
426.507673	2534.384643
426.885762	2535.198790
427.263789	2535.339942
427.641756	2532.443799
428.019662	2536.517052
428.397508	2534.974458
428.775292	2536.428831
429.153016	2536.189377
429.530679	2535.440765
429.908282	2535.889428
430.285824	2534.177956
430.663305	2535.009747
431.040726	2534.611495
431.418086	2534.291382
431.795385	2538.321785
432.172624	2538.735159
432.549802	2539.698020
432.926920	2537.157278
433.303977	2536.559901
433.680974	2538.001671
434.057910	2537.545447
434.434786	2539.098122
434.811601	2537.863040
435.188355	2535.526465
435.565050	2540.209697
435.941683	2540.423946
436.318257	2536.544778
436.694770	2532.259797
437.071222	2537.442103
437.447614	2535.569315
437.823946	2534.019160
438.200218	2538.044521
438.576429	2539.410674
438.952580	2539.221631
439.328670	2538.546116
439.704700	2540.597866
440.080670	2536.718698
440.456580	2536.794315
440.832429	2540.436549
441.208218	2540.045859
441.583947	2539.322454
441.959616	2536.368338
442.335224	2540.434028
442.710773	2540.078627
443.086261	2540.406302
443.461689	2538.561239
443.837057	2538.289017
444.212365	2539.551826
444.587612	2540.050900
444.962800	2540.968390
445.337927	2540.547454
445.712995	2542.886549
446.088002	2537.737011
446.462949	2539.720705
446.837837	2540.151723
447.212664	2538.447813
447.587431	2541.066693
447.962139	2541.762372
448.336786	2540.310520
448.711374	2544.267826
449.085901	2541.154913
449.460369	2540.852444
449.834776	2541.490150
450.209124	2542.793288
450.583412	2540.474357
450.957640	2542.430325
451.331808	2542.853782
451.705917	2539.972763
452.079965	2542.924358
452.453954	2542.311858
452.827883	2540.870088
453.201752	2539.922351
453.575562	2543.214224
453.949311	2541.505273
454.323001	2543.942671
454.696632	2541.608617
455.070202	2545.432332
455.443713	2546.180943
455.817164	2541.104502
456.190556	2539.992927
456.563888	2541.404450
456.937160	2539.824048
457.310373	2545.931406
457.683526	2543.783875
458.056619	2542.531148
458.429653	2545.061807
458.802628	2545.641540
459.175542	2544.091385
459.548398	2544.930737
459.921194	2542.967208
460.293930	2546.639688
460.666607	2543.370500
461.039224	2542.299255
461.411782	2545.018958
461.784280	2546.004503
462.156719	2541.774975
462.529099	2545.800336
462.901419	2545.739843
463.273680	2546.730429
463.645882	2545.696993
464.018024	2544.219935
464.390106	2545.636499
464.762130	2546.773279
465.134094	2544.300593
465.505999	2547.804195
465.877845	2546.438042
466.249631	2546.468289
466.621358	2546.511139
466.993026	2550.821326
467.364634	2549.954247
467.736184	2546.725388
468.107674	2548.819988
468.479105	2545.094575
468.850477	2545.497867
469.221790	2549.903836
469.593043	2544.146838
469.964238	2544.741694
470.335373	2548.550286
470.706449	2546.937117
471.077467	2545.195398
471.448425	2549.296377
471.819324	2547.736139
472.190164	2550.004659
472.560945	2548.146993
472.931667	2548.603218
473.302330	2548.746891
473.672934	2545.268495
474.043479	2549.319062
474.413965	2547.395862
474.784393	2542.518545
475.154761	2546.521221
475.525070	2545.573484
475.895321	2546.369987
476.265513	2546.453166
476.635645	2549.770245
477.005719	2549.929041
477.375734	2549.563558
477.745691	2550.541542
478.115588	2549.089689
478.485427	2549.440049
478.855207	2551.547252
479.224928	2551.932900
479.594591	2552.900802
479.964194	2549.016592
480.333739	2552.789896
480.703226	2553.480534
481.072653	2552.593291
481.442022	2551.300235
481.811333	2552.043805
482.180584	2551.635472
482.549777	2551.015410
482.918912	2549.586243
483.287988	2554.322407
483.657005	2550.352498
484.025964	2551.726213
484.394864	2550.140770
484.763706	2553.094886
485.132489	2552.673950
485.501213	2553.546069
485.869879	2551.277550
486.238487	2551.587581
486.607036	2550.765873
486.975527	2552.842828
487.343959	2551.327962
487.712333	2552.197561
488.080648	2553.127653
488.448905	2553.142777
488.817104	2553.409958
489.185244	2553.931718
489.553326	2551.869886
489.921350	2549.966850
490.289315	2553.137736
490.657222	2554.264434
491.025070	2552.142108
491.392861	2552.280740
491.760593	2552.389124
492.128267	2553.462890
492.495883	2553.084804
492.863440	2554.231666
493.230939	2553.455328
493.598380	2555.504558
493.965763	2548.492313
494.333088	2552.878116
494.700354	2551.738816
495.067563	2550.957437
495.434713	2549.772766
495.801805	2554.055226
496.168839	2554.481203
496.535815	2553.137736
496.902733	2554.566903
497.269593	2553.840977
497.636395	2554.818961
498.003139	2555.940617
498.369825	2553.382232
498.736453	2554.574465
499.103023	2556.462377
499.469535	2559.978582
499.835989	2556.076728
500.202385	2553.611604
500.568723	2556.124619
500.935003	2558.362892
501.301226	2559.224929
501.667390	2557.125288
502.033497	2555.993549
502.399546	2558.478838
502.765537	2558.793910
503.131470	2557.432799
503.497345	2558.516647
503.863163	2557.904147
504.228923	2555.376008
504.594625	2560.092008
504.960269	2558.872048
505.325856	2558.824157
505.691385	2558.519167
506.056856	2559.517316
506.422270	2558.647717
506.787625	2556.517829
507.152924	2560.596123
507.518164	2558.191492
507.883347	2555.935576
508.248472	2558.867007
508.613540	2563.761967
508.978550	2560.722152
509.343503	2561.448078
509.708398	2561.473284
510.073236	2561.052347
510.438016	2560.835578
510.802738	2560.250804
511.167403	2561.311967
511.532010	2562.259704
511.896561	2559.734086
512.261053	2566.199365
512.625488	2561.911864
512.989866	2559.882800
513.354186	2560.976730
513.718449	2558.148643
514.082655	2561.324570
514.446803	2562.171483
514.810894	2562.862122
515.174927	2567.066444
515.538904	2569.428224
515.902822	2566.650549
516.266684	2565.019735
516.630488	2566.763975
516.994235	2567.885631
517.357925	2567.308419
517.721558	2566.572411
518.085133	2567.275652
518.448651	2570.955694
518.812112	2571.182546
519.175516	2570.794377
519.538863	2569.332442
519.902152	2573.012485
520.265385	2572.936867
520.628560	2572.253791
520.991678	2572.145406
521.354739	2572.490725
521.717743	2571.555591
522.080690	2574.134142
522.443580	2576.195973
522.806413	2576.448031
523.169189	2579.255954
523.531908	2579.223186
523.894569	2580.266705
524.257174	2579.618917
524.619722	2578.950964
524.982213	2582.704103
525.344647	2584.781058
525.707025	2584.987746
526.069345	2584.287025
526.431608	2587.510843
526.793815	2587.722572
527.155964	2591.183324
527.518057	2593.436720
527.880093	2593.522419
528.242072	2593.023345
528.603995	2595.778336
528.965860	2599.213882
529.327669	2597.451999
529.689421	2599.826382
530.051117	2600.738831
530.412755	2604.053390
530.774337	2604.464244
531.135862	2607.662856
531.497331	2608.497167
531.858743	2606.485746
532.220098	2615.043105
532.581396	2610.914400
532.942638	2616.885647
533.303824	2620.643827
533.664953	2625.506020
534.026025	2629.289406
534.387040	2631.217647
534.747999	2633.400467
535.108902	2639.785088
535.469748	2638.285345
535.830537	2643.830614
536.191270	2647.014103
536.551947	2653.207160
536.912567	2653.532315
537.273131	2658.137409
537.633638	2664.063285
537.994089	2666.384736
538.354483	2673.780109
538.714821	2679.211952
539.075103	2686.730833
539.435328	2691.489682
539.795497	2689.889116
540.155609	2703.228009
540.515665	2709.441231
540.875665	2711.278732
541.235609	2719.470607
541.595496	2723.576627
541.955328	2733.961404
542.315102	2735.509038
542.674821	2745.961870
543.034483	2753.064856
543.394090	2759.598192
543.753640	2764.135230
544.113134	2778.134514
544.472571	2781.023095
544.831953	2796.244859
545.191278	2801.558236
545.550548	2810.496201
545.909761	2822.670588
546.268918	2831.706856
546.628019	2844.153465
546.987064	2849.779393
547.346053	2854.286184
547.704986	2875.509442
548.063863	2883.144269
548.422684	2893.067781
548.781449	2902.424162
549.140158	2919.276740
549.498811	2927.367792
549.857408	2929.190169
550.215949	2952.137501
550.574434	2956.210753
550.932864	2979.117756
551.291237	2993.721979
551.649555	3009.281500
552.007817	3019.908253
552.366022	3033.393339
552.724173	3053.933521
553.082267	3064.020869
553.440305	3095.316353
553.798288	3092.571444
554.156215	3126.279119
554.514086	3138.892086
554.871902	3145.939619
555.229661	3169.670851
555.587365	3184.033098
555.945014	3192.464428
556.302606	3224.337123
556.660143	3230.245356
557.017625	3270.163732
557.375050	3279.976338
557.732421	3310.971873
558.089735	3327.385870
558.446994	3346.113756
558.804197	3373.807335
559.161345	3396.381622
559.518437	3395.380953
559.875474	3437.807304
560.232455	3464.701859
560.589381	3477.037563
560.946251	3516.565250
561.303065	3534.461346
561.659825	3560.493865
562.016528	3570.170360
562.373177	3572.660690
562.729770	3625.096251
563.086307	3633.852736
563.442789	3672.478056
563.799216	3693.819781
564.155587	3719.534707
564.511904	3737.955083
564.868164	3769.598406
565.224370	3787.650778
565.580520	3823.783248
565.936615	3833.570648
566.292654	3858.466386
566.648638	3898.150349
567.004567	3928.109927
567.360441	3953.388793
567.716260	3968.252635
568.072023	4008.566742
568.427732	4037.949107
568.783385	4039.063202
569.138982	4091.002210
569.494525	4120.538331
569.850013	4124.951861
570.205445	4185.929658
570.560823	4186.834545
570.916145	4207.465467
571.271412	4256.203343
571.626625	4273.928039
571.981782	4300.096669
572.336884	4337.557483
572.691931	4352.007951
573.046923	4388.657139
573.401860	4407.553904
573.756743	4427.559723
574.111570	4473.003205
574.466342	4493.220752
574.821059	4538.250859
575.175722	4538.029048
575.530330	4573.480963
575.884882	4603.511116
576.239380	4620.832521
576.593823	4640.954286
576.948211	4681.999361
577.302544	4669.020910
577.656823	4719.651739
578.011047	4747.337756
578.365216	4781.524341
578.719330	4786.535248
579.073389	4830.630220
579.427394	4834.867310
579.781344	4862.001321
580.135239	4884.247933
580.489080	4915.717336
580.842866	4923.284107
581.196597	4955.348367
581.550273	4999.992825
581.903895	5031.411816
582.257463	5076.938477
582.610975	5075.985699
582.964434	5108.745637
583.317837	5124.534531
583.671186	5140.814937
584.024481	5174.343651
584.377721	5176.087891
584.730906	5198.873906
585.084037	5245.134054
585.437113	5245.754116
585.790135	5295.384276
586.143103	5281.445485
586.496016	5296.929389
586.848874	5350.703378
587.201679	5377.073653
587.554428	5368.077714
587.907124	5417.223923
588.259765	5433.784113
588.612352	5476.061750
588.964884	5443.256442
589.317362	5483.467205
589.669786	5514.871073
590.022155	5557.985541
590.374470	5598.859217
590.726731	5596.585656
591.078937	5561.937806
591.431090	5655.206714
591.783188	5611.966217
592.135232	5653.016332
592.487222	5668.132232
592.839157	5729.752776
593.191038	5724.540223
593.542866	5728.361418
593.894639	5702.598601
594.246358	5758.996510
594.598022	5793.346932
594.949633	5771.317090
595.301190	5787.625223
595.652692	5824.939843
596.004141	5927.401295
596.355535	5826.865564
596.706876	5841.371484
597.058162	5833.514846
597.409395	5905.426906
597.760573	5963.657274
598.111698	5935.535197
598.462768	5956.675276
598.813785	5956.425738
599.164748	5976.754191
599.515657	5989.772971
599.866511	5973.429550
600.217312	6058.690585
600.568060	6005.571947
600.918753	6092.405822
601.269392	6099.647440
601.619978	6075.207926
601.970510	6136.460466
602.320988	6151.725080
602.671412	6222.873404
603.021783	6200.074786
603.372100	6207.989398
603.722363	6242.244038
604.072572	6247.622949
604.422728	6277.217043
604.772830	6252.039000
605.122878	6281.781808
605.472872	6298.541124
605.822813	6347.450398
606.172701	6327.333674
606.522534	6404.969964
606.872314	6419.861532
607.222041	6431.935096
607.571714	6488.111193
607.921333	6480.350337
608.270899	6507.746488
608.620411	6588.016780
608.969870	6547.443054
609.319276	6558.342028
609.668627	6596.349808
610.017926	6641.011910
610.367171	6693.628953
610.716362	6699.108688
611.065500	6705.400048
611.414585	6751.952583
611.763616	6759.310147
612.112594	6764.600838
612.461518	6800.138452
612.810389	6860.959973
613.159207	6832.991652
613.507971	6810.329144
613.856682	6926.736948
614.205340	6904.530666
614.553945	6988.198696
614.902496	6931.750376
615.250994	6984.924467
615.599439	6984.972358
615.947830	7017.253386
616.296169	7009.023703
616.644454	7038.106119
616.992686	7053.544653
617.340864	7117.282482
617.688990	7055.911475
618.037063	7140.459186
618.385082	7112.095134
618.733048	7201.527724
619.080961	7164.949112
619.428821	7195.929523
619.776628	7215.259827
620.124382	7192.312495
620.472083	7198.157713
620.819731	7229.869091
621.167326	7167.636047
621.514868	7179.938983
621.862357	7102.123732
622.209793	7135.755790
622.557176	7100.533248
622.904506	7088.278203
623.251783	7043.066615
623.599007	7025.593975
623.946179	7047.192799
624.293297	7023.017946
624.640363	6961.480581
624.987376	6965.483257
625.334336	6929.499501
625.681243	6901.879019
626.028097	6898.642598
626.374899	6885.089456
626.721647	6899.212248
627.068343	6847.852973
627.414987	6832.205232
627.761577	6801.232382
628.108115	6843.820050
628.454600	6761.800477
628.801032	6819.400701
629.147412	6785.322501
629.493739	6789.957842
629.840014	6733.630509
630.186236	6795.422453
630.532405	6700.179933
630.878521	6755.365444
631.224585	6720.561318
631.570597	6662.535117
631.916556	6698.307144
632.262462	6698.367638
632.608316	6669.827146
632.954117	6657.549415
633.299866	6656.364744
633.645562	6659.954046
633.991206	6596.342246
634.336797	6545.787035
634.682336	6514.264700
635.027823	6496.955898
635.373257	6495.995558
635.718639	6441.460356
636.063968	6459.059024
636.409245	6365.268357
636.754470	6368.560230
637.099642	6333.602349
637.444762	6291.748169
637.789829	6304.187216
638.134845	6257.468323
638.479808	6247.237301
638.824719	6255.572849
639.169577	6198.363314
639.514383	6218.906016
639.859137	6157.156923
640.203839	6164.103633
640.548489	6161.051214
640.893086	6142.640920
641.237632	6119.071006
641.582125	6142.961034
641.926566	6115.640500
642.270955	6133.415609
642.615292	6131.429394
642.959576	6154.472508
643.303809	6146.714173
643.647990	6158.286141
643.992118	6146.814996
644.336195	6103.657678
644.680219	6127.066276
645.024192	6121.427745
645.368112	6216.284616
645.711981	6240.905612
646.055797	6316.164997
646.399562	6278.779801
646.743274	6397.514097
647.086935	6452.455112
647.430544	6447.910512
647.774101	6469.821887
648.117606	6481.535008
648.461059	6478.338917
648.804460	6443.784328
649.147810	6353.827458
649.491108	6331.613613
649.834354	6310.846580
650.177548	6230.021761
650.520690	6150.968907
650.863781	6134.585157
651.206820	6151.505789
651.549807	6080.942238
651.892742	6027.884094
652.235626	6040.643255
652.578458	6024.914855
652.921238	5935.855310
653.263967	5975.168748
653.606644	5918.559111
653.949269	5928.023878
654.291843	5868.755032
654.634365	5919.174132
654.976836	5875.605960
655.319255	5873.839036
655.661622	5860.464854
656.003938	5853.313978
656.346203	5819.996992
656.688416	5851.216858
657.030577	5807.094159
657.372687	5773.872955
657.714746	5763.410040
658.056753	5806.708510
658.398708	5750.829841
658.740612	5747.636270
659.082465	5793.561181
659.424266	5789.608917
659.766016	5786.954749
660.107715	5761.317961
660.449362	5777.860507
660.790958	5774.535867
661.132503	5759.530872
661.473996	5800.424712
661.815438	5785.903668
662.156829	5778.795642
662.498168	5778.034427
662.839456	5753.088277
663.180693	5795.527231
663.521879	5795.139062
663.863013	5786.072547
664.204097	5806.227080
664.545129	5845.719479
664.886110	5841.505075
665.227040	5878.368512
665.567918	5843.148491
665.908746	5867.035998
666.249522	5873.060177
666.590248	5859.544844
666.930922	5886.028546
667.271545	5904.741309
667.612118	5908.691053
667.952639	5878.396239
668.293109	5901.530094
668.633528	5857.974524
668.973896	5860.805132
669.314213	5853.127455
669.654480	5838.601370
669.994695	5830.676676
670.334859	5824.602086
670.674973	5814.633204
671.015035	5817.617567
671.355047	5816.211085
671.695008	5803.691380
672.034918	5782.321929
672.374777	5792.235358
672.714585	5776.771618
673.054342	5776.219612
673.394049	5770.061843
673.733705	5805.352440
674.073310	5791.562364
674.412864	5749.751034
674.752368	5745.183748
675.091820	5751.215489
675.431223	5685.534295
675.770574	5686.078740
676.109875	5640.262213
676.449125	5646.609026
676.788324	5616.059634
677.127473	5556.858843
677.466571	5551.290889
677.805619	5541.178334
678.144616	5526.236354
678.483562	5505.607953
678.822458	5473.803313
679.161303	5468.046316
679.500098	5459.299914
679.838842	5441.466832
680.177535	5445.474549
680.516179	5464.966171
680.854771	5477.130475
681.193314	5553.700561
681.531805	5662.297097
681.870247	5818.958514
682.208638	5912.439151
682.546978	5920.545326
682.885268	5903.102934
683.223508	5816.546322
683.561697	5764.657726
683.899836	5737.299384
684.237925	5693.995872
684.575963	5653.898534
684.913951	5617.594665
685.251889	5680.906516
685.589776	5646.009129
685.927614	5621.375530
686.265401	5688.206107
686.603137	5671.449312
686.940824	5748.352113
687.278460	5774.901350
687.616046	5780.189521
687.953582	5843.186300
688.291068	5827.757848
688.628504	5892.919803
688.965889	5851.116035
689.303224	5797.999917
689.640510	5755.409729
689.977745	5676.127502
690.314930	5582.626701
690.652065	5524.378689
690.989150	5431.409730
691.326185	5352.787895
691.663170	5305.048168
692.000105	5228.513370
692.336990	5151.441689
692.673825	5132.164317
693.010610	5059.438111
693.347345	4992.985621
693.684030	4982.479857
694.020665	4936.834729
694.357251	4851.203169
694.693786	4861.968553
695.030272	4824.704344
695.366707	4791.929282
695.703093	4756.474847
696.039429	4783.747490
696.375716	4763.592957
696.711952	4736.723607
697.048139	4726.346391
697.384276	4708.745203
697.720363	4724.695413
698.056400	4730.462493
698.392388	4677.459802
698.728326	4662.525384
699.064214	4636.707114
699.400053	4630.077997
699.735842	4602.621352
700.071581	4574.879883
700.407270	4547.019946
700.742910	4529.338099
701.078501	4477.353721
701.414042	4476.385819
701.749533	4446.494297
702.084974	4383.542889
702.420366	4436.346455
702.755709	4379.885532
703.091002	4325.045339
703.426246	4374.342783
703.761440	4327.946523
704.096584	4290.515956
704.431679	4314.877332
704.766725	4295.531904
705.101721	4289.069145
705.436668	4316.203156
705.771565	4261.862038
706.106413	4286.818270
706.441212	4327.472655
706.775961	4331.455167
707.110661	4312.802897
707.445311	4342.679296
707.779913	4364.913305
708.114465	4371.532340
708.448967	4402.253131
708.783421	4458.903098
709.117825	4500.144777
709.452180	4504.281044
709.786485	4545.994071
710.120742	4631.615549
710.454949	4616.865133
710.789107	4685.689486
711.123216	4755.945526
711.457275	4747.398250
711.791286	4822.902132
712.125247	4838.136498
712.459159	4737.257969
712.793023	4811.211696
713.126837	4776.064771
713.460602	4770.275006
713.794318	4690.513870
714.127985	4693.964540
714.461602	4606.992033
714.795171	4582.668466
715.128691	4516.536089
715.462162	4457.383190
715.795584	4415.508845
716.128957	4394.063777
716.462281	4345.149461
716.795556	4315.504956
717.128782	4282.147641
717.461960	4213.656004
717.795088	4224.355853
718.128167	4180.291127
718.461198	4125.806337
718.794180	4121.014720
719.127113	4100.618211
719.459997	4080.204059
719.792833	4038.531361
720.125619	4023.889329
720.458357	3988.308865
720.791046	3994.769104
721.123686	3967.209116
721.456278	3931.530350
721.788821	3943.795477
722.121315	3917.662135
722.453761	3893.872930
722.786158	3908.126793
723.118506	3927.991460
723.450805	3882.457237
723.783056	3904.169487
724.115259	3918.582146
724.447412	3923.280501
724.779518	3916.553082
725.111574	3922.073145
725.443582	3951.926858
725.775542	3937.834312
726.107453	3983.784430
726.439315	3985.342146
726.771129	4003.502903
727.102895	4034.778222
727.434612	4085.106581
727.766281	4096.295422
728.097901	4094.606635
728.429473	4098.349692
728.760996	4107.335549
729.092471	4101.233232
729.423897	4087.163372
729.755276	4095.539249
730.086606	4090.656891
730.417887	4126.134012
730.749120	4193.748488
731.080305	4257.773662
731.411442	4283.067651
731.742530	4252.056993
732.073570	4255.865585
732.404562	4314.070747
732.735506	4300.741937
733.066401	4265.907564
733.397249	4200.443140
733.728048	4120.848362
734.058798	4041.354407
734.389501	3971.589879
734.720156	3910.423038
735.050762	3868.470556
735.381320	3860.535780
735.711831	3809.781443
736.042293	3781.414870
736.372707	3802.116369
736.703073	3775.718367
737.033391	3771.312398
737.363661	3787.333185
737.693883	3810.494766
738.024056	3819.528514
738.354182	3817.068431
738.684260	3876.407853
739.014290	3896.305287
739.344272	3893.164648
739.674207	3932.684774
740.004093	3942.078964
740.333931	3934.106379
740.663722	3935.805248
740.993464	3931.979012
741.323159	3908.033532
741.652806	3879.581259
741.982405	3851.489429
742.311956	3819.422650
742.641460	3811.447544
742.970915	3787.791930
743.300323	3748.546547
743.629683	3713.472719
743.958996	3699.218857
744.288260	3678.272863
744.617477	3646.531237
744.946647	3631.422899
745.275768	3609.206534
745.604842	3606.126389
745.933869	3556.972619
746.262847	3548.558933
746.591778	3585.823142
746.920662	3558.195099
747.249498	3527.991025
747.578286	3575.445927
747.907027	3590.007300
748.235720	3587.363215
748.564365	3612.289200
748.892963	3611.674179
749.221514	3596.709514
749.550017	3571.891914
749.878473	3568.675657
750.206881	3541.075340
750.535242	3537.334804
750.863555	3539.646173
751.191821	3533.153167
751.520039	3514.516021
751.848210	3493.413751
752.176334	3525.901467
752.504411	3535.852705
752.832440	3491.654388
753.160421	3478.242399
753.488356	3486.726661
753.816243	3498.417096
754.144082	3454.503605
754.471875	3442.099846
754.799620	3460.048874
755.127318	3450.107719
755.454969	3452.532514
755.782572	3458.869244
756.110129	3432.582148
756.437638	3421.935231
756.765100	3435.518620
757.092515	3446.256278
757.419882	3449.580918
757.747203	3426.537804
758.074477	3434.061726
758.401703	3446.876339
758.728882	3466.441058
759.056014	3471.731748
759.383099	3475.873056
759.710138	3472.268631
760.037129	3491.755212
760.364073	3519.128677
760.690970	3503.843898
761.017820	3483.601145
761.344623	3502.281141
761.671379	3544.543654
761.998088	3598.264710
762.324751	3722.146025
762.651366	3969.144919
762.977935	4437.334521
763.304456	4867.019789
763.630931	4955.910455
763.957359	4599.906691
764.283740	4260.311883
764.610074	4075.445210
764.936362	3878.046228
765.262602	3722.282136
765.588796	3615.195425
765.914943	3530.826674
766.241044	3440.489198
766.567097	3415.684200
766.893104	3368.589741
767.219064	3341.196111
767.544978	3306.893579
767.870845	3251.435846
768.196665	3237.391191
768.522438	3247.844024
768.848165	3240.723394
769.173846	3206.927499
769.499479	3189.275898
769.825066	3173.350893
770.150607	3154.355826
770.476101	3170.943742
770.801548	3168.047600
771.126949	3121.734519
771.452303	3103.914040
771.777611	3112.420988
772.102872	3114.755042
772.428087	3093.370467
772.753256	3082.179106
773.078378	3074.735842
773.403453	3041.265101
773.728482	3030.804707
774.053465	3052.007800
774.378401	3041.597817
774.703291	3008.437107
775.028135	3008.956346
775.352932	3003.002743
775.677683	2992.794407
776.002388	2991.471104
776.327046	2990.185610
776.651658	2980.173878
776.976224	2967.225674
777.300743	2967.754996
777.625216	2961.382977
777.949643	2956.117492
778.274024	2953.637244
778.598359	2946.430915
778.922647	2952.475258
779.246889	2949.435443
779.571086	2935.874739
779.895236	2932.736620
780.219339	2942.009823
780.543397	2951.938375
780.867409	2957.161011
781.191374	2948.754887
781.515294	2946.302365
781.839167	2947.703806
782.162995	2939.017898
782.486776	2947.481995
782.810511	2944.366562
783.134201	2930.732762
783.457844	2938.183587
783.781441	2930.793256
784.104993	2908.224010
784.428498	2910.583270
784.751958	2921.885537
785.075372	2916.809095
785.398739	2902.608164
785.722061	2918.399579
786.045337	2926.654468
786.368568	2911.021850
786.691752	2907.419946
787.014891	2953.110444
787.337983	2982.815443
787.661030	3009.062210
787.984031	3077.206007
788.306987	3117.530197
788.629897	3111.001903
788.952760	3095.631425
789.275579	3081.332192
789.598351	3025.095600
789.921078	2980.572129
790.243759	2972.236581
790.566395	2953.473407
790.888984	2929.926177
791.211529	2915.480751
791.534027	2906.900707
791.856480	2893.173645
792.178888	2880.928682
792.501249	2872.353680
792.823566	2869.971734
793.145836	2868.890407
793.468062	2864.444109
793.790241	2861.757174
794.112375	2868.552650
794.434464	2880.164947
794.756507	2885.821122
795.078505	2889.677605
795.400457	2903.825603
795.722364	2942.655091
796.044226	2963.412042
796.366042	2963.505303
796.687812	2954.826957
797.009538	2975.742704
797.331218	2960.311732
797.652852	2947.282870
797.974442	2928.857453
798.295986	2924.905188
798.617484	2924.723706
798.938938	2905.779050
799.260346	2889.110475
799.581709	2887.598129
799.903026	2879.902808
800.224299	2874.521376
800.545526	2862.856146
800.866708	2851.788292
801.187845	2839.928978
801.508936	2841.953001
801.829983	2847.901563
802.150984	2835.621312
802.471940	2824.097234
802.792851	2820.581030
803.113717	2822.655464
803.434538	2828.125116
803.755314	2820.966678
804.076045	2813.049546
804.396731	2815.633137
804.717372	2813.364618
805.037967	2807.421097
805.358518	2816.716985
805.679024	2829.428255
805.999485	2824.160249
806.319901	2827.772236
806.640272	2817.211018
806.960598	2824.750064
807.280879	2834.973524
807.601115	2843.079699
807.921306	2827.794921
808.241453	2822.456339
808.561554	2829.385405
808.881611	2831.968996
809.201623	2826.879951
809.521590	2824.981957
809.841513	2823.840136
810.161390	2824.029179
810.481223	2818.493992
810.801011	2808.439411
811.120755	2807.693320
811.440453	2807.988227
811.760107	2809.238433
812.079716	2807.456386
812.399281	2795.319808
812.718801	2788.829322
813.038276	2787.881585
813.357707	2792.622790
813.677093	2799.536733
813.996434	2793.273099
814.315731	2786.349074
814.634983	2785.386214
814.954191	2784.526697
815.273354	2799.861887
815.592473	2806.851447
815.911547	2811.360759
816.230577	2817.558858
816.549562	2828.079746
816.868502	2824.535815
817.187399	2837.380675
817.506250	2851.437932
817.825058	2842.696572
818.143821	2858.588809
818.462539	2874.924668
818.781213	2898.655900
819.099843	2936.688885
819.418429	2988.133860
819.736970	3049.966133
820.055466	3120.701083
820.373919	3227.598750
820.692327	3360.700335
821.010691	3524.237886
821.329011	3953.779482
821.647286	4839.361499
821.965517	6186.211613
822.283704	6900.903556
822.601847	6869.419029
822.919945	6249.684781
823.237999	5763.513384
823.556010	5193.028688
823.873976	4655.175381
824.191897	4257.753497
824.509775	3967.572079
824.827609	3707.710681
825.145398	3589.397320
825.463144	3578.276535
825.780845	3673.612316
826.098502	3771.093108
826.416116	4050.486457
826.733685	4357.165051
827.051210	4413.303340
827.368692	4298.919560
827.686129	4042.745765
828.003522	3725.521077
828.320872	3474.784167
828.638177	3284.709982
828.955439	3151.938592
829.272656	3071.625450
829.589830	3007.219668
829.906960	2960.402473
830.224046	2916.599887
830.541088	2883.474465
830.858086	2868.429141
831.175041	2849.303004
831.491952	2850.059177
831.808819	2863.662730
832.125642	2886.872203
832.442421	2933.555808
832.759157	3009.972138
833.075849	3186.309179
833.392497	3458.231538
833.709101	3656.835356
834.025662	3603.691512
834.342179	3450.715178
834.658653	3277.700258
834.975083	3132.283134
835.291469	3036.844009
835.607811	2957.203861
835.924110	2900.790828
836.240366	2848.814012
836.556578	2809.379586
836.872746	2786.157511
837.188871	2764.820827
837.504952	2750.241810
837.820990	2743.952971
838.136984	2728.627863
838.452935	2721.897922
838.768842	2718.555637
839.084706	2736.799573
839.400526	2813.493167
839.716303	2946.004937
840.032037	3020.727440
840.347727	3003.537106
840.663373	2945.800771
840.978977	2871.647918
841.294537	2802.574028
841.610054	2755.751791
841.925527	2735.148595
842.240957	2712.813763
842.556344	2691.406503
842.871687	2675.902435
843.186987	2668.086126
843.502244	2665.250477
843.817458	2659.115392
844.132629	2647.843372
844.447756	2641.055459
844.762840	2632.142699
845.077881	2637.796353
845.392879	2635.769809
845.707833	2632.989613
846.022745	2623.507202
846.337613	2628.061885
846.652438	2625.616925
846.967221	2628.306381
847.281960	2624.815382
847.596656	2621.377315
847.911309	2621.276492
848.225919	2619.562499
848.540485	2616.860441
848.855009	2618.960082
849.169490	2617.223404
849.483928	2615.053187
849.798323	2613.820625
850.112675	2612.872888
850.426984	2614.370111
850.741251	2613.223248
851.055474	2611.365583
851.369654	2616.804988
851.683792	2616.774741
851.997887	2615.416150
852.311938	2612.358691
852.625947	2614.589401
852.939914	2616.618466
853.253837	2618.435802
853.567718	2615.222066
853.881555	2613.414812
854.195350	2613.868516
854.509103	2615.209463
854.822812	2613.003958
855.136479	2611.231993
855.450103	2614.589401
855.763685	2617.339351
856.077224	2612.976232
856.390720	2605.966507
856.704173	2613.906325
857.017584	2615.900101
857.330953	2617.293980
857.644278	2617.934207
857.957561	2619.665843
858.270802	2617.694752
858.584000	2616.447066
858.897155	2620.727006
859.210268	2619.000411
859.523339	2617.152828
859.836367	2609.273504
860.149352	2612.116715
860.462295	2611.542024
860.775195	2612.706530
861.088054	2605.676641
861.400869	2607.473812
861.713642	2605.764861
862.026373	2606.276538
862.339062	2607.083123
862.651708	2617.382200
862.964312	2616.061418
863.276873	2614.788527
863.589392	2615.698455
863.901869	2621.188272
864.214303	2624.964096
864.526696	2627.640948
864.839045	2629.949797
865.151353	2631.414252
865.463619	2630.282513
865.775842	2631.933491
866.088023	2631.073974
866.400162	2634.693523
866.712258	2633.236629
867.024313	2630.854684
867.336325	2627.857718
867.648296	2629.057513
867.960224	2634.378451
868.272110	2632.964407
868.583954	2623.628190
868.895755	2625.649693
869.207515	2634.121352
869.519233	2637.846764
869.830909	2634.300313
870.142542	2630.043058
870.454134	2634.259983
870.765684	2638.479429
871.077191	2639.495222
871.388657	2643.278608
871.700081	2642.567805
872.011463	2642.656025
872.322803	2642.492188
872.634101	2644.390182
872.945357	2654.008704
873.256571	2658.644045
873.567744	2653.247489
873.878874	2656.070536
874.189963	2654.066677
874.501010	2659.072543
874.812015	2663.599499
875.122979	2662.046823
875.433900	2657.045999
875.744780	2655.223622
876.055618	2661.908192
876.366415	2665.462205
876.677169	2665.671413
876.987882	2657.439209
877.298554	2657.663540
877.609183	2668.282731
877.919771	2675.360511
878.230317	2679.171623
878.540822	2687.282840
878.851285	2704.095088
879.161707	2726.019066
879.472087	2762.811927
879.782425	2807.423618
880.092722	2919.317069
880.402977	3097.960438
880.713191	3349.917307
881.023363	3630.911222
881.333494	3813.721105
881.643583	3979.267556
881.953631	3977.258656
882.263637	3803.600988
882.573602	3590.619800
882.883526	3463.612970
883.193408	3357.652958
883.503248	3260.373812
883.813048	3148.883653
884.122806	3040.879453
884.432522	2955.341154
884.742197	2896.349572
885.051831	2862.979654
885.361424	2827.941114
885.670975	2795.148408
885.980485	2765.420724
886.289954	2747.678383
886.599382	2733.626167
886.908768	2722.807851
887.218113	2707.313864
887.527417	2694.547142
887.836680	2685.170596
888.145901	2682.657581
888.455082	2672.812208
888.764221	2660.968017
889.073319	2655.183292
889.382376	2653.597850
889.691392	2655.400062
890.000366	2656.988026
890.309300	2652.135915
890.618193	2654.006183
890.927044	2658.505413
891.235855	2656.176400
891.544625	2654.512819
891.853353	2657.235042
892.162041	2663.735610
892.470687	2686.642613
892.779293	2695.583099
893.087858	2701.859336
893.396381	2721.350957
893.704864	2764.669592
894.013306	2830.834737
894.321707	2920.980650
894.630068	2965.337762
894.938387	2985.517501
895.246665	2981.219918
895.554903	2938.115532
895.863100	2896.127761
896.171256	2844.019874
896.479371	2783.773045
896.787446	2745.210738
897.095480	2728.000239
897.403473	2719.084959
897.711425	2709.842003
898.019336	2690.199147
898.327207	2676.714061
898.635038	2677.669359
898.942827	2673.533092
899.250576	2664.655621
899.558284	2653.764208
899.865952	2648.896974
900.173579	2646.031078
900.481165	2646.860347
900.788711	2637.882052
901.096216	2632.107411
901.403681	2629.798562
901.711105	2628.976854
902.018489	2626.115999
902.325832	2632.208234
902.633135	2633.408028
902.940397	2645.461427
903.247619	2683.237314
903.554800	2746.526480
903.861941	2869.260932
904.169041	2986.137563
904.476101	3046.707027
904.783121	3038.431972
905.090100	2985.562872
905.397039	2911.165523
905.703938	2843.326716
906.010796	2783.009310
906.317614	2734.715056
906.624391	2700.304140
906.931129	2676.300686
907.237826	2655.536173
907.544483	2638.413894
907.851099	2627.051133
908.157675	2615.398506
908.464211	2607.761158
908.770707	2600.390991
909.077163	2595.332193
909.383578	2590.114599
909.689954	2590.676688
909.996289	2588.297263
910.302584	2588.652665
910.608839	2586.311049
910.915054	2587.601584
911.221229	2589.297932
911.527363	2590.054105
911.833458	2590.139805
912.139513	2590.351533
912.445527	2591.952100
912.751502	2596.713470
913.057436	2602.198245
913.363331	2607.627568
913.669186	2619.330606
913.975000	2631.520116
914.280775	2646.222642
914.586510	2663.168480
914.892205	2698.307843
915.197859	2761.954931
915.503475	2844.791171
915.809050	2903.465161
916.114585	2914.303641
916.420081	2926.218408
916.725536	2935.395829
917.030952	2911.110070
917.336328	2870.433000
917.641665	2819.532470
917.946961	2774.318361
918.252218	2741.916344
918.557435	2718.459856
918.862612	2699.305992
919.167750	2680.973836
919.472848	2665.449602
919.777906	2651.783034
920.082925	2639.122176
920.387904	2628.515589
920.692843	2624.522995
920.997743	2621.520988
921.302603	2614.836418
921.607423	2608.623196
921.912204	2604.917948
922.216946	2600.398553
922.521647	2601.031218
922.826310	2594.737337
923.130932	2589.260124
923.435516	2587.145360
923.740059	2583.220821
924.044564	2583.782910
924.349028	2580.367528
924.653454	2573.962742
924.957840	2573.052814
925.262186	2567.643656
925.566493	2569.087947
925.870761	2564.298850
926.174989	2569.045097
926.479178	2565.856567
926.783328	2562.559652
927.087438	2561.488407
927.391509	2562.330280
927.695541	2562.536967
927.999533	2560.933880
928.303486	2560.961607
928.607400	2559.088818
928.911275	2558.662840
929.215110	2559.146791
929.518906	2557.914229
929.822663	2558.035217
930.126381	2557.944476
930.430060	2557.727706
930.733699	2557.707542
931.037299	2559.164435
931.340861	2560.162584
931.644383	2561.327090
931.947866	2562.090825
932.251309	2558.451112
932.554714	2556.880793
932.858080	2559.136709
933.161407	2558.103272
933.464694	2558.143602
933.767943	2555.738971
934.071153	2557.959599
934.374323	2553.820812
934.677455	2555.552448
934.980548	2553.664536
935.283602	2556.071687
935.586617	2555.958261
935.889593	2556.449774
936.192530	2555.028168
936.495428	2558.433468
936.798287	2555.595298
937.101108	2556.298539
937.403890	2559.313149
937.706632	2563.225085
938.009336	2567.328584
938.312002	2571.089285
938.614628	2570.355797
938.917216	2575.220510
939.219765	2575.580953
939.522275	2575.555747
939.824747	2574.668504
940.127179	2572.004254
940.429573	2570.181877
940.731929	2570.834706
941.034246	2563.404046
941.336524	2568.200703
941.638763	2567.968810
941.940964	2570.068451
942.243126	2564.689540
942.545250	2564.669375
942.847335	2561.843808
943.149381	2562.872204
943.451389	2562.133675
943.753359	2563.048644
944.055290	2560.722152
944.357182	2561.014539
944.659036	2560.114693
944.960851	2559.872717
945.262628	2559.471946
945.564367	2558.302398
945.866067	2556.066646
946.167729	2557.611760
946.469352	2559.708880
946.770937	2556.724517
947.072484	2557.886503
947.373992	2557.712583
947.675462	2557.326935
947.976893	2558.304918
948.278286	2555.807027
948.579641	2557.180741
948.880958	2554.889537
949.182236	2556.830381
949.483476	2555.212171
949.784678	2557.727706
950.085841	2554.004814
950.386967	2553.530946
950.688054	2557.400031
950.989103	2557.352140
951.290114	2554.115720
951.591087	2558.156204
951.892021	2560.240722
952.192917	2561.322049
952.493776	2560.633932
952.794596	2562.418500
953.095378	2561.984961
953.396122	2561.725341
953.696828	2562.678119
953.997496	2557.684857
954.298126	2558.766184
954.598718	2557.210988
954.899272	2554.917263
955.199788	2555.527243
955.500266	2555.081101
955.800706	2549.603887
956.101108	2544.847558
956.401472	2550.884340
956.701798	2547.857127
957.002087	2549.974412
957.302337	2547.834442
957.602550	2546.624565
957.902724	2548.837632
958.202861	2548.520039
958.502960	2546.075079
958.803022	2548.235214
959.103045	2546.788403
959.403031	2545.379400
959.702979	2545.724719
960.002889	2544.474513
960.302762	2541.938812
960.602596	2546.831252
960.902393	2545.097095
961.202153	2544.066179
961.501875	2543.120963
961.801559	2543.698175
962.101205	2543.980480
962.400814	2543.322609
962.700385	2542.352187
962.999918	2542.362269
963.299414	2544.595501
963.598873	2544.134235
963.898293	2541.180119
964.197677	2543.652805
964.497022	2540.320602
964.796331	2544.693803
965.095601	2540.917979
965.394835	2543.340253
965.694030	2541.152393
965.993189	2541.336395
966.292309	2538.906558
966.591393	2542.657177
966.890439	2542.568957
967.189447	2538.672145
967.488419	2539.070396
967.787353	2540.953267
968.086249	2541.563247
968.385108	2542.478216
968.683930	2542.707588
968.982714	2541.971580
969.281462	2539.803884
969.580172	2541.926210
969.878844	2542.488298
970.177480	2540.068544
970.476078	2542.473175
970.774639	2541.457382
971.073162	2540.255067
971.371649	2541.563247
971.670098	2537.810108
971.968510	2540.837320
972.266885	2537.316074
972.565223	2544.683721
972.863524	2541.832948
973.161788	2543.829245
973.460014	2539.912269
973.758204	2544.025850
974.056356	2542.412681
974.354471	2544.182126
974.652550	2543.698175
974.950591	2542.495860
975.248595	2543.423432
975.546563	2543.035263
975.844493	2543.733463
976.142386	2541.976621
976.440243	2541.016281
976.738062	2543.793957
977.035845	2540.547454
977.333590	2540.860006
977.631299	2541.401930
977.928971	2540.678524
978.226606	2540.476878
978.524204	2539.655170
978.821765	2542.014430
979.119290	2540.244985
979.416777	2541.807742
979.714228	2541.144831
980.011642	2544.489636
980.309020	2547.204298
980.606360	2540.277752
980.903664	2541.568288
981.200931	2541.664070
981.498162	2545.064328
981.795356	2543.496529
982.092513	2548.633465
982.389633	2546.858979
982.686717	2554.065308
982.983764	2553.619166
983.280775	2558.597305
983.577749	2553.493137
983.874686	2556.384239
984.171587	2550.624721
984.468451	2550.289484
984.765279	2549.573640
985.062070	2545.639019
985.358824	2546.115408
985.655543	2543.821683
985.952224	2546.206149
986.248869	2543.219266
986.545478	2539.748431
986.842050	2538.304141
987.138586	2536.350693
987.435086	2536.943029
987.731549	2535.644932
988.027975	2542.130376
988.324366	2536.116280
988.620719	2538.011754
988.917037	2539.214069
989.213318	2541.192722
989.509563	2539.486291
989.805772	2537.638708
990.101944	2536.590148
990.398080	2539.151054
990.694180	2538.536034
990.990244	2540.779347
991.286271	2535.997813
991.582262	2538.558719
991.878217	2537.399253
992.174136	2542.142979
992.470019	2540.643236
992.765865	2540.688606
993.061676	2538.331867
993.357450	2539.609799
993.653188	2538.258770
993.948890	2542.740356
994.244556	2535.758358
994.540186	2540.804553
994.835780	2539.360262
995.131337	2541.021322
995.426859	2541.374203
995.722345	2538.891435
996.017795	2543.158772
996.313208	2543.798998
996.608586	2541.311189
996.903928	2542.200953
997.199234	2541.850592
997.494504	2540.640715
997.789738	2539.892104
998.084936	2541.036446
998.380099	2541.883360
998.675225	2541.603576
998.970316	2540.154244
999.265371	2540.093750
999.560390	2539.113246
999.855373	2541.669111
1000.150320	2540.544933
1000.445232	2539.695499
1000.740108	2537.600900
1001.034948	2538.200797
1001.329752	2538.213400
1001.624521	2540.081147
1001.919254	2535.826413
1002.213951	2536.083512
1002.508613	2534.193080
1002.803239	2536.012936
1003.097829	2534.853471
1003.392384	2536.673327
1003.686903	2539.609799
1003.981386	2537.923533
1004.275834	2537.686599
1004.570246	2539.004861
1004.864623	2540.038297
1005.158964	2537.255581
1005.453270	2537.636188
1005.747540	2540.519728
1006.041775	2538.588966
1006.335974	2536.403626
1006.630138	2536.191897
1006.924266	2538.213400
1007.218359	2538.180632
1007.512416	2538.820859
1007.806438	2538.110056
1008.100425	2537.752134
1008.394376	2536.794315
1008.688292	2536.091074
1008.982172	2537.863040
1009.276017	2536.940508
1009.569827	2534.273738
1009.863602	2538.694830
1010.157341	2537.220292
1010.451045	2536.335570
1010.744714	2538.135262
1011.038347	2536.098636
1011.331945	2536.086033
1011.625508	2536.302803
1011.919036	2537.376568
1012.212528	2534.578728
1012.505986	2539.241795
1012.799408	2536.978317
1013.092795	2536.585107
1013.386147	2537.537885
1013.679464	2537.840354
1013.972745	2536.761548
1014.265992	2534.775333
1014.559204	2538.735159
1014.852380	2537.051414
1015.145521	2535.803728
1015.438628	2538.457896
1015.731699	2533.648635
1016.024736	2535.491177
1016.317737	2535.801208
1016.610703	2538.778009
1016.903635	2532.640404
1017.196531	2532.292565
1017.489393	2534.916485
1017.782219	2533.736855
1018.075011	2535.576876
1018.367768	2536.973276
1018.660490	2537.006043
1018.953177	2537.006043
1019.245829	2537.006043
