Dividing Wavelength (nm)	Counts (n)	Blue Motor Position (mm): 28.000000	Red Motor Position (mm): 0.000000	
326.493990	2155.995636
326.888308	2155.995636
327.282561	2155.995636
327.676750	2131.551081
328.070874	2132.229116
328.464933	2138.089457
328.858929	2145.746970
329.252859	2158.501089
329.646726	2172.374345
330.040528	2187.210460
330.434265	2208.524459
330.827938	2222.924515
331.221547	2243.124418
331.615091	2263.868766
332.008571	2285.875923
332.401986	2302.930147
332.795338	2325.073415
333.188625	2346.790706
333.581847	2362.186390
333.975006	2383.150028
334.368100	2403.808677
334.761129	2421.540935
335.154095	2435.167174
335.546996	2462.039045
335.939833	2490.705566
336.332606	2503.321053
336.725315	2517.272447
337.117960	2522.371574
337.510540	2533.633512
337.903056	2540.527289
338.295508	2546.871582
338.687896	2556.459856
339.080220	2563.920764
339.472480	2570.401167
339.864676	2571.515262
340.256807	2574.943247
340.648875	2577.887281
341.040879	2578.335943
341.432818	2581.519432
341.824694	2580.876685
342.216506	2581.340471
342.608253	2580.286870
342.999937	2578.638412
343.391557	2581.358115
343.783113	2576.006930
344.174605	2576.760583
344.566033	2575.908628
344.957397	2573.874522
345.348697	2572.079871
345.739934	2569.589541
346.131106	2565.513768
346.522215	2567.288255
346.913260	2564.051834
347.304241	2564.192986
347.695159	2560.722152
348.086012	2562.662996
348.476802	2558.176369
348.867528	2558.499003
349.258191	2554.488765
349.648789	2554.720658
350.039324	2554.017417
350.429796	2554.559341
350.820203	2552.759649
351.210548	2546.415357
351.600828	2549.296377
351.991045	2553.145297
352.381198	2549.750080
352.771288	2552.439536
353.161314	2549.503064
353.551276	2549.810574
353.941175	2550.917107
354.331010	2548.633465
354.720782	2551.290153
355.110490	2548.981304
355.500135	2548.709082
355.889717	2549.427447
356.279235	2549.848383
356.668689	2552.636141
357.058080	2551.456511
357.447408	2547.859648
357.836672	2547.640358
358.225873	2547.484082
358.615010	2549.170348
359.004084	2553.999773
359.393095	2552.250493
359.782043	2553.223435
360.170927	2553.384752
360.559748	2556.154866
360.948505	2554.632438
361.337199	2556.079249
361.725830	2557.284085
362.114398	2556.177552
362.502903	2559.076215
362.891344	2559.088818
363.279722	2559.940773
363.668037	2557.246276
364.056289	2558.466235
364.444478	2560.399518
364.832603	2560.785166
365.220665	2560.139898
365.608665	2560.565876
365.996601	2562.859601
366.384474	2561.995043
366.772284	2559.968499
367.160031	2559.781977
367.547715	2560.646534
367.935336	2561.821123
368.322893	2561.057388
368.710388	2562.181566
369.097820	2567.638615
369.485189	2562.012687
369.872495	2564.785322
370.259738	2562.589899
370.646918	2561.533777
371.034035	2564.790363
371.421090	2563.361196
371.808081	2565.707853
372.195010	2565.347410
372.581875	2566.766495
372.968678	2563.497307
373.355418	2565.261711
373.742096	2566.184242
374.128710	2569.486198
374.515262	2567.074006
374.901751	2568.483008
375.288177	2566.716084
375.674540	2570.028122
376.060841	2568.793039
376.447079	2566.348079
376.833254	2567.681465
377.219367	2565.425548
377.605417	2566.688357
377.991404	2565.607030
378.377329	2566.201886
378.763191	2564.734910
379.148991	2568.603996
379.534727	2568.780436
379.920402	2569.118193
380.306013	2568.906465
380.691563	2570.144068
381.077049	2571.066599
381.462474	2571.832855
381.847835	2569.178687
382.233134	2573.693041
382.618371	2570.595252
383.003545	2574.242526
383.388657	2573.796384
383.773706	2574.217321
384.158693	2573.589697
384.543618	2572.901579
384.928480	2571.759758
385.313280	2572.800756
385.698017	2571.880746
386.082692	2575.835531
386.467305	2575.840572
386.851856	2575.162537
387.236344	2576.460634
387.620770	2575.351580
388.005133	2575.210428
388.389435	2577.564647
388.773674	2577.093299
389.157851	2576.359811
389.541965	2577.025243
389.926018	2575.860737
390.310008	2576.506004
390.693936	2577.305027
391.077802	2575.109605
391.461606	2578.588001
391.845348	2578.411561
392.229027	2577.075655
392.612645	2576.828638
392.996200	2578.048597
393.379694	2578.068762
393.763125	2578.683783
394.146494	2584.385328
394.529801	2579.334092
394.913047	2580.067580
395.296230	2581.705955
395.679351	2582.502457
396.062410	2579.608835
396.445408	2581.653022
396.828343	2580.733012
397.211217	2579.177816
397.594028	2578.691345
397.976778	2577.597414
398.359466	2579.722261
398.742092	2579.674370
399.124656	2582.464648
399.507158	2584.534042
399.889598	2580.012127
400.271977	2582.394072
400.654294	2582.784762
401.036549	2582.250399
401.418742	2583.813157
401.800874	2585.643096
402.182944	2584.332396
402.564952	2582.411716
402.946898	2584.322313
403.328783	2582.570512
403.710606	2585.660740
404.092367	2587.682242
404.474067	2584.085379
404.855705	2588.423292
405.237282	2588.451018
405.618797	2588.473704
406.000250	2584.985225
406.381642	2587.523446
406.762972	2587.160483
407.144240	2586.827767
407.525447	2587.828436
407.906593	2587.772983
408.287677	2585.401120
408.668700	2585.955647
409.049661	2589.897830
409.430560	2586.585792
409.811399	2585.943044
410.192176	2585.794330
410.572891	2589.958323
410.953545	2589.549990
411.334138	2585.527149
411.714669	2591.669795
412.095139	2591.362285
412.475547	2589.970926
412.855894	2590.449836
413.236180	2589.746595
413.616405	2591.387491
413.996568	2589.391194
414.376670	2588.466142
414.756711	2589.151739
415.136691	2590.964034
415.516609	2592.068046
415.896466	2593.076277
416.276262	2590.021338
416.655997	2590.467480
417.035670	2589.875144
417.415283	2586.996646
417.794834	2589.297932
418.174324	2591.165680
418.553753	2593.461925
418.933121	2591.894127
419.312428	2594.548294
419.691674	2595.216247
420.070859	2596.710949
420.449983	2594.265989
420.829045	2594.780187
421.208047	2595.760692
421.586988	2594.659199
421.965867	2595.569128
422.344686	2597.605754
422.723444	2596.819334
423.102141	2596.852101
423.480777	2594.959148
423.859352	2598.777822
424.237866	2595.470825
424.616319	2599.450816
424.994712	2600.002822
425.373044	2597.862853
425.751314	2597.464602
426.129524	2595.992585
426.507673	2600.111207
426.885762	2599.473501
427.263789	2597.792277
427.641756	2598.886207
428.019662	2599.274376
428.397508	2600.975765
428.775292	2602.359562
429.153016	2601.958790
429.530679	2602.493152
429.908282	2598.876125
430.285824	2599.125662
430.663305	2600.227154
431.040726	2604.877618
431.418086	2601.202617
431.795385	2604.305447
432.172624	2603.708071
432.549802	2604.900303
432.926920	2605.802670
433.303977	2607.289810
433.680974	2607.050356
434.057910	2610.344750
434.434786	2608.724019
434.811601	2609.039091
435.188355	2612.323402
435.565050	2612.739298
435.941683	2613.177878
436.318257	2610.896756
436.694770	2610.705192
437.071222	2615.547220
437.447614	2614.602004
437.823946	2615.300204
438.200218	2622.438478
438.576429	2623.628190
438.952580	2622.904784
439.328670	2627.693881
439.704700	2628.961731
440.080670	2630.065743
440.456580	2636.054634
440.832429	2638.502114
441.208218	2642.073772
441.583947	2645.710964
441.959616	2649.915287
442.335224	2654.858138
442.710773	2658.359219
443.086261	2664.282575
443.461689	2669.530416
443.837057	2673.613751
444.212365	2683.285205
444.587612	2688.175124
444.962800	2699.621064
445.337927	2702.890252
445.712995	2704.558874
446.088002	2727.438151
446.462949	2733.595920
446.837837	2746.024885
447.212664	2754.509147
447.587431	2782.452262
447.962139	2817.576502
448.336786	2858.170393
448.711374	2865.722042
449.085901	2851.485823
449.460369	2857.346165
449.834776	2867.199100
450.209124	2909.098650
450.583412	2927.503903
450.957640	2957.786114
451.331808	2959.777370
451.705917	2958.136474
452.079965	2975.470482
452.453954	2997.981754
452.827883	3015.958509
453.201752	3031.699512
453.575562	3056.239848
453.949311	3101.821962
454.323001	3124.542442
454.696632	3148.240906
455.070202	3202.511448
455.443713	3231.828278
455.817164	3275.134310
456.190556	3319.748522
456.563888	3342.375741
456.937160	3383.294787
457.310373	3378.377141
457.683526	3420.168306
458.056619	3450.306845
458.429653	3471.038590
458.802628	3516.482071
459.175542	3559.410017
459.548398	3634.243425
459.921194	3730.567272
460.293930	3788.023823
460.666607	3915.370931
461.039224	4030.674722
461.411782	4117.196046
461.784280	4126.232314
462.156719	4164.897964
462.529099	4190.378476
462.901419	4176.122093
463.273680	4162.261441
463.645882	4204.912123
464.018024	4249.811159
464.390106	4319.971418
464.762130	4487.791430
465.134094	4718.623344
465.505999	5074.143157
465.877845	5467.396007
466.249631	5697.839752
466.621358	5722.128031
466.993026	5688.133010
467.364634	5630.578157
467.736184	5544.762595
468.107674	5517.686557
468.479105	5532.779772
468.850477	5550.010436
469.221790	5508.032748
469.593043	5428.788330
469.964238	5419.885652
470.335373	5457.550633
470.706449	5606.645279
471.077467	5779.962669
471.448425	6255.114104
471.819324	6687.655186
472.190164	6766.884481
472.560945	6489.585731
472.931667	6228.406071
473.302330	6150.837837
473.672934	6118.221571
474.043479	6223.120421
474.413965	6198.534714
474.784393	6205.282298
475.154761	6363.261977
475.525070	6415.863897
475.895321	6428.512152
476.265513	6544.824174
476.635645	6705.682352
477.005719	6747.342448
477.375734	6858.318408
477.745691	6989.108624
478.115588	7190.860642
478.485427	7422.710870
478.855207	7861.210596
479.224928	8259.948221
479.594591	8626.349365
479.964194	8674.883073
480.333739	8795.845560
480.703226	8853.528963
481.072653	8993.171445
481.442022	9129.638000
481.811333	9301.133013
482.180584	9201.131644
482.549777	9189.007669
482.918912	9179.114405
483.287988	9197.522178
483.657005	9156.227566
484.025964	9111.459599
484.394864	9203.085091
484.763706	9201.197179
485.132489	9151.224221
485.501213	9170.231892
485.869879	9245.876926
486.238487	9215.992966
486.607036	9313.854365
486.975527	9282.778172
487.343959	9363.550059
487.712333	9430.589844
488.080648	9491.746602
488.448905	9605.754816
488.817104	9633.297160
489.185244	9809.747627
489.553326	10034.021000
489.921350	10500.723462
490.289315	11116.039138
490.657222	11415.960066
491.025070	11611.130858
491.392861	11533.106399
491.760593	11400.904660
492.128267	11163.879688
492.495883	10952.574684
492.863440	10736.354554
493.230939	10530.315035
493.598380	10362.681546
493.965763	10349.635040
494.333088	10221.443538
494.700354	10169.479325
495.067563	10152.546089
495.434713	10160.407768
495.801805	10210.174039
496.168839	10176.126086
496.535815	10152.982149
496.902733	10207.638339
497.269593	10163.339199
497.636395	10177.645994
498.003139	10287.916193
498.369825	10222.938241
498.736453	10321.759979
499.103023	10256.098951
499.469535	10273.385067
499.835989	10321.255864
500.202385	10308.282455
500.568723	10329.185599
500.935003	10390.755732
501.301226	10356.826246
501.667390	10520.482264
502.033497	10627.727771
502.399546	10555.959384
502.765537	10473.173556
503.131470	10572.731303
503.497345	10665.299491
503.863163	10442.919071
504.228923	10577.890924
504.594625	10695.927021
504.960269	10612.269073
505.325856	10762.281208
505.691385	10642.659669
506.056856	10709.943949
506.422270	10810.988837
506.787625	10747.520710
507.152924	10795.663729
507.518164	10864.175530
507.883347	10730.947917
508.248472	10806.139247
508.613540	10913.190669
508.978550	10992.566157
509.343503	10971.539504
509.708398	11021.116732
510.073236	11151.816207
510.438016	11165.991932
510.802738	11081.103942
511.167403	11210.510361
511.532010	11265.433733
511.896561	11366.110616
512.261053	11563.577653
512.625488	11482.848616
512.989866	11470.820423
513.354186	11449.433327
513.718449	11456.821138
514.082655	11607.138264
514.446803	11558.947353
514.810894	11664.982983
515.174927	11661.726398
515.538904	11647.714511
515.902822	11805.966413
516.266684	11678.901609
516.630488	11776.190837
516.994235	11776.435333
517.357925	11891.764330
517.721558	11945.457660
518.085133	12012.913340
518.448651	12039.999459
518.812112	11993.285607
519.175516	12008.840087
519.538863	12099.298552
519.902152	12104.269130
520.265385	12216.212992
520.628560	12238.454563
520.991678	12183.742920
521.354739	12242.328689
521.717743	12306.525263
522.080690	12283.603137
522.443580	12425.057913
522.806413	12438.863113
523.169189	12428.770723
523.531908	12489.289775
523.894569	12450.508179
524.257174	12469.803195
524.619722	12576.027868
524.982213	12546.337993
525.344647	12541.584185
525.707025	12548.742623
526.069345	12652.910506
526.431608	12626.235240
526.793815	12705.963609
527.155964	12601.891508
527.518057	12631.891415
527.880093	12590.637132
528.242072	12708.521994
528.603995	12637.139256
528.965860	12648.421358
529.327669	12676.689628
529.689421	12624.818676
530.051117	12644.847180
530.412755	12682.048375
530.774337	12681.750947
531.135862	12632.791261
531.497331	12700.120911
531.858743	12662.995334
532.220098	12754.943459
532.581396	12682.988550
532.942638	12598.410591
533.303824	12667.350891
533.664953	12646.427582
534.026025	12597.916558
534.387040	12703.228783
534.747999	12682.144157
535.108902	12719.625136
535.469748	12598.352618
535.830537	12624.485960
536.191270	12673.460769
536.551947	12594.460847
536.912567	12655.955362
537.273131	12687.255887
537.633638	12568.907238
537.994089	12631.225982
538.354483	12543.267930
538.714821	12666.556909
539.075103	12758.099222
539.435328	12682.514682
539.795497	12665.735201
540.155609	12657.445023
540.515665	12745.582037
540.875665	12611.250410
541.235609	12711.861759
541.595496	12673.286849
541.955328	12842.959485
542.315102	12710.901419
542.674821	12649.091832
543.034483	12660.802432
543.394090	12656.527533
543.753640	12627.125004
544.113134	12872.840924
544.472571	12640.476500
544.831953	12926.448554
545.191278	12731.522259
545.550548	12659.900065
545.909761	12782.745423
546.268918	12818.835043
546.628019	12889.869942
546.987064	12782.316925
547.346053	12622.141823
547.704986	12822.447030
548.063863	12706.956716
548.422684	12757.141403
548.781449	12717.510372
549.140158	12805.617138
549.498811	12760.834048
549.857408	12635.296714
550.215949	12836.151407
550.574434	12800.636478
550.932864	12751.170156
551.291237	12947.109723
551.649555	12835.097806
552.007817	12890.681568
552.366022	12805.418012
552.724173	12845.631297
553.082267	12934.395933
553.440305	13027.309440
553.798288	12855.738810
554.156215	12918.400352
554.514086	12968.118732
554.871902	12911.181420
555.229661	12934.590018
555.587365	12889.330539
555.945014	12910.722675
556.302606	12882.630845
556.660143	12951.006535
557.017625	12975.572078
557.375050	12942.650823
557.732421	13041.205381
558.089735	13036.464175
558.446994	13009.350329
558.804197	13118.566928
559.161345	13117.810754
559.518437	12927.998709
559.875474	13026.712063
560.232455	13059.865212
560.589381	13101.351387
560.946251	13051.343141
561.303065	13224.761354
561.659825	13165.810101
562.016528	13088.166249
562.373177	13028.935212
562.729770	13159.322136
563.086307	13032.902600
563.442789	13144.899395
563.799216	13188.732227
564.155587	13138.013178
564.511904	13151.606650
564.868164	13157.340962
565.224370	13220.254562
565.580520	13166.488136
565.936615	13236.366090
566.292654	13163.597034
566.648638	13238.286770
567.004567	13243.199374
567.360441	13240.094023
567.716260	13202.781923
568.072023	13292.552270
568.427732	13277.443932
568.783385	13174.334692
569.138982	13294.621664
569.494525	13284.032720
569.850013	13230.309144
570.205445	13217.852452
570.560823	13228.103639
570.916145	13186.950179
571.271412	13199.558105
571.626625	13161.202486
571.981782	13149.917863
572.336884	13104.607973
572.691931	13187.376157
573.046923	13077.085793
573.401860	13052.918502
573.756743	13053.135271
574.111570	13083.341865
574.466342	13048.273078
574.821059	13102.979680
575.175722	12972.731388
575.530330	12995.338442
575.884882	12934.214452
576.239380	12931.421653
576.593823	12916.020928
576.948211	12908.925504
577.302544	12788.686423
577.656823	12799.280407
578.011047	12854.914581
578.365216	12798.493987
578.719330	12753.473963
579.073389	12712.978374
579.427394	12721.719735
579.781344	12715.483828
580.135239	12643.985143
580.489080	12671.272908
580.842866	12551.079198
581.196597	12638.044143
581.550273	12635.974749
581.903895	12593.215682
582.257463	12711.856718
582.610975	12555.485166
582.964434	12620.611833
583.317837	12528.978779
583.671186	12490.731545
584.024481	12542.589895
584.377721	12438.220366
584.730906	12503.248730
585.084037	12505.403823
585.437113	12430.494798
585.790135	12460.814818
586.143103	12361.960311
586.496016	12389.258159
586.848874	12393.870815
587.201679	12394.753017
587.554428	12268.071342
587.907124	12315.170842
588.259765	12257.202614
588.612352	12326.682317
588.964884	12184.042869
589.317362	12232.163203
589.669786	12227.870660
590.022155	12186.011439
590.374470	12282.007611
590.726731	12169.499140
591.078937	12055.259032
591.431090	12083.489493
591.783188	12005.709531
592.135232	11938.750405
592.487222	12004.928152
592.839157	12006.811023
593.191038	11944.124275
593.542866	11882.924667
593.894639	11739.145918
594.246358	11806.498254
594.598022	11811.466311
594.949633	11712.722710
595.301190	11701.261647
595.652692	11652.851447
596.004141	11744.550035
596.355535	11520.959739
596.706876	11504.762511
597.058162	11475.087759
597.409395	11563.897767
597.760573	11589.489184
598.111698	11487.380613
598.462768	11492.782209
598.813785	11503.756801
599.164748	11370.188909
599.515657	11448.669593
599.866511	11328.911942
600.217312	11456.274173
600.568060	11216.801721
600.918753	11382.784232
601.269392	11381.375230
601.619978	11287.259408
601.970510	11335.077273
602.320988	11372.530525
602.671412	11442.695825
603.021783	11367.406192
603.372100	11291.836776
603.722363	11308.596092
604.072572	11312.631535
604.422728	11316.180508
604.772830	11261.617579
605.122878	11265.040522
605.472872	11234.780997
605.822813	11292.610593
606.172701	11259.593556
606.522534	11306.161214
606.872314	11352.673420
607.222041	11288.537341
607.571714	11358.982424
607.921333	11227.897301
608.270899	11284.769078
608.620411	11349.434479
608.969870	11288.789398
609.319276	11269.627972
609.668627	11286.848554
610.017926	11365.278826
610.367171	11394.744370
610.716362	11386.847402
611.065500	11361.510563
611.414585	11379.305836
611.763616	11445.886876
612.112594	11404.783828
612.461518	11437.022007
612.810389	11481.512710
613.159207	11427.489185
613.507971	11421.948957
613.856682	11517.587207
614.205340	11473.099024
614.553945	11612.602874
614.902496	11487.516724
615.250994	11553.089533
615.599439	11546.820858
615.947830	11581.841754
616.296169	11544.736341
616.644454	11557.298896
616.992686	11570.040413
617.340864	11662.134732
617.688990	11551.662886
618.037063	11691.247395
618.385082	11657.852271
618.733048	11689.057014
619.080961	11677.512771
619.428821	11667.364929
619.776628	11676.749037
620.124382	11622.793567
620.472083	11633.591718
620.819731	11656.271870
621.167326	11581.108266
621.514868	11560.570605
621.862357	11472.327727
622.209793	11461.595111
622.557176	11375.903057
622.904506	11312.281175
623.251783	11248.019067
623.599007	11181.758140
623.946179	11134.174689
624.293297	11105.699732
624.640363	10969.283588
624.987376	10961.016096
625.334336	10900.401262
625.681243	10809.254680
626.028097	10778.493559
626.374899	10741.521737
626.721647	10720.167409
627.068343	10677.824237
627.414987	10609.332601
627.761577	10544.780626
628.108115	10597.727864
628.454600	10475.875614
628.801032	10489.093520
629.147412	10472.926539
629.493739	10441.522671
629.840014	10368.960303
630.186236	10409.292054
630.532405	10310.913937
630.878521	10344.309061
631.224585	10298.830291
631.570597	10220.326923
631.916556	10220.019412
632.262462	10216.493125
632.608316	10191.247027
632.954117	10163.402214
633.299866	10155.613631
633.645562	10119.438311
633.991206	10023.560606
634.336797	9923.244165
634.682336	9919.208721
635.027823	9862.110092
635.373257	9823.147014
635.718639	9759.464638
636.063968	9727.871727
636.409245	9611.905024
636.754470	9598.006563
637.099642	9547.010251
637.444762	9444.599210
637.789829	9454.613462
638.134845	9380.440445
638.479808	9358.952527
638.824719	9329.315583
639.169577	9242.171677
639.514383	9244.135207
639.859137	9171.391357
640.203839	9209.389054
640.548489	9128.309656
640.893086	9135.566397
641.237632	9057.252072
641.582125	9070.754803
641.926566	9052.503305
642.270955	9035.577631
642.615292	9033.477991
642.959576	9019.587091
643.303809	9004.438424
643.647990	9017.174899
643.992118	8995.749995
644.336195	8976.001275
644.680219	8974.670410
645.024192	9008.950257
645.368112	9081.893232
645.711981	9061.968072
646.055797	9201.978558
646.399562	9155.995673
646.743274	9315.129777
647.086935	9394.956448
647.430544	9362.320018
647.774101	9384.889263
648.117606	9408.915403
648.461059	9474.120207
648.804460	9406.510772
649.147810	9289.182958
649.491108	9253.542000
649.834354	9187.021454
650.177548	9044.008961
650.520690	8950.677039
650.863781	8950.603942
651.206820	8924.561341
651.549807	8827.677926
651.892742	8742.111901
652.235626	8695.347637
652.578458	8663.401846
652.921238	8555.148108
653.263967	8595.016073
653.606644	8526.136268
653.949269	8502.896548
654.291843	8426.691946
654.634365	8491.291812
654.976836	8419.306656
655.319255	8412.491016
655.661622	8400.629181
656.003938	8357.343313
656.346203	8323.464239
656.688416	8354.119495
657.030577	8320.956265
657.372687	8279.860779
657.714746	8313.172723
658.056753	8331.083943
658.398708	8232.887307
658.740612	8225.849856
659.082465	8262.829240
659.424266	8219.152683
659.766016	8237.384016
660.107715	8207.174902
660.449362	8221.368271
660.790958	8215.843166
661.132503	8217.942807
661.473996	8214.897950
661.815438	8237.028615
662.156829	8264.351669
662.498168	8213.080614
662.839456	8209.387968
663.180693	8228.642656
663.521879	8251.156449
663.863013	8223.251142
664.204097	8224.808858
664.545129	8294.139847
664.886110	8286.469731
665.227040	8287.553579
665.567918	8298.273593
665.908746	8308.320613
666.249522	8340.200870
666.590248	8335.449582
666.930922	8347.946603
667.271545	8341.798915
667.612118	8359.266513
667.952639	8323.623035
668.293109	8326.725865
668.633528	8301.696537
668.973896	8286.303373
669.314213	8285.300184
669.654480	8247.549503
669.994695	8239.047597
670.334859	8222.106800
670.674973	8201.944705
671.015035	8223.896409
671.355047	8215.941468
671.695008	8199.615692
672.034918	8166.863315
672.374777	8184.991304
672.714585	8159.851070
673.054342	8191.738889
673.394049	8149.471334
673.733705	8193.420114
674.073310	8134.025239
674.412864	8146.386148
674.752368	8085.012621
675.091820	8139.368862
675.431223	8068.790188
675.770574	8015.187599
676.109875	7993.868559
676.449125	7953.867003
676.788324	7942.985673
677.127473	7851.294646
677.466571	7841.116557
677.805619	7785.469780
678.144616	7782.455170
678.483562	7757.224195
678.822458	7715.571661
679.161303	7698.709002
679.500098	7677.891557
679.838842	7654.238463
680.177535	7671.224631
680.516179	7705.779220
680.854771	7719.070222
681.193314	7838.762338
681.531805	7998.307295
681.870247	8119.499154
682.208638	8272.268801
682.546978	8342.797064
682.885268	8366.145168
683.223508	8299.796022
683.561697	8246.695028
683.899836	8214.731592
684.237925	8133.243860
684.575963	8100.483922
684.913951	8018.429061
685.251889	8036.698202
685.589776	8032.940022
685.927614	8015.830346
686.265401	8033.907924
686.603137	8044.459059
686.940824	8108.247299
687.278460	8161.696133
687.616046	8171.730549
687.953582	8288.418137
688.291068	8273.135879
688.628504	8329.054878
688.965889	8326.090680
689.303224	8286.124412
689.640510	8242.546158
689.977745	8141.042525
690.314930	8024.783435
690.652065	7949.791231
690.989150	7832.024836
691.326185	7682.161414
691.663170	7563.144813
692.000105	7447.687266
692.336990	7331.375244
692.673825	7267.370234
693.010610	7171.981521
693.347345	7075.251861
693.684030	6966.297403
694.020665	6916.936945
694.357251	6799.858668
694.693786	6795.092257
695.030272	6753.162460
695.366707	6658.280383
695.703093	6608.483865
696.039429	6599.687052
696.375716	6556.680968
696.711952	6544.811571
697.048139	6518.426172
697.384276	6483.914433
697.720363	6501.598801
698.056400	6472.765921
698.392388	6440.512619
698.728326	6438.415499
699.064214	6416.259628
699.400053	6407.472897
699.735842	6347.974678
700.071581	6302.793337
700.407270	6257.790957
700.742910	6227.934723
701.078501	6187.870153
701.414042	6141.317618
701.749533	6091.221151
702.084974	6030.215628
702.420366	6068.951854
702.755709	5998.587429
703.091002	5948.017094
703.426246	5953.484225
703.761440	5939.154745
704.096584	5893.449124
704.431679	5880.311877
704.766725	5867.467017
705.101721	5852.189800
705.436668	5864.270926
705.771565	5810.648172
706.106413	5868.863417
706.441212	5865.221183
706.775961	5885.088370
707.110661	5890.273197
707.445311	5949.847033
707.779913	5918.198669
708.114465	5955.215862
708.448967	6003.615980
708.783421	6112.492300
709.117825	6153.991078
709.452180	6191.940884
709.786485	6248.666468
710.120742	6383.600513
710.454949	6391.510083
710.789107	6466.066228
711.123216	6588.210865
711.457275	6618.301512
711.791286	6723.250773
712.125247	6744.824391
712.459159	6714.653086
712.793023	6843.058836
713.126837	6676.357960
713.460602	6731.974490
713.794318	6690.752975
714.127985	6640.013762
714.461602	6493.328788
714.795171	6500.109140
715.128691	6325.574311
715.462162	6240.860241
715.795584	6169.021278
716.128957	6124.228106
716.462281	6058.183949
716.795556	6021.469226
717.128782	5936.586278
717.461960	5841.265620
717.795088	5826.555533
718.128167	5753.725983
718.461198	5669.669784
718.794180	5653.311240
719.127113	5593.477785
719.459997	5558.577877
719.792833	5492.180840
720.125619	5490.219831
720.458357	5432.854021
720.791046	5399.963012
721.123686	5369.244741
721.456278	5324.196991
721.788821	5319.609541
722.121315	5278.892141
722.453761	5285.974962
722.786158	5265.432260
723.118506	5269.392087
723.450805	5247.621864
723.783056	5277.125217
724.115259	5260.673411
724.447412	5248.849385
724.779518	5291.953771
725.111574	5291.767248
725.443582	5328.567671
725.775542	5323.045087
726.107453	5406.082973
726.439315	5377.645824
726.771129	5448.095949
727.102895	5513.252863
727.434612	5553.778698
727.766281	5579.481021
728.097901	5637.466893
728.429473	5656.459441
728.760996	5663.786758
729.092471	5684.841137
729.423897	5671.177089
729.755276	5641.308253
730.086606	5656.789636
730.417887	5745.657617
730.749120	5837.474672
731.080305	5877.725765
731.411442	5953.504390
731.742530	5979.536908
732.073570	6001.531463
732.404562	6064.608900
732.735506	6057.775616
733.066401	6039.985384
733.397249	5969.852852
733.728048	5874.333069
734.058798	5729.306634
734.389501	5601.841059
734.720156	5520.270149
735.050762	5414.484056
735.381320	5339.600236
735.711831	5280.127224
736.042293	5202.306932
736.372707	5194.467938
736.703073	5155.141896
737.033391	5177.517058
737.363661	5165.753525
737.693883	5178.845402
738.024056	5206.009659
738.354182	5234.217436
738.684260	5277.926760
739.014290	5315.763140
739.344272	5353.539027
739.674207	5407.018107
740.004093	5442.152429
740.333931	5447.546463
740.663722	5467.683353
740.993464	5478.231967
741.323159	5461.588597
741.652806	5419.242905
741.982405	5391.415736
742.311956	5332.111602
742.641460	5321.144572
742.970915	5269.964257
743.300323	5206.044947
743.629683	5171.374412
743.958996	5121.046052
744.288260	5071.352878
744.617477	5010.785935
744.946647	4999.655068
745.275768	4940.754226
745.604842	4907.901027
745.933869	4877.228126
746.262847	4866.581209
746.591778	4855.697358
746.920662	4835.678936
747.249498	4829.180889
747.578286	4845.279813
747.907027	4867.516343
748.235720	4911.560904
748.564365	4920.042646
748.892963	4905.602260
749.221514	4923.349643
749.550017	4897.072628
749.878473	4897.135642
750.206881	4860.221793
750.535242	4847.404660
750.863555	4830.431095
751.191821	4809.606088
751.520039	4813.598682
751.848210	4792.940034
752.176334	4800.791631
752.504411	4781.930154
752.832440	4753.525772
753.160421	4765.269140
753.488356	4742.906582
753.816243	4724.506370
754.144082	4695.199622
754.471875	4684.104043
754.799620	4671.775901
755.127318	4665.292977
755.454969	4662.096886
755.782572	4652.241430
756.110129	4653.116070
756.437638	4635.590499
756.765100	4633.881547
757.092515	4633.679901
757.419882	4640.243484
757.747203	4633.392556
758.074477	4651.240761
758.401703	4642.653155
758.728882	4674.994678
759.056014	4682.132952
759.383099	4705.385274
759.710138	4732.897371
760.037129	4755.716154
760.364073	4768.349285
760.690970	4766.365591
761.017820	4769.241569
761.344623	4802.866066
761.671379	4862.386969
761.998088	4949.914003
762.324751	5176.970093
762.651366	5639.516122
762.977935	6327.807542
763.304456	6884.701287
763.630931	7188.508944
763.957359	7131.387630
764.283740	6839.789648
764.610074	6517.526326
764.936362	6117.914061
765.262602	5802.284898
765.588796	5450.273728
765.914943	5198.621848
766.241044	4974.247652
766.567097	4805.202640
766.893104	4652.057428
767.219064	4555.123601
767.544978	4458.986277
767.870845	4374.622567
768.196665	4332.579344
768.522438	4280.136220
768.848165	4239.174325
769.173846	4198.139333
769.499479	4173.525899
769.825066	4136.911998
770.150607	4093.820215
770.476101	4078.510231
770.801548	4058.569947
771.126949	4024.837066
771.452303	4009.048172
771.777611	3968.865135
772.102872	3965.921101
772.428087	3940.059982
772.753256	3911.779109
773.078378	3895.886871
773.403453	3864.364536
773.728482	3839.982996
774.053465	3823.642096
774.378401	3803.830361
774.703291	3783.305303
775.028135	3760.458794
775.352932	3748.246599
775.677683	3732.117427
776.002388	3711.456258
776.327046	3713.054304
776.651658	3693.718958
776.976224	3675.961494
777.300743	3669.397911
777.625216	3656.575737
777.949643	3647.141217
778.274024	3649.946619
778.598359	3630.069350
778.922647	3631.266624
779.246889	3620.869244
779.571086	3621.554841
779.895236	3619.629120
780.219339	3617.635344
780.543397	3623.684728
780.867409	3634.107314
781.191374	3636.073364
781.515294	3629.615646
781.839167	3643.630053
782.162995	3642.271463
782.486776	3633.391470
782.810511	3626.969040
783.134201	3613.002523
783.457844	3612.505970
783.781441	3606.451544
784.104993	3594.302363
784.428498	3591.282712
784.751958	3586.917073
785.075372	3583.660487
785.398739	3572.219589
785.722061	3577.626226
786.045337	3579.254519
786.368568	3602.322839
786.691752	3597.543825
787.014891	3644.766834
787.337983	3690.414482
787.661030	3779.330353
787.984031	3875.911299
788.306987	3950.936271
788.629897	3996.583919
788.952760	4005.973068
789.275579	3991.401613
789.598351	3939.359262
789.921078	3890.233217
790.243759	3827.057477
790.566395	3779.862195
790.888984	3731.789752
791.211529	3696.065615
791.534027	3652.421826
791.856480	3612.752986
792.178888	3595.935697
792.501249	3574.442737
792.823566	3543.260680
793.145836	3536.465205
793.468062	3529.848691
793.790241	3515.060466
794.112375	3520.154552
794.434464	3541.055176
794.756507	3536.644166
795.078505	3560.171231
795.400457	3596.485183
795.722364	3648.424191
796.044226	3695.942107
796.366042	3739.356524
796.687812	3735.406780
797.009538	3760.836880
797.331218	3750.671394
797.652852	3743.026484
797.974442	3722.226683
798.295986	3710.992472
798.617484	3681.100950
798.938938	3661.400121
799.260346	3640.562511
799.581709	3607.391719
799.903026	3594.907302
800.224299	3574.788057
800.545526	3543.376627
800.866708	3529.584030
801.187845	3513.969056
801.508936	3494.477435
801.829983	3484.175837
802.150984	3457.777835
802.471940	3446.946916
802.792851	3442.863581
803.113717	3435.483332
803.434538	3426.774738
803.755314	3414.184457
804.076045	3410.048190
804.396731	3397.251221
804.717372	3395.859863
805.037967	3394.516395
805.358518	3399.618043
805.679024	3410.310330
805.999485	3405.707757
806.319901	3413.324940
806.640272	3413.211514
806.960598	3428.241714
807.280879	3431.636931
807.601115	3439.375103
807.921306	3429.033175
808.241453	3431.405038
808.561554	3436.489042
808.881611	3432.851849
809.201623	3435.165739
809.521590	3427.029317
809.841513	3425.287598
810.161390	3433.456788
810.481223	3412.843510
810.801011	3413.355187
811.120755	3409.607089
811.440453	3395.456570
811.760107	3389.818040
812.079716	3385.331413
812.399281	3371.848847
812.718801	3369.101418
813.038276	3363.568752
813.357707	3359.036754
813.677093	3367.478166
813.996434	3349.892101
814.315731	3358.358719
814.634983	3358.572968
814.954191	3357.962988
815.273354	3376.579970
815.592473	3383.251937
815.911547	3403.870256
816.230577	3420.049839
816.549562	3443.604631
816.868502	3461.798155
817.187399	3481.229282
817.506250	3507.024867
817.825058	3517.349150
818.143821	3561.791962
818.462539	3611.038994
818.781213	3667.772139
819.099843	3746.583018
819.418429	3897.779825
819.736970	4050.287331
820.055466	4238.753388
820.373919	4475.488494
820.692327	4811.705729
821.010691	5324.144058
821.329011	6400.780765
821.647286	8139.242833
821.965517	10310.349328
822.283704	11933.043819
822.601847	13005.735822
822.919945	12585.253180
823.237999	11920.599730
823.556010	11026.646878
823.873976	10080.472712
824.191897	9109.062531
824.509775	8339.568205
824.827609	7543.212091
825.145398	6994.258163
825.463144	6609.678618
825.780845	6484.249670
826.098502	6542.432147
826.416116	6923.258552
826.733685	7429.791170
827.051210	7713.431691
827.368692	7617.669933
827.686129	7175.464959
828.003522	6623.637573
828.320872	6058.816614
828.638177	5602.146049
828.955439	5229.355243
829.272656	4895.252772
829.589830	4612.247436
829.906960	4349.903269
830.224046	4139.732524
830.541088	3968.222388
830.858086	3852.855582
831.175041	3758.759925
831.491952	3714.072617
831.808819	3695.682487
832.125642	3731.215060
832.442421	3837.953931
832.759157	4050.257084
833.075849	4426.261626
833.392497	4892.797730
833.709101	5281.251401
834.025662	5387.465992
834.342179	5262.548720
834.658653	4991.584180
834.975083	4720.241554
835.291469	4480.585100
835.607811	4254.068414
835.924110	4097.626287
836.240366	3935.215433
836.556578	3775.393212
836.872746	3638.329280
837.188871	3523.965664
837.504952	3430.059050
837.820990	3352.931917
838.136984	3296.402938
838.452935	3267.534771
838.768842	3255.375508
839.084706	3286.807102
839.400526	3424.697783
839.716303	3644.976042
840.032037	3856.762476
840.347727	3927.237807
840.663373	3835.269517
840.978977	3685.448945
841.294537	3555.795509
841.610054	3451.115950
841.925527	3373.159547
842.240957	3306.553302
842.556344	3241.885380
842.871687	3185.926052
843.186987	3121.641258
843.502244	3071.325501
843.817458	3031.581044
844.132629	2998.067454
844.447756	2977.890235
844.762840	2956.598922
845.077881	2936.456992
845.392879	2922.964344
845.707833	2912.844227
846.022745	2903.485325
846.337613	2898.229922
846.652438	2888.107285
846.967221	2880.815256
847.281960	2876.661346
847.596656	2872.247815
847.911309	2867.660365
848.225919	2864.010570
848.540485	2855.745598
848.855009	2855.002028
849.169490	2849.076152
849.483928	2848.304855
849.798323	2845.897704
850.112675	2843.455265
850.426984	2842.406705
850.741251	2839.918896
851.055474	2837.302537
851.369654	2838.232630
851.683792	2835.548215
851.997887	2837.451251
852.311938	2837.340346
852.625947	2834.154336
852.939914	2834.542505
853.253837	2837.481498
853.567718	2835.891014
853.881555	2834.091322
854.195350	2840.818742
854.509103	2835.487722
854.822812	2835.379337
855.136479	2834.824810
855.450103	2836.498473
855.763685	2831.495128
856.077224	2833.559480
856.390720	2832.866322
856.704173	2839.772702
857.017584	2836.909327
857.330953	2840.523834
857.644278	2843.130111
857.957561	2847.483147
858.270802	2845.640605
858.584000	2846.421984
858.897155	2846.323682
859.210268	2842.746983
859.523339	2839.029132
859.836367	2840.367558
860.149352	2838.320850
860.462295	2840.047445
860.775195	2834.219871
861.088054	2833.481342
861.400869	2832.745334
861.713642	2826.728717
862.026373	2833.325067
862.339062	2832.415138
862.651708	2837.506704
862.964312	2842.757065
863.276873	2840.975017
863.589392	2851.453056
863.901869	2857.555372
864.214303	2865.795138
864.526696	2871.910058
864.839045	2878.007334
865.151353	2884.785165
865.463619	2888.087121
865.775842	2888.949158
866.088023	2893.460991
866.400162	2895.474932
866.712258	2894.265055
867.024313	2898.920560
867.336325	2899.495252
867.648296	2900.964748
867.960224	2902.000705
868.272110	2900.183369
868.583954	2901.098339
868.895755	2906.053793
869.207515	2904.977507
869.519233	2912.370359
869.830909	2911.155441
870.142542	2919.170875
870.454134	2917.464445
870.765684	2921.835125
871.077191	2930.450457
871.388657	2936.487239
871.700081	2939.229627
872.011463	2950.859568
872.322803	2951.812347
872.634101	2958.635548
872.945357	2967.349183
873.256571	2975.856130
873.567744	2984.037923
873.878874	2983.193529
874.189963	2993.686691
874.501010	2995.206599
874.812015	2997.938904
875.122979	3006.087929
875.433900	3007.711181
875.744780	3010.950122
876.055618	3018.738705
876.366415	3018.098478
876.677169	3024.606608
876.987882	3026.938142
877.298554	3039.520862
877.609183	3050.833211
877.919771	3069.157805
878.230317	3094.101434
878.540822	3132.600726
878.851285	3181.061338
879.161707	3244.809249
879.472087	3353.766228
879.782425	3515.922503
880.092722	3792.144966
880.402977	4213.668607
880.713191	4752.678858
881.023363	5352.077092
881.333494	5792.363907
881.643583	6080.322177
881.953631	6152.970245
882.263637	6106.135405
882.573602	5961.532427
882.883526	5789.581190
883.193408	5584.214665
883.503248	5370.492427
883.813048	5155.313296
884.122806	4936.688536
884.432522	4696.926217
884.742197	4469.905416
885.051831	4264.952265
885.361424	4069.824323
885.670975	3899.781163
885.980485	3751.992176
886.289954	3626.278402
886.599382	3523.305273
886.908768	3440.050617
887.218113	3360.702856
887.527417	3297.201961
887.836680	3239.175760
888.145901	3192.449305
888.455082	3155.525373
888.764221	3123.907257
889.073319	3094.492124
889.382376	3073.102508
889.691392	3057.023748
890.000366	3049.343550
890.309300	3038.736962
890.618193	3037.320398
890.927044	3032.702701
891.235855	3035.331663
891.544625	3038.638660
891.853353	3042.580842
892.162041	3056.418809
892.470687	3083.361256
892.779293	3115.102881
893.087858	3166.086591
893.396381	3243.420411
893.704864	3347.774817
894.013306	3502.802900
894.321707	3687.808205
894.630068	3840.345959
894.938387	3920.344029
895.246665	3928.107406
895.554903	3869.612378
895.863100	3784.991569
896.171256	3707.375444
896.479371	3635.491111
896.787446	3561.207188
897.095480	3490.676405
897.403473	3434.732200
897.711425	3374.291286
898.019336	3325.203050
898.327207	3268.994185
898.635038	3225.060529
898.942827	3173.517252
899.250576	3132.257928
899.558284	3090.565065
899.865952	3065.376940
900.173579	3036.007178
900.481165	3014.970443
900.788711	2994.200889
901.096216	2979.402582
901.403681	2967.112248
901.711105	2959.432051
902.018489	2953.372584
902.325832	2963.394398
902.633135	2971.888742
902.940397	3010.970287
903.247619	3097.466405
903.554800	3275.683796
903.861941	3549.244530
904.169041	3810.532575
904.476101	3981.578925
904.783121	4004.160774
905.090100	3938.320784
905.397039	3834.793128
905.703938	3727.915625
906.010796	3625.386118
906.317614	3539.144578
906.624391	3455.002679
906.931129	3385.255795
907.237826	3314.425063
907.544483	3250.067173
907.851099	3177.855164
908.157675	3105.444031
908.464211	3031.538195
908.770707	2975.649443
909.077163	2928.721341
909.383578	2891.999056
909.689954	2862.586444
909.996289	2842.073989
910.302584	2830.587720
910.608839	2819.058601
910.915054	2811.088537
911.221229	2805.949081
911.527363	2806.861529
911.833458	2811.007878
912.139513	2812.356387
912.445527	2815.161789
912.751502	2825.017245
913.057436	2840.296982
913.363331	2860.290198
913.669186	2889.095352
913.975000	2923.506268
914.280775	2987.521360
914.586510	3068.547826
914.892205	3177.766944
915.197859	3325.382011
915.503475	3503.496059
915.809050	3677.703212
916.114585	3809.478974
916.420081	3886.028895
916.725536	3918.488885
917.030952	3878.724263
917.336328	3845.354345
917.641665	3798.345586
917.946961	3734.791759
918.252218	3671.908406
918.557435	3601.914505
918.862612	3535.406563
919.167750	3473.080257
919.472848	3401.700039
919.777906	3333.904082
920.082925	3263.320366
920.387904	3193.177752
920.692843	3139.509628
920.997743	3086.106164
921.302603	3036.460881
921.607423	3003.680778
921.912204	2968.702733
922.216946	2939.978238
922.521647	2917.598035
922.826310	2896.031979
923.130932	2875.564895
923.435516	2855.092769
923.740059	2844.849144
924.044564	2826.955569
924.349028	2814.776141
924.653454	2798.014304
924.957840	2785.227418
925.262186	2780.037550
925.566493	2766.174377
925.870761	2753.311873
926.174989	2750.992942
926.479178	2742.904411
926.783328	2734.984758
927.087438	2729.134499
927.391509	2723.017059
927.695541	2713.948023
927.999533	2709.405943
928.303486	2705.647763
928.607400	2700.490663
928.911275	2699.411856
929.215110	2697.758357
929.518906	2693.128057
929.822663	2692.613860
930.126381	2691.265351
930.430060	2690.191585
930.733699	2691.489683
931.037299	2691.771987
931.340861	2692.381967
931.644383	2693.622091
931.947866	2690.610001
932.251309	2692.283664
932.554714	2691.033458
932.858080	2691.943386
933.161407	2690.544466
933.464694	2688.162521
933.767943	2687.262675
934.071153	2687.040864
934.374323	2683.033147
934.677455	2682.879392
934.980548	2681.266222
935.283602	2680.303362
935.586617	2680.005934
935.889593	2682.070287
936.192530	2680.318486
936.495428	2683.978363
936.798287	2687.161852
937.101108	2688.238138
937.403890	2701.327494
937.706632	2707.601210
938.009336	2717.562530
938.312002	2729.386557
938.614628	2739.138669
938.917216	2750.471182
939.219765	2755.487131
939.522275	2765.297216
939.824747	2770.179573
940.127179	2765.473656
940.429573	2763.739499
940.731929	2766.106321
941.034246	2767.182607
941.336524	2765.322422
941.638763	2765.403080
941.940964	2764.384767
942.243126	2756.986874
942.545250	2757.695156
942.847335	2747.438928
943.149381	2740.804770
943.451389	2737.956518
943.753359	2732.360837
944.055290	2724.050495
944.357182	2721.600494
944.659036	2718.114537
944.960851	2716.476162
945.262628	2711.929041
945.564367	2712.241592
945.866067	2709.098433
946.167729	2709.206818
946.469352	2711.659339
946.770937	2709.418546
947.072484	2707.644060
947.373992	2704.125335
947.675462	2705.158771
947.976893	2703.570808
948.278286	2701.072916
948.579641	2699.875642
948.880958	2700.089891
949.182236	2698.363296
949.483476	2696.238449
949.784678	2695.923377
950.085841	2693.712831
950.386967	2697.304653
950.688054	2698.678368
950.989103	2701.945036
951.290114	2703.631302
951.591087	2708.659852
951.892021	2713.333002
952.192917	2718.038919
952.493776	2723.591750
952.794596	2724.688201
953.095378	2726.999570
953.396122	2726.545866
953.696828	2726.871021
953.997496	2726.142574
954.298126	2724.244580
954.598718	2717.302911
954.899272	2717.108826
955.199788	2710.905687
955.500266	2706.411498
955.800706	2700.387319
956.101108	2691.338448
956.401472	2685.052129
956.701798	2680.716737
957.002087	2672.035870
957.302337	2668.093687
957.602550	2665.489932
957.902724	2660.635300
958.202861	2656.259579
958.502960	2649.761532
958.803022	2643.041673
959.103045	2639.810294
959.403031	2638.088740
959.702979	2635.815179
960.002889	2631.804942
960.302762	2629.264200
960.602596	2627.751854
960.902393	2623.504682
961.202153	2623.436626
961.501875	2619.065946
961.801559	2621.112654
962.101205	2618.135853
962.400814	2617.871192
962.700385	2615.196860
962.999918	2615.169134
963.299414	2612.572940
963.598873	2613.334154
963.898293	2610.879112
964.197677	2612.872888
964.497022	2609.560850
964.796331	2610.579163
965.095601	2610.349791
965.394835	2608.056066
965.694030	2608.963473
965.993189	2609.364245
966.292309	2610.654781
966.591393	2606.745366
966.890439	2607.408277
967.189447	2606.878956
967.488419	2608.209821
967.787353	2605.459872
968.086249	2608.388782
968.385108	2608.290479
968.683930	2610.110336
968.982714	2608.781992
969.281462	2607.735952
969.580172	2610.311982
969.878844	2611.156375
970.177480	2611.804164
970.476078	2614.906994
970.774639	2616.058897
971.073162	2615.811881
971.371649	2613.699637
971.670098	2614.511263
971.968510	2616.074021
972.266885	2616.784824
972.565223	2622.743467
972.863524	2618.977726
973.161788	2623.688684
973.460014	2621.304218
973.758204	2624.807820
974.056356	2625.954682
974.354471	2626.746144
974.652550	2624.144908
974.950591	2622.710700
975.248595	2621.543673
975.546563	2622.937552
975.844493	2623.552573
976.142386	2625.604322
976.440243	2623.633231
976.738062	2622.791358
977.035845	2620.394290
977.333590	2619.355812
977.631299	2618.839094
977.928971	2616.114350
978.226606	2617.861110
978.524204	2616.994032
978.821765	2615.577467
979.119290	2615.295163
979.416777	2613.384565
979.714228	2615.005296
980.011642	2617.414968
980.309020	2617.011676
980.606360	2620.424537
980.903664	2623.489558
981.200931	2629.024745
981.498162	2630.214458
981.795356	2647.281284
982.092513	2660.577327
982.389633	2675.032836
982.686717	2697.942359
982.983764	2713.239741
983.280775	2724.652913
983.577749	2730.876217
983.874686	2733.951321
984.171587	2728.826988
984.468451	2720.499002
984.765279	2715.893908
985.062070	2709.005172
985.358824	2704.395036
985.655543	2695.101669
985.952224	2683.965760
986.248869	2668.920437
986.545478	2656.710762
986.842050	2644.077631
987.138586	2635.973976
987.435086	2622.861935
987.731549	2618.052674
988.027975	2613.455142
988.324366	2607.902311
988.620719	2605.752258
988.917037	2602.009202
989.213318	2603.587083
989.509563	2597.809921
989.805772	2599.269335
990.101944	2596.557194
990.398080	2597.235229
990.694180	2594.349168
990.990244	2596.534509
991.286271	2596.365630
991.582262	2597.484766
991.878217	2599.206320
992.174136	2596.912595
992.470019	2598.306474
992.765865	2598.195569
993.061676	2598.717328
993.357450	2603.587083
993.653188	2604.328132
993.948890	2605.608586
994.244556	2606.878956
994.540186	2613.203084
994.835780	2619.350771
995.131337	2624.989302
995.426859	2632.977010
995.722345	2638.111425
996.017795	2649.930410
996.313208	2660.279899
996.608586	2663.944818
996.903928	2668.565035
997.199234	2668.716270
997.494504	2671.047804
997.789738	2669.787515
998.084936	2666.281393
998.380099	2661.406597
998.675225	2653.630617
998.970316	2649.106182
999.265371	2643.230717
999.560390	2634.275107
999.855373	2630.088429
1000.150320	2623.671040
1000.445232	2617.593929
1000.740108	2611.635285
1001.034948	2610.100254
1001.329752	2609.296190
1001.624521	2602.659511
1001.919254	2593.217429
1002.213951	2596.237081
1002.508613	2595.178438
1002.803239	2593.618201
1003.097829	2588.040164
1003.392384	2593.892944
1003.686903	2589.975967
1003.981386	2589.348344
1004.275834	2588.146029
1004.570246	2590.134764
1004.864623	2586.416913
1005.158964	2588.234249
1005.453270	2587.790627
1005.747540	2588.181317
1006.041775	2585.086048
1006.335974	2586.497571
1006.630138	2584.992787
1006.924266	2587.815833
1007.218359	2584.198805
1007.512416	2587.044537
1007.806438	2582.910790
1008.100425	2584.793661
1008.394376	2585.138980
1008.688292	2585.615369
1008.982172	2583.999680
1009.276017	2585.963209
1009.569827	2584.125708
1009.863602	2585.759042
1010.157341	2582.787282
1010.451045	2586.880699
1010.744714	2583.177972
1011.038347	2582.893146
1011.331945	2581.295101
1011.625508	2586.270719
1011.919036	2583.223342
1012.212528	2581.973136
1012.505986	2582.757035
1012.799408	2582.706624
1013.092795	2582.741912
1013.386147	2582.368866
1013.679464	2583.818198
1013.972745	2582.522622
1014.265992	2581.771490
1014.559204	2582.784762
1014.852380	2580.506160
1015.145521	2583.694690
1015.438628	2583.225862
1015.731699	2580.755697
1016.024736	2582.615883
1016.317737	2584.806264
1016.610703	2581.509350
1016.903635	2577.851993
1017.196531	2579.457600
1017.489393	2581.040522
1017.782219	2579.538258
1018.075011	2579.984401
1018.367768	2586.230390
1018.660490	2585.217118
1018.953177	2585.217118
1019.245829	2585.217118
