Dividing Wavelength (nm)	Counts (n)	Blue Motor Position (mm): 6.300000	Red Motor Position (mm): 0.000000	
326.493990	2143.743111
326.888308	2143.743111
327.282561	2143.743111
327.676750	2109.753132
328.070874	2108.533172
328.464933	2111.489809
328.858929	2118.802003
329.252859	2130.205093
329.646726	2139.022071
330.040528	2151.451036
330.434265	2169.735301
330.827938	2187.833043
331.221547	2206.704602
331.615091	2221.848228
332.008571	2241.942268
332.401986	2263.006729
332.795338	2282.757970
333.188625	2303.235137
333.581847	2318.895481
333.975006	2339.337360
334.368100	2357.750174
334.761129	2377.158617
335.154095	2392.004815
335.546996	2409.048956
335.939833	2425.883889
336.332606	2436.261104
336.725315	2451.409772
337.117960	2461.784466
337.510540	2469.091619
337.903056	2480.832466
338.295508	2484.943527
338.687896	2497.995074
339.080220	2503.621002
339.472480	2509.872033
339.864676	2515.225738
340.256807	2519.404855
340.648875	2522.323683
341.040879	2525.151770
341.432818	2527.546318
341.824694	2530.117307
342.216506	2525.484486
342.608253	2528.675537
342.999937	2525.759229
343.391557	2527.803417
343.783113	2527.783252
344.174605	2523.934332
344.566033	2522.726975
344.957397	2521.171779
345.348697	2522.003570
345.739934	2519.057015
346.131106	2517.670698
346.522215	2515.986953
346.913260	2513.327744
347.304241	2511.747342
347.695159	2508.974708
348.086012	2511.306241
348.476802	2507.303565
348.867528	2504.974552
349.258191	2503.789881
349.648789	2502.096053
350.039324	2502.453975
350.429796	2500.780312
350.820203	2499.146978
351.210548	2500.094715
351.600828	2497.178408
351.991045	2497.614467
352.381198	2497.553973
352.771288	2495.466936
353.161314	2495.572800
353.551276	2497.440547
353.941175	2497.064982
354.331010	2495.043479
354.720782	2492.933756
355.110490	2494.602378
355.500135	2491.623056
355.889717	2493.677326
356.279235	2495.482059
356.668689	2495.567759
357.058080	2495.308139
357.447408	2494.778818
357.836672	2490.647593
358.225873	2495.114055
358.615010	2492.981647
359.004084	2497.488438
359.393095	2499.101608
359.782043	2499.192348
360.170927	2500.223264
360.559748	2497.014570
360.948505	2501.092863
361.337199	2501.286948
361.725830	2501.269304
362.114398	2502.285096
362.502903	2501.808707
362.891344	2503.003461
363.279722	2502.166629
363.668037	2504.241064
364.056289	2504.044459
364.444478	2504.664521
364.832603	2504.251146
365.220665	2505.334994
365.608665	2505.829028
365.996601	2503.515138
366.384474	2504.566218
366.772284	2509.246930
367.160031	2506.328102
367.547715	2507.142248
367.935336	2507.485047
368.322893	2506.033194
368.710388	2507.018740
369.097820	2510.625685
369.485189	2507.253153
369.872495	2508.019409
370.259738	2508.372290
370.646918	2510.164420
371.034035	2507.527896
371.421090	2510.555109
371.808081	2506.559995
372.195010	2510.008144
372.581875	2511.535614
372.968678	2511.071828
373.355418	2509.158710
373.742096	2510.292969
374.128710	2511.013854
374.515262	2513.080727
374.901751	2510.749194
375.288177	2511.603669
375.674540	2512.889163
376.060841	2510.953360
376.447079	2513.345388
376.833254	2512.059894
377.219367	2510.189626
377.605417	2513.292456
377.991404	2508.911693
378.377329	2511.454955
378.763191	2507.414470
379.148991	2512.770696
379.534727	2513.027795
379.920402	2513.252127
380.306013	2514.830008
380.691563	2516.589370
381.077049	2515.170286
381.462474	2515.923938
381.847835	2515.931500
382.233134	2517.267406
382.618371	2514.010820
383.003545	2517.063239
383.388657	2518.951151
383.773706	2515.581140
384.158693	2517.375790
384.543618	2516.380163
384.928480	2518.018538
385.313280	2519.551048
385.698017	2518.124402
386.082692	2518.073990
386.467305	2516.652385
386.851856	2517.436284
387.236344	2519.019207
387.620770	2524.017511
388.005133	2518.812519
388.389435	2517.259844
388.773674	2518.507529
389.157851	2519.077180
389.541965	2521.189423
389.926018	2518.409227
390.310008	2519.808147
390.693936	2518.021058
391.077802	2522.636234
391.461606	2520.508868
391.845348	2521.559948
392.229027	2521.380987
392.612645	2521.912829
392.996200	2519.326717
393.379694	2520.186234
393.763125	2520.665143
394.146494	2522.119516
394.529801	2524.927439
394.913047	2523.173117
395.296230	2522.379136
395.679351	2518.769669
396.062410	2524.841739
396.445408	2526.701925
396.828343	2522.588343
397.211217	2517.663136
397.594028	2519.989629
397.976778	2521.875020
398.359466	2521.728827
398.742092	2518.061387
399.124656	2525.630680
399.507158	2523.422654
399.889598	2522.578261
400.271977	2524.806451
400.654294	2523.238652
401.036549	2525.807120
401.418742	2524.796369
401.800874	2529.051103
402.182944	2524.173786
402.564952	2524.614887
402.946898	2528.015146
403.328783	2527.132944
403.710606	2527.309384
404.092367	2526.553211
404.474067	2526.621267
404.855705	2524.667819
405.237282	2528.211751
405.618797	2526.480114
406.000250	2526.028931
406.381642	2527.707635
406.762972	2529.381298
407.144240	2527.284178
407.525447	2529.560259
407.906593	2526.530526
408.287677	2528.713345
408.668700	2526.351565
409.049661	2527.596730
409.430560	2529.577903
409.811399	2529.227543
410.192176	2527.286699
410.572891	2529.575383
410.953545	2530.402132
411.334138	2529.522451
411.714669	2529.136802
412.095139	2529.824920
412.475547	2530.447502
412.855894	2529.593027
413.236180	2529.136802
413.616405	2531.102852
413.996568	2529.414066
414.376670	2529.812317
414.756711	2531.985054
415.136691	2532.375744
415.516609	2530.437420
415.896466	2532.597554
416.276262	2530.197965
416.655997	2527.879034
417.035670	2530.298788
417.415283	2530.475229
417.794834	2526.956503
418.174324	2529.194776
418.553753	2530.495393
418.933121	2533.696526
419.312428	2529.691329
419.691674	2531.785929
420.070859	2529.232584
420.449983	2532.542102
420.829045	2532.390867
421.208047	2530.601258
421.586988	2533.227699
421.965867	2531.980013
422.344686	2533.096629
422.723444	2533.008408
423.102141	2533.280631
423.480777	2535.783564
423.859352	2531.717873
424.237866	2534.170394
424.616319	2531.244005
424.994712	2533.560415
425.373044	2534.913965
425.751314	2534.238450
426.129524	2533.694005
426.507673	2532.448840
426.885762	2536.713657
427.263789	2532.988244
427.641756	2533.867925
428.019662	2534.631660
428.397508	2537.250539
428.775292	2534.805580
429.153016	2533.845240
429.530679	2536.151568
429.908282	2534.596372
430.285824	2533.817514
430.663305	2536.380940
431.040726	2538.082330
431.418086	2537.369007
431.795385	2535.861702
432.172624	2535.382792
432.549802	2535.889428
432.926920	2537.215251
433.303977	2536.917823
433.680974	2537.910931
434.057910	2536.824562
434.434786	2537.966383
434.811601	2535.362627
435.188355	2537.011085
435.565050	2536.396064
435.941683	2539.362783
436.318257	2538.170550
436.694770	2532.506814
437.071222	2534.470343
437.447614	2530.780218
437.823946	2533.971269
438.200218	2537.981507
438.576429	2540.441590
438.952580	2540.184491
439.328670	2539.151054
439.704700	2538.218441
440.080670	2540.126518
440.456580	2540.018133
440.832429	2540.708771
441.208218	2539.887063
441.583947	2542.170706
441.959616	2539.471168
442.335224	2539.498894
442.710773	2541.094419
443.086261	2541.293545
443.461689	2541.603576
443.837057	2539.670293
444.212365	2541.359080
444.587612	2540.242464
444.962800	2539.292207
445.337927	2541.051569
445.712995	2541.401930
446.088002	2538.757844
446.462949	2540.073586
446.837837	2540.023174
447.212664	2539.014943
447.587431	2540.192053
447.962139	2541.618699
448.336786	2541.641384
448.711374	2540.373534
449.085901	2540.706250
449.460369	2540.824718
449.834776	2541.437218
450.209124	2541.535520
450.583412	2541.291024
450.957640	2539.871939
451.331808	2541.157434
451.705917	2542.906714
452.079965	2543.471323
452.453954	2539.420756
452.827883	2542.929399
453.201752	2541.275901
453.575562	2543.418391
453.949311	2543.574667
454.323001	2542.687424
454.696632	2542.873947
455.070202	2540.522248
455.443713	2541.800181
455.817164	2537.512679
456.190556	2539.549306
456.563888	2539.496373
456.937160	2538.039480
457.310373	2542.193391
457.683526	2540.953267
458.056619	2541.114584
458.429653	2542.044677
458.802628	2543.410829
459.175542	2541.812784
459.548398	2543.730943
459.921194	2542.810932
460.293930	2543.120963
460.666607	2544.040974
461.039224	2542.720191
461.411782	2542.962167
461.784280	2541.936292
462.156719	2542.989893
462.529099	2540.897814
462.901419	2543.005017
463.273680	2544.545089
463.645882	2542.702547
464.018024	2544.126673
464.390106	2545.757487
464.762130	2545.540717
465.134094	2546.047353
465.505999	2545.381921
465.877845	2543.720860
466.249631	2544.144317
466.621358	2540.809594
466.993026	2547.746222
467.364634	2546.128011
467.736184	2544.590459
468.107674	2545.006355
468.479105	2542.921838
468.850477	2542.821014
469.221790	2544.366128
469.593043	2546.359904
469.964238	2544.156920
470.335373	2545.633978
470.706449	2545.039122
471.077467	2546.609442
471.448425	2545.180274
471.819324	2545.848227
472.190164	2544.998793
472.560945	2546.022147
472.931667	2541.911086
473.302330	2544.300593
473.672934	2546.087682
474.043479	2547.935265
474.413965	2545.901159
474.784393	2539.415715
475.154761	2544.787064
475.525070	2543.536858
475.895321	2543.115922
476.265513	2540.789429
476.635645	2545.500388
477.005719	2545.046684
477.375734	2546.901828
477.745691	2544.224976
478.115588	2544.245140
478.485427	2547.912580
478.855207	2544.860161
479.224928	2545.618855
479.594591	2544.219935
479.964194	2548.184802
480.333739	2546.354863
480.703226	2546.538865
481.072653	2547.632796
481.442022	2548.507436
481.811333	2548.333516
482.180584	2547.421067
482.549777	2546.798485
482.918912	2544.792106
483.287988	2546.173382
483.657005	2548.197405
484.025964	2547.073228
484.394864	2549.361912
484.763706	2547.842004
485.132489	2545.838145
485.501213	2546.657332
485.869879	2547.017775
486.238487	2546.236396
486.607036	2548.401572
486.975527	2546.468289
487.343959	2547.559699
487.712333	2549.722354
488.080648	2548.366284
488.448905	2547.809236
488.817104	2548.046170
489.185244	2547.146324
489.553326	2546.478372
489.921350	2546.553989
490.289315	2545.888557
490.657222	2548.787220
491.025070	2548.860317
491.392861	2549.601366
491.760593	2548.073897
492.128267	2549.354350
492.495883	2547.040460
492.863440	2547.952909
493.230939	2548.293187
493.598380	2547.771427
493.965763	2543.814122
494.333088	2542.672300
494.700354	2543.645243
495.067563	2547.784030
495.434713	2542.599204
495.801805	2548.842673
496.168839	2545.739842
496.535815	2550.634803
496.902733	2550.559186
497.269593	2551.227138
497.636395	2550.032385
498.003139	2547.279915
498.369825	2549.409803
498.736453	2549.820657
499.103023	2547.403423
499.469535	2548.436860
499.835989	2548.658671
500.202385	2549.704710
500.568723	2549.704710
500.935003	2548.958619
501.301226	2550.115564
501.667390	2548.938455
502.033497	2553.803168
502.399546	2548.172199
502.765537	2547.095913
503.131470	2551.985832
503.497345	2551.143959
503.863163	2551.101110
504.228923	2548.144473
504.594625	2550.435677
504.960269	2548.567930
505.325856	2549.984494
505.691385	2549.883671
506.056856	2551.164124
506.422270	2550.508774
506.787625	2548.454504
507.152924	2548.512477
507.518164	2549.039278
507.883347	2550.337375
508.248472	2547.287477
508.613540	2550.503733
508.978550	2548.411654
509.343503	2549.808054
509.708398	2550.934752
510.073236	2551.292673
510.438016	2551.461552
510.802738	2550.539021
511.167403	2552.086655
511.532010	2551.063301
511.896561	2550.876778
512.261053	2551.010369
512.625488	2546.813608
512.989866	2547.579864
513.354186	2547.269833
513.718449	2545.976777
514.082655	2546.226314
514.446803	2549.014072
514.810894	2551.612787
515.174927	2551.065822
515.538904	2553.820812
515.902822	2549.072045
516.266684	2547.254709
516.630488	2548.865358
516.994235	2551.852242
517.357925	2550.460883
517.721558	2551.829556
518.085133	2552.263096
518.448651	2550.521377
518.812112	2548.966181
519.175516	2548.870399
519.538863	2554.629917
519.902152	2549.624052
520.265385	2550.670091
520.628560	2550.329813
520.991678	2549.624052
521.354739	2551.075904
521.717743	2549.921480
522.080690	2547.842004
522.443580	2552.200081
522.806413	2552.507592
523.169189	2550.047508
523.531908	2550.826367
523.894569	2551.580019
524.257174	2551.867365
524.619722	2547.375697
524.982213	2553.301573
525.344647	2548.832590
525.707025	2549.266130
526.069345	2549.167827
526.431608	2548.267981
526.793815	2549.402241
527.155964	2549.886192
527.518057	2549.946685
527.880093	2552.938610
528.242072	2551.196892
528.603995	2551.237221
528.965860	2551.781665
529.327669	2552.782334
529.689421	2549.407282
530.051117	2552.419371
530.412755	2550.662529
530.774337	2552.018600
531.135862	2551.073383
531.497331	2549.586243
531.858743	2546.871582
532.220098	2551.121274
532.581396	2547.988197
532.942638	2546.501057
533.303824	2550.334854
533.664953	2552.764690
534.026025	2550.748229
534.387040	2553.586398
534.747999	2551.998435
535.108902	2550.901984
535.469748	2553.944320
535.830537	2553.533466
536.191270	2551.096068
536.551947	2549.377035
536.912567	2553.725030
537.273131	2551.416182
537.633638	2553.677139
537.994089	2552.938610
538.354483	2550.786037
538.714821	2552.114382
539.075103	2552.890719
539.435328	2552.283260
539.795497	2551.514484
540.155609	2554.980277
540.515665	2549.785368
540.875665	2553.125133
541.235609	2552.915925
541.595496	2552.111861
541.955328	2556.018755
542.315102	2552.457180
542.674821	2551.670760
543.034483	2552.726882
543.394090	2549.442570
543.753640	2552.626059
544.113134	2549.903836
544.472571	2552.563044
544.831953	2551.791748
545.191278	2553.604043
545.550548	2551.423743
545.909761	2550.218908
546.268918	2551.489278
546.628019	2551.771583
546.987064	2552.111861
547.346053	2556.096893
547.704986	2553.586398
548.063863	2552.827705
548.422684	2551.678322
548.781449	2550.468445
549.140158	2550.786038
549.498811	2555.721327
549.857408	2550.294525
550.215949	2551.746377
550.574434	2549.298897
550.932864	2551.408620
551.291237	2547.284956
551.649555	2549.379556
552.007817	2552.532797
552.366022	2553.556152
552.724173	2554.672767
553.082267	2552.547921
553.440305	2553.636810
553.798288	2554.161090
554.156215	2551.839639
554.514086	2551.711089
554.871902	2552.263096
555.229661	2554.413148
555.587365	2551.958106
555.945014	2552.346275
556.302606	2553.946841
556.660143	2554.924825
557.017625	2552.255534
557.375050	2552.497509
557.732421	2550.478527
558.089735	2551.562375
558.446994	2555.224773
558.804197	2553.001625
559.161345	2551.393497
559.518437	2556.384239
559.875474	2554.357695
560.232455	2554.962633
560.589381	2552.008517
560.946251	2555.582695
561.303065	2553.278888
561.659825	2552.167314
562.016528	2554.445915
562.373177	2552.815102
562.729770	2553.099927
563.086307	2555.565051
563.442789	2553.435164
563.799216	2554.430792
564.155587	2551.159083
564.511904	2553.220915
564.868164	2553.006666
565.224370	2552.227808
565.580520	2552.568085
565.936615	2553.412479
566.292654	2552.563044
566.648638	2553.846018
567.004567	2552.913404
567.360441	2552.840308
567.716260	2553.374670
568.072023	2553.500699
568.427732	2547.204298
568.783385	2548.131870
569.138982	2548.010882
569.494525	2551.925338
569.850013	2550.438198
570.205445	2551.953065
570.560823	2553.929197
570.916145	2552.437015
571.271412	2552.623538
571.626625	2555.754095
571.981782	2554.206460
572.336884	2553.488096
572.691931	2552.973898
573.046923	2553.682180
573.401860	2552.000956
573.756743	2550.609597
574.111570	2553.377191
574.466342	2553.034392
574.821059	2553.117571
575.175722	2553.994732
575.530330	2553.775442
575.884882	2553.921635
576.239380	2553.853580
576.593823	2552.905843
576.948211	2554.463559
577.302544	2553.669577
577.656823	2555.368446
578.011047	2552.769732
578.365216	2553.856100
578.719330	2551.184289
579.073389	2551.615307
579.427394	2550.566747
579.781344	2553.984650
580.135239	2553.573796
580.489080	2554.486244
580.842866	2553.878785
581.196597	2556.474980
581.550273	2553.011707
581.903895	2551.189330
582.257463	2553.233518
582.610975	2552.283260
582.964434	2552.328631
583.317837	2552.668908
583.671186	2554.294681
584.024481	2551.882488
584.377721	2553.891388
584.730906	2551.491799
585.084037	2554.430792
585.437113	2553.029351
585.790135	2552.452139
586.143103	2555.960782
586.496016	2553.399876
586.848874	2547.426108
587.201679	2552.994063
587.554428	2551.259906
587.907124	2550.997766
588.259765	2549.354350
588.612352	2551.403579
588.964884	2553.840977
589.317362	2554.108158
589.669786	2550.997766
590.022155	2554.992880
590.374470	2551.950544
590.726731	2556.303580
591.078937	2553.586398
591.431090	2553.193188
591.783188	2551.244782
592.135232	2554.239228
592.487222	2554.831563
592.839157	2554.133364
593.191038	2554.433312
593.542866	2552.999104
593.894639	2552.469783
594.246358	2553.835936
594.598022	2556.580844
594.949633	2550.841490
595.301190	2553.074721
595.652692	2555.610422
596.004141	2551.635472
596.355535	2554.824002
596.706876	2553.062118
597.058162	2552.023641
597.409395	2555.680998
597.760573	2551.980791
598.111698	2555.481872
598.462768	2552.273178
598.813785	2552.915925
599.164748	2550.498692
599.515657	2553.936759
599.866511	2553.357026
600.217312	2554.569423
600.568060	2552.356357
600.918753	2553.488096
601.269392	2550.972560
601.619978	2552.351316
601.970510	2554.934907
602.320988	2554.511450
602.671412	2555.653272
603.021783	2554.261913
603.372100	2552.706717
603.722363	2551.915256
604.072572	2552.447098
604.422728	2556.522871
604.772830	2548.782179
605.122878	2549.462735
605.472872	2552.157231
605.822813	2549.523228
606.172701	2551.620348
606.522534	2550.654967
606.872314	2552.126984
607.222041	2554.670247
607.571714	2555.096224
607.921333	2552.016079
608.270899	2550.186140
608.620411	2551.191850
608.969870	2554.793755
609.319276	2555.779300
609.668627	2555.749053
610.017926	2556.318704
610.367171	2559.691236
610.716362	2559.265258
611.065500	2559.388767
611.414585	2555.928014
611.763616	2556.812737
612.112594	2554.917263
612.461518	2557.667213
612.810389	2556.676626
613.159207	2553.188147
613.507971	2556.021276
613.856682	2554.811399
614.205340	2554.806358
614.553945	2554.692932
614.902496	2555.360885
615.250994	2554.196378
615.599439	2552.447098
615.947830	2555.146636
616.296169	2555.489434
616.644454	2554.801317
616.992686	2552.923487
617.340864	2551.993394
617.688990	2551.804351
618.037063	2553.162942
618.385082	2552.641182
618.733048	2552.678991
619.080961	2552.994063
619.428821	2553.276367
619.776628	2551.146480
620.124382	2554.403065
620.472083	2553.006666
620.819731	2552.739485
621.167326	2553.679660
621.514868	2555.829712
621.862357	2552.472303
622.209793	2552.091696
622.557176	2552.658826
622.904506	2551.418702
623.251783	2549.440049
623.599007	2553.432643
623.946179	2550.402910
624.293297	2548.116747
624.640363	2551.035575
624.987376	2552.706717
625.334336	2553.301573
625.681243	2552.580688
626.028097	2553.694783
626.374899	2554.461039
626.721647	2554.108158
627.068343	2556.323745
627.414987	2553.989691
627.761577	2552.237890
628.108115	2555.091183
628.454600	2553.420040
628.801032	2552.636141
629.147412	2553.631769
629.493739	2552.522715
629.840014	2551.867365
630.186236	2553.636810
630.532405	2556.152346
630.878521	2553.823333
631.224585	2551.995914
631.570597	2551.713610
631.916556	2554.299722
632.262462	2552.913404
632.608316	2552.845349
632.954117	2552.177396
633.299866	2554.012376
633.645562	2553.072201
633.991206	2553.576316
634.336797	2554.493806
634.682336	2555.101265
635.027823	2551.511964
635.373257	2554.846687
635.718639	2551.053219
636.063968	2552.452139
636.409245	2555.431461
636.754470	2552.772252
637.099642	2552.769732
637.444762	2555.156718
637.789829	2555.053374
638.134845	2551.272509
638.479808	2555.008004
638.824719	2556.669064
639.169577	2554.350133
639.514383	2551.154042
639.859137	2552.502550
640.203839	2552.000956
640.548489	2552.905843
640.893086	2550.082797
641.237632	2547.703372
641.582125	2549.843342
641.926566	2548.885523
642.270955	2552.777293
642.615292	2552.787376
642.959576	2552.789896
643.303809	2553.561193
643.647990	2552.454659
643.992118	2553.364588
644.336195	2551.136398
644.680219	2551.746377
645.024192	2552.802499
645.368112	2552.615976
645.711981	2555.542366
646.055797	2551.895091
646.399562	2549.777807
646.743274	2552.298384
647.086935	2550.528939
647.430544	2553.135215
647.774101	2551.196892
648.117606	2552.036244
648.461059	2550.249155
648.804460	2554.874413
649.147810	2554.556821
649.491108	2553.200750
649.834354	2553.130174
650.177548	2551.847200
650.520690	2553.503219
650.863781	2553.200750
651.206820	2552.331151
651.549807	2551.897612
651.892742	2552.951213
652.235626	2553.599001
652.578458	2552.963816
652.921238	2552.177396
653.263967	2553.021789
653.606644	2553.299053
653.949269	2554.892057
654.291843	2551.189330
654.634365	2554.897098
654.976836	2553.606563
655.319255	2555.454146
655.661622	2553.808209
656.003938	2552.303425
656.346203	2550.140770
656.688416	2551.660678
657.030577	2553.563713
657.372687	2554.140925
657.714746	2554.108158
658.056753	2554.609753
658.398708	2544.537527
658.740612	2551.121274
659.082465	2547.736139
659.424266	2549.525749
659.766016	2545.356715
660.107715	2550.720503
660.449362	2552.696635
660.790958	2552.106820
661.132503	2552.752087
661.473996	2554.128323
661.815438	2551.113712
662.156829	2552.366439
662.498168	2552.860472
662.839456	2552.860472
663.180693	2552.245452
663.521879	2555.796944
663.863013	2551.731254
664.204097	2553.062118
664.545129	2553.939279
664.886110	2552.721841
665.227040	2553.518343
665.567918	2552.545400
665.908746	2551.363250
666.249522	2550.806202
666.590248	2551.355688
666.930922	2551.748898
667.271545	2553.351985
667.612118	2554.544218
667.952639	2551.529608
668.293109	2554.196378
668.633528	2552.290822
668.973896	2551.247303
669.314213	2550.339895
669.654480	2553.689742
669.994695	2551.128836
670.334859	2552.353836
670.674973	2550.501212
671.015035	2554.208981
671.355047	2553.208312
671.695008	2552.633620
672.034918	2551.743857
672.374777	2553.745195
672.714585	2553.422561
673.054342	2552.681511
673.394049	2551.300235
673.733705	2555.013045
674.073310	2551.302756
674.412864	2553.190668
674.752368	2551.670760
675.091820	2553.593960
675.431223	2553.079762
675.770574	2553.225956
676.109875	2546.553989
676.449125	2549.760163
676.788324	2546.382590
677.127473	2551.169165
677.466571	2548.784699
677.805619	2552.278219
678.144616	2552.928528
678.483562	2552.028682
678.822458	2551.774104
679.161303	2553.157900
679.500098	2550.450801
679.838842	2553.719989
680.177535	2552.076573
680.516179	2552.825184
680.854771	2552.164793
681.193314	2552.767211
681.531805	2552.338713
681.870247	2553.762839
682.208638	2552.825184
682.546978	2552.807540
682.885268	2551.922818
683.223508	2555.817109
683.561697	2555.192006
683.899836	2551.602704
684.237925	2551.612787
684.575963	2550.357539
684.913951	2554.516491
685.251889	2556.527912
685.589776	2555.562531
685.927614	2553.452808
686.265401	2554.156049
686.603137	2553.568754
686.940824	2551.368291
687.278460	2553.435164
687.616046	2554.677808
687.953582	2553.011707
688.291068	2554.168652
688.628504	2556.797613
688.965889	2552.767211
689.303224	2554.791234
689.640510	2551.905174
689.977745	2554.357695
690.314930	2554.690411
690.652065	2554.582026
690.989150	2555.184444
691.326185	2551.733774
691.663170	2554.367777
692.000105	2555.789383
692.336990	2553.662016
692.673825	2552.447098
693.010610	2556.023796
693.347345	2549.629093
693.684030	2549.853424
694.020665	2550.488609
694.357251	2552.792417
694.693786	2551.706048
695.030272	2554.241748
695.366707	2554.337530
695.703093	2550.745708
696.039429	2553.785524
696.375716	2553.578837
696.711952	2552.822664
697.048139	2555.222253
697.384276	2555.146636
697.720363	2554.070349
698.056400	2552.850390
698.392388	2553.646892
698.728326	2553.059598
699.064214	2551.320400
699.400053	2555.280226
699.735842	2553.019269
700.071581	2556.933725
700.407270	2553.110009
700.742910	2554.408107
701.078501	2549.344267
701.414042	2553.364588
701.749533	2552.479865
702.084974	2553.553631
702.420366	2556.245607
702.755709	2555.847356
703.091002	2556.079249
703.426246	2552.172355
703.761440	2551.975750
704.096584	2555.431461
704.431679	2552.709238
704.766725	2555.265103
705.101721	2553.634289
705.436668	2556.411965
705.771565	2556.709393
706.106413	2554.783672
706.441212	2552.943651
706.775961	2558.088149
707.110661	2554.629917
707.445311	2554.919784
707.779913	2555.015566
708.114465	2554.924825
708.448967	2553.735112
708.783421	2555.207129
709.117825	2556.018755
709.452180	2557.100083
709.786485	2554.975236
710.120742	2555.088662
710.454949	2555.552448
710.789107	2555.260062
711.123216	2551.519525
711.457275	2555.504557
711.791286	2555.055895
712.125247	2555.585216
712.459159	2557.505896
712.793023	2558.030176
713.126837	2557.768036
713.460602	2556.409445
713.794318	2555.814588
714.127985	2557.349620
714.461602	2557.687377
714.795171	2557.326935
715.128691	2559.073694
715.462162	2559.164435
715.795584	2557.387428
716.128957	2557.377346
716.462281	2556.958930
716.795556	2557.228632
717.128782	2558.078067
717.461960	2556.008673
717.795088	2558.188972
718.128167	2559.678633
718.461198	2554.680329
718.794180	2557.389949
719.127113	2556.537994
719.459997	2555.060936
719.792833	2555.194527
720.125619	2555.708724
720.458357	2555.360885
720.791046	2558.650237
721.123686	2556.996739
721.456278	2558.158725
721.788821	2555.071018
722.121315	2556.938766
722.453761	2555.885165
722.786158	2554.791234
723.118506	2555.859959
723.450805	2558.125958
723.783056	2554.894578
724.115259	2558.448591
724.447412	2555.567572
724.779518	2556.225442
725.111574	2557.652089
725.443582	2558.211657
725.775542	2557.243756
726.107453	2556.548076
726.439315	2556.313663
726.771129	2561.009497
727.102895	2559.875238
727.434612	2563.343552
727.766281	2560.490259
728.097901	2556.653941
728.429473	2555.766698
728.760996	2559.151832
729.092471	2555.189485
729.423897	2560.212995
729.755276	2560.482697
730.086606	2560.691905
730.417887	2560.477656
730.749120	2560.298695
731.080305	2564.492935
731.411442	2563.772050
731.742530	2561.352296
732.073570	2561.899261
732.404562	2563.598130
732.735506	2563.802297
733.066401	2561.551422
733.397249	2562.292471
733.728048	2562.174004
734.058798	2560.306257
734.389501	2558.501523
734.720156	2558.463715
735.050762	2559.292985
735.381320	2559.378684
735.711831	2558.577141
736.042293	2563.817420
736.372707	2559.905485
736.703073	2559.131668
737.033391	2557.931873
737.363661	2560.999415
737.693883	2558.635114
738.024056	2560.636452
738.354182	2560.603685
738.684260	2560.878427
739.014290	2563.734241
739.344272	2561.105279
739.674207	2557.979764
740.004093	2561.763150
740.333931	2560.568397
740.663722	2561.808520
740.993464	2562.358006
741.323159	2563.154508
741.652806	2563.013356
741.982405	2561.652245
742.311956	2563.734241
742.641460	2561.430434
742.970915	2558.746019
743.300323	2560.994374
743.629683	2561.059909
743.958996	2562.428582
744.288260	2560.460012
744.617477	2559.590413
744.946647	2555.176882
745.275768	2560.061761
745.604842	2558.710731
745.933869	2557.705021
746.262847	2553.730071
746.591778	2561.342214
746.920662	2561.324570
747.249498	2560.230639
747.578286	2558.383056
747.907027	2561.916905
748.235720	2558.970351
748.564365	2562.680640
748.892963	2560.407080
749.221514	2560.291133
749.550017	2560.386915
749.878473	2561.616957
750.206881	2560.273489
750.535242	2562.763819
750.863555	2561.468243
751.191821	2560.777604
751.520039	2560.502862
751.848210	2560.162584
752.176334	2562.128634
752.504411	2564.192986
752.832440	2560.490259
753.160421	2562.904971
753.488356	2560.573438
753.816243	2561.702656
754.144082	2562.231977
754.471875	2561.624518
754.799620	2561.006977
755.127318	2559.492110
755.454969	2560.205433
755.782572	2562.350444
756.110129	2558.952707
756.437638	2559.666030
756.765100	2561.415310
757.092515	2562.484035
757.419882	2560.933880
757.747203	2563.847667
758.074477	2562.945301
758.401703	2561.405228
758.728882	2563.489745
759.056014	2563.557801
759.383099	2561.495969
759.710138	2562.544529
760.037129	2564.218192
760.364073	2563.799776
760.690970	2561.369940
761.017820	2564.649211
761.344623	2563.484704
761.671379	2564.442523
761.998088	2560.805331
762.324751	2564.724828
762.651366	2564.966803
762.977935	2576.228741
763.304456	2581.156469
763.630931	2592.166349
763.957359	2581.768969
764.283740	2577.242013
764.610074	2575.114646
764.936362	2575.225551
765.262602	2567.678944
765.588796	2566.489232
765.914943	2566.007802
766.241044	2562.990671
766.567097	2564.576114
766.893104	2563.419169
767.219064	2559.020762
767.544978	2560.961607
767.870845	2562.312636
768.196665	2561.780794
768.522438	2559.950855
768.848165	2559.870197
769.173846	2562.264745
769.499479	2559.308108
769.825066	2558.158725
770.150607	2557.536142
770.476101	2558.710731
770.801548	2564.225754
771.126949	2561.279199
771.452303	2560.263407
771.777611	2560.822975
772.102872	2561.198541
772.428087	2558.108313
772.753256	2560.986812
773.078378	2559.144271
773.403453	2557.941955
773.728482	2559.724003
774.053465	2558.100752
774.378401	2558.327604
774.703291	2558.713252
775.028135	2557.344579
775.352932	2557.112686
775.677683	2556.381718
776.002388	2558.725855
776.327046	2559.197203
776.651658	2557.586554
776.976224	2556.568241
777.300743	2556.878272
777.625216	2559.376164
777.949643	2555.368446
778.274024	2559.235011
778.598359	2555.557490
778.922647	2552.376522
779.246889	2554.478683
779.571086	2552.147149
779.895236	2554.763508
780.219339	2558.619991
780.543397	2557.286605
780.867409	2559.355999
781.191374	2557.972202
781.515294	2557.732748
781.839167	2555.302911
782.162995	2559.323232
782.486776	2556.933725
782.810511	2556.921122
783.134201	2559.272820
783.457844	2559.497151
783.781441	2556.313663
784.104993	2555.744012
784.428498	2555.749053
784.751958	2556.011193
785.075372	2558.597305
785.398739	2557.057233
785.722061	2558.322562
786.045337	2556.154866
786.368568	2557.611760
786.691752	2556.154866
787.014891	2559.517316
787.337983	2558.559497
787.661030	2562.083263
787.984031	2563.073850
788.306987	2565.475960
788.629897	2561.453119
788.952760	2561.657286
789.275579	2562.428582
789.598351	2561.992522
789.921078	2558.940104
790.243759	2557.387428
790.566395	2558.130999
790.888984	2558.035217
791.211529	2559.171997
791.534027	2557.102603
791.856480	2556.414486
792.178888	2557.498334
792.501249	2558.428427
792.823566	2556.593447
793.145836	2556.043961
793.468062	2554.887016
793.790241	2555.799465
794.112375	2558.451112
794.434464	2557.372305
794.756507	2557.669733
795.078505	2554.103117
795.400457	2556.096893
795.722364	2555.144115
796.044226	2556.369115
796.366042	2555.524722
796.687812	2555.295350
797.009538	2559.711400
797.331218	2561.637121
797.652852	2560.684343
797.974442	2559.930691
798.295986	2559.842470
798.617484	2556.096893
798.938938	2555.852397
799.260346	2560.376833
799.581709	2557.150494
799.903026	2559.567727
800.224299	2555.539846
800.545526	2556.759805
800.866708	2555.272664
801.187845	2555.418858
801.508936	2557.165618
801.829983	2559.585372
802.150984	2555.428940
802.471940	2555.991029
802.792851	2558.345248
803.113717	2560.046637
803.434538	2557.319373
803.755314	2558.062943
804.076045	2557.523540
804.396731	2555.318035
804.717372	2556.918601
805.037967	2557.647048
805.358518	2555.991029
805.679024	2556.631255
805.999485	2556.989177
806.319901	2554.735782
806.640272	2556.011193
806.960598	2556.681667
807.280879	2557.016904
807.601115	2557.082439
807.921306	2555.859959
808.241453	2555.859959
808.561554	2557.253838
808.881611	2556.835422
809.201623	2559.701318
809.521590	2553.445246
809.841513	2557.725186
810.161390	2558.667882
810.481223	2555.020607
810.801011	2557.251317
811.120755	2558.932542
811.440453	2558.395659
811.760107	2554.503888
812.079716	2554.965154
812.399281	2550.201264
812.718801	2555.507078
813.038276	2553.568754
813.357707	2556.429609
813.677093	2557.074877
813.996434	2557.347099
814.315731	2556.180072
814.634983	2555.262582
814.954191	2556.096893
815.273354	2557.405072
815.592473	2555.905329
815.911547	2557.258879
816.230577	2557.957079
816.549562	2559.819785
816.868502	2557.309291
817.187399	2558.824157
817.506250	2557.838612
817.825058	2560.825495
818.143821	2559.587892
818.462539	2559.920608
818.781213	2562.065619
819.099843	2561.677450
819.418429	2563.051165
819.736970	2566.073337
820.055466	2567.520148
820.373919	2572.730180
820.692327	2579.785275
821.010691	2583.341809
821.329011	2594.386977
821.647286	2617.087293
821.965517	2642.598052
822.283704	2653.814619
822.601847	2665.931033
822.919945	2663.733089
823.237999	2660.683191
823.556010	2641.935140
823.873976	2626.683129
824.191897	2614.730553
824.509775	2606.095057
824.827609	2595.778336
825.145398	2587.793148
825.463144	2590.200299
825.780845	2592.433530
826.098502	2595.778336
826.416116	2601.220261
826.733685	2608.807198
827.051210	2617.820781
827.368692	2614.281891
827.686129	2607.108329
828.003522	2595.601895
828.320872	2580.702765
828.638177	2579.883577
828.955439	2570.340673
829.272656	2567.089129
829.589830	2563.189797
829.906960	2567.290775
830.224046	2562.965465
830.541088	2562.005125
830.858086	2563.454457
831.175041	2563.076371
831.491952	2559.350958
831.808819	2561.458160
832.125642	2563.484704
832.442421	2565.634756
832.759157	2569.992834
833.075849	2577.612538
833.392497	2583.727457
833.709101	2589.736513
834.025662	2594.855804
834.342179	2588.572006
834.658653	2582.759556
834.975083	2574.847465
835.291469	2575.772517
835.607811	2567.941084
835.924110	2564.379509
836.240366	2562.708366
836.556578	2559.325752
836.872746	2560.462532
837.188871	2557.856256
837.504952	2559.509754
837.820990	2554.448436
838.136984	2553.384752
838.452935	2557.808365
838.768842	2555.683518
839.084706	2556.601008
839.400526	2558.015052
839.716303	2563.426731
840.032037	2566.947977
840.347727	2565.352452
840.663373	2568.097360
840.978977	2562.289951
841.294537	2559.252655
841.610054	2558.652758
841.925527	2558.869528
842.240957	2556.631255
842.556344	2556.200237
842.871687	2554.682849
843.186987	2555.554969
843.502244	2554.937428
843.817458	2554.982798
844.132629	2554.203940
844.447756	2551.980791
844.762840	2549.603887
845.077881	2550.632282
845.392879	2547.156407
845.707833	2550.949875
846.022745	2546.110367
846.337613	2551.070863
846.652438	2551.847200
846.967221	2551.486758
847.281960	2551.224618
847.596656	2549.298897
847.911309	2549.820657
848.225919	2550.470965
848.540485	2553.089845
848.855009	2549.566078
849.169490	2551.973229
849.483928	2548.537683
849.798323	2549.913918
850.112675	2549.712272
850.426984	2548.401572
850.741251	2550.932231
851.055474	2549.558517
851.369654	2551.995914
851.683792	2549.306459
851.997887	2549.571119
852.311938	2548.167158
852.625947	2550.450801
852.939914	2550.763352
853.253837	2550.206305
853.567718	2552.210163
853.881555	2548.356201
854.195350	2551.476676
854.509103	2548.169679
854.822812	2548.774617
855.136479	2553.967006
855.450103	2551.131357
855.763685	2550.241593
856.077224	2550.349978
856.390720	2551.564896
856.704173	2548.767055
857.017584	2552.056408
857.330953	2552.184958
857.644278	2550.949875
857.957561	2553.110009
858.270802	2552.941131
858.584000	2549.843342
858.897155	2551.804351
859.210268	2554.289639
859.523339	2549.704710
859.836367	2549.808054
860.149352	2552.636141
860.462295	2551.111192
860.775195	2549.515667
861.088054	2549.855945
861.400869	2548.482230
861.713642	2546.932075
862.026373	2547.239586
862.339062	2550.881819
862.651708	2551.842159
862.964312	2551.859803
863.276873	2553.052036
863.589392	2552.479865
863.901869	2552.137067
864.214303	2551.070863
864.526696	2553.228477
864.839045	2550.869217
865.151353	2554.408107
865.463619	2550.589433
865.775842	2553.344423
866.088023	2554.027499
866.400162	2551.385935
866.712258	2552.154711
867.024313	2551.030533
867.336325	2553.510781
867.648296	2551.635472
867.960224	2553.593960
868.272110	2550.498692
868.583954	2554.501368
868.895755	2553.248641
869.207515	2552.976419
869.519233	2554.337530
869.830909	2554.410627
870.142542	2554.143446
870.454134	2553.619166
870.765684	2552.245452
871.077191	2554.009855
871.388657	2552.888199
871.700081	2553.251162
872.011463	2553.606563
872.322803	2551.935421
872.634101	2553.480534
872.945357	2553.609084
873.256571	2554.271995
873.567744	2554.382901
873.878874	2554.461039
874.189963	2554.995401
874.501010	2555.955741
874.812015	2554.491286
875.122979	2558.892213
875.433900	2554.924825
875.744780	2558.665361
876.055618	2554.778631
876.366415	2555.010524
876.677169	2557.183262
876.987882	2550.912066
877.298554	2549.374514
877.609183	2555.318035
877.919771	2556.769887
878.230317	2554.745864
878.540822	2560.732234
878.851285	2558.970351
879.161707	2564.510579
879.472087	2562.829354
879.782425	2569.282031
880.092722	2575.417115
880.402977	2582.497416
880.713191	2593.109045
881.023363	2601.303440
881.333494	2609.830552
881.643583	2614.402878
881.953631	2614.972529
882.263637	2618.912191
882.573602	2612.376335
882.883526	2604.854933
883.193408	2599.657503
883.503248	2595.770774
883.813048	2591.037130
884.122806	2583.243507
884.432522	2576.967270
884.742197	2573.226734
885.051831	2573.703123
885.361424	2568.644325
885.670975	2565.985116
885.980485	2564.520661
886.289954	2562.650393
886.599382	2562.904971
886.908768	2563.217523
887.218113	2561.291802
887.527417	2558.317521
887.836680	2557.967161
888.145901	2555.118909
888.455082	2558.224260
888.764221	2556.321224
889.073319	2555.539846
889.382376	2555.330638
889.691392	2552.568085
890.000366	2554.481203
890.309300	2554.161090
890.618193	2555.391132
890.927044	2554.705535
891.235855	2555.496996
891.544625	2554.261913
891.853353	2554.491286
892.162041	2555.865000
892.470687	2556.054043
892.779293	2556.200237
893.087858	2557.074877
893.396381	2554.196378
893.704864	2560.444888
894.013306	2563.041083
894.321707	2571.013667
894.630068	2572.054666
894.938387	2577.065572
895.246665	2577.670511
895.554903	2575.664132
895.863100	2574.943247
896.171256	2568.987123
896.479371	2568.576269
896.787446	2562.973027
897.095480	2561.748027
897.403473	2561.934549
897.711425	2559.204764
898.019336	2561.148129
898.327207	2558.768705
898.635038	2558.317521
898.942827	2556.701832
899.250576	2555.086142
899.558284	2553.142777
899.865952	2553.505740
900.173579	2555.746533
900.481165	2555.134033
900.788711	2554.017417
901.096216	2551.680842
901.403681	2554.629917
901.711105	2554.483724
902.018489	2553.225956
902.325832	2555.209650
902.633135	2555.280226
902.940397	2554.980277
903.247619	2557.679815
903.554800	2559.456822
903.861941	2567.131979
904.169041	2573.682958
904.476101	2577.998186
904.783121	2580.430543
905.090100	2579.271077
905.397039	2575.883422
905.703938	2572.596590
906.010796	2568.540981
906.317614	2561.377502
906.624391	2558.748540
906.931129	2559.681153
907.237826	2556.086811
907.544483	2555.071018
907.851099	2550.392828
908.157675	2549.361912
908.464211	2552.449618
908.770707	2544.358566
909.077163	2548.620862
909.383578	2544.855120
909.689954	2547.602549
909.996289	2546.458207
910.302584	2548.719164
910.608839	2549.329144
910.915054	2550.609597
911.221229	2549.457693
911.527363	2550.859134
911.833458	2550.947354
912.139513	2550.292004
912.445527	2548.726726
912.751502	2551.451470
913.057436	2554.541697
913.363331	2551.040616
913.669186	2550.881819
913.975000	2555.081101
914.280775	2551.874927
914.586510	2559.240052
914.892205	2556.802655
915.197859	2566.214489
915.503475	2568.488049
915.809050	2571.623647
916.114585	2572.372258
916.420081	2574.338308
916.725536	2579.896180
917.030952	2577.569688
917.336328	2574.262691
917.641665	2569.029973
917.946961	2567.522668
918.252218	2562.789025
918.557435	2559.166956
918.862612	2560.903633
919.167750	2556.691749
919.472848	2555.633107
919.777906	2554.478683
920.082925	2551.882488
920.387904	2551.917777
920.692843	2550.959957
920.997743	2553.583878
921.302603	2552.689073
921.607423	2550.261757
921.912204	2550.397869
922.216946	2549.777807
922.521647	2553.314176
922.826310	2549.409803
923.130932	2547.821839
923.435516	2548.061294
923.740059	2550.133208
924.044564	2548.323434
924.349028	2548.366284
924.653454	2544.451828
924.957840	2543.307486
925.262186	2543.395706
925.566493	2546.281767
925.870761	2542.800850
926.174989	2548.630944
926.479178	2547.509288
926.783328	2548.086500
927.087438	2544.920655
927.391509	2544.401416
927.695541	2547.166489
927.999533	2547.496685
928.303486	2549.450132
928.607400	2545.253371
928.911275	2544.807229
929.215110	2546.858979
929.518906	2545.087013
929.822663	2546.705223
930.126381	2547.058104
930.430060	2548.315872
930.733699	2547.499205
931.037299	2546.364946
931.340861	2546.644730
931.644383	2543.947712
931.947866	2543.337733
932.251309	2546.211190
932.554714	2546.238917
932.858080	2547.589946
933.161407	2545.185316
933.464694	2544.202291
933.767943	2547.577343
934.071153	2545.074410
934.374323	2546.032229
934.677455	2546.392672
934.980548	2545.840666
935.283602	2546.677497
935.586617	2543.577187
935.889593	2542.914276
936.192530	2543.569626
936.495428	2543.032743
936.798287	2546.879143
937.101108	2547.761345
937.403890	2547.993238
937.706632	2548.003321
938.009336	2548.199926
938.312002	2548.038609
938.614628	2545.301262
938.917216	2546.140614
939.219765	2544.766900
939.522275	2547.731098
939.824747	2547.847045
940.127179	2542.410160
940.429573	2542.659697
940.731929	2544.865202
941.034246	2543.756148
941.336524	2545.974256
941.638763	2547.068187
941.940964	2546.921993
942.243126	2544.877805
942.545250	2544.524924
942.847335	2543.148689
943.149381	2543.826725
943.451389	2542.851261
943.753359	2545.714637
944.055290	2546.125491
944.357182	2547.380738
944.659036	2545.182795
944.960851	2546.972405
945.262628	2545.853268
945.564367	2546.107847
945.866067	2543.549461
946.167729	2546.261602
946.469352	2546.838814
946.770937	2545.291180
947.072484	2546.422919
947.373992	2546.521221
947.675462	2545.258412
947.976893	2546.511139
948.278286	2546.508618
948.579641	2547.426108
948.880958	2544.514842
949.182236	2547.105995
949.483476	2546.274205
949.784678	2547.433670
950.085841	2543.206663
950.386967	2547.068187
950.688054	2543.856972
950.989103	2547.146324
951.290114	2546.460728
951.591087	2544.436704
951.892021	2547.189174
952.192917	2546.117929
952.493776	2547.426108
952.794596	2546.866540
953.095378	2544.482075
953.396122	2546.183464
953.696828	2545.717157
953.997496	2545.192877
954.298126	2544.887888
954.598718	2544.787064
954.899272	2543.743546
955.199788	2545.722198
955.500266	2543.302445
955.800706	2545.059287
956.101108	2542.332023
956.401472	2543.035263
956.701798	2538.848585
957.002087	2541.752290
957.302337	2542.326981
957.602550	2544.938299
957.902724	2542.821014
958.202861	2544.981149
958.502960	2545.578526
958.803022	2547.547096
959.103045	2543.499050
959.403031	2544.512322
959.702979	2543.511652
960.002889	2543.839327
960.302762	2543.448638
960.602596	2542.238761
960.902393	2540.665921
961.202153	2543.476364
961.501875	2539.972763
961.801559	2542.871426
962.101205	2541.913607
962.400814	2539.874460
962.700385	2542.639533
962.999918	2544.134235
963.299414	2544.532486
963.598873	2541.845551
963.898293	2542.619368
964.197677	2542.768082
964.497022	2542.606765
964.796331	2543.244471
965.095601	2544.361087
965.394835	2540.870088
965.694030	2545.087013
965.993189	2543.733463
966.292309	2544.565254
966.591393	2541.817825
966.890439	2544.507280
967.189447	2542.871426
967.488419	2541.505273
967.787353	2543.748587
968.086249	2542.211035
968.385108	2542.947043
968.683930	2542.989893
968.982714	2544.116591
969.281462	2541.643905
969.580172	2543.683052
969.878844	2544.456869
970.177480	2543.103319
970.476078	2544.313196
970.774639	2544.814791
971.073162	2544.809750
971.371649	2541.563247
971.670098	2538.679707
971.968510	2542.150541
972.266885	2537.195087
972.565223	2541.101981
972.863524	2542.878988
973.161788	2544.842517
973.460014	2541.913607
973.758204	2545.081972
974.056356	2541.759852
974.354471	2545.175233
974.652550	2545.389482
974.950591	2544.224976
975.248595	2543.133566
975.546563	2544.940820
975.844493	2544.298073
976.142386	2543.627599
976.440243	2540.557536
976.738062	2542.004348
977.035845	2541.906045
977.333590	2542.611807
977.631299	2543.536858
977.928971	2541.389327
978.226606	2543.055428
978.524204	2541.853113
978.821765	2545.018957
979.119290	2544.328319
979.416777	2544.903011
979.714228	2541.144831
980.011642	2541.648946
980.309020	2546.750594
980.606360	2540.980993
980.903664	2542.001827
981.200931	2542.057280
981.498162	2542.823535
981.795356	2544.028371
982.092513	2543.826725
982.389633	2543.436035
982.686717	2543.836807
982.983764	2545.901159
983.280775	2543.977959
983.577749	2546.879143
983.874686	2543.728422
984.171587	2543.771272
984.468451	2543.027702
984.765279	2542.873947
985.062070	2543.892260
985.358824	2543.020140
985.655543	2544.953422
985.952224	2542.319420
986.248869	2541.459903
986.545478	2540.784388
986.842050	2538.909079
987.138586	2539.761034
987.435086	2538.881353
987.731549	2538.674665
988.027975	2542.130376
988.324366	2541.744728
988.620719	2542.500901
988.917037	2543.057949
989.213318	2544.240099
989.509563	2543.259595
989.805772	2544.408978
990.101944	2542.573998
990.398080	2541.094419
990.694180	2543.393185
990.990244	2544.471992
991.286271	2542.458051
991.582262	2540.776827
991.878217	2542.488298
992.174136	2543.511653
992.470019	2542.813453
992.765865	2544.353525
993.061676	2543.327650
993.357450	2544.071221
993.653188	2543.332692
993.948890	2543.340253
994.244556	2541.787578
994.540186	2542.843700
994.835780	2541.129707
995.131337	2543.806560
995.426859	2541.926210
995.722345	2539.415715
996.017795	2541.091899
996.313208	2543.115922
996.608586	2543.587270
996.903928	2540.794471
997.199234	2542.316899
997.494504	2542.720191
997.789738	2541.248174
998.084936	2542.294214
998.380099	2542.221117
998.675225	2543.211704
998.970316	2541.351518
999.265371	2543.347815
999.560390	2538.354552
999.855373	2542.422763
1000.150320	2541.651467
1000.445232	2543.728422
1000.740108	2540.796991
1001.034948	2543.932589
1001.329752	2540.244985
1001.624521	2542.669780
1001.919254	2538.382278
1002.213951	2538.856147
1002.508613	2540.774306
1002.803239	2540.307999
1003.097829	2538.904038
1003.392384	2539.400592
1003.686903	2539.100643
1003.981386	2543.418391
1004.275834	2540.736497
1004.570246	2545.603731
1004.864623	2543.705737
1005.158964	2540.587783
1005.453270	2540.912938
1005.747540	2543.753628
1006.041775	2541.843031
1006.335974	2541.938813
1006.630138	2542.553833
1006.924266	2540.953267
1007.218359	2541.651467
1007.512416	2544.025850
1007.806438	2540.277752
1008.100425	2543.229348
1008.394376	2539.556867
1008.688292	2544.111550
1008.982172	2540.509645
1009.276017	2540.786909
1009.569827	2543.864533
1009.863602	2542.407640
1010.157341	2541.490150
1010.451045	2543.269677
1010.744714	2541.386806
1011.038347	2544.325799
1011.331945	2538.846065
1011.625508	2539.791281
1011.919036	2537.008564
1012.212528	2540.880170
1012.505986	2539.385468
1012.799408	2542.700027
1013.092795	2541.895963
1013.386147	2542.276570
1013.679464	2540.474357
1013.972745	2542.001827
1014.265992	2541.648946
1014.559204	2539.874460
1014.852380	2540.739018
1015.145521	2544.434184
1015.438628	2540.769265
1015.731699	2541.764893
1016.024736	2542.758000
1016.317737	2539.272042
1016.610703	2543.748587
1016.903635	2538.074768
1017.196531	2537.058976
1017.489393	2541.071734
1017.782219	2538.213400
1018.075011	2542.669780
1018.367768	2541.908566
1018.660490	2545.689431
1018.953177	2545.689431
1019.245829	2545.689431
