Dividing Wavelength (nm)	Counts (n)	Blue Motor Position (mm): 37.800000	Red Motor Position (mm): 0.000000	
326.493990	2051.305994
326.888308	2051.305994
327.282561	2051.305994
327.676750	2027.060564
328.070874	2029.298837
328.464933	2034.191277
328.858929	2040.800229
329.252859	2052.795655
329.646726	2062.033569
330.040528	2084.136508
330.434265	2098.208889
330.827938	2122.298043
331.221547	2141.645991
331.615091	2161.964362
332.008571	2183.464883
332.401986	2204.312575
332.795338	2224.058774
333.188625	2244.387227
333.581847	2262.905906
333.975006	2280.476848
334.368100	2297.843623
334.761129	2313.428350
335.154095	2330.424600
335.546996	2381.829246
335.939833	2488.248003
336.332606	2497.939622
336.725315	2513.683145
337.117960	2523.208405
337.510540	2533.439427
337.903056	2539.834131
338.295508	2550.017262
338.687896	2555.186965
339.080220	2558.756102
339.472480	2564.654252
339.864676	2569.007288
340.256807	2573.246898
340.648875	2571.348904
341.040879	2572.455437
341.432818	2576.077506
341.824694	2578.711509
342.216506	2576.836200
342.608253	2574.832341
342.999937	2574.502146
343.391557	2572.601631
343.783113	2572.914182
344.174605	2570.922927
344.566033	2567.189952
344.957397	2568.435117
345.348697	2562.158881
345.739934	2562.478994
346.131106	2563.865311
346.522215	2559.779456
346.913260	2559.615618
347.304241	2559.655948
347.695159	2555.076059
348.086012	2557.495813
348.476802	2553.765359
348.867528	2551.229659
349.258191	2546.145655
349.648789	2547.335368
350.039324	2538.964532
350.429796	2549.283774
350.820203	2547.421067
351.210548	2547.138763
351.600828	2544.608103
351.991045	2544.734132
352.381198	2541.853113
352.771288	2545.485264
353.161314	2542.679862
353.551276	2539.413194
353.941175	2543.289842
354.331010	2540.270191
354.720782	2546.884184
355.110490	2547.547096
355.500135	2543.650284
355.889717	2542.758000
356.279235	2544.330840
356.668689	2543.693134
357.058080	2542.881508
357.447408	2545.480223
357.836672	2545.265974
358.225873	2545.654143
358.615010	2546.216232
359.004084	2549.157745
359.393095	2547.174051
359.782043	2545.593649
360.170927	2549.228321
360.559748	2548.993907
360.948505	2550.372663
361.337199	2554.584547
361.725830	2551.713610
362.114398	2549.976932
362.502903	2554.370298
362.891344	2554.665205
363.279722	2551.917777
363.668037	2552.948692
364.056289	2552.752088
364.444478	2554.032541
364.832603	2554.786193
365.220665	2555.469269
365.608665	2556.149825
365.996601	2556.691749
366.384474	2555.612942
366.772284	2556.611091
367.160031	2557.362223
367.547715	2558.773746
367.935336	2556.462377
368.322893	2557.904147
368.710388	2552.578168
369.097820	2551.786707
369.485189	2554.907181
369.872495	2563.338511
370.259738	2561.236349
370.646918	2560.354147
371.034035	2562.592420
371.421090	2562.078222
371.808081	2562.156360
372.195010	2559.751730
372.581875	2561.327090
372.968678	2563.015877
373.355418	2562.955383
373.742096	2561.133006
374.128710	2562.297512
374.515262	2564.792883
374.901751	2567.583162
375.288177	2567.220199
375.674540	2563.925805
376.060841	2565.957390
376.447079	2564.523182
376.833254	2567.643656
377.219367	2566.199365
377.605417	2567.194993
377.991404	2567.184911
378.377329	2567.426886
378.763191	2568.893862
379.148991	2568.601475
379.534727	2568.039387
379.920402	2571.064079
380.306013	2567.482339
380.691563	2569.947463
381.077049	2569.763461
381.462474	2570.048286
381.847835	2573.012485
382.233134	2573.970304
382.618371	2572.039542
383.003545	2573.733370
383.388657	2568.737586
383.773706	2572.296641
384.158693	2573.493915
384.543618	2575.704461
384.928480	2573.388051
385.313280	2576.662280
385.698017	2573.700602
386.082692	2575.948957
386.467305	2576.014492
386.851856	2579.475244
387.236344	2578.595563
387.620770	2577.007599
388.005133	2575.149934
388.389435	2579.565985
388.773674	2575.943916
389.157851	2574.938206
389.541965	2579.513053
389.926018	2580.707806
390.310008	2582.275605
390.693936	2582.424319
391.077802	2584.639906
391.461606	2585.017993
391.845348	2582.880543
392.229027	2584.821388
392.612645	2582.918352
392.996200	2586.222828
393.379694	2588.009918
393.763125	2586.129567
394.146494	2586.396748
394.529801	2590.064188
394.913047	2592.088211
395.296230	2586.779876
395.679351	2592.831781
396.062410	2592.257090
396.445408	2593.109045
396.828343	2592.809096
397.211217	2597.686412
397.594028	2597.696495
397.976778	2595.077615
398.359466	2598.961824
398.742092	2602.679675
399.124656	2602.634305
399.507158	2608.086313
399.889598	2608.625716
400.271977	2614.324741
400.654294	2619.696090
401.036549	2624.936369
401.418742	2628.709673
401.800874	2636.072278
402.182944	2640.485808
402.564952	2651.478044
402.946898	2657.981133
403.328783	2666.639315
403.710606	2678.410409
404.092367	2692.752492
404.474067	2703.719522
404.855705	2714.542879
405.237282	2725.698952
405.618797	2747.065883
406.000250	2769.740993
406.381642	2789.119188
406.762972	2803.370530
407.144240	2814.992911
407.525447	2843.321675
407.906593	2862.679705
408.287677	2895.661454
408.668700	2920.027872
409.049661	2951.232614
409.430560	2980.942654
409.811399	2998.309429
410.192176	3029.892258
410.572891	3069.828279
410.953545	3119.967595
411.334138	3125.107051
411.714669	3178.644105
412.095139	3184.852286
412.475547	3242.825555
412.855894	3274.196656
413.236180	3329.412414
413.616405	3340.457582
413.996568	3402.020153
414.376670	3441.865433
414.756711	3468.321408
415.136691	3527.587733
415.516609	3596.275975
415.896466	3644.754231
416.276262	3712.663614
416.655997	3802.481852
417.035670	3872.871483
417.415283	3976.043738
417.794834	4040.172256
418.174324	4060.273857
418.553753	4103.259776
418.933121	4227.597315
419.312428	4274.585910
419.691674	4285.583187
420.070859	4442.504224
420.449983	4425.921348
420.829045	4579.578238
421.208047	4587.533179
421.586988	4716.009505
421.965867	4805.994102
422.344686	4896.835694
422.723444	5050.853026
423.102141	4853.048232
423.480777	5145.614116
423.859352	5068.865069
424.237866	5356.883832
424.616319	5398.702724
424.994712	5552.631836
425.373044	5539.179517
425.751314	5800.966636
426.129524	5648.416280
426.507673	5891.220934
426.885762	5961.045956
427.263789	6031.513725
427.641756	6143.742412
428.019662	6237.601135
428.397508	6306.707793
428.775292	6347.347055
429.153016	6507.832187
429.530679	6501.843297
429.908282	6572.122022
430.285824	6565.036681
430.663305	6812.370812
431.040726	6764.951198
431.418086	6794.971269
431.795385	6943.329906
432.172624	7126.210365
432.549802	7051.518109
432.926920	7200.176695
433.303977	7183.314035
433.680974	7253.154181
434.057910	7448.032585
434.434786	7509.552306
434.811601	7500.301789
435.188355	7839.878953
435.565050	7758.124041
435.941683	7783.924666
436.318257	8105.986341
436.694770	8077.614727
437.071222	8288.728168
437.447614	8090.426820
437.823946	8085.327693
438.200218	8237.265549
438.576429	8145.060325
438.952580	8313.510481
439.328670	8333.264242
439.704700	8421.713807
440.080670	8328.828027
440.456580	8587.252696
440.832429	8575.600069
441.208218	8339.248092
441.583947	8460.117317
441.959616	8570.601765
442.335224	8609.905121
442.710773	8704.393988
443.086261	8879.634578
443.461689	8619.861400
443.837057	8775.043239
444.212365	8980.223241
444.587612	8980.538313
444.962800	8881.078869
445.337927	9012.738684
445.712995	8581.846059
446.088002	9223.043019
446.462949	9285.313872
446.837837	9292.583216
447.212664	9352.605714
447.587431	10255.607438
447.962139	11221.532844
448.336786	11959.615741
448.711374	11567.512274
449.085901	10440.416138
449.460369	10422.026009
449.834776	10340.840747
450.209124	11258.381158
450.583412	11031.388083
450.957640	11241.266441
451.331808	10828.040540
451.705917	10358.331030
452.079965	10276.308936
452.453954	10476.886366
452.827883	10435.387587
453.201752	10396.850487
453.575562	10419.081975
453.949311	10774.939546
454.323001	10847.224651
454.696632	10765.812537
455.070202	11351.024963
455.443713	11412.446382
455.817164	11562.776110
456.190556	11875.937628
456.563888	11706.781711
456.937160	11923.074937
457.310373	11425.543299
457.683526	11471.163221
458.056619	11507.575475
458.429653	11591.656880
458.802628	11766.655495
459.175542	11819.287662
459.548398	12365.796629
459.921194	12951.518213
460.293930	13271.281122
460.666607	14094.090691
461.039224	14821.977853
461.411782	15082.711371
461.784280	14688.185630
462.156719	14601.898720
462.529099	14515.480741
462.901419	13938.412298
463.273680	13591.447323
463.645882	13822.700173
464.018024	13772.359211
464.390106	14174.008103
464.762130	15340.359703
465.134094	16997.018968
465.505999	19259.393033
465.877845	21270.715115
466.249631	22162.603615
466.621358	21524.166686
466.993026	20702.682940
467.364634	20007.374234
467.736184	19303.107398
468.107674	18755.421321
468.479105	18626.362741
468.850477	18346.835802
469.221790	17921.740503
469.593043	17287.172660
469.964238	16963.240717
470.335373	17070.473621
470.706449	17943.956868
471.077467	19059.128155
471.448425	21389.759442
471.819324	22870.847922
472.190164	22357.852544
472.560945	20695.358144
472.931667	19287.343710
473.302330	19043.493016
473.672934	18600.501622
474.043479	19036.417757
474.413965	18851.339355
474.784393	18691.373461
475.154761	19313.865220
475.525070	19451.150963
475.895321	19281.569068
476.265513	19801.914448
476.635645	20379.255112
477.005719	20452.077100
477.375734	20824.033596
477.745691	21416.623751
478.115588	22087.119898
478.485427	23343.216640
478.855207	25202.651277
479.224928	26928.908712
479.594591	28101.155942
479.964194	27563.844560
480.333739	27961.979767
480.703226	28247.079702
481.072653	28745.904396
481.442022	29252.260573
481.811333	29541.716065
482.180584	29041.333655
482.549777	28827.434977
482.918912	28636.849115
483.287988	28580.879704
483.657005	28415.169415
484.025964	28084.426873
484.394864	28270.700028
484.763706	28219.267656
485.132489	27721.357932
485.501213	27801.908009
485.869879	27999.652310
486.238487	27956.318551
486.607036	28222.539365
486.975527	27950.914434
487.343959	28266.352033
487.712333	28604.900802
488.080648	28580.642770
488.448905	29000.480144
488.817104	28938.736092
489.185244	29831.673152
489.553326	30987.803814
489.921350	32915.914090
490.289315	35297.657636
490.657222	35967.173278
491.025070	36362.981993
491.392861	35989.432493
491.760593	35186.064134
492.128267	34203.969227
492.495883	33256.318003
492.863440	32418.206012
493.230939	31544.747970
493.598380	31047.443184
493.965763	30927.551943
494.333088	30473.157459
494.700354	30297.437959
495.067563	30287.544695
495.434713	30209.908405
495.801805	30495.220068
496.168839	30364.984379
496.535815	30240.944268
496.902733	30382.595650
497.269593	30211.738344
497.636395	30359.446672
498.003139	30662.712405
498.369825	30431.567939
498.736453	30845.494561
499.103023	30691.988906
499.469535	30791.158484
499.835989	30942.877051
500.202385	30803.685752
500.568723	30884.873534
500.935003	31216.858721
501.301226	31110.157659
501.667390	31810.066418
502.033497	32007.354494
502.399546	31807.661787
502.765537	31420.929670
503.131470	31896.557494
503.497345	32321.660354
503.863163	31310.987146
504.228923	32087.889447
504.594625	32498.607374
504.960269	31995.376712
505.325856	32669.257994
505.691385	32357.361805
506.056856	32671.365196
506.422270	33176.493853
506.787625	32720.002248
507.152924	33176.798842
507.518164	33376.935171
507.883347	32943.262349
508.248472	33114.633854
508.613540	33797.322031
508.978550	34039.499062
509.343503	33904.496962
509.708398	34270.464567
510.073236	34871.004621
510.438016	34981.110983
510.802738	34679.730642
511.167403	35245.552270
511.532010	35489.402964
511.896561	35979.587120
512.261053	36736.687769
512.625488	36518.720879
512.989866	36458.554708
513.354186	36512.021186
513.718449	36481.547411
514.082655	37372.150417
514.446803	37074.535817
514.810894	37696.014305
515.174927	37736.220027
515.538904	37715.155566
515.902822	38362.079277
516.266684	38073.226203
516.630488	38426.013711
516.994235	38456.031261
517.357925	39035.151453
517.721558	39288.963467
518.085133	39685.765289
518.448651	39878.405422
518.812112	39784.080392
519.175516	39940.315832
519.538863	40376.998222
519.902152	40438.175145
520.265385	41000.518377
520.628560	41021.391275
520.991678	40967.029992
521.354739	41199.845600
521.717743	41565.064593
522.080690	41483.657521
522.443580	42165.791171
522.806413	42185.587782
523.169189	42322.959224
523.531908	42554.688464
523.894569	42412.298553
524.257174	42611.396403
524.619722	42950.353506
524.982213	43099.748100
525.344647	43149.970595
525.707025	43260.318932
526.069345	43721.478645
526.431608	43617.792193
526.793815	44007.922048
527.155964	43552.572265
527.518057	43832.633567
527.880093	43674.726984
528.242072	44301.324763
528.603995	44043.716761
528.965860	43969.329494
529.327669	44199.395153
529.689421	44259.258855
530.051117	44198.896079
530.412755	44484.114481
530.774337	44560.924022
531.135862	44486.836704
531.497331	44646.195139
531.858743	44638.792205
532.220098	45046.603907
532.581396	44771.112411
532.942638	44550.740891
533.303824	44786.404751
533.664953	44842.706878
534.026025	44533.174990
534.387040	45091.535711
534.747999	45175.317167
535.108902	45482.668756
535.469748	44818.864741
535.830537	45091.341627
536.191270	45317.250854
536.551947	45058.866513
536.912567	45344.984762
537.273131	45497.671229
537.633638	45112.511952
537.994089	45322.970043
538.354483	45064.719293
538.714821	45714.289610
539.075103	45991.338823
539.435328	45859.691611
539.795497	45612.710360
540.155609	45725.097844
540.515665	46307.109138
540.875665	45629.174769
541.235609	45903.027890
541.595496	46024.716302
541.955328	46589.126408
542.315102	46048.031639
542.674821	45916.301248
543.034483	45815.586556
543.394090	45835.829309
543.753640	45821.814901
544.113134	46879.461581
544.472571	45982.594941
544.831953	47127.269581
545.191278	46377.145888
545.550548	46080.731083
545.909761	46709.557052
546.268918	46851.896552
546.628019	47268.036240
546.987064	46709.730972
547.346053	45997.930131
547.704986	46905.839418
548.063863	46558.753456
548.422684	46755.512211
548.781449	46347.224120
549.140158	46880.590799
549.498811	46647.881056
549.857408	46053.037505
550.215949	46892.994558
550.574434	46722.139772
550.932864	46661.182140
551.291237	47372.292343
551.649555	47136.971281
552.007817	47314.969382
552.366022	46991.511308
552.724173	47042.421920
553.082267	47460.058831
553.440305	47799.358732
553.798288	47072.946107
554.156215	47448.554918
554.514086	47663.340839
554.871902	47287.981565
555.229661	47457.870970
555.587365	47154.872418
555.945014	47269.382228
556.302606	47290.849982
556.660143	47393.480312
557.017625	47611.222870
557.375050	47313.484762
557.732421	47716.764467
558.089735	47783.910116
558.446994	47650.773243
558.804197	48137.080752
559.161345	48009.902522
559.518437	47337.160542
559.875474	47600.969163
560.232455	47843.400773
560.589381	47899.292045
560.946251	47684.506124
561.303065	48351.901961
561.659825	48032.350780
562.016528	47838.977160
562.373177	47429.532124
562.729770	48063.182477
563.086307	47588.381402
563.442789	48136.916914
563.799216	47985.944439
564.155587	47862.612610
564.511904	47834.722426
564.868164	47875.490237
565.224370	48199.233137
565.580520	47927.998896
565.936615	48135.001276
566.292654	47771.158517
566.648638	48141.597625
567.004567	48078.999098
567.360441	48182.488945
567.716260	47898.316582
568.072023	48251.094008
568.427732	48199.467551
568.783385	47736.959330
569.138982	48138.129312
569.494525	48281.819840
569.850013	47872.374804
570.205445	47997.370214
570.560823	47780.802245
570.916145	47647.292326
571.271412	47880.077687
571.626625	47538.416006
571.981782	47609.455946
572.336884	47196.484623
572.691931	47538.733599
573.046923	47199.942854
573.401860	47044.350162
573.756743	47058.236020
574.111570	47203.902681
574.466342	47104.158411
574.821059	47258.780682
575.175722	46750.831499
575.530330	46866.518418
575.884882	46508.556166
576.239380	46383.096970
576.593823	46489.404823
576.948211	46413.109480
577.302544	45959.882023
577.656823	45955.496219
578.011047	46224.033443
578.365216	46040.885803
578.719330	45751.475682
579.073389	45744.302120
579.427394	45796.440253
579.781344	45735.835502
580.135239	45465.241487
580.489080	45546.119238
580.842866	45022.474424
581.196597	45530.136260
581.550273	45512.792170
581.903895	45450.717922
582.257463	45885.620785
582.610975	45319.557182
582.964434	45655.872719
583.317837	45161.302760
583.671186	45098.283295
584.024481	45389.568726
584.377721	44937.833451
584.730906	45125.639117
585.084037	45256.656185
585.437113	44951.621007
585.790135	45079.084061
586.143103	44636.253984
586.496016	44795.254497
586.848874	44905.665848
587.201679	44943.509790
587.554428	44427.666161
587.907124	44714.245675
588.259765	44475.567205
588.612352	44638.971166
588.964884	44093.178042
589.317362	44410.901804
589.669786	44408.570270
590.022155	44249.673101
590.374470	44718.071911
590.726731	44279.085713
591.078937	43619.909477
591.431090	43966.587107
591.783188	43495.256866
592.135232	43282.328610
592.487222	43542.661356
592.839157	43699.143813
593.191038	43326.978110
593.542866	43139.109429
593.894639	42536.366390
594.246358	42856.396480
594.598022	42837.666073
594.949633	42413.100096
595.301190	42389.230233
595.652692	42347.151722
596.004141	42813.740757
596.355535	41724.072668
596.706876	41732.493916
597.058162	41468.130767
597.409395	41947.259672
597.760573	42169.556913
598.111698	41771.577981
598.462768	41684.119003
598.813785	41717.844323
599.164748	41313.183342
599.515657	41589.685589
599.866511	41100.723913
600.217312	41789.259828
600.568060	40720.996479
600.918753	41547.491131
601.269392	41470.076652
601.619978	41184.800277
601.970510	41401.272464
602.320988	41523.528006
602.671412	41787.828141
603.021783	41659.427432
603.372100	41225.472306
603.722363	41332.591784
604.072572	41377.253886
604.422728	41376.585933
604.772830	41144.279482
605.122878	41292.948150
605.472872	41160.426298
605.822813	41419.884404
606.172701	41165.147338
606.522534	41504.832887
606.872314	41706.930224
607.222041	41537.421426
607.571714	41858.023688
607.921333	41362.143028
608.270899	41577.574217
608.620411	41972.253713
608.969870	41693.344315
609.319276	41711.346275
609.668627	41748.295412
610.017926	42139.937613
610.367171	42293.465954
610.716362	42326.745131
611.065500	42194.414842
611.414585	42432.647170
611.763616	42601.969446
612.112594	42506.590815
612.461518	42643.362360
612.810389	43020.382694
613.159207	42824.097808
613.507971	42789.334011
613.856682	43273.231848
614.205340	43112.966005
614.553945	43798.449502
614.902496	43124.419507
615.250994	43545.907859
615.599439	43601.431128
615.947830	43714.395824
616.296169	43713.763159
616.644454	43755.438378
616.992686	43917.277060
617.340864	44370.980907
617.688990	43891.988112
618.037063	44584.849338
618.385082	44396.416048
618.733048	44726.500720
619.080961	44588.738588
619.428821	44614.612310
619.776628	44635.331452
620.124382	44463.481038
620.472083	44572.972379
620.819731	44659.476059
621.167326	44232.888579
621.514868	44199.259042
621.862357	43694.815982
622.209793	43781.566678
622.557176	43338.766848
622.904506	43098.918830
623.251783	42734.274528
623.599007	42415.698811
623.946179	42332.897859
624.293297	42070.168044
624.640363	41537.076107
624.987376	41386.413663
625.334336	41168.668584
625.681243	40764.189085
626.028097	40675.121979
626.374899	40491.001396
626.721647	40457.470161
627.068343	40246.081978
627.414987	39955.595570
627.761577	39703.356396
628.108115	40033.935100
628.454600	39278.954256
628.801032	39507.860450
629.147412	39392.430629
629.493739	39293.596288
629.840014	38860.800627
630.186236	39301.518461
630.532405	38744.042463
630.878521	38953.895615
631.224585	38749.466744
631.570597	38405.347501
631.916556	38568.748941
632.262462	38458.342630
632.608316	38406.622912
632.954117	38255.385777
633.299866	38218.088800
633.645562	38129.573700
633.991206	37591.869107
634.336797	37199.642132
634.682336	37077.865499
635.027823	36841.074942
635.373257	36707.320527
635.718639	36401.022540
636.063968	36280.072656
636.409245	35636.284543
636.754470	35591.556905
637.099642	35366.731526
637.444762	34800.231862
637.789829	34946.997495
638.134845	34573.465639
638.479808	34481.325950
638.824719	34426.468113
639.169577	33925.841207
639.514383	34003.865666
639.859137	33644.582631
640.203839	33792.764828
640.548489	33494.867924
640.893086	33490.661081
641.237632	33217.954823
641.582125	33310.331446
641.926566	33117.605614
642.270955	33150.620131
642.615292	33076.875612
642.959576	32966.154229
643.303809	32972.969869
643.647990	33060.081007
643.992118	33012.109388
644.336195	32876.804818
644.680219	32939.907462
645.024192	33131.927532
645.368112	33680.359700
645.711981	33674.005326
646.055797	34423.027526
646.399562	34210.469795
646.743274	35093.576605
647.086935	35491.510166
647.430544	35438.744409
647.774101	35502.462073
648.117606	35778.155215
648.461059	35922.359941
648.804460	35514.835585
649.147810	35006.982185
649.491108	34672.531874
649.834354	34520.833472
650.177548	33682.096378
650.520690	33197.026472
650.863781	33184.852086
651.206820	33010.637371
651.549807	32609.031329
651.892742	32013.913035
652.235626	31930.570159
652.578458	31785.372325
652.921238	31102.275815
653.263967	31406.257392
653.606644	31114.929111
653.949269	31017.914626
654.291843	30626.121190
654.634365	30998.836379
654.976836	30531.952436
655.319255	30594.795460
655.661622	30481.750105
656.003938	30343.630052
656.346203	30149.701904
656.688416	30406.830997
657.030577	30173.680153
657.372687	30004.400727
657.714746	30161.183132
658.056753	30356.326198
658.398708	29716.124865
658.740612	29808.682970
659.082465	30014.964465
659.424266	29893.477698
659.766016	29905.773073
660.107715	29765.160168
660.449362	29864.254130
660.790958	29854.512100
661.132503	29774.934966
661.473996	29846.925163
661.815438	29928.052452
662.156829	30056.110363
662.498168	29859.086947
662.839456	29830.473358
663.180693	29957.666710
663.521879	30045.831450
663.863013	30000.768576
664.204097	29976.261006
664.545129	30387.820806
664.886110	30326.795118
665.227040	30422.508986
665.567918	30428.384451
665.908746	30498.494298
666.249522	30578.840208
666.590248	30613.324221
666.930922	30710.174868
667.271545	30693.440758
667.612118	30753.281775
667.952639	30573.967933
668.293109	30606.435484
668.633528	30480.116772
668.973896	30436.402406
669.314213	30411.335268
669.654480	30225.230992
669.994695	30206.364474
670.334859	30129.320519
670.674973	29966.004779
671.015035	30162.599697
671.355047	30087.224364
671.695008	30023.531906
672.034918	29928.894325
672.374777	30031.423832
672.714585	29879.760719
673.054342	30024.429231
673.394049	29875.231242
673.733705	30096.293400
674.073310	29820.834672
674.412864	29867.639264
674.752368	29568.882843
675.091820	29792.281576
675.431223	29395.754497
675.770574	29190.851758
676.109875	29041.164777
676.449125	28834.918570
676.788324	28736.706811
677.127473	28249.804446
677.466571	28145.931471
677.805619	27863.941927
678.144616	27809.651221
678.483562	27740.816786
678.822458	27434.995188
679.161303	27379.038380
679.500098	27301.777656
679.838842	27211.508235
680.177535	27305.533316
680.516179	27545.288072
680.854771	27665.305342
681.193314	28426.557382
681.531805	29445.276272
681.870247	30193.849809
682.208638	30920.280078
682.546978	31178.513184
682.885268	31315.710707
683.223508	30881.634593
683.561697	30620.613729
683.899836	30465.121859
684.237925	30038.095799
684.575963	29902.208977
684.913951	29527.442038
685.251889	29694.362204
685.589776	29721.937315
685.927614	29730.096423
686.265401	29910.305070
686.603137	30022.085095
686.940824	30509.708345
687.278460	30836.019712
687.616046	31012.634017
687.953582	31670.033246
688.291068	31594.950301
688.628504	31926.108738
688.965889	31917.937027
689.303224	31659.361123
689.640510	31370.818080
689.977745	30758.527096
690.314930	30024.983758
690.652065	29590.206924
690.989150	28917.752289
691.326185	28075.551922
691.663170	27431.224405
692.000105	26703.259104
692.336990	26098.239984
692.673825	25673.757186
693.010610	25184.808113
693.347345	24681.665671
693.684030	24056.865063
694.020665	23853.159598
694.357251	23169.826153
694.693786	23170.390763
695.030272	22938.779990
695.366707	22446.415535
695.703093	22176.434020
696.039429	22240.796952
696.375716	22002.549501
696.711952	21999.721413
697.048139	21856.010720
697.384276	21690.920493
697.720363	21807.386271
698.056400	21703.538502
698.392388	21544.013709
698.728326	21541.593955
699.064214	21372.801001
699.400053	21388.804143
699.735842	20999.001963
700.071581	20799.316818
700.407270	20548.095958
700.742910	20383.053622
701.078501	20136.669748
701.414042	19925.279044
701.749533	19615.863103
702.084974	19301.995824
702.420366	19541.987514
702.755709	19120.521847
703.091002	18826.569646
703.426246	18877.835660
703.761440	18810.034661
704.096584	18573.667560
704.431679	18507.426798
704.766725	18452.044682
705.101721	18385.284682
705.436668	18497.341970
705.771565	18226.168222
706.106413	18545.832829
706.441212	18608.181820
706.775961	18712.538746
707.110661	18798.833217
707.445311	19161.957611
707.779913	19027.845275
708.114465	19323.035079
708.448967	19628.808786
708.783421	20257.859087
709.117825	20619.143459
709.452180	20845.836586
709.786485	21292.742436
710.120742	22055.630330
710.454949	22165.943379
710.789107	22672.765863
711.123216	23386.217682
711.457275	23607.065591
711.791286	24164.786085
712.125247	24315.705628
712.459159	24052.670823
712.793023	24810.262985
713.126837	23788.365648
713.460602	24046.437437
713.794318	23707.634090
714.127985	23448.175983
714.461602	22556.784037
714.795171	22536.024565
715.128691	21548.349101
715.462162	21034.847088
715.795584	20616.378387
716.128957	20341.653146
716.462281	19963.173398
716.795556	19683.802734
717.128782	19203.675680
717.461960	18596.009954
717.795088	18559.370848
718.128167	18217.930977
718.461198	17759.299403
718.794180	17638.888923
719.127113	17286.318185
719.459997	17103.364629
719.792833	16736.482055
720.125619	16773.267355
720.458357	16439.928618
720.791046	16301.339738
721.123686	16153.013868
721.456278	15923.313693
721.788821	15916.629123
722.121315	15648.306148
722.453761	15750.593680
722.786158	15636.824920
723.118506	15715.403905
723.450805	15601.468787
723.783056	15773.871208
724.115259	15674.104252
724.447412	15664.722665
724.779518	15877.277876
725.111574	15928.763180
725.443582	16194.079107
725.775542	16148.232333
726.107453	16662.871127
726.439315	16578.094042
726.771129	16986.082185
727.102895	17414.423986
727.434612	17692.985545
727.766281	17856.996965
728.097901	18174.196447
728.429473	18265.244727
728.760996	18276.383156
729.092471	18405.943330
729.423897	18295.534499
729.755276	18165.177823
730.086606	18287.934960
730.417887	18856.945118
730.749120	19416.813144
731.080305	19621.176479
731.411442	20026.938953
731.742530	20138.076230
732.073570	20316.573406
732.404562	20634.692898
732.735506	20481.194805
733.066401	20280.524114
733.397249	19777.076683
733.728048	19166.144289
734.058798	18304.913566
734.389501	17537.566772
734.720156	17023.679110
735.050762	16440.674709
735.381320	16055.984259
735.711831	15786.960564
736.042293	15406.529889
736.372707	15439.345280
736.703073	15229.479524
737.033391	15440.250167
737.363661	15422.008752
737.693883	15544.042483
738.024056	15740.899541
738.354182	15960.018334
738.684260	16315.006306
739.014290	16595.780931
739.344272	16818.060527
739.674207	17173.721493
740.004093	17344.959407
740.333931	17401.478303
740.663722	17481.143657
740.993464	17528.989248
741.323159	17368.788941
741.652806	17083.061382
741.982405	16912.259528
742.311956	16559.605611
742.641460	16455.533510
742.970915	16119.374248
743.300323	15775.592762
743.629683	15565.570731
743.958996	15250.851496
744.288260	14928.061374
744.617477	14620.717348
744.946647	14592.698615
745.275768	14276.053659
745.604842	14071.118152
745.933869	13897.175660
746.262847	13863.019322
746.591778	13773.291824
746.920662	13662.157067
747.249498	13665.693437
747.578286	13825.797962
747.907027	13993.076050
748.235720	14262.969344
748.564365	14340.708978
748.892963	14257.908026
749.221514	14363.734448
749.550017	14222.292274
749.878473	14197.688923
750.206881	13971.434376
750.535242	13899.602975
750.863555	13818.526098
751.191821	13715.474831
751.520039	13732.962594
751.848210	13666.578159
752.176334	13712.296383
752.504411	13631.733704
752.832440	13452.266106
753.160421	13565.709712
753.488356	13460.997385
753.816243	13375.189385
754.144082	13200.750338
754.471875	13155.788287
754.799620	13124.414666
755.127318	13101.169906
755.454969	13078.315835
755.782572	13059.560222
756.110129	13066.489288
756.437638	12969.111839
756.765100	12979.705824
757.092515	13003.910924
757.419882	13040.635730
757.747203	13051.093604
758.074477	13144.170948
758.401703	13117.470477
758.728882	13324.117455
759.056014	13363.567004
759.383099	13531.805432
759.710138	13654.870079
760.037129	13769.304272
760.364073	13831.186956
760.690970	13862.878169
761.017820	13883.602353
761.344623	14112.075007
761.671379	14482.047808
761.998088	15184.114181
762.324751	16935.753826
762.651366	20321.017183
762.977935	24783.507061
763.304456	27760.492409
763.630931	28851.599748
763.957359	27665.713676
764.283740	25437.518635
764.610074	23167.721472
764.936362	20555.082997
765.262602	18666.979318
765.588796	16734.984832
765.914943	15437.026349
766.241044	14333.210262
766.567097	13544.393193
766.893104	12820.629694
767.219064	12347.313239
767.544978	11870.321782
767.870845	11483.894655
768.196665	11266.560430
768.522438	11026.001610
768.848165	10825.429222
769.173846	10622.931113
769.499479	10485.728549
769.825066	10319.793929
770.150607	10099.006514
770.476101	10010.627526
770.801548	9888.624041
771.126949	9728.557324
771.452303	9615.965673
771.777611	9416.020909
772.102872	9405.681503
772.428087	9269.046069
772.753256	9102.289741
773.078378	9017.479889
773.403453	8836.749482
773.728482	8719.971153
774.053465	8650.693097
774.378401	8547.039412
774.703291	8429.162112
775.028135	8300.307699
775.352932	8262.370495
775.677683	8161.081112
776.002388	8054.170842
776.327046	8062.866832
776.651658	7968.161195
776.976224	7865.135134
777.300743	7860.043569
777.625216	7775.785723
777.949643	7732.716625
778.274024	7749.584326
778.598359	7661.071747
778.922647	7680.046650
779.246889	7626.171839
779.571086	7634.986296
779.895236	7641.365877
780.219339	7650.487844
780.543397	7650.245869
780.867409	7734.493632
781.191374	7743.214828
781.515294	7706.452214
781.839167	7803.060886
782.162995	7772.103160
782.486776	7716.227011
782.810511	7679.061104
783.134201	7591.733196
783.457844	7580.251968
783.781441	7528.570059
784.104993	7460.481715
784.428498	7440.347346
784.751958	7426.184225
785.075372	7389.164511
785.398739	7340.295566
785.722061	7386.462453
786.045337	7390.487814
786.368568	7542.130763
786.691752	7570.686379
787.014891	7910.114829
787.337983	8263.416535
787.661030	8851.751956
787.984031	9480.381320
788.306987	9883.308144
788.629897	10092.810936
788.952760	10047.889214
789.275579	9833.080608
789.598351	9437.826420
789.921078	9072.128517
790.243759	8663.739603
790.566395	8374.248823
790.888984	8123.292622
791.211529	7913.643637
791.534027	7693.524175
791.856480	7494.633012
792.178888	7415.295332
792.501249	7312.269271
792.823566	7159.333266
793.145836	7160.059193
793.468062	7125.638194
793.790241	7084.570434
794.112375	7154.677761
794.434464	7304.291645
794.756507	7345.457707
795.078505	7495.306006
795.400457	7811.824932
795.722364	8164.040269
796.044226	8453.132798
796.366042	8727.313594
796.687812	8678.928599
797.009538	8755.975074
797.331218	8652.560844
797.652852	8569.694357
797.974442	8415.369515
798.295986	8331.406577
798.617484	8136.500446
798.938938	7999.179415
799.260346	7896.912047
799.581709	7703.188067
799.903026	7615.512319
800.224299	7509.627924
800.545526	7336.938157
800.866708	7239.149855
801.187845	7171.381624
801.508936	7070.828249
801.829983	7028.374172
802.150984	6877.053857
802.471940	6833.505849
802.792851	6818.271482
803.113717	6786.262676
803.434538	6752.796976
803.755314	6690.730290
804.076045	6694.526279
804.396731	6641.400079
804.717372	6676.511716
805.037967	6672.844276
805.358518	6715.646193
805.679024	6798.018647
805.999485	6803.115253
806.319901	6839.945923
806.640272	6868.027671
806.960598	6950.379960
807.280879	6946.344516
807.601115	7029.601693
807.921306	6975.827705
808.241453	6990.215158
808.561554	7016.875300
808.881611	6979.734599
809.201623	6986.646021
809.521590	6930.416991
809.841513	6913.390494
810.161390	6956.595703
810.481223	6823.776422
810.801011	6804.720861
811.120755	6786.187059
811.440453	6705.029523
811.760107	6670.820253
812.079716	6640.348998
812.399281	6583.913281
812.718801	6569.772845
813.038276	6528.503439
813.357707	6460.803263
813.677093	6507.149111
813.996434	6411.367188
814.315731	6454.184228
814.634983	6446.330110
814.954191	6458.862419
815.273354	6564.285549
815.592473	6627.315095
815.911547	6753.754795
816.230577	6835.512228
816.549562	6979.011193
816.868502	7084.613284
817.187399	7185.489293
817.506250	7340.761873
817.825058	7372.281687
818.143821	7645.855024
818.462539	7911.397803
818.781213	8278.045963
819.099843	8828.131630
819.418429	9827.510133
819.736970	10795.935951
820.055466	11983.621715
820.373919	13519.542825
820.692327	15877.963473
821.010691	20021.532315
821.329011	29036.189158
821.647286	42077.520567
821.965517	55582.600322
822.283704	60976.135863
822.601847	62993.993801
822.919945	60335.513594
823.237999	56207.456382
823.556010	50104.819538
823.873976	43375.980646
824.191897	36799.949208
824.509775	31926.622936
824.827609	27356.280091
825.145398	24713.785383
825.463144	23319.477846
825.780845	23609.734882
826.098502	25373.397678
826.416116	29136.876123
826.733685	32774.865126
827.051210	33943.732262
827.368692	32167.020439
827.686129	28217.067193
828.003522	24093.360497
828.320872	20372.925944
828.638177	17515.514244
828.955439	15351.964439
829.272656	13527.459957
829.589830	12046.386601
829.906960	10759.463203
830.224046	9814.269542
830.541088	9056.657216
830.858086	8593.879293
831.175041	8211.941313
831.491952	8090.152077
831.808819	8136.697051
832.125642	8535.699336
832.442421	9422.219008
832.759157	11206.026255
833.075849	14130.613850
833.392497	17352.425356
833.709101	19550.713752
834.025662	19419.628628
834.342179	17723.524855
834.658653	15531.795000
834.975083	13593.635184
835.291469	11973.110909
835.607811	10658.627523
835.924110	9729.724351
836.240366	8854.572482
836.556578	8053.399545
836.872746	7407.486585
837.188871	6899.890284
837.504952	6480.788917
837.820990	6165.547923
838.136984	5937.695331
838.452935	5845.883317
838.768842	5877.042689
839.084706	6295.897038
839.400526	7498.587797
839.716303	9089.833049
840.032037	10194.654847
840.347727	10124.867634
840.663373	9160.431888
840.978977	8114.273998
841.294537	7293.677496
841.610054	6694.632143
841.925527	6258.917654
842.240957	5892.599690
842.556344	5559.989400
842.871687	5276.421976
843.186987	4989.053521
843.502244	4760.321248
843.817458	4599.382411
844.132629	4457.030309
844.447756	4366.468501
844.762840	4286.568733
845.077881	4208.995457
845.392879	4147.591683
845.707833	4099.098303
846.022745	4055.459555
846.337613	4025.515101
846.652438	3981.636898
846.967221	3964.519660
847.281960	3930.360802
847.596656	3912.820107
847.911309	3893.194895
848.225919	3871.154971
848.540485	3854.491437
848.855009	3837.694312
849.169490	3817.312927
849.483928	3804.084939
849.798323	3796.250986
850.112675	3778.470837
850.426984	3786.345119
850.741251	3769.394239
851.055474	3765.459618
851.369654	3768.799383
851.683792	3766.629166
851.997887	3772.073612
852.311938	3771.342645
852.625947	3781.702216
852.939914	3768.370885
853.253837	3777.921351
853.567718	3775.211731
853.881555	3761.842591
854.195350	3778.226341
854.509103	3777.064355
854.822812	3773.583438
855.136479	3763.017179
855.450103	3779.542082
855.763685	3762.155142
856.077224	3765.925925
856.390720	3782.841517
856.704173	3799.139567
857.017584	3818.225376
857.330953	3825.686283
857.644278	3847.895087
857.957561	3852.268288
858.270802	3851.575129
858.584000	3855.789534
858.897155	3848.915920
859.210268	3832.912778
859.523339	3812.639777
859.836367	3810.444355
860.149352	3802.270124
860.462295	3793.848876
860.775195	3785.145324
861.088054	3779.779016
861.400869	3775.932616
861.713642	3776.711474
862.026373	3789.949544
862.339062	3792.457518
862.651708	3815.462823
862.964312	3850.241744
863.276873	3860.336654
863.589392	3915.144079
863.901869	3963.478662
864.214303	4006.885517
864.526696	4042.725601
864.839045	4086.117332
865.151353	4114.415849
865.463619	4127.061584
865.775842	4130.711379
866.088023	4149.524965
866.400162	4137.509375
866.712258	4147.934481
867.024313	4153.061335
867.336325	4149.235099
867.648296	4157.013599
867.960224	4156.328003
868.272110	4167.436185
868.583954	4167.733613
868.895755	4185.294473
869.207515	4177.609233
869.519233	4223.216552
869.830909	4236.434458
870.142542	4261.398252
870.454134	4270.389149
870.765684	4300.172286
871.077191	4338.550591
871.388657	4363.335423
871.700081	4402.532915
872.011463	4445.024801
872.322803	4478.467816
872.634101	4514.363352
872.945357	4551.841810
873.256571	4606.961786
873.567744	4636.855828
873.878874	4654.394002
874.189963	4692.684087
874.501010	4704.127506
874.812015	4704.293864
875.122979	4747.438579
875.433900	4743.229216
875.744780	4760.094396
876.055618	4785.653046
876.366415	4782.522489
876.677169	4807.070388
876.987882	4853.748952
877.298554	4905.801386
877.609183	4986.364066
877.919771	5096.331796
878.230317	5243.755299
878.540822	5460.522393
878.851285	5784.129182
879.161707	6249.299133
879.472087	7012.565113
879.782425	8253.992098
880.092722	10449.223034
880.402977	13793.683292
880.713191	17585.026715
881.023363	21349.808298
881.333494	23600.451597
881.643583	24847.088614
881.953631	24858.158988
882.263637	24010.927549
882.573602	22519.882791
882.883526	20965.581634
883.193408	19264.650956
883.503248	17555.301551
883.813048	15992.012017
884.122806	14541.714905
884.432522	13060.858319
884.742197	11763.469486
885.051831	10665.533904
885.361424	9646.497422
885.670975	8814.349115
885.980485	8111.519008
886.289954	7527.982765
886.599382	7049.993160
886.908768	6668.607186
887.218113	6293.699095
887.527417	6003.721844
887.836680	5735.106482
888.145901	5514.165312
888.455082	5343.166853
888.764221	5193.865520
889.073319	5060.133790
889.382376	4986.555629
889.691392	4927.395168
890.000366	4898.695880
890.309300	4882.183580
890.618193	4883.388416
890.927044	4870.893916
891.235855	4890.753542
891.544625	4921.832255
891.853353	4980.491121
892.162041	5104.473259
892.470687	5295.611128
892.779293	5542.602460
893.087858	5916.857722
893.396381	6499.189129
893.704864	7310.895557
894.013306	8462.849622
894.321707	9655.437908
894.630068	10479.878290
894.938387	10689.615496
895.246665	10455.819384
895.554903	9845.784316
895.863100	9143.352459
896.171256	8584.656502
896.479371	8069.627019
896.787446	7570.739311
897.095480	7143.637634
897.403473	6815.324928
897.711425	6493.409446
898.019336	6225.426749
898.327207	5949.897444
898.635038	5717.588472
898.942827	5471.915401
899.250576	5274.259321
899.558284	5084.207821
899.865952	4956.187719
900.173579	4805.679029
900.481165	4699.396383
900.788711	4604.199234
901.096216	4528.213922
901.403681	4465.869972
901.711105	4439.978606
902.018489	4426.780865
902.325832	4496.500023
902.633135	4620.061224
902.940397	4966.184327
903.247619	5759.485502
903.554800	7211.809157
903.861941	9147.476123
904.169041	10684.949908
904.476101	11334.116933
904.783121	10987.688841
905.090100	10241.010777
905.397039	9398.477694
905.703938	8637.770099
906.010796	7937.737832
906.317614	7376.654888
906.624391	6834.435942
906.931129	6403.576085
907.237826	5998.831925
907.544483	5617.710612
907.851099	5237.743723
908.157675	4880.179722
908.464211	4550.326943
908.770707	4310.373061
909.077163	4107.128862
909.383578	3966.740289
909.689954	3846.692772
909.996289	3773.898510
910.302584	3705.358982
910.608839	3672.165505
910.915054	3641.835403
911.221229	3631.178403
911.527363	3640.610402
911.833458	3652.462155
912.139513	3682.459541
912.445527	3713.480281
912.751502	3791.577837
913.057436	3898.362078
913.363331	4033.868293
913.669186	4240.308584
913.975000	4502.410776
914.280775	4929.575467
914.586510	5513.716649
914.892205	6315.456715
915.197859	7364.838423
915.503475	8596.936753
915.809050	9664.990895
916.114585	10326.009672
916.420081	10582.541388
916.725536	10553.307737
917.030952	10107.450447
917.336328	9693.571716
917.641665	9276.937995
917.946961	8796.057288
918.252218	8378.753094
918.557435	7863.448868
918.862612	7422.335304
919.167750	7050.088942
919.472848	6617.885617
919.777906	6239.365539
920.082925	5876.339448
920.387904	5502.336244
920.692843	5237.776490
920.997743	4987.289117
921.302603	4745.538064
921.607423	4582.761727
921.912204	4417.152261
922.216946	4297.442502
922.521647	4173.878780
922.826310	4069.836926
923.130932	3975.564828
923.435516	3872.145557
923.740059	3802.804486
924.044564	3726.544431
924.349028	3668.482942
924.653454	3602.965586
924.957840	3528.928680
925.262186	3484.551403
925.566493	3420.556475
925.870761	3362.386601
926.174989	3325.094665
926.479178	3290.414048
926.783328	3246.182964
927.087438	3220.140363
927.391509	3183.682738
927.695541	3151.096720
927.999533	3123.125878
928.303486	3104.224071
928.607400	3089.524067
928.911275	3075.156778
929.215110	3057.787483
929.518906	3050.039229
929.822663	3047.337171
930.126381	3044.221738
930.430060	3052.864796
930.733699	3055.511402
931.037299	3065.490366
931.340861	3064.277968
931.644383	3071.002868
931.947866	3072.084195
932.251309	3064.164542
932.554714	3064.333421
932.858080	3058.281516
933.161407	3049.454455
933.464694	3042.200235
933.767943	3035.739996
934.071153	3028.301774
934.374323	3019.187368
934.677455	3010.735873
934.980548	3007.960718
935.283602	2997.606188
935.586617	2999.035355
935.889593	3007.736387
936.192530	3011.492046
936.495428	3027.296064
936.798287	3047.982438
937.101108	3080.787747
937.403890	3134.118114
937.706632	3189.669108
938.009336	3272.182715
938.312002	3347.316072
938.614628	3408.636667
938.917216	3461.742702
939.219765	3494.931138
939.522275	3527.451622
939.824747	3534.836912
940.127179	3534.335317
940.429573	3529.803320
940.731929	3529.629400
941.034246	3507.418077
941.336524	3497.799555
941.638763	3479.757265
941.940964	3468.152529
942.243126	3427.672064
942.545250	3405.130544
942.847335	3367.896582
943.149381	3331.174297
943.451389	3301.509627
943.753359	3264.091663
944.055290	3238.830441
944.357182	3212.414795
944.659036	3200.096735
944.960851	3189.832946
945.262628	3174.732170
945.564367	3175.011954
945.866067	3168.960048
946.167729	3164.906961
946.469352	3163.407217
946.770937	3159.611229
947.072484	3145.410298
947.373992	3148.114877
947.675462	3140.570791
947.976893	3122.820888
948.278286	3117.419292
948.579641	3106.621140
948.880958	3100.107969
949.182236	3103.311622
949.483476	3097.720983
949.784678	3096.921960
950.085841	3096.649738
950.386967	3107.894031
950.688054	3124.028244
950.989103	3144.719660
951.290114	3164.319666
951.591087	3193.225642
951.892021	3222.340827
952.192917	3249.452152
952.493776	3277.433076
952.794596	3283.056483
953.095378	3287.215435
953.396122	3283.280815
953.696828	3280.654374
953.997496	3268.091818
954.298126	3241.966038
954.598718	3221.967781
954.899272	3198.309646
955.199788	3170.268228
955.500266	3137.258752
955.800706	3100.286930
956.101108	3062.553894
956.401472	3032.536343
956.701798	2998.279182
957.002087	2955.184878
957.302337	2930.261414
957.602550	2899.825448
957.902724	2873.155223
958.202861	2848.773682
958.502960	2823.038592
958.803022	2802.853812
959.103045	2784.814043
959.403031	2763.908378
959.702979	2754.234404
960.002889	2737.961559
960.302762	2725.824981
960.602596	2713.408619
960.902393	2703.674151
961.202153	2695.749457
961.501875	2685.273940
961.801559	2681.709844
962.101205	2677.117353
962.400814	2670.498318
962.700385	2663.997750
962.999918	2657.411482
963.299414	2647.598877
963.598873	2651.291522
963.898293	2641.156282
964.197677	2641.806591
964.497022	2641.967908
964.796331	2640.654687
965.095601	2634.829634
965.394835	2631.963738
965.694030	2630.128758
965.993189	2630.179169
966.292309	2627.431741
966.591393	2627.136833
966.890439	2625.611884
967.189447	2627.058695
967.488419	2625.561472
967.787353	2629.249077
968.086249	2627.116668
968.385108	2631.487349
968.683930	2633.095477
968.982714	2637.561939
969.281462	2642.701396
969.580172	2647.790440
969.878844	2651.624238
970.177480	2662.119920
970.476078	2668.461692
970.774639	2674.322033
971.073162	2682.536593
971.371649	2688.822912
971.670098	2696.760209
971.968510	2701.783719
972.266885	2704.120293
972.565223	2706.850078
972.863524	2710.668752
973.161788	2716.297201
973.460014	2718.926162
973.758204	2721.275340
974.056356	2723.072511
974.354471	2726.364385
974.652550	2725.426730
974.950591	2724.226936
975.248595	2722.621328
975.546563	2721.844990
975.844493	2716.140925
976.142386	2708.354863
976.440243	2707.429811
976.738062	2699.497555
977.035845	2694.101000
977.333590	2689.508509
977.631299	2683.527180
977.928971	2677.533248
978.226606	2672.169460
978.524204	2666.422545
978.821765	2660.048006
979.119290	2666.707370
979.416777	2661.832574
979.714228	2669.737104
980.011642	2672.328257
980.309020	2679.569874
980.606360	2692.102183
980.903664	2717.108826
981.200931	2755.824888
981.498162	2801.999337
981.795356	2881.349619
982.092513	2971.061993
982.389633	3075.744073
982.686717	3174.107067
982.983764	3250.462903
983.280775	3300.894606
983.577749	3305.255204
983.874686	3296.193730
984.171587	3262.513782
984.468451	3222.141701
984.765279	3178.011440
985.062070	3129.013945
985.358824	3083.525094
985.655543	3023.535363
985.952224	2975.352014
986.248869	2912.662746
986.545478	2846.830318
986.842050	2793.799900
987.138586	2746.418095
987.435086	2708.687579
987.731549	2675.594924
988.027975	2652.030051
988.324366	2633.342493
988.620719	2618.622324
988.917037	2608.741663
989.213318	2599.186156
989.509563	2591.102665
989.805772	2587.289033
990.101944	2578.184709
990.398080	2579.288721
990.694180	2577.115984
990.990244	2578.378793
991.286271	2579.883577
991.582262	2580.339802
991.878217	2583.324165
992.174136	2585.683425
992.470019	2587.722572
992.765865	2589.310535
993.061676	2595.284302
993.357450	2602.813266
993.653188	2610.876591
993.948890	2627.096504
994.244556	2649.625420
994.540186	2671.854388
994.835780	2701.882021
995.131337	2742.354925
995.426859	2781.522170
995.722345	2830.444047
996.017795	2884.119733
996.313208	2921.467121
996.608586	2947.411419
996.903928	2962.113944
997.199234	2962.499593
997.494504	2958.872483
997.789738	2946.685493
998.084936	2921.764549
998.380099	2888.339178
998.675225	2860.000332
998.970316	2828.316680
999.265371	2789.519960
999.560390	2754.574682
999.855373	2722.069322
1000.150320	2694.436237
1000.445232	2670.957063
1000.740108	2648.844042
1001.034948	2631.043727
1001.329752	2612.497322
1001.624521	2598.243460
1001.919254	2587.057139
1002.213951	2582.318455
1002.508613	2570.128945
1002.803239	2566.872359
1003.097829	2560.938921
1003.392384	2555.519681
1003.686903	2551.103630
1003.981386	2546.067517
1004.275834	2542.881508
1004.570246	2540.129038
1004.864623	2536.590148
1005.158964	2536.196938
1005.453270	2531.692667
1005.747540	2531.392719
1006.041775	2529.777029
1006.335974	2530.578572
1006.630138	2527.022038
1006.924266	2529.398942
1007.218359	2528.257121
1007.512416	2522.916018
1007.806438	2521.834691
1008.100425	2522.212778
1008.394376	2518.744464
1008.688292	2523.694877
1008.982172	2521.388549
1009.276017	2521.796882
1009.569827	2522.043899
1009.863602	2520.581964
1010.157341	2521.474248
1010.451045	2518.449556
1010.744714	2518.197498
1011.038347	2519.730009
1011.331945	2516.589370
1011.625508	2513.075686
1011.919036	2513.526869
1012.212528	2510.923113
1012.505986	2511.525531
1012.799408	2513.988135
1013.092795	2510.711385
1013.386147	2513.549555
1013.679464	2511.192815
1013.972745	2511.586025
1014.265992	2511.006292
1014.559204	2511.840603
1014.852380	2509.710716
1015.145521	2512.732888
1015.438628	2511.964112
1015.731699	2511.984276
1016.024736	2510.860099
1016.317737	2514.552744
1016.610703	2514.063752
1016.903635	2514.925790
1017.196531	2514.462003
1017.489393	2518.167252
1017.782219	2519.160359
1018.075011	2518.419309
1018.367768	2519.858559
1018.660490	2521.559948
1018.953177	2521.559948
1019.245829	2521.559948
