Dividing Wavelength (nm)	Counts (n)	Blue Motor Position (mm): 46.000000	Red Motor Position (mm): 0.000000	
326.493990	2093.523137
326.888308	2093.523137
327.282561	2093.523137
327.676750	2069.822152
328.070874	2070.215362
328.464933	2080.753894
328.858929	2087.854359
329.252859	2101.258787
329.646726	2114.406117
330.040528	2129.302726
330.434265	2150.233597
330.827938	2171.414005
331.221547	2189.814216
331.615091	2208.101002
332.008571	2230.113200
332.401986	2253.176479
332.795338	2271.606938
333.188625	2291.532098
333.581847	2311.936168
333.975006	2330.379230
334.368100	2346.478154
334.761129	2364.603623
335.154095	2379.875799
335.546996	2425.145360
335.939833	2511.575943
336.332606	2522.903416
336.725315	2538.145344
337.117960	2544.489636
337.510540	2553.541028
337.903056	2562.786504
338.295508	2566.711043
338.687896	2575.384348
339.080220	2580.964905
339.472480	2587.778024
339.864676	2590.026379
340.256807	2593.623242
340.648875	2595.634663
341.040879	2597.303285
341.432818	2598.218254
341.824694	2597.996443
342.216506	2595.755650
342.608253	2600.769078
342.999937	2599.518872
343.391557	2595.990064
343.783113	2594.795311
344.174605	2595.312029
344.566033	2594.447471
344.957397	2592.806575
345.348697	2587.168045
345.739934	2586.726944
346.131106	2585.237283
346.522215	2583.495564
346.913260	2585.506985
347.304241	2585.174268
347.695159	2581.322827
348.086012	2580.445666
348.476802	2576.405181
348.867528	2576.170768
349.258191	2575.270922
349.648789	2577.418453
350.039324	2575.114646
350.429796	2575.275963
350.820203	2570.438976
351.210548	2574.098853
351.600828	2571.351425
351.991045	2572.004254
352.381198	2570.499470
352.771288	2572.175653
353.161314	2572.193297
353.551276	2572.412587
353.941175	2569.720611
354.331010	2568.898903
354.720782	2573.380489
355.110490	2573.622464
355.500135	2571.658935
355.889717	2570.940571
356.279235	2573.246898
356.668689	2574.693710
357.058080	2574.943247
357.447408	2571.507700
357.836672	2571.777402
358.225873	2570.418811
358.615010	2571.726991
359.004084	2577.259657
359.393095	2577.015161
359.782043	2577.433577
360.170927	2577.579770
360.559748	2577.539441
360.948505	2582.613362
361.337199	2582.278126
361.725830	2582.328537
362.114398	2581.330389
362.502903	2581.237127
362.891344	2585.322982
363.279722	2581.353074
363.668037	2586.842890
364.056289	2587.309197
364.444478	2585.990935
364.832603	2589.784404
365.220665	2588.597212
365.608665	2588.899681
365.996601	2589.645772
366.384474	2593.207347
366.772284	2592.168869
367.160031	2593.640886
367.547715	2592.501586
367.935336	2593.328335
368.322893	2597.071392
368.710388	2597.285641
369.097820	2597.671289
369.485189	2601.580704
369.872495	2597.721700
370.259738	2595.856473
370.646918	2600.748913
371.034035	2599.055086
371.421090	2604.774275
371.808081	2601.873091
372.195010	2601.830241
372.581875	2606.271497
372.968678	2607.380551
373.355418	2605.301075
373.742096	2608.114039
374.128710	2608.902980
374.515262	2609.979266
374.901751	2609.132352
375.288177	2613.427415
375.674540	2615.867334
376.060841	2614.730553
376.447079	2617.724999
376.833254	2620.837911
377.219367	2617.856069
377.605417	2624.996863
377.991404	2624.039044
378.377329	2631.313429
378.763191	2632.283851
379.148991	2644.866571
379.534727	2650.590801
379.920402	2661.184786
380.306013	2667.153512
380.691563	2680.883095
381.077049	2696.961855
381.462474	2710.071376
381.847835	2728.774056
382.233134	2749.417581
382.618371	2773.335336
383.003545	2804.928247
383.388657	2831.974037
383.773706	2871.322764
384.158693	2907.722415
384.543618	2951.522480
384.928480	2992.048316
385.313280	3043.198383
385.698017	3096.911878
386.082692	3161.400838
386.467305	3212.344218
386.851856	3281.486164
387.236344	3368.647714
387.620770	3425.088473
388.005133	3508.355731
388.389435	3605.090432
388.773674	3675.868232
389.157851	3772.925567
389.541965	3873.693192
389.926018	3931.739557
390.310008	4059.288312
390.693936	4161.031399
391.077802	4265.796658
391.461606	4389.395668
391.845348	4499.580168
392.229027	4616.514772
392.612645	4793.996155
392.996200	4921.827214
393.379694	5079.668262
393.763125	5272.411738
394.146494	5389.106887
394.529801	5537.233632
394.913047	5754.406539
395.296230	5816.334594
395.679351	5916.706487
396.062410	6155.468136
396.445408	6142.426671
396.828343	6320.636501
397.211217	6482.518033
397.594028	6454.552232
397.976778	6672.289749
398.359466	6855.926381
398.742092	6906.905049
399.124656	7071.344967
399.507158	7286.609798
399.889598	7366.509566
400.271977	7600.572860
400.654294	7683.832557
401.036549	7912.743791
401.418742	7990.601892
401.800874	8305.540416
402.182944	8427.135568
402.564952	8798.078791
402.946898	8697.558183
403.328783	8795.986712
403.710606	9021.351495
404.092367	9297.137898
404.474067	9659.916973
404.855705	9527.185913
405.237282	9518.956229
405.618797	9952.901273
406.000250	10213.092867
406.381642	10592.016237
406.762972	10571.027393
407.144240	10427.238562
407.525447	10694.089520
407.906593	10668.339306
408.287677	10930.953175
408.668700	11104.005904
409.049661	11108.953797
409.430560	11282.470312
409.811399	11264.775862
410.192176	11437.563931
410.572891	11528.259329
410.953545	11999.710558
411.334138	11511.900785
411.714669	12089.503590
412.095139	11456.904317
412.475547	11930.924013
412.855894	11808.265179
413.236180	12127.806277
413.616405	11837.710558
413.996568	12109.348092
414.376670	12095.615989
414.756711	11983.231026
415.136691	12258.588931
415.516609	12432.370107
415.896466	12522.256401
416.276262	12818.905619
416.655997	13276.894446
417.035670	13310.118171
417.415283	13927.611626
417.794834	14011.173792
418.174324	13769.601700
418.553753	13679.556610
418.933121	14165.261701
419.312428	13991.909023
419.691674	13908.215787
420.070859	14360.848387
420.449983	14032.218089
420.829045	14575.455348
421.208047	14334.649511
421.586988	14790.125323
421.965867	15038.349217
422.344686	15037.348548
422.723444	15607.248470
423.102141	14310.976253
423.480777	15498.944321
423.859352	15006.295041
424.237866	16101.984788
424.616319	15822.208311
424.994712	16471.622353
425.373044	16257.363232
425.751314	16938.160977
426.129524	16084.653301
426.507673	17153.718194
426.885762	16879.900362
427.263789	17059.572126
427.641756	17250.367196
428.019662	17314.228533
428.397508	17357.141355
428.775292	17654.750913
429.153016	17625.983569
429.530679	17699.062656
429.908282	17739.119664
430.285824	17472.220815
430.663305	18174.229214
431.040726	17787.204710
431.418086	17626.086913
431.795385	18269.915356
432.172624	18703.096664
432.549802	18263.442514
432.926920	18476.176686
433.303977	18346.084670
433.680974	18614.818499
434.057910	18926.203010
434.434786	18958.010170
434.811601	18884.169869
435.188355	19932.480332
435.565050	19592.041131
435.941683	19564.970135
436.318257	20441.604103
436.694770	20260.004098
437.071222	20842.259887
437.447614	19928.149981
437.823946	19940.203380
438.200218	20120.243148
438.576429	19898.954139
438.952580	20199.437155
439.328670	20175.350522
439.704700	20599.692167
440.080670	20163.637401
440.456580	20781.158582
440.832429	20940.098601
441.208218	19966.636670
441.583947	20399.001312
441.959616	20526.340858
442.335224	20780.026843
442.710773	20913.761093
443.086261	21454.956685
443.461689	20803.478291
443.837057	20959.927980
444.212365	21607.552412
444.587612	21614.292434
444.962800	21210.322092
445.337927	21646.933906
445.712995	20359.201402
446.088002	22250.866657
446.462949	22456.452472
446.837837	22643.595227
447.212664	22681.751720
447.587431	25666.392061
447.962139	28634.668816
448.336786	30893.801418
448.711374	29184.164667
449.085901	25468.506608
449.460369	25503.885425
449.834776	25521.594999
450.209124	28081.203055
450.583412	27553.071614
450.957640	28011.930040
451.331808	26668.137385
451.705917	25300.855475
452.079965	25356.918147
452.453954	25735.902010
452.827883	25647.384390
453.201752	25444.271260
453.575562	25618.675019
453.949311	26751.845745
454.323001	26835.690216
454.696632	26621.315148
455.070202	28214.934785
455.443713	28403.637776
455.817164	28977.661362
456.190556	29536.856393
456.563888	28931.922973
456.937160	29363.561688
457.310373	27648.248598
457.683526	28105.723228
458.056619	28114.973745
458.429653	28082.259177
458.802628	28702.598364
459.175542	28863.580050
459.548398	30235.509905
459.921194	31867.860726
460.293930	32625.357106
460.666607	34725.610183
461.039224	36507.355598
461.411782	36825.129772
461.784280	35513.623187
462.156719	34952.830110
462.529099	34376.243098
462.901419	33045.812022
463.273680	32007.359535
463.645882	32151.297080
464.018024	32164.613288
464.390106	33131.567090
464.762130	36084.092759
465.134094	40466.526594
465.505999	45970.286964
465.877845	50449.216045
466.249631	51391.281670
466.621358	49478.297376
466.993026	47225.340187
467.364634	45076.439976
467.736184	43117.757622
468.107674	41863.538710
468.479105	41064.813253
468.850477	40349.884377
469.221790	38885.293073
469.593043	37115.860676
469.964238	36235.874340
470.335373	36185.926588
470.706449	38080.966895
471.077467	40906.014387
471.448425	45573.190235
471.819324	48254.264893
472.190164	46184.052052
472.560945	42580.660488
472.931667	39442.033063
473.302330	38334.592386
473.672934	37520.491410
474.043479	38051.498830
474.413965	37280.900491
474.784393	36903.048366
475.154761	37837.380861
475.525070	37880.792758
475.895321	37407.246930
476.265513	38036.408136
476.635645	39048.407168
477.005719	38889.928414
477.375734	39396.972709
477.745691	40121.313420
478.115588	41518.045752
478.485427	43670.447045
478.855207	47170.920932
479.224928	49818.295477
479.594591	51321.507060
479.964194	50203.033818
480.333739	50310.664973
480.703226	50404.511093
481.072653	51077.820204
481.442022	51548.984086
481.811333	51748.744848
482.180584	50439.181629
482.549777	49931.141706
482.918912	49396.045910
483.287988	49080.169731
483.657005	48256.697250
484.025964	47570.089576
484.394864	47545.166111
484.763706	47129.270919
485.132489	46237.994919
485.501213	46084.017916
485.869879	46238.730927
486.238487	45816.337687
486.607036	46033.661830
486.975527	45469.939842
487.343959	45688.063007
487.712333	45747.835968
488.080648	45648.570608
488.448905	46115.502442
488.817104	45926.711230
489.185244	46950.685523
489.553326	48760.459754
489.921350	51544.351266
490.289315	54331.484240
490.657222	54843.836870
491.025070	55052.260855
491.392861	54126.432786
491.760593	52831.781300
492.128267	51136.370685
492.495883	49578.591132
492.863440	48159.672683
493.230939	46791.677448
493.598380	45688.562082
493.965763	45367.289347
494.333088	44545.011620
494.700354	44058.101693
495.067563	43747.052418
495.434713	43608.362714
495.801805	43685.205022
496.168839	43292.282368
496.535815	42959.972027
496.902733	42981.679236
497.269593	42544.812843
497.636395	42474.665188
498.003139	42884.173238
498.369825	42321.993843
498.736453	42620.384781
499.103023	42151.237360
499.469535	42022.420756
499.835989	42108.329579
500.202385	41781.120886
500.568723	41789.305199
500.935003	41994.321364
501.301226	41782.131637
501.667390	42392.234761
502.033497	42640.914880
502.399546	42062.651684
502.765537	41356.320495
503.131470	41731.342012
503.497345	42105.771193
503.863163	40741.322411
504.228923	41377.102652
504.594625	41784.952162
504.960269	41047.738865
505.325856	41750.132913
505.691385	41119.804680
506.056856	41249.180852
506.422270	41691.320292
506.787625	41254.000195
507.152924	41457.246916
507.518164	41551.718139
507.883347	40746.250139
508.248472	41001.811433
508.613540	41498.105467
508.978550	41771.048660
509.343503	41531.740046
509.708398	41734.061714
510.073236	42270.609362
510.438016	42275.549693
510.802738	41696.762217
511.167403	42345.321783
511.532010	42560.170719
511.896561	42875.378945
512.261053	43729.390736
512.625488	43258.957821
512.989866	43142.713854
513.354186	42971.647340
513.718449	42963.649549
514.082655	43651.741843
514.446803	43307.098319
514.810894	43846.927758
515.174927	43761.180252
515.538904	43653.909539
515.902822	44314.913193
516.266684	43760.232515
516.630488	44197.736613
516.994235	44040.157706
517.357925	44622.612621
517.721558	44804.978882
518.085133	45097.842194
518.448651	45206.978134
518.812112	44990.553838
519.175516	45092.705259
519.538863	45415.606286
519.902152	45375.929885
520.265385	45841.682088
520.628560	45872.874228
520.991678	45650.937430
521.354739	45879.684827
521.717743	46197.196861
522.080690	46086.301558
522.443580	46635.394118
522.806413	46677.830551
523.169189	46622.108157
523.531908	46805.555745
523.894569	46630.642830
524.257174	46815.254925
524.619722	47086.925226
524.982213	47068.489727
525.344647	47006.198709
525.707025	47044.577013
526.069345	47452.602965
526.431608	47355.565794
526.793815	47668.727312
527.155964	47197.293728
527.518057	47359.296248
527.880093	47147.860173
528.242072	47683.046710
528.603995	47349.405504
528.965860	47371.604225
529.327669	47443.753219
529.689421	47348.321656
530.051117	47296.932134
530.412755	47450.117676
530.774337	47517.139816
531.135862	47316.877459
531.497331	47487.888521
531.858743	47393.689520
532.220098	47741.778673
532.581396	47449.207747
532.942638	47092.904035
533.303824	47416.195752
533.664953	47381.706697
534.026025	47081.818538
534.387040	47560.791167
534.747999	47488.551433
535.108902	47678.607974
535.469748	47169.143925
535.830537	47272.895912
536.191270	47462.723081
536.551947	47123.874363
536.912567	47424.773275
537.273131	47555.316474
537.633638	47046.170018
537.994089	47362.474696
538.354483	46950.723332
538.714821	47534.879637
539.075103	47880.523829
539.435328	47630.517887
539.795497	47498.827825
540.155609	47501.277826
540.515665	47978.047471
540.875665	47406.002538
541.235609	47726.181343
541.595496	47717.681957
541.955328	48384.142660
542.315102	47740.377232
542.674821	47503.218670
543.034483	47537.150676
543.394090	47523.012760
543.753640	47464.918503
544.113134	48483.269389
544.472571	47446.603992
544.831953	48698.909786
545.191278	47910.301925
545.550548	47618.522461
545.909761	48095.844113
546.268918	48281.789593
546.628019	48600.019992
546.987064	48142.026123
547.346053	47400.880726
547.704986	48274.127039
548.063863	47830.124894
548.422684	48009.048047
548.781449	47845.699539
549.140158	48244.480014
549.498811	48074.076411
549.857408	47516.212244
550.215949	48348.894913
550.574434	48281.789593
550.932864	48032.101243
551.291237	48745.396786
551.649555	48345.726547
552.007817	48578.191795
552.366022	48223.178618
552.724173	48374.516577
553.082267	48779.454822
553.440305	49046.716634
553.798288	48347.495993
554.156215	48658.840175
554.514086	48878.871417
554.871902	48600.534189
555.229661	48613.300911
555.587365	48429.576059
555.945014	48542.238286
556.302606	48454.570100
556.660143	48672.647895
557.017625	48739.395292
557.375050	48536.493891
557.732421	48880.930728
558.089735	48838.403554
558.446994	48754.024721
558.804197	49215.476821
559.161345	49131.589500
559.518437	48360.560143
559.875474	48671.697638
560.232455	48859.165546
560.589381	49028.628974
560.946251	48714.736488
561.303065	49359.101814
561.659825	49151.693622
562.016528	48818.962344
562.373177	48536.254437
562.729770	49011.158855
563.086307	48501.896453
563.442789	48972.735181
563.799216	48996.123614
564.155587	48775.013565
564.511904	48812.239966
564.868164	48887.287623
565.224370	49105.662846
565.580520	48844.639461
565.936615	49044.775790
566.292654	48748.239997
566.648638	48995.947173
567.004567	48962.184046
567.360441	49011.809164
567.716260	48862.825424
568.072023	49134.765427
568.427732	49098.242267
568.783385	48631.111308
569.138982	49013.485348
569.494525	48965.337287
569.850013	48725.494311
570.205445	48679.251807
570.560823	48626.564187
570.916145	48506.246968
571.271412	48528.463333
571.626625	48262.446686
571.981782	48303.758942
572.336884	47975.168972
572.691931	48286.926529
573.046923	47886.873163
573.401860	47719.416114
573.756743	47680.763067
574.111570	47783.206875
574.466342	47625.814490
574.821059	47723.270076
575.175722	47235.155314
575.530330	47250.886235
575.884882	46956.313971
576.239380	46901.123419
576.593823	46866.294087
576.948211	46780.859132
577.302544	46290.964843
577.656823	46307.346072
578.011047	46546.243832
578.365216	46245.541526
578.719330	46022.712444
579.073389	45880.350259
579.427394	45948.544468
579.781344	45895.914822
580.135239	45539.427107
580.489080	45610.807325
580.842866	45110.702178
581.196597	45528.873451
581.550273	45456.548017
581.903895	45340.732548
582.257463	45735.714514
582.610975	45119.032685
582.964434	45392.381690
583.317837	45020.233631
583.671186	44853.757087
584.024481	45054.747891
584.377721	44569.670424
584.730906	44855.357653
585.084037	44881.732970
585.437113	44583.329430
585.790135	44589.711531
586.143103	44201.893045
586.496016	44297.672447
586.848874	44320.652547
587.201679	44328.305019
587.554428	43810.754959
587.907124	43996.972662
588.259765	43747.269188
588.612352	43976.175381
588.964884	43351.878889
589.317362	43652.112368
589.669786	43580.772479
590.022155	43322.720855
590.374470	43740.645112
590.726731	43251.751491
591.078937	42757.715894
591.431090	42869.125394
591.783188	42499.777696
592.135232	42173.804085
592.487222	42434.298148
592.839157	42497.998168
593.191038	42165.871829
593.542866	41913.703232
593.894639	41311.373567
594.246358	41572.081880
594.598022	41545.411655
594.949633	41157.386482
595.301190	41102.899171
595.652692	40939.152411
596.004141	41245.856211
596.355535	40269.034351
596.706876	40206.592099
597.058162	40039.399711
597.409395	40494.731850
597.760573	40582.432803
598.111698	40167.303867
598.462768	40169.582468
598.813785	40193.984173
599.164748	39644.127879
599.515657	40026.005365
599.866511	39515.991831
600.217312	40121.043718
600.568060	39080.940254
600.918753	39837.544349
601.269392	39790.407040
601.619978	39425.535887
601.970510	39636.760233
602.320988	39811.111059
602.671412	40120.809305
603.021783	39877.344259
603.372100	39517.005103
603.722363	39608.549936
604.072572	39677.341521
604.422728	39703.099297
604.772830	39512.198362
605.122878	39614.248960
605.472872	39541.926047
605.822813	39803.539246
606.172701	39638.668310
606.522534	39893.677597
606.872314	40132.570317
607.222041	39889.138038
607.571714	40275.555084
607.921333	39715.356862
608.270899	40004.600626
608.620411	40363.210667
608.969870	40140.220267
609.319276	40153.080251
609.668627	40194.808402
610.017926	40677.559377
610.367171	40813.592393
610.716362	40903.650085
611.065500	40841.467453
611.414585	41026.762624
611.763616	41316.913795
612.112594	41274.608432
612.461518	41471.934317
612.810389	41782.028293
613.159207	41643.094093
613.507971	41734.490212
613.856682	42188.292361
614.205340	42086.531630
614.553945	42779.196250
614.902496	42217.556259
615.250994	42696.259187
615.599439	42754.174483
615.947830	42958.696615
616.296169	43041.774831
616.644454	43138.086075
616.992686	43312.941017
617.340864	43840.099516
617.688990	43540.387796
618.037063	44154.362526
618.385082	44117.889778
618.733048	44405.210341
619.080961	44407.156227
619.428821	44422.662816
619.776628	44539.915013
620.124382	44356.898443
620.472083	44475.310106
620.819731	44599.745947
621.167326	44259.815902
621.514868	44235.598199
621.862357	43787.611022
622.209793	43821.991691
622.557176	43471.513032
622.904506	43192.979199
623.251783	42863.295299
623.599007	42631.576142
623.946179	42421.662496
624.293297	42360.072199
624.640363	41775.767180
624.987376	41742.924063
625.334336	41523.694364
625.681243	41181.304236
626.028097	41131.739612
626.374899	40988.061686
626.721647	40974.664820
627.068343	40864.218180
627.414987	40623.245985
627.761577	40409.730434
628.108115	40745.073029
628.454600	40191.277074
628.801032	40384.990972
629.147412	40335.234783
629.493739	40355.883350
629.840014	39995.743319
630.186236	40340.223005
630.532405	39930.805696
630.878521	40138.372685
631.224585	40000.855049
631.570597	39726.046629
631.916556	39883.895238
632.262462	39824.709572
632.608316	39859.070076
632.954117	39727.196012
633.299866	39712.889218
633.645562	39633.178493
633.991206	39139.518462
634.336797	38711.768996
634.682336	38689.618166
635.027823	38451.907598
635.373257	38267.572766
635.718639	38021.524129
636.063968	37889.017400
636.409245	37315.818043
636.754470	37357.120217
637.099642	37136.453789
637.444762	36656.367065
637.789829	36792.495862
638.134845	36442.286905
638.479808	36385.102576
638.824719	36293.048586
639.169577	35925.745076
639.514383	35986.387636
639.859137	35669.039440
640.203839	35920.265342
640.548489	35561.337708
640.893086	35626.673583
641.237632	35375.009101
641.582125	35487.999002
641.926566	35429.670332
642.270955	35377.751488
642.615292	35408.941107
642.959576	35368.432915
643.303809	35367.490220
643.647990	35524.572573
643.992118	35483.144371
644.336195	35478.002394
644.680219	35578.916212
645.024192	35872.888578
645.368112	36396.324185
645.711981	36403.008755
646.055797	37274.901518
646.399562	37210.399955
646.743274	38177.615896
647.086935	38584.552958
647.430544	38491.629369
647.774101	38590.309956
648.117606	38819.737908
648.461059	39114.403433
648.804460	38708.993841
649.147810	38069.392405
649.491108	37808.684093
649.834354	37445.186654
650.177548	36618.394573
650.520690	36180.207399
650.863781	36191.660900
651.206820	36044.776801
651.549807	35617.652438
651.892742	35135.062780
652.235626	34948.530006
652.578458	34813.232998
652.921238	34200.377405
653.263967	34524.342115
653.606644	34220.872216
653.949269	34148.846730
654.291843	33752.879219
654.634365	34148.181298
654.976836	33755.016668
655.319255	33764.927577
655.661622	33765.295581
656.003938	33542.849626
656.346203	33423.495268
656.688416	33622.192347
657.030577	33422.839918
657.372687	33255.100565
657.714746	33518.130328
658.056753	33641.300840
658.398708	33105.264869
658.740612	33155.895698
659.082465	33429.572379
659.424266	33260.169445
659.766016	33386.047056
660.107715	33249.830038
660.449362	33378.497928
660.790958	33361.000083
661.132503	33348.593804
661.473996	33388.902870
661.815438	33516.665873
662.156829	33710.384813
662.498168	33468.558142
662.839456	33495.276257
663.180693	33655.332892
663.521879	33801.556600
663.863013	33769.978813
664.204097	33754.890639
664.545129	34214.810228
664.886110	34179.355793
665.227040	34242.836523
665.567918	34375.277717
665.908746	34422.140283
666.249522	34591.215542
666.590248	34597.338023
666.930922	34688.764389
667.271545	34668.708159
667.612118	34718.960901
667.952639	34509.180845
668.293109	34556.103905
668.633528	34455.885767
668.973896	34378.556987
669.314213	34422.838483
669.654480	34157.338554
669.994695	34177.949311
670.334859	34059.870365
670.674973	33959.337154
671.015035	34106.707725
671.355047	34058.564706
671.695008	34010.577962
672.034918	33910.153137
672.374777	34012.730535
672.714585	33835.002136
673.054342	34055.083789
673.394049	33807.905934
673.733705	34093.187350
674.073310	33747.306223
674.412864	33818.386492
674.752368	33420.122736
675.091820	33734.877258
675.431223	33294.837460
675.770574	33005.492873
676.109875	32869.359034
676.449125	32579.694334
676.788324	32510.554909
677.127473	31975.862406
677.466571	31913.503333
677.805619	31548.382642
678.144616	31556.352706
678.483562	31466.892390
678.822458	31149.047640
679.161303	31080.545921
679.500098	31014.282474
679.838842	30898.582952
680.177535	31041.794571
680.516179	31346.350840
680.854771	31598.816866
681.193314	32485.318893
681.531805	33626.941113
681.870247	34391.174995
682.208638	35077.780149
682.546978	35263.902070
682.885268	35340.212536
683.223508	34820.358669
683.561697	34477.839992
683.899836	34282.623830
684.237925	33787.358191
684.575963	33632.362874
684.913951	33181.240099
685.251889	33327.347861
685.589776	33343.199769
685.927614	33337.190714
686.265401	33479.099195
686.603137	33594.241669
686.940824	34101.711942
687.278460	34481.880477
687.616046	34614.442658
687.953582	35210.808637
688.291068	35062.029064
688.628504	35333.805230
688.965889	35242.603195
689.303224	34863.316862
689.640510	34501.150287
689.977745	33741.211468
690.314930	32913.698503
690.652065	32416.978491
690.989150	31671.563236
691.326185	30751.194737
691.663170	30066.779965
692.000105	29317.883793
692.336990	28642.664086
692.673825	28186.008644
693.010610	27676.985696
693.347345	27104.255166
693.684030	26450.921628
694.020665	26171.273701
694.357251	25501.921896
694.693786	25464.259435
695.030272	25214.956734
695.366707	24688.700601
695.703093	24398.551951
696.039429	24403.701489
696.375716	24138.975377
696.711952	24111.107879
697.048139	23950.116110
697.384276	23770.729171
697.720363	23917.373816
698.056400	23704.410272
698.392388	23483.133865
698.728326	23444.253966
699.064214	23229.321851
699.400053	23178.635570
699.735842	22810.074291
700.071581	22537.080687
700.407270	22251.806832
700.742910	22055.199312
701.078501	21788.358436
701.414042	21507.956856
701.749533	21212.578008
702.084974	20855.598781
702.420366	21063.669885
702.755709	20620.519694
703.091002	20330.497073
703.426246	20346.548106
703.761440	20247.741491
704.096584	19981.770214
704.431679	19936.505694
704.766725	19848.151911
705.101721	19790.881883
705.436668	19887.971985
705.771565	19567.689837
706.106413	19919.522046
706.441212	19906.089892
706.775961	20039.199039
707.110661	20100.282700
707.445311	20464.458174
707.779913	20305.659308
708.114465	20554.021834
708.448967	20844.712409
708.783421	21532.439219
709.117825	21813.856592
709.452180	22029.892719
709.786485	22445.092232
710.120742	23230.509043
710.454949	23254.973762
710.789107	23722.744948
711.123216	24422.016001
711.457275	24523.212123
711.791286	25054.776591
712.125247	25111.482010
712.459159	24798.464165
712.793023	25443.855365
713.126837	24323.463964
713.460602	24584.205044
713.794318	24195.597617
714.127985	23806.052536
714.461602	22905.556266
714.795171	22856.147917
715.128691	21826.099034
715.462162	21303.860701
715.795584	20885.868389
716.128957	20625.467587
716.462281	20235.856971
716.795556	19996.200517
717.128782	19490.953393
717.461960	18953.556311
717.795088	18862.566005
718.128167	18479.234146
718.461198	18018.460081
718.794180	17881.063433
719.127113	17518.511210
719.459997	17319.572156
719.792833	16976.221688
720.125619	16946.441072
720.458357	16628.477855
720.791046	16464.100951
721.123686	16300.129861
721.456278	16073.595530
721.788821	16036.928698
722.121315	15764.696308
722.453761	15841.200858
722.786158	15774.914727
723.118506	15785.077693
723.450805	15653.453166
723.783056	15814.775130
724.115259	15714.592280
724.447412	15639.380785
724.779518	15883.165944
725.111574	15914.630305
725.443582	16117.163702
725.775542	16108.429903
726.107453	16563.512505
726.439315	16448.664938
726.771129	16848.088160
727.102895	17221.685551
727.434612	17431.352181
727.766281	17538.322945
728.097901	17798.045712
728.429473	17835.940065
728.760996	17815.314184
729.092471	17903.768790
729.423897	17774.551414
729.755276	17637.784910
730.086606	17754.676665
730.417887	18291.362945
730.749120	18802.722467
731.080305	18965.123238
731.411442	19297.935174
731.742530	19356.102528
732.073570	19447.564182
732.404562	19731.267718
732.735506	19541.702689
733.066401	19228.231140
733.397249	18693.001754
733.728048	18051.903096
734.058798	17231.782982
734.389501	16547.335442
734.720156	16097.039416
735.050762	15583.507156
735.381320	15235.470936
735.711831	15007.656152
736.042293	14662.715200
736.372707	14685.213870
736.703073	14473.760151
737.033391	14665.457588
737.363661	14652.688345
737.693883	14739.554988
738.024056	14918.843624
738.354182	15103.554022
738.684260	15385.319234
739.014290	15598.033241
739.344272	15794.814681
739.674207	16065.925415
740.004093	16172.656724
740.333931	16161.861093
740.663722	16201.305601
740.993464	16170.642783
741.323159	15998.091648
741.652806	15720.752570
741.982405	15501.815258
742.311956	15167.566593
742.641460	15047.400609
742.970915	14735.771602
743.300323	14405.878494
743.629683	14195.435527
743.958996	13922.686419
744.288260	13647.401610
744.617477	13357.540305
744.946647	13294.052013
745.275768	13011.457532
745.604842	12835.115450
745.933869	12666.708144
746.262847	12622.509827
746.591778	12545.170966
746.920662	12450.263683
747.249498	12451.304681
747.578286	12567.566292
747.907027	12718.659755
748.235720	12934.327878
748.564365	12955.959469
748.892963	12852.799817
749.221514	12914.551431
749.550017	12768.965429
749.878473	12722.455743
750.206881	12501.638082
750.535242	12413.508630
750.863555	12323.917244
751.191821	12227.598438
751.520039	12255.710432
751.848210	12166.587873
752.176334	12189.567973
752.504411	12104.085127
752.832440	11944.328442
753.160421	12000.796926
753.488356	11885.344421
753.816243	11797.144393
754.144082	11658.144658
754.471875	11591.782909
754.799620	11540.267358
755.127318	11508.949190
755.454969	11471.816050
755.782572	11424.976169
756.110129	11437.390011
756.437638	11350.420025
756.765100	11349.459685
757.092515	11351.892042
757.419882	11370.244362
757.747203	11380.959335
758.074477	11449.942484
758.401703	11408.647872
758.728882	11571.051164
759.056014	11605.683891
759.383099	11723.142775
759.710138	11823.025677
760.037129	11911.707135
760.364073	11922.873291
760.690970	11911.540777
761.017820	11911.366857
761.344623	12103.704520
761.671379	12433.849686
761.998088	13106.334568
762.324751	14724.280292
762.651366	17653.533475
762.977935	21251.029409
763.304456	23344.998688
763.630931	23674.256610
763.957359	22447.128858
764.283740	20524.457987
764.610074	18652.685126
764.936362	16560.308852
765.262602	15071.633436
765.588796	13625.492755
765.914943	12623.800363
766.241044	11797.479630
766.567097	11172.268168
766.893104	10639.014914
767.219064	10289.388210
767.544978	9913.600438
767.870845	9611.078275
768.196665	9424.278319
768.522438	9232.822858
768.848165	9068.143485
769.173846	8897.749964
769.499479	8780.588508
769.825066	8631.375395
770.150607	8446.796068
770.476101	8381.112354
770.801548	8274.875078
771.126949	8141.317268
771.452303	8048.741519
771.777611	7887.790079
772.102872	7868.391719
772.428087	7748.752536
772.753256	7630.136706
773.078378	7541.351905
773.403453	7399.748414
773.728482	7290.342772
774.053465	7231.104174
774.378401	7141.545555
774.703291	7055.793007
775.028135	6954.634694
775.352932	6921.315188
775.677683	6838.128587
776.002388	6754.095073
776.327046	6752.050885
776.651658	6665.385889
776.976224	6592.213541
777.300743	6578.546973
777.625216	6511.965933
777.949643	6474.878165
778.274024	6479.344627
778.598359	6407.082207
778.922647	6414.580923
779.246889	6371.789089
779.571086	6382.756119
779.895236	6389.722994
780.219339	6387.152005
780.543397	6388.649228
780.867409	6437.190498
781.191374	6431.398213
781.515294	6400.596763
781.839167	6445.271468
782.162995	6414.533032
782.486776	6367.736001
782.810511	6331.333829
783.134201	6253.090081
783.457844	6246.254276
783.781441	6197.355084
784.104993	6152.093084
784.428498	6123.315657
784.751958	6105.318738
785.075372	6085.335604
785.398739	6047.905037
785.722061	6064.697120
786.045337	6071.238017
786.368568	6183.925450
786.691752	6210.567948
787.014891	6464.130425
787.337983	6746.523260
787.661030	7186.008532
787.984031	7605.417408
788.306987	7852.590223
788.629897	7926.382633
788.952760	7831.543405
789.275579	7649.575396
789.598351	7358.514296
789.921078	7090.385405
790.243759	6813.053888
790.566395	6613.378825
790.888984	6419.309526
791.211529	6283.730214
791.534027	6123.126614
791.856480	5990.045193
792.178888	5933.440598
792.501249	5873.493717
792.823566	5766.359115
793.145836	5761.748980
793.468062	5744.591413
793.790241	5707.377615
794.112375	5749.773719
794.434464	5848.923133
794.756507	5881.410849
795.078505	6008.526063
795.400457	6222.616306
795.722364	6460.868798
796.044226	6648.964330
796.366042	6802.691796
796.687812	6740.499081
797.009538	6765.326764
797.331218	6675.009452
797.652852	6603.777948
797.974442	6477.875131
798.295986	6412.335089
798.617484	6284.897241
798.938938	6175.438667
799.260346	6110.690087
799.581709	5976.877700
799.903026	5921.359472
800.224299	5849.765005
800.545526	5735.693776
800.866708	5672.578530
801.187845	5627.059431
801.508936	5547.578079
801.829983	5522.672259
802.150984	5419.477319
802.471940	5391.708123
802.792851	5377.113983
803.113717	5354.149006
803.434538	5328.368545
803.755314	5296.294204
804.076045	5287.194921
804.396731	5253.406588
804.717372	5275.799393
805.037967	5270.838898
805.358518	5300.808557
805.679024	5359.036405
805.999485	5365.141242
806.319901	5384.983224
806.640272	5405.704887
806.960598	5446.634015
807.280879	5441.567655
807.601115	5471.925483
807.921306	5439.238642
808.241453	5424.798257
808.561554	5441.683602
808.881611	5408.696811
809.201623	5405.571296
809.521590	5356.379717
809.841513	5341.263817
810.161390	5357.450962
810.481223	5267.176499
810.801011	5256.643008
811.120755	5225.244182
811.440453	5177.068395
811.760107	5150.967821
812.079716	5119.364828
812.399281	5074.551490
812.718801	5064.693514
813.038276	5030.106158
813.357707	4996.471579
813.677093	5014.009753
813.996434	4959.998831
814.315731	4978.923323
814.634983	4978.199917
814.954191	4984.108149
815.273354	5040.748033
815.592473	5085.304272
815.911547	5163.399306
816.230577	5208.091656
816.549562	5297.483916
816.868502	5351.141958
817.187399	5405.813271
817.506250	5484.518286
817.825058	5513.570455
818.143821	5669.349671
818.462539	5834.840669
818.781213	6070.559982
819.099843	6440.563030
819.418429	7076.524753
819.736970	7698.532561
820.055466	8396.137513
820.373919	9322.653699
820.692327	10814.131996
821.010691	13637.183191
821.329011	20077.473999
821.647286	29654.131276
821.965517	39729.774563
822.283704	44705.592534
822.601847	45761.885664
822.919945	41074.421693
823.237999	35996.200242
823.556010	30912.609963
823.873976	26325.762381
824.191897	22235.327300
824.509775	19247.253934
824.827609	16575.386943
825.145398	15099.279123
825.463144	14426.302729
825.780845	14784.663232
826.098502	16105.092659
826.416116	18555.295075
826.733685	20744.516956
827.051210	21107.749734
827.368692	19597.291493
827.686129	17051.944860
828.003522	14628.702535
828.320872	12467.890077
828.638177	10873.045441
828.955439	9656.423454
829.272656	8622.888613
829.589830	7799.675751
829.906960	7086.163439
830.224046	6564.905611
830.541088	6167.849210
830.858086	5918.402836
831.175041	5726.599535
831.491952	5676.550959
831.808819	5718.717691
832.125642	5978.931970
832.442421	6554.215844
832.759157	7704.849127
833.075849	9481.303851
833.392497	11285.822679
833.709101	12317.761995
834.025662	11974.154428
834.342179	10889.734180
834.658653	9610.775806
834.975083	8534.890231
835.291469	7664.136768
835.607811	6942.170441
835.924110	6430.427791
836.240366	5948.221261
836.556578	5509.023335
836.872746	5162.728833
837.188871	4894.640271
837.504952	4676.386036
837.820990	4515.515255
838.136984	4409.227567
838.452935	4364.678891
838.768842	4408.423503
839.084706	4712.311819
839.400526	5477.516123
839.716303	6361.933633
840.032037	6875.690225
840.347727	6682.921543
840.663373	6080.967444
840.978977	5515.415518
841.294537	5089.548923
841.610054	4769.498668
841.925527	4537.267834
842.240957	4332.201257
842.556344	4151.682579
842.871687	3996.498220
843.186987	3848.852906
843.502244	3736.031883
843.817458	3649.487874
844.132629	3580.872729
844.447756	3533.057385
844.762840	3488.725478
845.077881	3452.363635
845.392879	3420.657298
845.707833	3393.772825
846.022745	3365.696118
846.337613	3356.296887
846.652438	3331.822085
846.967221	3326.105417
847.281960	3303.609268
847.596656	3293.534522
847.911309	3283.051442
848.225919	3271.305554
848.540485	3260.530087
848.855009	3254.798296
849.169490	3242.359248
849.483928	3234.653845
849.798323	3227.755026
850.112675	3222.227401
850.426984	3219.106926
850.741251	3214.917727
851.055474	3207.955894
851.369654	3213.899414
851.683792	3208.996892
851.997887	3213.745659
852.311938	3211.222562
852.625947	3212.135011
852.939914	3203.486911
853.253837	3211.567881
853.567718	3208.921275
853.881555	3203.065975
854.195350	3208.797767
854.509103	3206.788867
854.822812	3204.437169
855.136479	3199.645552
855.450103	3202.942467
855.763685	3192.545087
856.077224	3198.067671
856.390720	3205.982282
856.704173	3216.566185
857.017584	3223.396948
857.330953	3225.451218
857.644278	3235.455388
857.957561	3240.806573
858.270802	3234.374061
858.584000	3233.932960
858.897155	3226.376270
859.210268	3219.301011
859.523339	3207.567725
859.836367	3204.449772
860.149352	3196.396528
860.462295	3196.578010
860.775195	3184.983356
861.088054	3184.328006
861.400869	3180.282480
861.713642	3183.135773
862.026373	3191.047864
862.339062	3193.888554
862.651708	3203.376006
862.964312	3220.989797
863.276873	3232.181159
863.589392	3260.658637
863.901869	3286.028244
864.214303	3305.761840
864.526696	3322.483348
864.839045	3340.966738
865.151353	3355.341588
865.463619	3352.306814
865.775842	3356.312011
866.088023	3356.833770
866.400162	3349.261957
866.712258	3352.465610
867.024313	3350.837318
867.336325	3354.338399
867.648296	3354.280426
867.960224	3349.856813
868.272110	3352.631968
868.583954	3351.714478
868.895755	3361.758977
869.207515	3355.966692
869.519233	3377.139538
869.830909	3382.823439
870.142542	3396.910943
870.454134	3396.845408
870.765684	3416.034560
871.077191	3432.864452
871.388657	3443.077830
871.700081	3464.911067
872.011463	3483.643995
872.322803	3502.114783
872.634101	3521.780324
872.945357	3541.032490
873.256571	3565.829926
873.567744	3583.569747
873.878874	3584.963626
874.189963	3603.048765
874.501010	3604.883745
874.812015	3600.994495
875.122979	3617.030405
875.433900	3613.821711
875.744780	3615.772637
876.055618	3623.881333
876.366415	3622.595839
876.677169	3628.947693
876.987882	3647.612565
877.298554	3672.677182
877.609183	3705.974003
877.919771	3757.560130
878.230317	3826.361798
878.540822	3934.018159
878.851285	4086.732353
879.161707	4315.298268
879.472087	4707.903330
879.782425	5350.756310
880.092722	6570.786117
880.402977	8544.216366
880.713191	10903.816644
881.023363	13220.577196
881.333494	14440.087764
881.643583	14833.640563
881.953631	14373.476478
882.263637	13536.027398
882.573602	12513.497396
882.883526	11580.200858
883.193408	10641.999278
883.503248	9740.328418
883.813048	8931.303884
884.122806	8172.343049
884.432522	7422.189110
884.742197	6767.980932
885.051831	6216.821499
885.361424	5731.239917
885.670975	5341.878838
885.980485	5028.893760
886.289954	4769.286940
886.599382	4555.826842
886.908768	4380.394688
887.218113	4218.009040
887.527417	4086.795368
887.836680	3965.290957
888.145901	3866.191955
888.455082	3793.677477
888.764221	3724.961509
889.073319	3664.495389
889.382376	3634.679485
889.691392	3611.953963
890.000366	3605.254270
890.309300	3600.654217
890.618193	3605.793673
890.927044	3600.155143
891.235855	3605.105556
891.544625	3619.303966
891.853353	3650.791012
892.162041	3715.496743
892.470687	3808.148109
892.779293	3931.263168
893.087858	4105.641721
893.396381	4388.142942
893.704864	4813.439886
894.013306	5391.345160
894.321707	5953.232168
894.630068	6283.737775
894.938387	6304.330889
895.246665	6110.226301
895.554903	5793.810718
895.863100	5459.614986
896.171256	5193.366445
896.479371	4957.591680
896.787446	4733.212443
897.095480	4542.208165
897.403473	4398.719282
897.711425	4251.273094
898.019336	4136.145743
898.327207	4012.773585
898.635038	3909.810538
898.942827	3803.127120
899.250576	3720.333730
899.558284	3633.605719
899.865952	3580.499684
900.173579	3516.633306
900.481165	3472.250987
900.788711	3429.988474
901.096216	3398.476221
901.403681	3371.755585
901.711105	3365.728886
902.018489	3359.382073
902.325832	3394.216446
902.633135	3462.062815
902.940397	3642.001761
903.247619	4069.791556
903.554800	4844.425338
903.861941	5796.406912
904.169041	6458.877542
904.476101	6623.108252
904.783121	6331.716957
905.090100	5933.170896
905.397039	5524.897928
905.703938	5174.830123
906.010796	4857.829766
906.317614	4611.818938
906.624391	4371.658368
906.931129	4181.609389
907.237826	4002.305629
907.544483	3830.795493
907.851099	3662.657889
908.157675	3505.305833
908.464211	3366.744678
908.770707	3266.365223
909.077163	3189.626259
909.383578	3131.461426
909.689954	3085.380238
909.996289	3057.686660
910.302584	3034.283103
910.608839	3025.370343
910.915054	3013.619413
911.221229	3009.515914
911.527363	3015.487161
911.833458	3020.745084
912.139513	3035.162784
912.445527	3047.369938
912.751502	3082.058118
913.057436	3126.589150
913.363331	3186.493182
913.669186	3277.566667
913.975000	3399.489493
914.280775	3590.503854
914.586510	3866.655741
914.892205	4247.482146
915.197859	4754.198766
915.503475	5332.600594
915.809050	5815.976672
916.114585	6080.601961
916.420081	6131.910824
916.725536	6062.554630
917.030952	5817.042876
917.336328	5616.641887
917.641665	5408.948869
917.946961	5180.975289
918.252218	4981.872398
918.557435	4756.008541
918.862612	4561.621648
919.167750	4391.381883
919.472848	4203.629149
919.777906	4033.961555
920.082925	3877.970611
920.387904	3726.640213
920.692843	3615.139972
920.997743	3515.970394
921.302603	3425.438833
921.607423	3359.687063
921.912204	3296.460912
922.216946	3243.979979
922.521647	3196.530119
922.826310	3153.861793
923.130932	3118.235958
923.435516	3079.167016
923.740059	3053.620969
924.044564	3020.228366
924.349028	2997.399501
924.653454	2967.354224
924.957840	2940.235337
925.262186	2921.444436
925.566493	2897.909809
925.870761	2875.146479
926.174989	2866.243801
926.479178	2848.577077
926.783328	2832.236177
927.087438	2822.214363
927.391509	2808.620892
927.695541	2795.360137
927.999533	2786.454939
928.303486	2779.815739
928.607400	2772.470778
928.911275	2767.858122
929.215110	2757.208685
929.518906	2756.860845
929.822663	2759.041144
930.126381	2758.942842
930.430060	2762.101124
930.733699	2762.958121
931.037299	2765.289654
931.340861	2766.612957
931.644383	2769.342742
931.947866	2767.517844
932.251309	2763.643717
932.554714	2763.749582
932.858080	2762.007863
933.161407	2760.979468
933.464694	2754.501585
933.767943	2750.524115
934.071153	2747.575040
934.374323	2747.081007
934.677455	2743.307703
934.980548	2736.988617
935.283602	2736.124059
935.586617	2732.895200
935.889593	2738.896693
936.192530	2738.553895
936.495428	2744.701582
936.798287	2756.371853
937.101108	2768.498349
937.403890	2790.858387
937.706632	2818.216728
938.009336	2851.644620
938.312002	2881.778117
938.614628	2904.803587
938.917216	2920.965526
939.219765	2930.712597
939.522275	2942.435800
939.824747	2941.808177
940.127179	2932.497166
940.429573	2926.919129
940.731929	2928.451640
941.034246	2916.030237
941.336524	2916.183992
941.638763	2910.691655
941.940964	2901.489028
942.243126	2886.093344
942.545250	2876.731922
942.847335	2861.605940
943.149381	2847.722602
943.451389	2834.965962
943.753359	2819.547593
944.055290	2812.575677
944.357182	2803.461271
944.659036	2800.721404
944.960851	2795.655044
945.262628	2791.009621
945.564367	2792.219498
945.866067	2791.947276
946.167729	2789.900567
946.469352	2789.106586
946.770937	2789.935855
947.072484	2778.547889
947.373992	2781.055863
947.675462	2774.532610
947.976893	2772.117897
948.278286	2768.279058
948.579641	2764.193203
948.880958	2763.938625
949.182236	2762.312853
949.483476	2759.535177
949.784678	2755.230032
950.085841	2759.956113
950.386967	2764.543563
950.688054	2767.855602
950.989103	2773.473967
951.290114	2786.218004
951.591087	2797.096814
951.892021	2809.631643
952.192917	2820.815443
952.493776	2830.131496
952.794596	2833.289778
953.095378	2835.631394
953.396122	2834.761795
953.696828	2830.386074
953.997496	2826.494303
954.298126	2813.878816
954.598718	2807.274904
954.899272	2795.216464
955.199788	2784.768673
955.500266	2773.090840
955.800706	2756.938983
956.101108	2743.920203
956.401472	2733.149778
956.701798	2715.389793
957.002087	2703.749769
957.302337	2693.032276
957.602550	2684.336285
957.902724	2675.307579
958.202861	2666.450271
958.502960	2659.286792
958.803022	2648.944865
959.103045	2641.186529
959.403031	2635.863070
959.702979	2631.154633
960.002889	2628.046761
960.302762	2623.013169
960.602596	2620.616101
960.902393	2619.507047
961.202153	2613.039246
961.501875	2610.558999
961.801559	2608.356014
962.101205	2604.935592
962.400814	2602.465426
962.700385	2600.791763
962.999918	2597.278079
963.299414	2596.789087
963.598873	2597.346134
963.898293	2593.320773
964.197677	2594.364292
964.497022	2593.668613
964.796331	2593.224991
965.095601	2590.951431
965.394835	2592.496544
965.694030	2588.640062
965.993189	2591.170721
966.292309	2587.765422
966.591393	2585.423806
966.890439	2585.784248
967.189447	2584.662591
967.488419	2586.550503
967.787353	2588.473704
968.086249	2588.435895
968.385108	2590.084352
968.683930	2586.855493
968.982714	2590.217943
969.281462	2591.014445
969.580172	2593.018304
969.878844	2596.113572
970.177480	2600.537185
970.476078	2602.868718
970.774639	2605.364090
971.073162	2606.042125
971.371649	2605.051538
971.670098	2606.785695
971.968510	2611.557147
972.266885	2608.724019
972.565223	2613.442539
972.863524	2617.031840
973.161788	2619.862448
973.460014	2616.946141
973.758204	2618.403034
974.056356	2618.796244
974.354471	2617.641820
974.652550	2620.066615
974.950591	2620.341358
975.248595	2616.878085
975.546563	2616.482354
975.844493	2615.635441
976.142386	2613.689555
976.440243	2612.983794
976.738062	2610.717795
977.035845	2606.881477
977.333590	2604.628081
977.631299	2603.040118
977.928971	2600.443923
978.226606	2600.973245
978.524204	2596.244642
978.821765	2597.210023
979.119290	2596.156422
979.416777	2597.575507
979.714228	2597.411669
980.011642	2597.499890
980.309020	2605.096908
980.606360	2607.378031
980.903664	2614.982611
981.200931	2629.526340
981.498162	2648.211377
981.795356	2678.372600
982.092513	2716.214022
982.389633	2758.143819
982.686717	2801.724594
982.983764	2829.816423
983.280775	2848.602283
983.577749	2846.318641
983.874686	2836.599296
984.171587	2820.611277
984.468451	2802.236271
984.765279	2787.047274
985.062070	2766.302926
985.358824	2752.018817
985.655543	2728.713562
985.952224	2706.298072
986.248869	2679.106088
986.545478	2653.040802
986.842050	2634.048255
987.138586	2616.293311
987.435086	2602.566249
987.731549	2590.805237
988.027975	2587.115113
988.324366	2578.678742
988.620719	2575.923751
988.917037	2571.951322
989.213318	2572.536096
989.509563	2571.134655
989.805772	2569.274469
990.101944	2561.082594
990.398080	2566.474108
990.694180	2564.755075
990.990244	2565.334807
991.286271	2565.047462
991.582262	2564.661813
991.878217	2569.065261
992.174136	2566.428738
992.470019	2566.426217
992.765865	2568.359500
993.061676	2569.713050
993.357450	2572.697413
993.653188	2577.703278
993.948890	2583.286356
994.244556	2588.672829
994.540186	2597.026021
994.835780	2611.340378
995.131337	2624.555762
995.426859	2638.892804
995.722345	2658.046668
996.017795	2679.968125
996.313208	2691.361133
996.608586	2700.319263
996.903928	2704.258925
997.199234	2701.269521
997.494504	2702.676003
997.789738	2691.734178
998.084936	2682.914680
998.380099	2671.277176
998.675225	2656.688077
998.970316	2648.516367
999.265371	2634.133955
999.560390	2619.743981
999.855373	2609.729729
1000.150320	2599.730600
1000.445232	2589.854980
1000.740108	2584.755853
1001.034948	2577.506673
1001.329752	2571.764799
1001.624521	2567.847823
1001.919254	2557.705021
1002.213951	2561.198541
1002.508613	2555.174362
1002.803239	2554.640000
1003.097829	2551.370811
1003.392384	2554.662685
1003.686903	2553.069680
1003.981386	2553.911553
1004.275834	2550.690256
1004.570246	2549.906356
1004.864623	2548.567930
1005.158964	2545.414688
1005.453270	2548.053732
1005.747540	2545.757487
1006.041775	2544.787064
1006.335974	2544.356046
1006.630138	2543.284801
1006.924266	2543.050387
1007.218359	2544.834955
1007.512416	2542.765562
1007.806438	2543.214224
1008.100425	2542.561395
1008.394376	2548.610780
1008.688292	2543.735984
1008.982172	2542.052238
1009.276017	2543.700696
1009.569827	2539.589635
1009.863602	2546.359904
1010.157341	2543.022661
1010.451045	2540.867567
1010.744714	2541.462423
1011.038347	2541.822866
1011.331945	2540.681045
1011.625508	2539.624923
1011.919036	2540.139121
1012.212528	2543.002496
1012.505986	2540.265149
1012.799408	2538.949408
1013.092795	2540.416384
1013.386147	2538.646939
1013.679464	2538.483102
1013.972745	2537.852957
1014.265992	2538.541075
1014.559204	2538.871270
1014.852380	2537.341280
1015.145521	2539.231713
1015.438628	2535.715508
1015.731699	2540.161806
1016.024736	2538.909079
1016.317737	2537.638708
1016.610703	2539.251878
1016.903635	2536.378420
1017.196531	2537.810107
1017.489393	2538.326826
1017.782219	2536.522093
1018.075011	2542.770603
1018.367768	2540.297917
1018.660490	2541.061652
1018.953177	2541.061652
1019.245829	2541.061652
