Dividing Wavelength (nm)	Counts (n)	Blue Motor Position (mm): 18.300000	Red Motor Position (mm): 0.000000	
326.493990	2135.163068
326.888308	2135.163068
327.282561	2135.163068
327.676750	2103.068562
328.070874	2101.233582
328.464933	2101.803232
328.858929	2111.457042
329.252859	2119.255707
329.646726	2129.814403
330.040528	2145.353760
330.434265	2162.662562
330.827938	2179.681497
331.221547	2195.813189
331.615091	2215.037630
332.008571	2234.231823
332.401986	2254.267889
332.795338	2271.780857
333.188625	2290.796090
333.581847	2312.783082
333.975006	2332.158757
334.368100	2351.857066
334.761129	2368.976824
335.154095	2381.274719
335.546996	2402.223234
335.939833	2422.622263
336.332606	2439.623554
336.725315	2448.700152
337.117960	2460.836729
337.510540	2467.755713
337.903056	2479.587301
338.295508	2485.951758
338.687896	2495.537512
339.080220	2503.595796
339.472480	2510.827332
339.864676	2515.644154
340.256807	2517.993332
340.648875	2519.442663
341.040879	2523.417613
341.432818	2522.210257
341.824694	2527.173273
342.216506	2526.215454
342.608253	2527.654703
342.999937	2527.783253
343.391557	2528.264683
343.783113	2527.276617
344.174605	2524.972809
344.566033	2524.970289
344.957397	2522.116996
345.348697	2518.603311
345.739934	2522.263189
346.131106	2517.504340
346.522215	2514.225069
346.913260	2512.571571
347.304241	2514.250275
347.695159	2506.408760
348.086012	2509.841786
348.476802	2503.162257
348.867528	2505.352638
349.258191	2503.265601
349.648789	2501.682678
350.039324	2499.336021
350.429796	2500.762668
350.820203	2497.548932
351.210548	2497.059940
351.600828	2494.967862
351.991045	2495.953407
352.381198	2495.905516
352.771288	2494.899806
353.161314	2495.030876
353.551276	2493.135402
353.941175	2493.367295
354.331010	2496.192862
354.720782	2495.461895
355.110490	2499.275528
355.500135	2493.064826
355.889717	2493.896616
356.279235	2495.207316
356.668689	2493.291678
357.058080	2495.792090
357.447408	2489.697335
357.836672	2490.544249
358.225873	2495.928201
358.615010	2492.016266
359.004084	2494.617501
359.393095	2499.787205
359.782043	2499.381392
360.170927	2497.642194
360.559748	2497.995074
360.948505	2499.550270
361.337199	2499.552791
361.725830	2501.496156
362.114398	2502.733759
362.502903	2500.750065
362.891344	2501.609582
363.279722	2500.606392
363.668037	2503.573111
364.056289	2500.651762
364.444478	2503.484891
364.832603	2505.463544
365.220665	2506.779285
365.608665	2503.910868
365.996601	2504.183091
366.384474	2504.611589
366.772284	2504.692247
367.160031	2505.529079
367.547715	2507.182577
367.935336	2509.619975
368.322893	2507.802639
368.710388	2509.052845
369.097820	2508.314316
369.485189	2508.097547
369.872495	2508.805829
370.259738	2507.684172
370.646918	2506.746517
371.034035	2507.890859
371.421090	2508.682321
371.808081	2510.429080
372.195010	2507.863133
372.581875	2511.381858
372.968678	2509.299862
373.355418	2508.705006
373.742096	2512.972342
374.128710	2508.878926
374.515262	2508.997393
374.901751	2512.914369
375.288177	2511.815398
375.674540	2510.519821
376.060841	2513.589884
376.447079	2510.103926
376.833254	2512.647188
377.219367	2510.282887
377.605417	2509.057887
377.991404	2508.994872
378.377329	2510.242558
378.763191	2507.227948
379.148991	2517.380832
379.534727	2513.708351
379.920402	2513.983094
380.306013	2513.496623
380.691563	2516.486027
381.077049	2514.696417
381.462474	2515.087107
381.847835	2515.223218
382.233134	2516.365039
382.618371	2515.069462
383.003545	2514.688855
383.388657	2514.293125
383.773706	2517.786644
384.158693	2512.793382
384.543618	2516.594412
384.928480	2516.022241
385.313280	2513.695748
385.698017	2517.905112
386.082692	2516.990142
386.467305	2518.321007
386.851856	2518.147087
387.236344	2515.697086
387.620770	2518.815040
388.005133	2519.319155
388.389435	2520.345030
388.773674	2522.485000
389.157851	2518.469721
389.541965	2518.749505
389.926018	2521.471728
390.310008	2520.024917
390.693936	2518.641120
391.077802	2518.593229
391.461606	2521.020545
391.845348	2521.272602
392.229027	2521.943076
392.612645	2520.773528
392.996200	2521.537263
393.379694	2519.447705
393.763125	2521.524660
394.146494	2519.553569
394.529801	2520.813857
394.913047	2521.058353
395.296230	2520.213960
395.679351	2522.036337
396.062410	2521.257479
396.445408	2521.824609
396.828343	2524.650175
397.211217	2518.046264
397.594028	2523.457943
397.976778	2520.226563
398.359466	2520.531553
398.742092	2520.861748
399.124656	2526.633869
399.507158	2523.888961
399.889598	2527.395084
400.271977	2524.539270
400.654294	2525.328211
401.036549	2524.393077
401.418742	2525.686133
401.800874	2527.074970
402.182944	2524.745957
402.564952	2524.990453
402.946898	2527.347193
403.328783	2526.840557
403.710606	2523.525998
404.092367	2527.269055
404.474067	2525.242511
404.855705	2523.639424
405.237282	2528.554549
405.618797	2526.747295
406.000250	2524.176307
406.381642	2525.933149
406.762972	2526.621267
407.144240	2526.349044
407.525447	2529.807276
407.906593	2525.829805
408.287677	2528.970444
408.668700	2529.038500
409.049661	2528.413397
409.430560	2527.848788
409.811399	2528.781401
410.192176	2527.274096
410.572891	2528.698222
410.953545	2527.518592
411.334138	2530.235774
411.714669	2530.868439
412.095139	2529.381298
412.475547	2529.774508
412.855894	2529.489683
413.236180	2531.564118
413.616405	2532.852133
413.996568	2529.562780
414.376670	2527.904240
414.756711	2530.346679
415.136691	2531.193593
415.516609	2532.564787
415.896466	2531.649818
416.276262	2533.084026
416.655997	2530.074457
417.035670	2527.591689
417.415283	2528.680578
417.794834	2527.032121
418.174324	2529.242667
418.553753	2532.161495
418.933121	2530.636546
419.312428	2535.465971
419.691674	2531.735517
420.070859	2532.254756
420.449983	2534.281300
420.829045	2531.876669
421.208047	2534.946732
421.586988	2533.300795
421.965867	2532.587472
422.344686	2534.069571
422.723444	2534.944212
423.102141	2533.779705
423.480777	2533.651156
423.859352	2535.526465
424.237866	2536.227185
424.616319	2535.080323
424.994712	2532.131248
425.373044	2535.327339
425.751314	2532.799201
426.129524	2535.037473
426.507673	2535.702905
426.885762	2533.938501
427.263789	2535.085364
427.641756	2533.610826
428.019662	2531.821217
428.397508	2535.821372
428.775292	2536.552340
429.153016	2535.695343
429.530679	2537.515200
429.908282	2534.926568
430.285824	2536.103677
430.663305	2532.504293
431.040726	2535.549150
431.418086	2535.919675
431.795385	2536.930426
432.172624	2538.485622
432.549802	2537.492515
432.926920	2533.086546
433.303977	2537.018646
433.680974	2537.190046
434.057910	2538.687268
434.434786	2534.770292
434.811601	2537.104346
435.188355	2536.486805
435.565050	2535.027391
435.941683	2538.911600
436.318257	2535.967566
436.694770	2533.694005
437.071222	2534.578728
437.447614	2531.301978
437.823946	2534.152750
438.200218	2540.386137
438.576429	2538.467978
438.952580	2536.249870
439.328670	2539.357742
439.704700	2537.643749
440.080670	2539.682896
440.456580	2539.014943
440.832429	2537.610982
441.208218	2540.471837
441.583947	2540.176929
441.959616	2538.916641
442.335224	2539.012423
442.710773	2538.236085
443.086261	2539.632485
443.461689	2539.791281
443.837057	2538.720036
444.212365	2539.735828
444.587612	2538.074768
444.962800	2540.925541
445.337927	2541.001158
445.712995	2542.357228
446.088002	2542.667259
446.462949	2543.055428
446.837837	2542.518545
447.212664	2540.323123
447.587431	2539.955118
447.962139	2541.651467
448.336786	2543.937630
448.711374	2540.474357
449.085901	2542.649615
449.460369	2540.280273
449.834776	2543.642723
450.209124	2541.301107
450.583412	2541.162475
450.957640	2541.119625
451.331808	2542.500901
451.705917	2542.014430
452.079965	2541.790098
452.453954	2539.387989
452.827883	2541.540561
453.201752	2542.155582
453.575562	2542.198432
453.949311	2543.567105
454.323001	2541.817825
454.696632	2545.200439
455.070202	2543.488967
455.443713	2542.783206
455.817164	2541.422094
456.190556	2543.872095
456.563888	2542.894111
456.937160	2539.294727
457.310373	2544.522404
457.683526	2543.698175
458.056619	2543.572146
458.429653	2544.005686
458.802628	2541.573329
459.175542	2544.106509
459.548398	2546.866540
459.921194	2544.159441
460.293930	2545.046684
460.666607	2545.911242
461.039224	2545.843186
461.411782	2545.664225
461.784280	2544.706406
462.156719	2547.915100
462.529099	2543.811601
462.901419	2545.427291
463.273680	2546.606921
463.645882	2544.444266
464.018024	2546.813608
464.390106	2544.744215
464.762130	2546.271684
465.134094	2546.357384
465.505999	2547.395862
465.877845	2545.371838
466.249631	2546.501057
466.621358	2546.768238
466.993026	2551.688404
467.364634	2555.073539
467.736184	2545.039122
468.107674	2546.312013
468.479105	2547.171530
468.850477	2547.917621
469.221790	2545.586087
469.593043	2550.231511
469.964238	2548.857796
470.335373	2548.091541
470.706449	2547.574823
471.077467	2546.286808
471.448425	2548.714123
471.819324	2548.729247
472.190164	2551.821995
472.560945	2547.867209
472.931667	2549.283774
473.302330	2549.641696
473.672934	2550.793599
474.043479	2548.789741
474.413965	2549.324103
474.784393	2545.240768
475.154761	2545.868392
475.525070	2545.089534
475.895321	2547.516849
476.265513	2543.995603
476.635645	2550.216387
477.005719	2547.350491
477.375734	2553.485575
477.745691	2549.271171
478.115588	2552.742005
478.485427	2549.029195
478.855207	2551.040616
479.224928	2551.867365
479.594591	2552.610935
479.964194	2553.470452
480.333739	2553.833415
480.703226	2549.498023
481.072653	2553.480534
481.442022	2553.775442
481.811333	2554.259392
482.180584	2553.838456
482.549777	2553.793086
482.918912	2553.548590
483.287988	2555.630586
483.657005	2552.316028
484.025964	2556.190154
484.394864	2555.796944
484.763706	2556.485062
485.132489	2555.955741
485.501213	2555.857438
485.869879	2555.030689
486.238487	2555.181924
486.607036	2553.591440
486.975527	2554.927345
487.343959	2555.570092
487.712333	2556.527912
488.080648	2554.584547
488.448905	2555.345761
488.817104	2555.045813
489.185244	2556.742161
489.553326	2558.998077
489.921350	2559.013201
490.289315	2558.476318
490.657222	2562.395815
491.025070	2561.395146
491.392861	2560.646534
491.760593	2561.798438
492.128267	2561.894220
492.495883	2561.208623
492.863440	2562.761298
493.230939	2558.075546
493.598380	2558.350289
493.965763	2556.109496
494.333088	2558.176369
494.700354	2556.240566
495.067563	2560.828016
495.434713	2554.690411
495.801805	2560.691905
496.168839	2565.775908
496.535815	2563.898079
496.902733	2562.887327
497.269593	2564.606361
497.636395	2566.655590
498.003139	2567.071485
498.369825	2562.746175
498.736453	2566.874880
499.103023	2566.554767
499.469535	2568.223389
499.835989	2568.057031
500.202385	2573.004923
500.568723	2569.135837
500.935003	2572.732701
501.301226	2572.977197
501.667390	2575.288566
502.033497	2577.408371
502.399546	2574.900397
502.765537	2576.556416
503.131470	2580.959864
503.497345	2583.508167
503.863163	2586.031265
504.228923	2588.251893
504.594625	2590.747264
504.960269	2589.431523
505.325856	2594.399580
505.691385	2595.569128
506.056856	2601.789912
506.422270	2601.759665
506.787625	2603.718153
507.152924	2611.657970
507.518164	2613.704679
507.883347	2619.718775
508.248472	2622.410751
508.613540	2631.220168
508.978550	2635.593369
509.343503	2636.515900
509.708398	2646.305821
510.073236	2650.429484
510.438016	2657.734116
510.802738	2663.365085
511.167403	2669.399346
511.532010	2676.572908
511.896561	2685.238652
512.261053	2694.595033
512.625488	2696.634180
512.989866	2702.368492
513.354186	2709.894935
513.718449	2716.226624
514.082655	2734.097515
514.446803	2742.891808
514.810894	2754.075607
515.174927	2764.031886
515.538904	2769.436003
515.902822	2783.654578
516.266684	2790.888633
516.630488	2805.853299
516.994235	2815.338230
517.357925	2833.214161
517.721558	2845.688496
518.085133	2861.938656
518.448651	2876.416850
518.812112	2885.929507
519.175516	2903.755027
519.538863	2924.267482
519.902152	2932.318205
520.265385	2963.296095
520.628560	2970.119297
520.991678	2989.999087
521.354739	3005.939215
521.717743	3024.861186
522.080690	3040.939947
522.443580	3073.357086
522.806413	3089.914756
523.169189	3112.620113
523.531908	3136.220275
523.894569	3148.470279
524.257174	3172.662776
524.619722	3206.551933
524.982213	3219.689180
525.344647	3256.479520
525.707025	3270.322529
526.069345	3305.066161
526.431608	3331.159173
526.793815	3364.544215
527.155964	3376.443858
527.518057	3399.703742
527.880093	3428.498813
528.242072	3461.810758
528.603995	3488.198678
528.965860	3508.809435
529.327669	3546.360990
529.689421	3571.178590
530.051117	3598.496603
530.412755	3652.071466
530.774337	3663.706449
531.135862	3705.056513
531.497331	3734.804362
531.858743	3750.570571
532.220098	3805.619971
532.581396	3824.756191
532.942638	3855.875233
533.303824	3890.613824
533.664953	3940.186011
534.026025	3956.161427
534.387040	4016.549409
534.747999	4052.006365
535.108902	4105.742544
535.469748	4102.516206
535.830537	4160.068539
536.191270	4198.640927
536.551947	4243.338318
536.912567	4286.866161
537.273131	4307.061023
537.633638	4347.785984
537.994089	4392.196029
538.354483	4424.461934
538.714821	4494.821319
539.075103	4541.388977
539.435328	4579.411880
539.795497	4576.863577
540.155609	4668.680632
540.515665	4725.625506
540.875665	4710.706212
541.235609	4778.096356
541.595496	4819.426256
541.955328	4914.678858
542.315102	4920.733284
542.674821	4950.874343
543.034483	4996.282536
543.394090	5045.605185
543.753640	5071.491510
544.113134	5197.086817
544.472571	5196.686045
544.831953	5290.895128
545.191278	5278.521616
545.550548	5334.745605
545.909761	5423.424542
546.268918	5471.640658
546.628019	5547.149581
546.987064	5560.049894
547.346053	5571.417696
547.704986	5668.311193
548.063863	5708.685794
548.422684	5750.171970
548.781449	5777.767246
549.140158	5862.879567
549.498811	5864.853179
549.857408	5851.859605
550.215949	6001.949878
550.574434	5994.289845
550.932864	6091.137972
551.291237	6150.583258
551.649555	6197.254261
552.007817	6245.787969
552.366022	6279.228463
552.724173	6329.740825
553.082267	6362.147882
553.440305	6499.768862
553.798288	6436.658657
554.156215	6572.124543
554.514086	6612.032837
554.871902	6583.847746
555.229661	6650.927860
555.587365	6682.873652
555.945014	6674.606159
556.302606	6798.938657
556.660143	6781.423168
557.017625	6920.279230
557.375050	6912.379742
557.732421	7029.145468
558.089735	7039.880605
558.446994	7080.648417
558.804197	7150.181052
559.161345	7201.988990
559.518437	7152.507544
559.875474	7265.565501
560.232455	7330.861047
560.589381	7336.986048
560.946251	7401.154896
561.303065	7494.285172
561.659825	7514.898450
562.016528	7512.536669
562.373177	7474.138201
562.729770	7615.194726
563.086307	7592.144050
563.442789	7696.125410
563.799216	7684.419851
564.155587	7752.273782
564.511904	7768.786081
564.868164	7805.659601
565.224370	7851.899585
565.580520	7863.857202
565.936615	7892.622025
566.292654	7862.813683
566.648638	7985.674164
567.004567	7997.523396
567.360441	8025.317797
567.716260	8004.986824
568.072023	8108.731250
568.427732	8119.506716
568.783385	8076.046929
569.138982	8177.442177
569.494525	8223.346923
569.850013	8169.404057
570.205445	8273.887011
570.560823	8218.595636
570.916145	8205.322278
571.271412	8283.069473
571.626625	8280.619472
571.981782	8290.684136
572.336884	8310.884039
572.691931	8335.522679
573.046923	8346.736726
573.401860	8337.892021
573.756743	8319.706059
574.111570	8388.747181
574.466342	8397.526351
574.821059	8452.028785
575.175722	8396.230774
575.530330	8436.537320
575.884882	8451.428888
576.239380	8430.669417
576.593823	8435.327443
576.948211	8470.852454
577.302544	8400.828306
577.656823	8444.643495
578.011047	8466.393553
578.365216	8471.354049
578.719330	8431.294520
579.073389	8469.312381
579.427394	8443.163916
579.781344	8443.967980
580.135239	8427.138088
580.489080	8457.700083
580.842866	8394.267245
581.196597	8415.694669
581.550273	8473.299934
581.903895	8463.247873
582.257463	8543.775265
582.610975	8453.830998
582.964434	8495.939756
583.317837	8450.478631
583.671186	8449.573743
584.024481	8462.335424
584.377721	8405.211590
584.730906	8401.985251
585.084037	8453.790669
585.437113	8404.505828
585.790135	8450.035009
586.143103	8366.334211
586.496016	8362.215588
586.848874	8426.051720
587.201679	8428.642873
587.554428	8342.590377
587.907124	8402.917865
588.259765	8384.958754
588.612352	8395.356134
588.964884	8297.976165
589.317362	8325.614291
589.669786	8335.152154
590.022155	8390.561997
590.374470	8419.800689
590.726731	8373.790078
591.078937	8247.075635
591.431090	8363.861525
591.783188	8259.577696
592.135232	8263.416535
592.487222	8269.367617
592.839157	8322.551790
593.191038	8272.069675
593.542866	8229.600475
593.894639	8141.450859
594.246358	8203.590642
594.598022	8225.754074
594.949633	8140.924058
595.301190	8119.892364
595.652692	8162.575814
596.004141	8273.055221
596.355535	8065.770537
596.706876	8056.141933
597.058162	8001.127821
597.409395	8081.325017
597.760573	8147.165007
598.111698	8069.599293
598.462768	8059.133857
598.813785	8031.294085
599.164748	8005.773244
599.515657	8004.248295
599.866511	7920.053464
600.217312	8053.447436
600.568060	7921.225532
600.918753	8017.342692
601.269392	7997.208324
601.619978	7916.615397
601.970510	7984.098803
602.320988	7982.727609
602.671412	8041.520066
603.021783	7987.824216
603.372100	7963.886297
603.722363	7971.372410
604.072572	7951.411962
604.422728	7969.444169
604.772830	7898.220227
605.122878	7907.006958
605.472872	7906.616268
605.822813	7931.481760
606.172701	7887.646407
606.522534	7968.924930
606.872314	7965.940567
607.222041	7939.824869
607.571714	7998.418201
607.921333	7956.463198
608.270899	7964.070299
608.620411	8058.314670
608.969870	7965.068447
609.319276	7959.087118
609.668627	7976.615210
610.017926	8011.661312
610.367171	8064.505207
610.716362	8041.154582
611.065500	8034.880866
611.414585	8062.932367
611.763616	8056.010863
612.112594	8037.512349
612.461518	8053.354175
612.810389	8115.050336
613.159207	8052.109010
613.507971	8004.424735
613.856682	8128.747151
614.205340	8083.601098
614.553945	8165.103953
614.902496	8057.077067
615.250994	8116.744164
615.599439	8099.611802
615.947830	8113.059080
616.296169	8084.768125
616.644454	8103.216227
616.992686	8097.159281
617.340864	8158.701687
617.688990	8058.861635
618.037063	8157.385946
618.385082	8111.158565
618.733048	8189.994650
619.080961	8125.074670
619.428821	8141.826425
619.776628	8156.798652
620.124382	8106.160261
620.472083	8086.865245
620.819731	8118.004452
621.167326	8007.157041
621.514868	8022.613218
621.862357	7912.474089
622.209793	7932.162316
622.557176	7866.276955
622.904506	7833.769075
623.251783	7776.400744
623.599007	7725.558187
623.946179	7736.079075
624.293297	7686.136364
624.640363	7609.883871
624.987376	7588.852177
625.334336	7542.103037
625.681243	7491.930953
626.028097	7479.721278
626.374899	7459.644883
626.721647	7445.035619
627.068343	7384.118316
627.414987	7355.023297
627.761577	7310.756925
628.108115	7349.954417
628.454600	7243.570947
628.801032	7294.000130
629.147412	7251.924139
629.493739	7245.068170
629.840014	7178.051071
630.186236	7231.872950
630.532405	7118.590661
630.878521	7169.166037
631.224585	7127.495859
631.570597	7056.897020
631.916556	7086.614622
632.262462	7082.579178
632.608316	7044.614249
632.954117	7025.682196
633.299866	7011.866913
633.645562	7007.642427
633.991206	6923.455157
634.336797	6867.526076
634.682336	6830.231620
635.027823	6797.267515
635.373257	6786.534898
635.718639	6718.859928
636.063968	6729.837041
636.409245	6629.540765
636.754470	6624.464323
637.099642	6582.158960
637.444762	6528.700044
637.789829	6533.579881
638.134845	6476.224153
638.479808	6467.082020
638.824719	6470.089068
639.169577	6401.332771
639.514383	6421.565442
639.859137	6347.967117
640.203839	6356.378282
640.548489	6347.967117
640.893086	6318.995605
641.237632	6296.607841
641.582125	6313.835984
641.926566	6286.507889
642.270955	6293.696575
642.615292	6288.967972
642.959576	6310.425644
643.303809	6296.413757
643.647990	6303.705786
643.992118	6294.377131
644.336195	6243.141363
644.680219	6267.810250
645.024192	6256.754999
645.368112	6351.427869
645.711981	6368.000662
646.055797	6452.097190
646.399562	6409.774183
646.743274	6531.853285
647.086935	6584.074598
647.430544	6583.333548
647.774101	6602.618483
648.117606	6608.123423
648.461059	6603.004131
648.804460	6562.455610
649.147810	6468.770807
649.491108	6434.864006
649.834354	6415.213588
650.177548	6332.672256
650.520690	6244.993987
650.863781	6228.385906
651.206820	6243.279995
651.549807	6168.428943
651.892742	6106.982319
652.235626	6117.296519
652.578458	6099.559220
652.921238	6010.923132
653.263967	6053.596499
653.606644	5986.488659
653.949269	5993.851265
654.291843	5935.958654
654.634365	5983.436241
654.976836	5936.359426
655.319255	5940.377225
655.661622	5916.426703
656.003938	5910.536115
656.346203	5872.571185
656.688416	5907.239200
657.030577	5856.442014
657.372687	5832.872099
657.714746	5820.433052
658.056753	5853.550912
658.398708	5798.453621
658.740612	5792.953722
659.082465	5835.846380
659.424266	5829.411347
659.766016	5827.669628
660.107715	5802.531914
660.449362	5816.236291
660.790958	5813.534233
661.132503	5800.041584
661.473996	5840.930383
661.815438	5819.787784
662.156829	5820.377599
662.498168	5816.087577
662.839456	5786.243946
663.180693	5822.570501
663.521879	5826.774823
663.863013	5815.175128
664.204097	5833.030895
664.545129	5876.289036
664.886110	5871.154621
665.227040	5902.699641
665.567918	5867.829980
665.908746	5899.049846
666.249522	5898.674280
666.590248	5886.741869
666.930922	5916.817393
667.271545	5928.570843
667.612118	5926.579587
667.952639	5902.951699
668.293109	5923.355769
668.633528	5880.929418
668.973896	5885.816817
669.314213	5876.283995
669.654480	5858.360173
669.994695	5851.937743
670.334859	5846.316856
670.674973	5838.674467
671.015035	5838.039282
671.355047	5833.482078
671.695008	5824.660059
672.034918	5797.150483
672.374777	5807.583151
672.714585	5797.205935
673.054342	5795.925482
673.394049	5789.434997
673.733705	5822.136962
674.073310	5808.389735
674.412864	5766.396924
674.752368	5761.078506
675.091820	5764.440956
675.431223	5698.895874
675.770574	5701.194640
676.109875	5651.080529
676.449125	5661.810625
676.788324	5625.416015
677.127473	5570.389300
677.466571	5556.619389
677.805619	5550.247370
678.144616	5539.240011
678.483562	5520.128997
678.822458	5485.178677
679.161303	5481.947297
679.500098	5474.617460
679.838842	5460.454338
680.177535	5457.069203
680.516179	5472.333817
680.854771	5485.430735
681.193314	5561.499226
681.531805	5676.442574
681.870247	5823.591335
682.208638	5922.942395
682.546978	5935.273057
682.885268	5911.882103
683.223508	5828.511501
683.561697	5778.165497
683.899836	5741.992698
684.237925	5704.988108
684.575963	5670.720865
684.913951	5628.647395
685.251889	5687.873391
685.589776	5649.979037
685.927614	5625.945336
686.265401	5694.767169
686.603137	5680.951887
686.940824	5751.396970
687.278460	5778.354541
687.616046	5791.423732
687.953582	5855.007805
688.291068	5838.641699
688.628504	5903.420526
688.965889	5862.108271
689.303224	5807.111803
689.640510	5757.716057
689.977745	5687.523031
690.314930	5588.134162
690.652065	5534.319845
690.989150	5438.270740
691.326185	5369.753898
691.663170	5312.130989
692.000105	5232.382456
692.336990	5158.088451
692.673825	5134.445439
693.010610	5063.387855
693.347345	4995.889326
693.684030	4987.619313
694.020665	4940.542498
694.357251	4856.342626
694.693786	4863.216239
695.030272	4828.976722
695.366707	4796.531856
695.703093	4763.542545
696.039429	4788.518942
696.375716	4769.997742
696.711952	4737.925922
697.048139	4731.168255
697.384276	4710.529771
697.720363	4725.058377
698.056400	4731.982401
698.392388	4679.352755
698.728326	4659.687214
699.064214	4640.054440
699.400053	4632.959016
699.735842	4604.269810
700.071581	4579.187549
700.407270	4550.876429
700.742910	4528.876833
701.078501	4481.583249
701.414042	4480.660718
701.749533	4447.878094
702.084974	4382.635481
702.420366	4437.773101
702.755709	4384.636819
703.091002	4326.046008
703.426246	4377.327146
703.761440	4329.698324
704.096584	4293.548210
704.431679	4314.232064
704.766725	4302.743275
705.101721	4289.883291
705.436668	4316.515707
705.771565	4266.774642
706.106413	4288.698620
706.441212	4327.036595
706.775961	4336.163604
707.110661	4315.787260
707.445311	4340.872042
707.779913	4365.309035
708.114465	4375.945870
708.448967	4401.927977
708.783421	4462.159683
709.117825	4500.719469
709.452180	4504.487731
709.786485	4553.202921
710.120742	4638.310201
710.454949	4622.085248
710.789107	4687.383313
711.123216	4756.721864
711.457275	4753.135083
711.791286	4823.411288
712.125247	4839.069112
712.459159	4740.111262
712.793023	4813.777643
713.126837	4776.009318
713.460602	4773.398001
713.794318	4693.838511
714.127985	4696.351526
714.461602	4609.976396
714.795171	4585.340277
715.128691	4518.837376
715.462162	4460.601966
715.795584	4416.552364
716.128957	4395.210639
716.462281	4342.787680
716.795556	4320.251202
717.128782	4282.964308
717.461960	4216.443762
717.795088	4227.115885
718.128167	4188.109957
718.461198	4125.710555
718.794180	4119.918269
719.127113	4100.023355
719.459997	4079.110128
719.792833	4039.968089
720.125619	4026.989639
720.458357	3991.439422
720.791046	3998.441585
721.123686	3969.903613
721.456278	3931.497582
721.788821	3947.145324
722.121315	3919.257661
722.453761	3894.830750
722.786158	3906.460692
723.118506	3930.789300
723.450805	3884.367835
723.783056	3908.091505
724.115259	3921.528700
724.447412	3923.051129
724.779518	3918.819080
725.111574	3924.679422
725.443582	3950.540541
725.775542	3938.061164
726.107453	3989.027230
726.439315	3991.487313
726.771129	4004.490969
727.102895	4038.072616
727.434612	4084.602466
727.766281	4096.386163
728.097901	4099.660392
728.429473	4102.778346
728.760996	4109.475519
729.092471	4103.214406
729.423897	4088.524483
729.755276	4094.251234
730.086606	4097.114609
730.417887	4132.241369
730.749120	4195.815361
731.080305	4263.271040
731.411442	4283.291983
731.742530	4256.717540
732.073570	4257.451028
732.404562	4313.720387
732.735506	4307.771826
733.066401	4267.084673
733.397249	4204.052606
733.728048	4127.089310
734.058798	4045.684758
734.389501	3974.168429
734.720156	3912.812545
735.050762	3869.035165
735.381320	3864.805637
735.711831	3813.030467
736.042293	3786.161117
736.372707	3807.028973
736.703073	3777.434879
737.033391	3767.390380
737.363661	3788.079276
737.693883	3813.456444
738.024056	3820.171261
738.354182	3813.703461
738.684260	3881.983369
739.014290	3899.201430
739.344272	3894.601377
739.674207	3936.475722
740.004093	3941.872277
740.333931	3934.615536
740.663722	3938.454374
740.993464	3932.757871
741.323159	3910.652411
741.652806	3883.031929
741.982405	3852.769883
742.311956	3821.590346
742.641460	3812.342349
742.970915	3792.835604
743.300323	3748.533944
743.629683	3714.347360
743.958996	3706.377295
744.288260	3678.860157
744.617477	3646.982421
744.946647	3635.612098
745.275768	3610.106380
745.604842	3607.187552
745.933869	3558.679049
746.262847	3552.914490
746.591778	3591.930500
746.920662	3560.085531
747.249498	3531.829864
747.578286	3577.033891
747.907027	3593.150459
748.235720	3590.728185
748.564365	3614.943367
748.892963	3616.750621
749.221514	3600.351748
749.550017	3574.364600
749.878473	3572.234712
750.206881	3543.941236
750.535242	3537.170967
750.863555	3539.696585
751.191821	3536.301367
751.520039	3518.715302
751.848210	3496.050275
752.176334	3528.391797
752.504411	3535.066285
752.832440	3497.381139
753.160421	3478.476812
753.488356	3488.075169
753.816243	3499.707632
754.144082	3457.712300
754.471875	3443.276956
754.799620	3461.861169
755.127318	3456.416723
755.454969	3449.008748
755.782572	3460.132053
756.110129	3436.617591
756.437638	3427.591405
756.765100	3440.388374
757.092515	3448.948254
757.419882	3450.745425
757.747203	3429.829678
758.074477	3432.569545
758.401703	3446.241154
758.728882	3466.010039
759.056014	3477.085454
759.383099	3476.656956
759.710138	3472.389619
760.037129	3493.202023
760.364073	3524.419368
760.690970	3504.637880
761.017820	3483.717092
761.344623	3501.882890
761.671379	3546.676062
761.998088	3599.310749
762.324751	3722.408165
762.651366	3969.989312
762.977935	4435.706228
763.304456	4876.235019
763.630931	4963.467145
763.957359	4604.073205
764.283740	4267.387142
764.610074	4079.785643
764.936362	3882.754666
765.262602	3731.089032
765.588796	3621.007876
765.914943	3530.788866
766.241044	3443.982717
766.567097	3417.098244
766.893104	3367.034545
767.219064	3339.915658
767.544978	3311.874239
767.870845	3252.204622
768.196665	3239.382447
768.522438	3251.561875
768.848165	3243.700195
769.173846	3206.773743
769.499479	3192.925694
769.825066	3174.472550
770.150607	3159.071825
770.476101	3173.020698
770.801548	3168.050120
771.126949	3124.343316
771.452303	3107.203393
771.777611	3113.444342
772.102872	3117.484827
772.428087	3093.771239
772.753256	3084.296390
773.078378	3076.855647
773.403453	3040.614792
773.728482	3030.333359
774.053465	3050.722306
774.378401	3040.866850
774.703291	3007.224710
775.028135	3011.673528
775.352932	3005.402333
775.677683	2993.916063
776.002388	2990.447750
776.327046	2992.703666
776.651658	2981.678663
776.976224	2969.342959
777.300743	2969.227013
777.625216	2960.737709
777.949643	2955.865434
778.274024	2959.006073
778.598359	2947.411419
778.922647	2955.351237
779.246889	2950.625155
779.571086	2934.538833
779.895236	2928.058430
780.219339	2942.866819
780.543397	2952.006431
780.867409	2958.464149
781.191374	2951.721606
781.515294	2944.452262
781.839167	2949.019547
782.162995	2938.680141
782.486776	2948.520473
782.810511	2943.948147
783.134201	2933.036569
783.457844	2936.436827
783.781441	2927.617329
784.104993	2906.883063
784.428498	2911.871285
784.751958	2925.386618
785.075372	2917.807243
785.398739	2901.257135
785.722061	2917.988725
786.045337	2929.656475
786.368568	2911.152920
786.691752	2907.104874
787.014891	2954.065742
787.337983	2982.628920
787.661030	3009.785616
787.984031	3076.270873
788.306987	3120.562451
788.629897	3115.662449
788.952760	3100.498659
789.275579	3082.191708
789.598351	3025.503933
789.921078	2979.987355
790.243759	2974.555512
790.566395	2955.966257
790.888984	2930.747885
791.211529	2915.828590
791.534027	2906.179822
791.856480	2897.158677
792.178888	2880.575802
792.501249	2876.621016
792.823566	2873.389637
793.145836	2867.804038
793.468062	2861.661392
793.790241	2862.422607
794.112375	2865.785056
794.434464	2882.705689
794.756507	2885.417830
795.078505	2890.474107
795.400457	2902.840058
795.722364	2939.847168
796.044226	2967.293730
796.366042	2968.309523
796.687812	2955.076494
797.009538	2976.133393
797.331218	2961.776187
797.652852	2947.502160
797.974442	2929.618667
798.295986	2929.558173
798.617484	2917.814805
798.938938	2907.026736
799.260346	2893.350085
799.581709	2886.274826
799.903026	2880.767365
800.224299	2874.256715
800.545526	2866.276569
800.866708	2850.472551
801.187845	2838.701457
801.508936	2841.262363
801.829983	2847.594052
802.150984	2835.873370
802.471940	2822.975578
802.792851	2824.825681
803.113717	2821.758139
803.434538	2830.300374
803.755314	2823.792245
804.076045	2816.459886
804.396731	2814.108188
804.717372	2816.570792
805.037967	2810.045018
805.358518	2816.401913
805.679024	2828.959427
805.999485	2823.300732
806.319901	2827.177379
806.640272	2821.541369
806.960598	2822.733602
807.280879	2832.183245
807.601115	2840.443176
807.921306	2828.719972
808.241453	2825.405414
808.561554	2827.774756
808.881611	2834.076198
809.201623	2825.838953
809.521590	2825.740651
809.841513	2822.942810
810.161390	2826.721155
810.481223	2821.064980
810.801011	2809.959318
811.120755	2806.944708
811.440453	2809.687096
811.760107	2810.108032
812.079716	2808.419246
812.399281	2798.001702
812.718801	2794.954324
813.038276	2788.375618
813.357707	2791.465846
813.677093	2801.356589
813.996434	2793.305867
814.315731	2786.976698
814.634983	2784.872016
814.954191	2788.541976
815.273354	2800.872639
815.592473	2810.846562
815.911547	2810.526448
816.230577	2815.902839
816.549562	2828.437668
816.868502	2824.989519
817.187399	2835.064265
817.506250	2853.038499
817.825058	2844.982735
818.143821	2859.725589
818.462539	2873.644215
818.781213	2898.328225
819.099843	2932.265273
819.418429	2992.655775
819.736970	3054.097358
820.055466	3124.290384
820.373919	3225.952813
820.692327	3364.153525
821.010691	3529.795758
821.329011	3964.703662
821.647286	4846.015822
821.965517	6201.355239
822.283704	6922.802328
822.601847	6890.362503
822.919945	6272.304438
823.237999	5783.728411
823.556010	5206.601995
823.873976	4671.012166
824.191897	4268.072739
824.509775	3982.319975
824.827609	3715.174109
825.145398	3594.675408
825.463144	3586.304573
825.780845	3679.563398
826.098502	3781.790436
826.416116	4057.589443
826.733685	4363.539590
827.051210	4425.505453
827.368692	4311.101508
827.686129	4049.044687
828.003522	3730.660533
828.320872	3481.430928
828.638177	3291.071918
828.955439	3155.449756
829.272656	3074.902200
829.589830	3008.200173
829.906960	2961.617391
830.224046	2916.156265
830.541088	2881.568909
830.858086	2868.708925
831.175041	2851.430371
831.491952	2852.236955
831.808819	2865.437217
832.125642	2888.046792
832.442421	2932.986158
832.759157	3011.005575
833.075849	3187.246834
833.392497	3465.009370
833.709101	3662.350378
834.025662	3614.048563
834.342179	3455.592494
834.658653	3280.664456
834.975083	3135.605254
835.291469	3039.344421
835.607811	2959.197637
835.924110	2900.463153
836.240366	2850.298632
836.556578	2810.531489
836.872746	2788.957872
837.188871	2767.033893
837.504952	2749.614186
837.820990	2742.367528
838.136984	2731.022411
838.452935	2722.361709
838.768842	2716.355174
839.084706	2737.712022
839.400526	2818.055412
839.716303	2945.430246
840.032037	3019.351205
840.347727	3006.599607
840.663373	2947.040894
840.978977	2873.072044
841.294537	2805.255922
841.610054	2757.717841
841.925527	2735.781260
842.240957	2715.689742
842.556344	2693.153263
842.871687	2676.950995
843.186987	2671.284738
843.502244	2664.756444
843.817458	2661.285609
844.132629	2650.492499
844.447756	2638.791981
844.762840	2635.434572
845.077881	2634.348204
845.392879	2634.678399
845.707833	2628.780249
846.022745	2624.883437
846.337613	2627.688839
846.652438	2623.850001
846.967221	2622.408231
847.281960	2621.626852
847.596656	2620.641306
847.911309	2623.305556
848.225919	2618.904629
848.540485	2615.610235
848.855009	2613.944133
849.169490	2614.770883
849.483928	2616.094186
849.798323	2612.260388
850.112675	2614.249123
850.426984	2612.814915
850.741251	2612.313320
851.055474	2609.747373
851.369654	2618.095524
851.683792	2615.476644
851.997887	2613.578650
852.311938	2613.666870
852.625947	2613.233331
852.939914	2617.339351
853.253837	2619.345730
853.567718	2608.756786
853.881555	2612.083948
854.195350	2615.060749
854.509103	2615.620317
854.822812	2610.863988
855.136479	2610.027157
855.450103	2611.907507
855.763685	2616.494957
856.077224	2612.391458
856.390720	2609.981787
856.704173	2612.774586
857.017584	2615.267436
857.330953	2620.490072
857.644278	2621.200874
857.957561	2618.571913
858.270802	2614.854062
858.584000	2618.912191
858.897155	2620.724485
859.210268	2622.088117
859.523339	2615.466562
859.836367	2610.763165
860.149352	2610.679986
860.462295	2613.611417
860.775195	2608.204780
861.088054	2609.039091
861.400869	2606.778133
861.713642	2605.893411
862.026373	2610.165789
862.339062	2609.646550
862.651708	2615.668208
862.964312	2616.590739
863.276873	2614.418002
863.589392	2617.462859
863.901869	2620.878241
864.214303	2625.324538
864.526696	2629.342338
864.839045	2629.362502
865.151353	2633.070271
865.463619	2631.290744
865.775842	2632.394757
866.088023	2632.465333
866.400162	2632.230919
866.712258	2632.374592
867.024313	2629.637245
867.336325	2627.862759
867.648296	2629.811165
867.960224	2636.268883
868.272110	2630.829478
868.583954	2626.242028
868.895755	2627.119189
869.207515	2632.934160
869.519233	2640.062352
869.830909	2634.302833
870.142542	2631.741927
870.454134	2635.333749
870.765684	2637.997999
871.077191	2640.044707
871.388657	2641.365490
871.700081	2642.189718
872.011463	2640.916827
872.322803	2643.311375
872.634101	2645.065697
872.945357	2652.408137
873.256571	2659.730413
873.567744	2655.962151
873.878874	2653.920483
874.189963	2655.299239
874.501010	2660.763850
874.812015	2663.894406
875.122979	2663.768377
875.433900	2655.337048
875.744780	2654.454846
876.055618	2660.698315
876.366415	2665.159736
876.677169	2665.873059
876.987882	2661.061278
877.298554	2655.115237
877.609183	2669.568225
877.919771	2674.483350
878.230317	2683.398631
878.540822	2690.385670
878.851285	2706.172043
879.161707	2730.823285
879.472087	2764.702360
879.782425	2810.576860
880.092722	2921.111720
880.402977	3104.390429
880.713191	3353.768748
881.023363	3637.404228
881.333494	3822.633865
881.643583	3989.128053
881.953631	3989.760718
882.263637	3811.941578
882.573602	3596.270934
882.883526	3473.334835
883.193408	3362.275696
883.503248	3265.684667
883.813048	3156.447905
884.122806	3045.802139
884.432522	2962.086218
884.742197	2898.368554
885.051831	2863.267000
885.361424	2830.116372
885.670975	2795.476083
885.980485	2764.909047
886.289954	2748.275760
886.599382	2735.166239
886.908768	2724.945300
887.218113	2706.787064
887.527417	2691.736699
887.836680	2686.486337
888.145901	2682.145904
888.455082	2672.323216
888.764221	2662.061947
889.073319	2654.021307
889.382376	2653.325627
889.691392	2654.137253
890.000366	2656.254538
890.309300	2652.229176
890.618193	2656.551966
890.927044	2658.129847
891.235855	2661.003305
891.544625	2657.497182
891.853353	2659.430465
892.162041	2666.067144
892.470687	2682.037519
892.779293	2695.005887
893.087858	2706.356045
893.396381	2729.212637
893.704864	2765.433327
894.013306	2835.296158
894.321707	2925.326124
894.630068	2968.438072
894.938387	2989.651247
895.246665	2980.925010
895.554903	2940.247940
895.863100	2899.706980
896.171256	2844.196315
896.479371	2785.207253
896.787446	2747.978332
897.095480	2730.256156
897.403473	2723.558983
897.711425	2708.652291
898.019336	2689.654702
898.327207	2680.394103
898.635038	2677.503001
898.942827	2674.566529
899.250576	2668.801970
899.558284	2653.502068
899.865952	2649.005358
900.173579	2649.015441
900.481165	2648.760862
900.788711	2639.570839
901.096216	2631.938532
901.403681	2627.174642
901.711105	2632.349386
902.018489	2627.378808
902.325832	2633.604633
902.633135	2632.561115
902.940397	2650.590801
903.247619	2680.699093
903.554800	2747.630492
903.861941	2870.957280
904.169041	2990.815754
904.476101	3049.615772
904.783121	3042.371634
905.090100	2988.973212
905.397039	2917.250196
905.703938	2850.228055
906.010796	2785.345885
906.317614	2736.847464
906.624391	2703.795139
906.931129	2678.692713
907.237826	2655.692449
907.544483	2638.008081
907.851099	2626.569703
908.157675	2615.738784
908.464211	2610.145624
908.770707	2599.594489
909.077163	2597.174735
909.383578	2590.825402
909.689954	2593.328335
909.996289	2588.647623
910.302584	2588.612335
910.608839	2587.349526
910.915054	2588.067891
911.221229	2588.758529
911.527363	2591.879003
911.833458	2589.860021
912.139513	2589.892788
912.445527	2592.120978
912.751502	2599.748244
913.057436	2600.232195
913.363331	2608.204780
913.669186	2618.876902
913.975000	2631.696557
914.280775	2647.361942
914.586510	2662.946669
914.892205	2700.412525
915.197859	2765.062802
915.503475	2844.208918
915.809050	2906.787281
916.114585	2916.546955
916.420081	2928.582710
916.725536	2942.256839
917.030952	2918.041657
917.336328	2870.357383
917.641665	2824.513130
917.946961	2777.353135
918.252218	2746.281984
918.557435	2719.624362
918.862612	2698.968234
919.167750	2680.779751
919.472848	2668.713749
919.777906	2650.290853
920.082925	2642.398926
920.387904	2632.049438
920.692843	2627.542646
920.997743	2621.473097
921.302603	2614.932200
921.607423	2607.304934
921.912204	2605.575818
922.216946	2601.938626
922.521647	2599.259252
922.826310	2593.812286
923.130932	2589.151739
923.435516	2587.372212
923.740059	2584.884402
924.044564	2582.567992
924.349028	2579.878536
924.653454	2572.586507
924.957840	2571.923596
925.262186	2570.239850
925.566493	2568.266238
925.870761	2565.148285
926.174989	2567.086608
926.479178	2565.317163
926.783328	2562.521844
927.087438	2563.925805
927.391509	2563.242729
927.695541	2559.943293
927.999533	2560.389436
928.303486	2557.460525
928.607400	2557.475649
928.911275	2560.182748
929.215110	2558.622511
929.518906	2558.292316
929.822663	2557.531101
930.126381	2556.177552
930.430060	2556.540515
930.733699	2560.588561
931.037299	2561.382543
931.340861	2556.452294
931.644383	2559.960938
931.947866	2558.380536
932.251309	2557.266441
932.554714	2556.757284
932.858080	2556.427089
933.161407	2556.863148
933.464694	2555.310473
933.767943	2554.236707
934.071153	2553.447767
934.374323	2556.875751
934.677455	2555.418858
934.980548	2554.927345
935.283602	2556.059084
935.586617	2552.179917
935.889593	2555.161759
936.192530	2555.572613
936.495428	2554.513971
936.798287	2554.524053
937.101108	2556.185113
937.403890	2559.597974
937.706632	2564.492935
938.009336	2564.422359
938.312002	2568.021743
938.614628	2570.149109
938.917216	2576.889132
939.219765	2575.401992
939.522275	2577.836869
939.824747	2574.073648
940.127179	2570.070972
940.429573	2567.275652
940.731929	2570.859912
941.034246	2566.232133
941.336524	2568.243553
941.638763	2567.270611
941.940964	2564.959242
942.243126	2563.731721
942.545250	2563.464539
942.847335	2565.279355
943.149381	2562.141237
943.451389	2561.306926
943.753359	2557.561348
944.055290	2558.483879
944.357182	2558.519168
944.659036	2559.660989
944.960851	2555.713765
945.262628	2557.286605
945.564367	2558.738458
945.866067	2557.710062
946.167729	2559.439178
946.469352	2556.462377
946.770937	2558.907336
947.072484	2556.419527
947.373992	2558.625032
947.675462	2556.961451
947.976893	2556.273333
948.278286	2555.592778
948.579641	2557.672254
948.880958	2555.239897
949.182236	2555.002963
949.483476	2558.554456
949.784678	2555.312994
950.085841	2554.685370
950.386967	2554.634958
950.688054	2555.686039
950.989103	2555.461708
951.290114	2556.805175
951.591087	2559.527398
951.892021	2559.850032
952.192917	2561.238870
952.493776	2559.913047
952.794596	2562.378171
953.095378	2561.478325
953.396122	2562.894889
953.696828	2558.425906
953.997496	2560.487738
954.298126	2554.513971
954.598718	2558.425906
954.899272	2554.319886
955.199788	2554.100596
955.500266	2558.002449
955.800706	2549.936603
956.101108	2547.849565
956.401472	2548.749411
956.701798	2546.438042
957.002087	2547.131201
957.302337	2547.889895
957.602550	2548.555327
957.902724	2546.843855
958.202861	2543.201622
958.502960	2542.765562
958.803022	2544.197249
959.103045	2542.387475
959.403031	2546.274205
959.702979	2544.222455
960.002889	2546.117929
960.302762	2544.446787
960.602596	2544.776982
960.902393	2542.382434
961.202153	2543.030222
961.501875	2541.611138
961.801559	2545.011396
962.101205	2541.195242
962.400814	2543.310006
962.700385	2543.604914
962.999918	2542.432846
963.299414	2538.760365
963.598873	2542.377393
963.898293	2542.483257
964.197677	2540.121477
964.497022	2541.346477
964.796331	2538.044521
965.095601	2542.664739
965.394835	2540.484440
965.694030	2538.132741
965.993189	2542.047197
966.292309	2538.624254
966.591393	2540.872608
966.890439	2541.303627
967.189447	2539.521579
967.488419	2541.134748
967.787353	2541.795140
968.086249	2540.807073
968.385108	2543.723381
968.683930	2539.103163
968.982714	2540.005530
969.281462	2540.615510
969.580172	2541.086857
969.878844	2541.681714
970.177480	2541.041487
970.476078	2539.748431
970.774639	2543.030222
971.073162	2542.528627
971.371649	2540.779347
971.670098	2541.107022
971.968510	2539.642567
972.266885	2538.389840
972.565223	2542.115253
972.863524	2541.099460
973.161788	2544.509801
973.460014	2541.943854
973.758204	2542.954605
974.056356	2541.618699
974.354471	2541.621220
974.652550	2540.620551
974.950591	2544.040974
975.248595	2540.479398
975.546563	2542.591642
975.844493	2542.105171
976.142386	2540.073586
976.440243	2540.416384
976.738062	2541.424615
977.035845	2541.147351
977.333590	2540.159285
977.631299	2538.730118
977.928971	2540.935623
978.226606	2539.347659
978.524204	2541.233051
978.821765	2541.885880
979.119290	2539.239275
979.416777	2541.981662
979.714228	2540.323123
980.011642	2542.243802
980.309020	2543.695655
980.606360	2540.355890
980.903664	2543.836807
981.200931	2542.153062
981.498162	2542.967208
981.795356	2543.793957
982.092513	2546.639688
982.389633	2548.514998
982.686717	2550.407951
982.983764	2552.348795
983.280775	2556.999260
983.577749	2554.256872
983.874686	2553.742674
984.171587	2551.456511
984.468451	2548.000800
984.765279	2547.169010
985.062070	2542.795809
985.358824	2543.320089
985.655543	2542.190870
985.952224	2541.354039
986.248869	2541.598535
986.545478	2535.781043
986.842050	2537.989068
987.138586	2536.267514
987.435086	2539.541744
987.731549	2533.184849
988.027975	2540.207176
988.324366	2537.558050
988.620719	2536.249870
988.917037	2538.394881
989.213318	2538.246167
989.509563	2537.598379
989.805772	2538.387320
990.101944	2535.833975
990.398080	2537.326157
990.694180	2534.840868
990.990244	2536.809438
991.286271	2539.829090
991.582262	2538.140303
991.878217	2537.573173
992.174136	2536.837165
992.470019	2535.125693
992.765865	2538.122659
993.061676	2538.863709
993.357450	2540.683565
993.653188	2537.734490
993.948890	2536.859850
994.244556	2537.787422
994.540186	2539.019984
994.835780	2539.342618
995.131337	2538.246167
995.426859	2541.424615
995.722345	2539.519059
996.017795	2539.977804
996.313208	2543.839328
996.608586	2545.109698
996.903928	2540.696168
997.199234	2540.885211
997.494504	2542.977290
997.789738	2542.568957
998.084936	2541.691796
998.380099	2539.181301
998.675225	2540.134079
998.970316	2537.943698
999.265371	2538.473019
999.560390	2539.904707
999.855373	2539.241795
1000.150320	2536.799356
1000.445232	2536.726259
1000.740108	2536.771630
1001.034948	2539.007382
1001.329752	2534.336752
1001.624521	2537.308513
1001.919254	2530.054292
1002.213951	2536.017977
1002.508613	2533.197452
1002.803239	2533.391536
1003.097829	2530.472708
1003.392384	2535.365148
1003.686903	2536.159130
1003.981386	2537.172402
1004.275834	2535.551671
1004.570246	2538.467978
1004.864623	2534.147709
1005.158964	2539.012423
1005.453270	2534.825744
1005.747540	2536.948070
1006.041775	2534.588810
1006.335974	2535.879346
1006.630138	2535.715508
1006.924266	2533.651156
1007.218359	2535.347504
1007.512416	2535.886907
1007.806438	2534.803059
1008.100425	2537.169881
1008.394376	2536.915303
1008.688292	2532.980682
1008.982172	2533.167205
1009.276017	2537.636188
1009.569827	2536.849768
1009.863602	2535.226516
1010.157341	2535.523944
1010.451045	2534.001516
1010.744714	2536.592669
1011.038347	2537.616023
1011.331945	2534.924047
1011.625508	2534.649304
1011.919036	2535.173584
1012.212528	2536.217103
1012.505986	2536.212062
1012.799408	2534.233409
1013.092795	2537.341280
1013.386147	2533.300795
1013.679464	2535.667617
1013.972745	2536.108718
1014.265992	2535.617206
1014.559204	2537.910931
1014.852380	2537.011085
1015.145521	2537.265663
1015.438628	2536.789274
1015.731699	2534.288862
1016.024736	2536.469161
1016.317737	2535.385312
1016.610703	2534.339273
1016.903635	2532.106042
1017.196531	2530.437420
1017.489393	2536.174253
1017.782219	2531.959848
1018.075011	2535.193749
1018.367768	2535.914634
1018.660490	2536.806918
1018.953177	2536.806918
1019.245829	2536.806918
