Dividing Wavelength (nm)	Counts (n)	Blue Motor Position (mm): 11.400000	Red Motor Position (mm): 0.000000	
326.493990	2059.359237
326.888308	2059.359237
327.282561	2059.359237
327.676750	2035.859898
328.070874	2038.509025
328.464933	2046.799202
328.858929	2052.654503
329.252859	2065.307799
329.646726	2075.274160
330.040528	2094.594382
330.434265	2111.159613
330.827938	2132.541668
331.221547	2152.108906
331.615091	2171.625733
332.008571	2193.499300
332.401986	2213.575695
332.795338	2232.744683
333.188625	2253.942734
333.581847	2270.588624
333.975006	2287.282405
334.368100	2308.941723
334.761129	2322.663744
335.154095	2339.513800
335.546996	2378.134080
335.939833	2446.529935
336.332606	2455.044444
336.725315	2469.159674
337.117960	2479.791468
337.510540	2487.277581
337.903056	2493.364775
338.295508	2502.138903
338.687896	2508.762979
339.080220	2514.671211
339.472480	2521.267561
339.864676	2522.437109
340.256807	2526.346524
340.648875	2523.500792
341.040879	2529.852646
341.432818	2530.588655
341.824694	2530.739889
342.216506	2530.384488
342.608253	2525.222346
342.999937	2530.654190
343.391557	2526.691843
343.783113	2526.137316
344.174605	2523.110103
344.566033	2523.788138
344.957397	2521.532222
345.348697	2521.391069
345.739934	2518.671367
346.131106	2515.641633
346.522215	2514.036026
346.913260	2511.028978
347.304241	2514.668691
347.695159	2511.212980
348.086012	2509.095695
348.476802	2505.687875
348.867528	2504.873729
349.258191	2498.894920
349.648789	2500.608913
350.039324	2496.165136
350.429796	2503.583193
350.820203	2497.203613
351.210548	2499.255363
351.600828	2497.599344
351.991045	2495.857625
352.381198	2497.415342
352.771288	2496.255876
353.161314	2496.843171
353.551276	2497.037255
353.941175	2494.131030
354.331010	2495.320742
354.720782	2497.541371
355.110490	2499.767040
355.500135	2496.293685
355.889717	2495.819817
356.279235	2499.691423
356.668689	2494.546925
357.058080	2498.428614
357.447408	2493.599188
357.836672	2497.798469
358.225873	2495.519868
358.615010	2499.240239
359.004084	2500.392143
359.393095	2501.130672
359.782043	2499.267966
360.170927	2500.276197
360.559748	2502.206958
360.948505	2500.180415
361.337199	2502.950529
361.725830	2503.101763
362.114398	2505.125787
362.502903	2505.415653
362.891344	2505.357680
363.279722	2504.097391
363.668037	2504.909017
364.056289	2506.113853
364.444478	2508.929337
364.832603	2504.178050
365.220665	2507.568226
365.608665	2506.867505
365.996601	2509.962774
366.384474	2508.155520
366.772284	2509.138545
367.160031	2509.067969
367.547715	2510.925634
367.935336	2508.105108
368.322893	2506.771723
368.710388	2504.873729
369.097820	2509.166271
369.485189	2503.890704
369.872495	2512.947137
370.259738	2510.794564
370.646918	2511.190295
371.034035	2509.516632
371.421090	2511.132321
371.808081	2511.512928
372.195010	2508.712567
372.581875	2510.348422
372.968678	2512.765655
373.355418	2513.166427
373.742096	2512.780779
374.128710	2512.717764
374.515262	2509.599811
374.901751	2511.238186
375.288177	2514.877899
375.674540	2513.506705
376.060841	2514.439318
376.447079	2513.645337
376.833254	2516.112981
377.219367	2515.911335
377.605417	2514.973681
377.991404	2513.123577
378.377329	2515.770183
378.763191	2513.695748
379.148991	2516.423012
379.534727	2515.649195
379.920402	2517.668177
380.306013	2518.711696
380.691563	2519.344361
381.077049	2513.481499
381.462474	2518.603311
381.847835	2517.353105
382.233134	2513.592404
382.618371	2516.087776
383.003545	2516.370080
383.388657	2517.688342
383.773706	2517.312776
384.158693	2516.332272
384.543618	2521.544825
384.928480	2514.454442
385.313280	2520.818898
385.698017	2521.232273
386.082692	2518.250431
386.467305	2520.844104
386.851856	2518.227745
387.236344	2519.576254
387.620770	2518.134484
388.005133	2516.443177
388.389435	2518.741943
388.773674	2513.428567
389.157851	2522.613549
389.541965	2521.249917
389.926018	2519.253620
390.310008	2521.202026
390.693936	2519.941738
391.077802	2519.180523
391.461606	2522.714372
391.845348	2518.895698
392.229027	2523.213447
392.612645	2521.915349
392.996200	2523.102541
393.379694	2522.381656
393.763125	2523.410052
394.146494	2521.948117
394.529801	2523.107582
394.913047	2525.734023
395.296230	2523.596574
395.679351	2520.924763
396.062410	2525.373581
396.445408	2521.544825
396.828343	2522.429547
397.211217	2525.343334
397.594028	2525.048427
397.976778	2523.866276
398.359466	2523.689836
398.742092	2522.714372
399.124656	2524.314939
399.507158	2525.524816
399.889598	2526.263345
400.271977	2524.940042
400.654294	2526.495238
401.036549	2525.494569
401.418742	2524.803931
401.800874	2524.196472
402.182944	2527.742923
402.564952	2525.965917
402.946898	2527.261493
403.328783	2528.451205
403.710606	2526.066740
404.092367	2528.128572
404.474067	2526.870804
404.855705	2528.879703
405.237282	2524.788807
405.618797	2531.153264
406.000250	2528.864580
406.381642	2527.916843
406.762972	2528.471370
407.144240	2524.246883
407.525447	2527.271575
407.906593	2522.931142
408.287677	2529.756864
408.668700	2530.639066
409.049661	2533.041176
409.430560	2528.645290
409.811399	2533.028573
410.192176	2532.191742
410.572891	2529.983716
410.953545	2527.924405
411.334138	2528.133613
411.714669	2531.503624
412.095139	2532.030425
412.475547	2530.220650
412.855894	2530.177801
413.236180	2531.511186
413.616405	2533.404139
413.996568	2529.300640
414.376670	2529.923222
414.756711	2531.574200
415.136691	2534.147709
415.516609	2532.902544
415.896466	2533.300795
416.276262	2530.971782
416.655997	2533.124355
417.035670	2532.549663
417.415283	2532.708460
417.794834	2533.182328
418.174324	2529.585465
418.553753	2529.719056
418.933121	2533.711649
419.312428	2534.069571
419.691674	2531.304498
420.070859	2534.200641
420.449983	2532.668131
420.829045	2533.154602
421.208047	2531.349869
421.586988	2535.544109
421.965867	2535.430683
422.344686	2533.068902
422.723444	2535.700385
423.102141	2531.354910
423.480777	2533.489839
423.859352	2534.455220
424.237866	2534.170394
424.616319	2532.342976
424.994712	2535.907072
425.373044	2530.492873
425.751314	2532.592513
426.129524	2530.162677
426.507673	2530.568490
426.885762	2530.271062
427.263789	2533.270548
427.641756	2533.479756
428.019662	2536.539737
428.397508	2532.680733
428.775292	2532.388347
429.153016	2532.600075
429.530679	2535.712988
429.908282	2532.350538
430.285824	2535.864222
430.663305	2534.172915
431.040726	2534.354397
431.418086	2533.787267
431.795385	2534.790456
432.172624	2534.984541
432.549802	2534.150230
432.926920	2535.309695
433.303977	2535.322298
433.680974	2533.807431
434.057910	2532.849612
434.434786	2535.486136
434.811601	2533.522606
435.188355	2533.963707
435.565050	2536.529654
435.941683	2535.995292
436.318257	2534.296423
436.694770	2532.963038
437.071222	2537.986548
437.447614	2532.486649
437.823946	2534.487987
438.200218	2534.200641
438.576429	2536.146527
438.952580	2535.239119
439.328670	2536.448996
439.704700	2534.389685
440.080670	2535.652494
440.456580	2530.739889
440.832429	2536.713657
441.208218	2534.873635
441.583947	2533.976310
441.959616	2537.046373
442.335224	2535.428162
442.710773	2536.418749
443.086261	2534.719880
443.461689	2533.623429
443.837057	2534.056968
444.212365	2535.380271
444.587612	2532.085877
444.962800	2532.259797
445.337927	2534.314067
445.712995	2529.585465
446.088002	2533.298275
446.462949	2535.952442
446.837837	2535.781043
447.212664	2535.634850
447.587431	2538.261291
447.962139	2534.508152
448.336786	2532.403470
448.711374	2538.384799
449.085901	2534.586290
449.460369	2536.388502
449.834776	2533.512524
450.209124	2533.205013
450.583412	2537.777340
450.957640	2534.956814
451.331808	2537.915972
451.705917	2536.759027
452.079965	2536.317926
452.453954	2534.571166
452.827883	2535.095446
453.201752	2534.987061
453.575562	2538.218441
453.949311	2538.094933
454.323001	2535.675179
454.696632	2534.626619
455.070202	2537.016126
455.443713	2536.317926
455.817164	2538.004192
456.190556	2534.941691
456.563888	2540.176929
456.937160	2537.926054
457.310373	2538.379758
457.683526	2536.111239
458.056619	2535.556712
458.429653	2534.949253
458.802628	2535.405477
459.175542	2536.171733
459.548398	2539.176260
459.921194	2537.248019
460.293930	2536.678368
460.666607	2537.810107
461.039224	2536.406146
461.411782	2539.057793
461.784280	2538.329346
462.156719	2535.700385
462.529099	2539.710622
462.901419	2538.097453
463.273680	2535.937319
463.645882	2532.678213
464.018024	2536.557381
464.390106	2536.368338
464.762130	2538.954449
465.134094	2541.056611
465.505999	2539.138452
465.877845	2538.571322
466.249631	2536.910262
466.621358	2539.413194
466.993026	2537.061496
467.364634	2544.940820
467.736184	2537.820190
468.107674	2539.836651
468.479105	2538.823379
468.850477	2540.156765
469.221790	2538.034439
469.593043	2536.975797
469.964238	2537.646270
470.335373	2538.372196
470.706449	2539.055272
471.077467	2538.281455
471.448425	2537.560570
471.819324	2539.692978
472.190164	2540.638195
472.560945	2540.108874
472.931667	2538.709953
473.302330	2537.311033
473.672934	2541.132228
474.043479	2540.459234
474.413965	2540.925541
474.784393	2540.628113
475.154761	2544.005686
475.525070	2540.176929
475.895321	2538.891435
476.265513	2540.668442
476.635645	2539.871939
477.005719	2540.229861
477.375734	2540.411343
477.745691	2540.925541
478.115588	2540.802032
478.485427	2539.834131
478.855207	2538.929244
479.224928	2540.035777
479.594591	2542.717671
479.964194	2539.040149
480.333739	2542.261446
480.703226	2544.015768
481.072653	2544.648433
481.442022	2542.042156
481.811333	2540.877650
482.180584	2537.520241
482.549777	2540.625592
482.918912	2540.761703
483.287988	2539.710623
483.657005	2540.834800
484.025964	2541.283462
484.394864	2541.906045
484.763706	2545.245809
485.132489	2541.505273
485.501213	2544.361087
485.869879	2543.312527
486.238487	2545.538196
486.607036	2541.742207
486.975527	2545.066848
487.343959	2543.952753
487.712333	2544.230017
488.080648	2540.086188
488.448905	2544.862682
488.817104	2542.261446
489.185244	2542.236241
489.553326	2547.811757
489.921350	2545.729760
490.289315	2546.760676
490.657222	2548.978784
491.025070	2547.547096
491.392861	2548.653629
491.760593	2546.581715
492.128267	2547.161448
492.495883	2546.465769
492.863440	2544.219935
493.230939	2545.036602
493.598380	2547.123639
493.965763	2547.388300
494.333088	2544.441745
494.700354	2544.877805
495.067563	2545.021478
495.434713	2544.741694
495.801805	2544.842517
496.168839	2548.429298
496.535815	2548.749411
496.902733	2542.856303
497.269593	2545.397044
497.636395	2544.784544
498.003139	2544.693803
498.369825	2542.740356
498.736453	2547.514329
499.103023	2546.485933
499.469535	2546.359904
499.835989	2544.484595
500.202385	2542.730274
500.568723	2546.155738
500.935003	2545.013916
501.301226	2542.831097
501.667390	2548.739329
502.033497	2548.789741
502.399546	2545.399565
502.765537	2547.267312
503.131470	2547.857127
503.497345	2548.754452
503.863163	2546.594318
504.228923	2545.404606
504.594625	2546.730429
504.960269	2549.266130
505.325856	2550.397869
505.691385	2546.460727
506.056856	2547.484082
506.422270	2547.400903
506.787625	2546.672456
507.152924	2549.031716
507.518164	2547.849565
507.883347	2549.649257
508.248472	2550.425595
508.613540	2549.233362
508.978550	2553.530946
509.343503	2551.746377
509.708398	2553.266285
510.073236	2553.571275
510.438016	2554.803837
510.802738	2554.881975
511.167403	2552.089176
511.532010	2556.235525
511.896561	2555.035730
512.261053	2557.994887
512.625488	2557.324414
512.989866	2555.900288
513.354186	2560.964127
513.718449	2558.473797
514.082655	2561.372461
514.446803	2559.290464
514.810894	2563.174673
515.174927	2562.282389
515.538904	2564.092163
515.902822	2565.032338
516.266684	2566.700960
516.630488	2564.351783
516.994235	2564.535785
517.357925	2565.372616
517.721558	2570.423852
518.085133	2567.636094
518.448651	2570.628019
518.812112	2567.512586
519.175516	2568.735066
519.538863	2567.197514
519.902152	2569.695406
520.265385	2574.544996
520.628560	2575.318813
520.991678	2575.452403
521.354739	2577.950295
521.717743	2580.244020
522.080690	2580.523804
522.443580	2581.539597
522.806413	2583.614031
523.169189	2584.087900
523.531908	2584.430698
523.894569	2585.126377
524.257174	2591.105186
524.619722	2588.085535
524.982213	2591.195927
525.344647	2590.298601
525.707025	2595.506113
526.069345	2592.045361
526.431608	2595.193562
526.793815	2596.363109
527.155964	2596.642893
527.518057	2601.484922
527.880093	2600.489294
528.242072	2601.797473
528.603995	2602.359562
528.965860	2605.248143
529.327669	2604.655807
529.689421	2608.439193
530.051117	2607.879625
530.412755	2608.222424
530.774337	2611.824328
531.135862	2611.065635
531.497331	2612.010851
531.858743	2613.409771
532.220098	2615.658126
532.581396	2619.554938
532.942638	2620.749691
533.303824	2619.312962
533.664953	2620.023765
534.026025	2621.165586
534.387040	2623.184568
534.747999	2625.105248
535.108902	2626.698253
535.469748	2626.904940
535.830537	2629.332256
536.191270	2629.932153
536.551947	2627.043572
536.912567	2629.496093
537.273131	2632.470374
537.633638	2631.688995
537.994089	2637.002371
538.354483	2638.854995
538.714821	2641.189049
539.075103	2644.352373
539.435328	2639.379275
539.795497	2645.116108
540.155609	2647.054432
540.515665	2647.399751
540.875665	2648.012251
541.235609	2648.097951
541.595496	2651.621717
541.955328	2652.133394
542.315102	2652.372849
542.674821	2653.849907
543.034483	2654.250679
543.394090	2654.540545
543.753640	2660.416010
544.113134	2660.174035
544.472571	2661.782163
544.831953	2663.753254
545.191278	2662.593789
545.550548	2661.802327
545.909761	2663.256700
546.268918	2666.974551
546.628019	2668.108811
546.987064	2668.892710
547.346053	2665.651248
547.704986	2668.993533
548.063863	2672.164419
548.422684	2671.347752
548.781449	2672.363545
549.140158	2669.603513
549.498811	2671.803977
549.857408	2673.492763
550.215949	2675.289935
550.574434	2675.577280
550.932864	2675.214317
551.291237	2678.445697
551.649555	2678.876716
552.007817	2677.543330
552.366022	2677.445028
552.724173	2679.625327
553.082267	2682.050122
553.440305	2681.470389
553.798288	2680.721778
554.156215	2680.159689
554.514086	2680.794875
554.871902	2677.855882
555.229661	2682.990297
555.587365	2678.972497
555.945014	2683.844773
556.302606	2681.873682
556.660143	2683.252437
557.017625	2685.029444
557.375050	2684.795030
557.732421	2687.318128
558.089735	2685.442818
558.446994	2684.149762
558.804197	2687.764270
559.161345	2688.190247
559.518437	2685.974660
559.875474	2689.889116
560.232455	2689.327027
560.589381	2687.582788
560.946251	2690.352902
561.303065	2690.254600
561.659825	2691.696370
562.016528	2692.419775
562.373177	2687.776873
562.729770	2694.080836
563.086307	2690.587316
563.442789	2696.137626
563.799216	2694.259797
564.155587	2695.482276
564.511904	2692.354240
564.868164	2696.432534
565.224370	2696.913964
565.580520	2694.539581
565.936615	2701.801363
566.292654	2698.811958
566.648638	2696.571166
567.004567	2700.384798
567.360441	2701.841692
567.716260	2703.780016
568.072023	2704.778164
568.427732	2702.486960
568.783385	2706.580377
569.138982	2707.039122
569.494525	2709.378217
569.850013	2708.480892
570.205445	2709.300079
570.560823	2710.734287
570.916145	2709.728577
571.271412	2715.808209
571.626625	2716.151007
571.981782	2717.847355
572.336884	2715.334340
572.691931	2715.659495
573.046923	2718.492623
573.401860	2719.422716
573.756743	2726.871021
574.111570	2728.653069
574.466342	2728.947976
574.821059	2735.158678
575.175722	2733.328739
575.530330	2734.432752
575.884882	2735.987947
576.239380	2738.516086
576.593823	2740.308216
576.948211	2743.151427
577.302544	2744.157137
577.656823	2746.168558
578.011047	2752.674167
578.365216	2757.138108
578.719330	2757.548962
579.073389	2762.360744
579.427394	2764.510796
579.781344	2769.839296
580.135239	2774.106632
580.489080	2777.471602
580.842866	2781.507046
581.196597	2790.913839
581.550273	2792.612708
581.903895	2798.735189
582.257463	2804.300623
582.610975	2807.922692
582.964434	2817.589105
583.317837	2822.889878
583.671186	2826.567400
584.024481	2835.815397
584.377721	2837.431086
584.730906	2846.865606
585.084037	2854.840711
585.437113	2861.174921
585.790135	2868.053575
586.143103	2875.136397
586.496016	2882.241903
586.848874	2893.428223
587.201679	2904.221334
587.554428	2905.227044
587.907124	2918.273550
588.259765	2927.322421
588.612352	2936.918258
588.964884	2944.059052
589.317362	2959.099334
589.669786	2965.516723
590.022155	2978.003661
590.374470	2989.983963
590.726731	3000.116683
591.078937	3000.588031
591.431090	3020.167872
591.783188	3028.581558
592.135232	3037.786705
592.487222	3052.204405
592.839157	3069.054462
593.191038	3078.229362
593.542866	3085.554158
593.894639	3092.510950
594.246358	3112.151286
594.598022	3125.684263
594.949633	3135.922847
595.301190	3150.869868
595.652692	3162.227588
596.004141	3186.067204
596.355535	3184.781710
596.706876	3196.928370
597.058162	3212.447562
597.409395	3234.565625
597.760573	3256.073707
598.111698	3263.403545
598.462768	3281.778551
598.813785	3301.098773
599.164748	3311.889363
599.515657	3338.385667
599.866511	3347.497553
600.217312	3380.270094
600.568060	3382.258829
600.918753	3418.489602
601.269392	3440.645473
601.619978	3454.501085
601.970510	3480.226093
602.320988	3504.320287
602.671412	3534.350441
603.021783	3554.368863
603.372100	3566.283630
603.722363	3595.582816
604.072572	3619.982001
604.422728	3644.812204
604.772830	3664.006397
605.122878	3692.672919
605.472872	3716.769634
605.822813	3748.440683
606.172701	3771.471194
606.522534	3809.390754
606.872314	3847.655632
607.222041	3868.687326
607.571714	3905.497831
607.921333	3917.634409
608.270899	3958.152683
608.620411	4003.570959
608.969870	4028.297818
609.319276	4060.304104
609.668627	4098.803396
610.017926	4150.296262
610.367171	4185.677600
610.716362	4222.437694
611.065500	4256.394906
611.414585	4304.507679
611.763616	4351.828990
612.112594	4384.278897
612.461518	4430.826391
612.810389	4489.971729
613.159207	4523.341647
613.507971	4559.416143
613.856682	4627.058346
614.205340	4664.272143
614.553945	4744.164350
614.902496	4753.130042
615.250994	4820.489939
615.599439	4867.332341
615.947830	4919.591462
616.296169	4971.734637
616.644454	5026.650447
616.992686	5087.212348
617.340864	5171.341644
617.688990	5194.422567
618.037063	5293.216580
618.385082	5338.052602
618.733048	5417.745682
619.080961	5468.230318
619.428821	5521.903483
619.776628	5574.739816
620.124382	5607.993787
620.472083	5668.117109
620.819731	5726.002158
621.167326	5741.642338
621.514868	5788.023474
621.862357	5791.383403
622.209793	5843.851732
622.557176	5854.617116
622.904506	5881.390684
623.251783	5897.819804
623.599007	5918.211272
623.946179	5957.686027
624.293297	5986.836499
624.640363	5986.670141
624.987376	6022.422004
625.334336	6054.962652
625.681243	6067.399179
626.028097	6111.355520
626.374899	6154.452344
626.721647	6206.532504
627.068343	6242.365026
627.414987	6270.098934
627.761577	6301.500281
628.108115	6391.139558
628.454600	6373.084666
628.801032	6454.917716
629.147412	6505.944275
629.493739	6558.190794
629.840014	6569.949285
630.186236	6676.408372
630.532405	6680.121182
630.878521	6764.923472
631.224585	6809.520039
631.570597	6832.908473
631.916556	6917.375526
632.262462	6966.849410
632.608316	7026.287134
632.954117	7070.571150
633.299866	7117.892461
633.645562	7169.773496
633.991206	7155.577607
634.336797	7159.580283
634.682336	7206.208435
635.027823	7222.398101
635.373257	7257.156857
635.718639	7271.819053
636.063968	7313.806823
636.409245	7273.936337
636.754470	7326.649162
637.099642	7345.762697
637.444762	7321.900396
637.789829	7402.120277
638.134845	7402.016933
638.479808	7445.070907
638.824719	7500.793302
639.169577	7481.576423
639.514383	7555.956127
639.859137	7555.686426
640.203839	7642.716906
640.548489	7657.553022
640.893086	7710.122174
641.237632	7733.301399
641.582125	7813.831311
641.926566	7830.930905
642.270955	7897.459012
642.615292	7952.359698
642.959576	7992.018456
643.303809	8056.338538
643.647990	8135.789643
643.992118	8201.445631
644.336195	8234.298830
644.680219	8313.916293
645.024192	8422.021317
645.368112	8589.606915
645.711981	8667.054162
646.055797	8884.932831
646.399562	8931.429913
646.743274	9174.905041
647.086935	9348.310651
647.430544	9416.961084
647.774101	9504.173046
648.117606	9641.113469
648.461059	9744.857895
648.804460	9726.392148
649.147810	9678.967494
649.491108	9663.460904
649.834354	9698.769146
650.177548	9582.767155
650.520690	9531.060040
650.863781	9593.414072
651.206820	9620.288463
651.549807	9588.549358
651.892742	9527.274133
652.235626	9563.711593
652.578458	9598.276265
652.921238	9506.393674
653.263967	9645.506835
653.606644	9636.601637
653.949269	9680.893214
654.291843	9652.206528
654.634365	9807.216968
654.976836	9763.210216
655.319255	9846.941260
655.661622	9885.957271
656.003938	9910.797556
656.346203	9930.226163
656.688416	10053.492457
657.030577	10056.852386
657.372687	10081.604451
657.714746	10184.789309
658.056753	10305.091404
658.398708	10202.655158
658.740612	10281.735738
659.082465	10402.375591
659.424266	10433.630745
659.766016	10507.997847
660.107715	10529.853769
660.449362	10625.315579
660.790958	10695.470796
661.132503	10737.892106
661.473996	10832.239821
661.815438	10920.545713
662.156829	11023.549089
662.498168	11028.743998
662.839456	11086.576115
663.180693	11198.648526
663.521879	11294.768207
663.863013	11348.080929
664.204097	11410.906309
664.545129	11609.704211
664.886110	11666.165134
665.227040	11762.841862
665.567918	11825.344608
665.908746	11926.873446
666.249522	12015.166735
666.590248	12104.889192
666.930922	12206.982639
667.271545	12266.498502
667.612118	12367.253523
667.952639	12371.319213
668.293109	12447.125564
668.633528	12477.007004
668.973896	12523.970393
669.314213	12587.002460
669.654480	12586.142943
669.994695	12658.675065
670.334859	12694.532792
670.674973	12709.414278
671.015035	12856.079088
671.355047	12888.728121
671.695008	12931.961056
672.034918	12971.755925
672.374777	13082.946134
672.714585	13097.378958
673.054342	13218.742216
673.394049	13219.705077
673.733705	13386.199265
674.073310	13334.035925
674.412864	13429.827931
674.752368	13379.353378
675.091820	13529.567159
675.431223	13443.123974
675.770574	13415.828646
676.109875	13424.358279
676.449125	13395.711922
676.788324	13426.105038
677.127473	13289.983802
677.466571	13301.875884
677.805619	13257.188576
678.144616	13294.132672
678.483562	13340.937265
678.822458	13261.198814
679.161303	13293.875573
679.500098	13316.966578
679.838842	13340.423067
680.177535	13441.004169
680.516179	13612.985653
680.854771	13735.200866
681.193314	14124.640083
681.531805	14644.045287
681.870247	15041.257963
682.208638	15432.091059
682.546978	15627.420647
682.885268	15762.188334
683.223508	15613.761641
683.561697	15552.872064
683.899836	15551.072372
684.237925	15412.296969
684.575963	15398.892541
684.913951	15296.529391
685.251889	15443.410970
685.589776	15511.267422
685.927614	15572.887966
686.265401	15720.135028
686.603137	15834.722976
686.940824	16129.766587
687.278460	16351.957963
687.616046	16501.745768
687.953582	16876.484980
688.291068	16894.746560
688.628504	17124.209800
688.965889	17179.811207
689.303224	17117.817617
689.640510	17039.808282
689.977745	16791.697813
690.314930	16472.504555
690.652065	16326.691700
690.989150	16048.941767
691.326185	15694.314238
691.663170	15424.428505
692.000105	15109.873108
692.336990	14846.954250
692.673825	14677.833621
693.010610	14482.773734
693.347345	14271.332619
693.684030	13987.306449
694.020665	13923.924022
694.357251	13630.581800
694.693786	13672.355322
695.030272	13596.876646
695.366707	13374.954971
695.703093	13271.833128
696.039429	13338.507429
696.375716	13251.827309
696.711952	13291.269297
697.048139	13255.439296
697.384276	13205.882233
697.720363	13309.896360
698.056400	13277.431329
698.392388	13229.023649
698.728326	13271.354218
699.064214	13214.767266
699.400053	13267.417077
699.735842	13082.023603
700.071581	13010.275381
700.407270	12914.765680
700.742910	12850.155732
701.078501	12746.073549
701.414042	12660.739417
701.749533	12524.272862
702.084974	12373.128988
702.420366	12547.373950
702.755709	12340.059018
703.091002	12199.262112
703.426246	12267.264757
703.761440	12265.265939
704.096584	12167.306238
704.431679	12162.030670
704.766725	12158.275011
705.101721	12150.592292
705.436668	12250.626429
705.771565	12115.730193
706.106413	12330.332112
706.441212	12420.024321
706.775961	12516.171728
707.110661	12589.893562
707.445311	12846.637007
707.779913	12791.022998
708.114465	13014.046164
708.448967	13242.228952
708.783421	13662.361234
709.117825	13910.824584
709.452180	14067.097832
709.786485	14371.094533
710.120742	14859.103431
710.454949	14950.083655
710.789107	15275.338901
711.123216	15726.083590
711.457275	15885.804988
711.791286	16254.015906
712.125247	16363.058584
712.459159	16234.216774
712.793023	16751.081237
713.126837	16148.038249
713.460602	16357.689755
713.794318	16197.620518
714.127985	16075.919502
714.461602	15563.829012
714.795171	15606.187307
715.128691	15020.654767
715.462162	14733.089708
715.795584	14487.562831
716.128957	14357.453170
716.462281	14147.012724
716.795556	14000.373120
717.128782	13720.798289
717.461960	13360.476777
717.795088	13359.080378
718.128167	13162.152744
718.461198	12878.381152
718.794180	12826.976507
719.127113	12626.419242
719.459997	12515.541584
719.792833	12289.624795
720.125619	12335.937875
720.458357	12129.288376
720.791046	12059.821276
721.123686	11976.957310
721.456278	11840.546207
721.788821	11856.642612
722.121315	11695.255112
722.453761	11784.140737
722.786158	11720.145809
723.118506	11797.532562
723.450805	11732.607542
723.783056	11869.449663
724.115259	11817.495531
724.447412	11831.978766
724.779518	12001.369097
725.111574	12042.794779
725.443582	12253.704053
725.775542	12249.449319
726.107453	12627.918985
726.439315	12581.041296
726.771129	12892.657700
727.102895	13200.967108
727.434612	13401.201738
727.766281	13536.017316
728.097901	13769.112708
728.429473	13855.480276
728.760996	13886.770718
729.092471	14005.101722
729.423897	13950.740440
729.755276	13892.331111
730.086606	14000.990661
730.417887	14436.299337
730.749120	14854.518501
731.080305	15036.632705
731.411442	15355.016858
731.742530	15476.029756
732.073570	15623.738084
732.404562	15875.016918
732.735506	15779.983607
733.066401	15662.244938
733.397249	15336.261245
733.728048	14918.523511
734.058798	14323.558973
734.389501	13808.360611
734.720156	13460.682313
735.050762	13043.443653
735.381320	12770.344184
735.711831	12583.264445
736.042293	12312.050368
736.372707	12355.996626
736.703073	12204.061291
737.033391	12373.900284
737.363661	12379.004453
737.693883	12480.893733
738.024056	12632.589614
738.354182	12805.097899
738.684260	13088.496445
739.014290	13301.187767
739.344272	13473.706134
739.674207	13738.465013
740.004093	13886.077559
740.333931	13935.576649
740.663722	14015.443649
740.993464	14070.871136
741.323159	13986.341068
741.652806	13786.373619
741.982405	13679.922093
742.311956	13446.551958
742.641460	13382.325138
742.970915	13160.935305
743.300323	12908.476841
743.629683	12753.453798
743.958996	12518.936801
744.288260	12294.728963
744.617477	12071.662947
744.946647	12059.702809
745.275768	11826.493991
745.604842	11683.781446
745.933869	11556.928371
746.262847	11550.135417
746.591778	11491.300110
746.920662	11411.607029
747.249498	11429.939185
747.578286	11560.535317
747.907027	11702.088396
748.235720	11920.781212
748.564365	11987.213537
748.892963	11922.706933
749.221514	12023.194773
749.550017	11930.356884
749.878473	11914.721745
750.206881	11748.076322
750.535242	11703.585619
750.863555	11654.046200
751.191821	11587.961714
751.520039	11614.200920
751.848210	11561.377190
752.176334	11608.209509
752.504411	11552.955942
752.832440	11424.978690
753.160421	11521.284893
753.488356	11440.911257
753.816243	11378.978161
754.144082	11253.130797
754.471875	11216.617719
754.799620	11200.748167
755.127318	11185.352483
755.454969	11186.809377
755.782572	11168.782210
756.110129	11192.180726
756.437638	11123.031219
756.765100	11134.267951
757.092515	11159.143524
757.419882	11198.204905
757.747203	11210.689322
758.074477	11281.383943
758.401703	11271.266347
758.728882	11435.650813
759.056014	11477.152112
759.383099	11617.089501
759.710138	11726.404402
760.037129	11833.226452
760.364073	11887.832230
760.690970	11919.954463
761.017820	11941.515478
761.344623	12149.009370
761.671379	12482.373312
761.998088	13102.704937
762.324751	14579.768055
762.651366	17368.730968
762.977935	21094.304977
763.304456	23576.133071
763.630931	24485.426155
763.957359	23538.868862
764.283740	21695.722193
764.610074	19832.473922
764.936362	17630.903735
765.262602	16075.707774
765.588796	14497.047762
765.914943	13430.989917
766.241044	12484.397335
766.567097	11827.454331
766.893104	11242.816596
767.219064	10870.056036
767.544978	10467.353544
767.870845	10143.461930
768.196665	9967.465167
768.522438	9774.540209
768.848165	9613.392164
769.173846	9441.385475
769.499479	9337.567952
769.825066	9204.332777
770.150607	9012.504270
770.476101	8949.976318
770.801548	8847.524949
771.126949	8722.227070
771.452303	8630.289027
771.777611	8462.184190
772.102872	8460.558418
772.428087	8343.074327
772.753256	8215.588588
773.078378	8142.630489
773.403453	7981.298442
773.728482	7893.882314
774.053465	7826.411511
774.378401	7745.221207
774.703291	7638.857902
775.028135	7531.937550
775.352932	7506.704054
775.677683	7421.463184
776.002388	7328.579924
776.327046	7342.359918
776.651658	7262.084585
776.976224	7173.476223
777.300743	7178.542583
777.625216	7111.558251
777.949643	7073.086686
778.274024	7087.935404
778.598359	7013.351533
778.922647	7031.769389
779.246889	6983.744837
779.571086	6992.952504
779.895236	6997.492063
780.219339	7012.040833
780.543397	7014.107706
780.867409	7084.857780
781.191374	7098.688186
781.515294	7075.128353
781.839167	7155.597771
782.162995	7135.128166
782.486776	7093.568894
782.810511	7058.452216
783.134201	6985.040413
783.457844	6984.238870
783.781441	6936.867147
784.104993	6888.209930
784.428498	6864.725715
784.751958	6858.083995
785.075372	6834.191446
785.398739	6788.349714
785.722061	6830.148441
786.045337	6840.376942
786.368568	6980.001780
786.691752	7003.561612
787.014891	7300.067158
787.337983	7615.076259
787.661030	8137.417936
787.984031	8685.809774
788.306987	9050.680928
788.629897	9242.423735
788.952760	9214.047080
789.275579	9033.851036
789.598351	8685.222480
789.921078	8376.832414
790.243759	8008.923965
790.566395	7762.300637
790.888984	7530.256325
791.211529	7351.963317
791.534027	7153.793038
791.856480	6975.152190
792.178888	6913.582058
792.501249	6829.551064
792.823566	6690.652152
793.145836	6692.782040
793.468062	6671.712537
793.790241	6626.785774
794.112375	6692.477050
794.434464	6823.181566
794.756507	6868.410798
795.078505	7002.681931
795.400457	7280.968747
795.722364	7587.475942
796.044226	7849.525201
796.366042	8099.145496
796.687812	8050.846201
797.009538	8138.403481
797.331218	8044.280098
797.652852	7983.803896
797.974442	7843.203594
798.295986	7768.642408
798.617484	7602.054959
798.938938	7469.162582
799.260346	7379.500619
799.581709	7204.307920
799.903026	7131.440562
800.224299	7044.904115
800.545526	6888.666155
800.866708	6804.887219
801.187845	6739.979843
801.508936	6649.531460
801.829983	6613.799762
802.150984	6476.851776
802.471940	6433.707061
802.792851	6425.273211
803.113717	6395.616103
803.434538	6362.004209
803.755314	6313.110058
804.076045	6316.424617
804.396731	6266.358397
804.717372	6293.341173
805.037967	6296.386030
805.358518	6332.473130
805.679024	6410.449698
805.999485	6416.408342
806.319901	6449.148115
806.640272	6470.326003
806.960598	6546.326438
807.280879	6552.516975
807.601115	6628.618233
807.921306	6576.157466
808.241453	6592.009374
808.561554	6618.634228
808.881611	6590.297902
809.201623	6595.497853
809.521590	6547.911881
809.841513	6532.753131
810.161390	6573.364667
810.481223	6456.520803
810.801011	6445.672240
811.120755	6425.464775
811.440453	6355.105390
811.760107	6330.139076
812.079716	6306.801054
812.399281	6245.329224
812.718801	6238.415282
813.038276	6201.932451
813.357707	6149.030583
813.677093	6189.233785
813.996434	6099.289518
814.315731	6145.101003
814.634983	6141.920035
814.954191	6150.800028
815.273354	6250.188897
815.592473	6308.578061
815.911547	6427.995434
816.230577	6501.041753
816.549562	6641.936962
816.868502	6741.409010
817.187399	6830.791188
817.506250	6973.372663
817.825058	7015.481421
818.143821	7262.465192
818.462539	7517.708893
818.781213	7858.901747
819.099843	8378.311993
819.418429	9303.827510
819.736970	10201.541063
820.055466	11299.688373
820.373919	12720.104045
820.692327	14945.110557
821.010691	18765.942209
821.329011	26843.879570
821.647286	38279.167420
821.965517	50754.352047
822.283704	56863.524747
822.601847	59336.545945
822.919945	56530.009570
823.237999	52016.480529
823.556010	45972.996584
823.873976	39820.659005
824.191897	33846.813559
824.509775	29427.665001
824.827609	25318.126468
825.145398	22964.895688
825.463144	21728.207388
825.780845	22036.491590
826.098502	23680.207692
826.416116	27119.338299
826.733685	30456.907299
827.051210	31528.714580
827.368692	29909.637117
827.686129	26278.259588
828.003522	22483.962049
828.320872	19061.449606
828.638177	16420.260557
828.955439	14438.313278
829.272656	12728.976476
829.589830	11374.799045
829.906960	10194.743067
830.224046	9318.497267
830.541088	8617.550031
830.858086	8193.278961
831.175041	7839.243768
831.491952	7736.479847
831.808819	7781.963657
832.125642	8167.206114
832.442421	9021.127164
832.759157	10704.360871
833.075849	13422.629163
833.392497	16383.518107
833.709101	18402.081807
834.025662	18262.431763
834.342179	16703.913681
834.658653	14681.987532
834.975083	12867.852703
835.291469	11375.361133
835.607811	10136.830292
835.924110	9273.174774
836.240366	8457.803427
836.556578	7699.079526
836.872746	7097.468226
837.188871	6627.834334
837.504952	6228.552264
837.820990	5938.030568
838.136984	5731.365946
838.452935	5643.085259
838.768842	5676.432492
839.084706	6074.030817
839.400526	7204.610390
839.716303	8692.794293
840.032037	9712.105518
840.347727	9653.061004
840.663373	8744.072910
840.978977	7763.646625
841.294537	7006.331727
841.610054	6434.715292
841.925527	6024.698085
842.240957	5683.384243
842.556344	5367.031675
842.871687	5096.745170
843.186987	4832.445036
843.502244	4618.241368
843.817458	4464.239159
844.132629	4332.276875
844.447756	4247.708998
844.762840	4170.165970
845.077881	4097.601081
845.392879	4039.136299
845.707833	3992.994618
846.022745	3952.660346
846.337613	3922.655398
846.652438	3884.221641
846.967221	3866.509547
847.281960	3832.660720
847.596656	3822.712003
847.911309	3801.813899
848.225919	3776.774488
848.540485	3762.414762
848.855009	3749.627875
849.169490	3730.209350
849.483928	3721.422619
849.798323	3709.908624
850.112675	3690.233000
850.426984	3696.746171
850.741251	3685.055735
851.055474	3677.678007
851.369654	3687.057073
851.683792	3681.920138
851.997887	3690.341385
852.311938	3689.983463
852.625947	3692.287270
852.939914	3683.951722
853.253837	3695.311963
853.567718	3692.050336
853.881555	3680.448121
854.195350	3696.642827
854.509103	3692.693083
854.822812	3688.014892
855.136479	3681.998275
855.450103	3691.213505
855.763685	3678.151875
856.077224	3682.154551
856.390720	3696.564689
856.704173	3717.603945
857.017584	3727.126685
857.330953	3741.811566
857.644278	3761.199843
857.957561	3768.325514
858.270802	3767.768467
858.584000	3770.112603
858.897155	3762.369391
859.210268	3745.766351
859.523339	3724.427147
859.836367	3727.668609
860.149352	3720.154769
860.462295	3714.060014
860.775195	3703.448385
861.088054	3699.007128
861.400869	3697.865307
861.713642	3698.412272
862.026373	3706.387378
862.339062	3712.318295
862.651708	3730.158939
862.964312	3765.792335
863.276873	3775.645270
863.589392	3832.179290
863.901869	3876.985065
864.214303	3919.449224
864.526696	3952.763690
864.839045	3996.508302
865.151353	4022.407230
865.463619	4030.473076
865.775842	4038.385167
866.088023	4054.032909
866.400162	4044.878173
866.712258	4055.242786
867.024313	4056.094741
867.336325	4052.848237
867.648296	4058.761511
867.960224	4064.878951
868.272110	4070.875404
868.583954	4073.358172
868.895755	4086.959205
869.207515	4083.672373
869.519233	4125.647540
869.830909	4142.684120
870.142542	4159.340092
870.454134	4174.763502
870.765684	4205.270045
871.077191	4241.415118
871.388657	4262.240124
871.700081	4303.111279
872.011463	4340.536805
872.322803	4374.133575
872.634101	4403.256321
872.945357	4440.286116
873.256571	4492.593129
873.567744	4520.926934
873.878874	4537.391342
874.189963	4576.248556
874.501010	4585.574691
874.812015	4584.382458
875.122979	4628.928614
875.433900	4626.435763
875.744780	4637.589316
876.055618	4667.233821
876.366415	4669.406559
876.677169	4686.090257
876.987882	4731.838728
877.298554	4783.545843
877.609183	4861.547617
877.919771	4968.374708
878.230317	5111.248570
878.540822	5317.532585
878.851285	5628.526407
879.161707	6083.019194
879.472087	6817.543036
879.782425	8010.832042
880.092722	10101.456515
880.402977	13208.594373
880.713191	16640.463198
881.023363	20007.071765
881.333494	22018.408971
881.643583	23216.940777
881.953631	23306.827071
882.263637	22601.133588
882.573602	21258.810430
882.883526	19820.362550
883.193408	18247.328466
883.503248	16647.609033
883.813048	15192.149780
884.122806	13842.935365
884.432522	12430.149479
884.742197	11251.482339
885.051831	10216.505728
885.361424	9261.580120
885.670975	8479.445101
885.980485	7822.824730
886.289954	7273.170082
886.599382	6818.556307
886.908768	6460.457944
887.218113	6110.833760
887.527417	5832.007541
887.836680	5570.127160
888.145901	5360.294173
888.455082	5209.155339
888.764221	5054.112132
889.073319	4929.837608
889.382376	4858.739694
889.691392	4801.525119
890.000366	4778.421511
890.309300	4761.211011
890.618193	4765.236373
890.927044	4753.840844
891.235855	4775.182569
891.544625	4803.546621
891.853353	4863.916959
892.162041	4976.402746
892.470687	5158.020395
892.779293	5407.812089
893.087858	5760.292086
893.396381	6321.007026
893.704864	7092.182577
894.013306	8198.259621
894.321707	9320.922062
894.630068	10103.543553
894.938387	10304.766250
895.246665	10075.262680
895.554903	9493.054781
895.863100	8828.403852
896.171256	8294.502810
896.479371	7807.315620
896.787446	7330.049421
897.095480	6916.878972
897.403473	6608.456139
897.711425	6300.741587
898.019336	6042.773142
898.327207	5774.049395
898.635038	5558.615686
898.942827	5320.219520
899.250576	5135.690604
899.558284	4949.001554
899.865952	4836.825798
900.173579	4688.547820
900.481165	4581.355245
900.788711	4494.798633
901.096216	4425.371863
901.403681	4361.558417
901.711105	4338.492617
902.018489	4324.878981
902.325832	4391.979260
902.633135	4514.812014
902.940397	4849.390874
903.247619	5615.096773
903.554800	6999.503484
903.861941	8841.924227
904.169041	10298.716865
904.476101	10890.066897
904.783121	10560.929962
905.090100	9850.006282
905.397039	9049.801247
905.703938	8329.800969
906.010796	7657.555542
906.317614	7124.997967
906.624391	6609.560151
906.931129	6199.542944
907.237826	5813.372916
907.544483	5450.419921
907.851099	5089.430456
908.157675	4745.588476
908.464211	4432.101803
908.770707	4210.414542
909.077163	4014.248122
909.383578	3876.990106
909.689954	3763.065070
909.996289	3696.705842
910.302584	3635.027324
910.608839	3604.500617
910.915054	3568.899989
911.221229	3557.716189
911.527363	3569.033579
911.833458	3582.064962
912.139513	3610.607975
912.445527	3640.882625
912.751502	3716.189901
913.057436	3815.528358
913.363331	3946.641208
913.669186	4148.431035
913.975000	4400.536618
914.280775	4813.381912
914.586510	5379.511051
914.892205	6144.488503
915.197859	7146.863972
915.503475	8311.894791
915.809050	9324.047578
916.114585	9941.790570
916.420081	10184.373414
916.725536	10162.769549
917.030952	9736.250125
917.336328	9345.527934
917.641665	8950.883726
917.946961	8493.668716
918.252218	8089.219464
918.557435	7594.480625
918.862612	7174.494537
919.167750	6818.163098
919.472848	6415.483290
919.777906	6055.013064
920.082925	5704.536925
920.387904	5347.527451
920.692843	5091.280559
920.997743	4854.827759
921.302603	4631.146722
921.607423	4473.464470
921.912204	4315.774658
922.216946	4200.581772
922.521647	4080.196497
922.826310	3980.459789
923.130932	3888.425964
923.435516	3794.416006
923.740059	3726.181468
924.044564	3650.438132
924.349028	3594.037703
924.653454	3531.613094
924.957840	3467.534988
925.262186	3420.458173
925.566493	3362.928525
925.870761	3304.345276
926.174989	3269.145419
926.479178	3234.190059
926.783328	3192.093903
927.087438	3166.386539
927.391509	3132.401601
927.695541	3102.620984
927.999533	3077.037129
928.303486	3059.690518
928.607400	3042.832900
928.911275	3033.600027
929.215110	3012.681759
929.518906	3003.723628
929.822663	3001.888648
930.126381	3002.438134
930.430060	3008.109432
930.733699	3011.837365
931.037299	3019.835156
931.340861	3015.910618
931.644383	3023.648789
931.947866	3023.994108
932.251309	3013.841224
932.554714	3015.343488
932.858080	3010.342663
933.161407	3003.400994
933.464694	2993.406907
933.767943	2985.814929
934.071153	2983.044815
934.374323	2976.355204
934.677455	2972.052579
934.980548	2961.861887
935.283602	2957.982719
935.586617	2953.236473
935.889593	2964.027062
936.192530	2967.858339
936.495428	2981.809733
936.798287	3003.837054
937.101108	3033.196734
937.403890	3084.492995
937.706632	3144.097078
938.009336	3221.067935
938.312002	3292.281795
938.614628	3351.414530
938.917216	3402.272210
939.219765	3432.110800
939.522275	3464.633804
939.824747	3471.368785
940.127179	3467.081284
940.429573	3460.900829
940.731929	3460.797486
941.034246	3446.896504
941.336524	3431.226077
941.638763	3420.639654
941.940964	3404.475194
942.243126	3362.789893
942.545250	3341.496059
942.847335	3306.891059
943.149381	3273.674896
943.451389	3241.572828
943.753359	3209.863971
944.055290	3186.548634
944.357182	3162.436795
944.659036	3147.981287
944.960851	3140.646408
945.262628	3124.824747
945.564367	3125.676702
945.866067	3120.506998
946.167729	3116.940382
946.469352	3116.650516
946.770937	3109.620627
947.072484	3095.502875
947.373992	3098.666199
947.675462	3091.996753
947.976893	3076.457396
948.278286	3065.959193
948.579641	3060.867628
948.880958	3053.706669
949.182236	3057.905950
949.483476	3049.179713
949.784678	3049.502346
950.085841	3051.876730
950.386967	3062.838719
950.688054	3076.893456
950.989103	3098.106631
951.290114	3118.848459
951.591087	3146.181595
951.892021	3173.587828
952.192917	3198.907023
952.493776	3221.972822
952.794596	3233.688464
953.095378	3239.251377
953.396122	3233.222157
953.696828	3228.932135
953.997496	3212.901266
954.298126	3193.873431
954.598718	3172.075482
954.899272	3145.135555
955.199788	3121.179992
955.500266	3089.859303
955.800706	3058.238666
956.101108	3016.336595
956.401472	2989.575630
956.701798	2958.300312
957.002087	2919.087696
957.302337	2892.505692
957.602550	2863.377905
957.902724	2837.662979
958.202861	2811.650626
958.502960	2794.805610
958.803022	2770.648401
959.103045	2751.439084
959.403031	2740.194790
959.702979	2721.436657
960.002889	2708.528782
960.302762	2697.110569
960.602596	2685.790658
960.902393	2676.769513
961.202153	2670.100067
961.501875	2661.036072
961.801559	2652.882006
962.101205	2648.355050
962.400814	2645.327837
962.700385	2638.552526
962.999918	2632.379633
963.299414	2626.458798
963.598873	2622.786317
963.898293	2619.285236
964.197677	2618.730709
964.497022	2614.533948
964.796331	2613.308948
965.095601	2610.327106
965.394835	2607.559512
965.694030	2607.940119
965.993189	2607.204111
966.292309	2604.859974
966.591393	2606.679831
966.890439	2603.395519
967.189447	2601.603389
967.488419	2604.244953
967.787353	2605.364090
968.086249	2605.724532
968.385108	2608.194697
968.683930	2611.415995
968.982714	2614.412961
969.281462	2618.861779
969.580172	2621.279012
969.878844	2627.666154
970.177480	2639.903555
970.476078	2643.820532
970.774639	2653.305463
971.073162	2659.178407
971.371649	2663.874242
971.670098	2670.904131
971.968510	2672.797084
972.266885	2677.336643
972.565223	2684.991635
972.863524	2687.466842
973.161788	2689.143025
973.460014	2694.111082
973.758204	2695.444468
974.056356	2697.168542
974.354471	2701.108204
974.652550	2698.048224
974.950591	2698.950590
975.248595	2697.392874
975.546563	2694.378264
975.844493	2691.653520
976.142386	2686.750998
976.440243	2681.001562
976.738062	2677.412260
977.035845	2670.705005
977.333590	2666.251146
977.631299	2659.634631
977.928971	2653.880154
978.226606	2649.852272
978.524204	2645.403454
978.821765	2640.891621
979.119290	2642.802219
979.416777	2643.868423
979.714228	2647.039308
980.011642	2648.244144
980.309020	2656.499034
980.606360	2671.453617
980.903664	2695.701567
981.200931	2730.467884
981.498162	2777.486726
981.795356	2848.448528
982.092513	2933.790222
982.389633	3033.980634
982.686717	3127.153760
982.983764	3196.320911
983.280775	3243.836307
983.577749	3253.974067
983.874686	3242.969228
984.171587	3209.407746
984.468451	3170.837878
984.765279	3129.538225
985.062070	3084.500557
985.358824	3038.497508
985.655543	2983.710248
985.952224	2933.868359
986.248869	2871.776468
986.545478	2817.629434
986.842050	2763.184972
987.138586	2718.916080
987.435086	2682.347550
987.731549	2654.132212
988.027975	2631.686474
988.324366	2614.181068
988.620719	2600.501897
988.917037	2589.207192
989.213318	2580.092785
989.509563	2570.895200
989.805772	2572.069789
990.101944	2566.491752
990.398080	2563.348593
990.694180	2561.523695
990.990244	2561.775753
991.286271	2562.816751
991.582262	2561.856411
991.878217	2563.945970
992.174136	2570.617937
992.470019	2570.577608
992.765865	2572.394943
993.061676	2577.758731
993.357450	2587.226018
993.653188	2594.835640
993.948890	2611.592435
994.244556	2631.378964
994.540186	2651.614156
994.835780	2683.219670
995.131337	2721.635782
995.426859	2759.620877
995.722345	2808.774647
996.017795	2853.771987
996.313208	2890.660630
996.608586	2916.035278
996.903928	2929.404418
997.199234	2927.408121
997.494504	2924.224632
997.789738	2911.626789
998.084936	2885.621997
998.380099	2859.647451
998.675225	2828.477997
998.970316	2800.940694
999.265371	2765.461053
999.560390	2731.587020
999.855373	2702.771785
1000.150320	2674.939574
1000.445232	2651.049546
1000.740108	2630.844602
1001.034948	2614.705348
1001.329752	2596.877307
1001.624521	2587.296594
1001.919254	2572.531055
1002.213951	2565.024777
1002.508613	2559.703839
1002.803239	2552.915925
1003.097829	2547.804195
1003.392384	2541.401930
1003.686903	2538.087371
1003.981386	2537.603420
1004.275834	2530.228212
1004.570246	2532.559746
1004.864623	2527.780732
1005.158964	2524.453570
1005.453270	2524.236801
1005.747540	2521.875020
1006.041775	2520.854187
1006.335974	2519.137674
1006.630138	2518.885616
1006.924266	2520.062725
1007.218359	2517.224556
1007.512416	2512.755573
1007.806438	2512.606859
1008.100425	2513.794051
1008.394376	2509.173833
1008.688292	2515.301356
1008.982172	2513.047960
1009.276017	2514.668691
1009.569827	2512.097702
1009.863602	2513.844462
1010.157341	2509.982938
1010.451045	2512.150634
1010.744714	2510.774399
1011.038347	2509.342712
1011.331945	2508.430263
1011.625508	2506.927999
1011.919036	2505.115704
1012.212528	2505.481188
1012.505986	2505.130828
1012.799408	2503.252998
1013.092795	2505.176198
1013.386147	2506.174347
1013.679464	2506.529748
1013.972745	2506.446569
1014.265992	2504.052021
1014.559204	2502.794253
1014.852380	2503.641167
1015.145521	2505.153513
1015.438628	2506.345746
1015.731699	2505.831548
1016.024736	2505.148472
1016.317737	2507.369100
1016.610703	2508.389934
1016.903635	2507.084275
1017.196531	2508.266425
1017.489393	2510.595438
1017.782219	2512.032167
1018.075011	2513.640295
1018.367768	2515.669360
1018.660490	2515.928979
1018.953177	2515.928979
1019.245829	2515.928979
