Dividing Wavelength (nm)	Counts (n)	Blue Motor Position (mm): 16.000000	Red Motor Position (mm): 0.000000	
326.493990	2137.650877
326.888308	2137.650877
327.282561	2137.650877
327.676750	2105.062338
328.070874	2102.410691
328.464933	2101.435228
328.858929	2109.949737
329.252859	2119.437188
329.646726	2130.484877
330.040528	2146.102371
330.434265	2163.819507
330.827938	2178.418688
331.221547	2196.821420
331.615091	2214.117619
332.008571	2236.149982
332.401986	2255.253434
332.795338	2277.273194
333.188625	2293.442695
333.581847	2314.159317
333.975006	2331.778150
334.368100	2350.601818
334.761129	2368.477750
335.154095	2383.258413
335.546996	2405.797412
335.939833	2422.057653
336.332606	2441.085489
336.725315	2447.006324
337.117960	2461.676082
337.510540	2468.932823
337.903056	2480.950933
338.295508	2486.344968
338.687896	2496.593634
339.080220	2503.820128
339.472480	2510.250119
339.864676	2512.758093
340.256807	2518.421830
340.648875	2520.430730
341.040879	2524.468694
341.432818	2523.909126
341.824694	2524.458612
342.216506	2528.138654
342.608253	2526.046575
342.999937	2528.604961
343.391557	2527.674868
343.783113	2524.095648
344.174605	2526.742254
344.566033	2525.393746
344.957397	2522.845442
345.348697	2520.433250
345.739934	2519.866120
346.131106	2515.762621
346.522215	2516.818743
346.913260	2512.453104
347.304241	2513.126098
347.695159	2507.805160
348.086012	2509.940088
348.476802	2507.069151
348.867528	2503.802484
349.258191	2504.417504
349.648789	2503.537823
350.039324	2498.347955
350.429796	2503.321053
350.820203	2497.468274
351.210548	2499.555312
351.600828	2496.064313
351.991045	2496.606237
352.381198	2491.786893
352.771288	2494.602378
353.161314	2495.318222
353.551276	2492.890906
353.941175	2492.293529
354.331010	2492.137254
354.720782	2494.493993
355.110490	2494.262100
355.500135	2495.197234
355.889717	2493.586585
356.279235	2494.045330
356.668689	2493.992398
357.058080	2493.926863
357.447408	2493.662203
357.836672	2490.312356
358.225873	2491.451657
358.615010	2491.469301
359.004084	2496.134889
359.393095	2498.168994
359.782043	2498.973058
360.170927	2497.314519
360.559748	2500.498007
360.948505	2501.113028
361.337199	2499.358707
361.725830	2495.661020
362.114398	2499.953563
362.502903	2500.089674
362.891344	2500.311485
363.279722	2502.806856
363.668037	2502.199397
364.056289	2504.868688
364.444478	2502.484222
364.832603	2502.963132
365.220665	2501.874242
365.608665	2502.083450
365.996601	2503.779798
366.384474	2505.352638
366.772284	2506.880108
367.160031	2506.839779
367.547715	2505.942453
367.935336	2506.071003
368.322893	2507.537979
368.710388	2508.558812
369.097820	2509.572084
369.485189	2508.526045
369.872495	2508.107629
370.259738	2505.929851
370.646918	2509.093175
371.034035	2507.505211
371.421090	2507.880777
371.808081	2506.673421
372.195010	2510.416478
372.581875	2507.858092
372.968678	2509.193998
373.355418	2507.613596
373.742096	2512.279184
374.128710	2512.286746
374.515262	2510.998731
374.901751	2508.589059
375.288177	2512.619462
375.674540	2510.822290
376.060841	2511.613752
376.447079	2511.555778
376.833254	2507.759789
377.219367	2508.155520
377.605417	2514.262878
377.991404	2509.012516
378.377329	2511.822959
378.763191	2508.374810
379.148991	2515.820594
379.534727	2513.123577
379.920402	2512.828670
380.306013	2513.211797
380.691563	2514.887981
381.077049	2514.893022
381.462474	2514.905625
381.847835	2514.935872
382.233134	2514.421674
382.618371	2514.691376
383.003545	2515.936541
383.388657	2514.693897
383.773706	2515.566016
384.158693	2516.201202
384.543618	2518.943589
384.928480	2515.515605
385.313280	2516.556603
385.698017	2516.135667
386.082692	2519.059536
386.467305	2517.065759
386.851856	2518.779752
387.236344	2518.802437
387.620770	2520.221522
388.005133	2517.209432
388.389435	2519.016686
388.773674	2515.966788
389.157851	2516.740605
389.541965	2518.754546
389.926018	2522.437109
390.310008	2518.028620
390.693936	2520.544156
391.077802	2520.675226
391.461606	2519.989629
391.845348	2516.160872
392.229027	2519.883764
392.612645	2521.330576
392.996200	2521.917870
393.379694	2522.119516
393.763125	2521.895185
394.146494	2522.628673
394.529801	2522.028775
394.913047	2522.553055
395.296230	2521.149094
395.679351	2519.992149
396.062410	2522.835360
396.445408	2519.677077
396.828343	2524.057840
397.211217	2519.488034
397.594028	2521.196985
397.976778	2519.639268
398.359466	2522.253107
398.742092	2520.055164
399.124656	2523.127747
399.507158	2524.198992
399.889598	2524.060360
400.271977	2521.799403
400.654294	2523.399969
401.036549	2523.309228
401.418742	2524.398118
401.800874	2525.671009
402.182944	2525.239990
402.564952	2524.176307
402.946898	2524.907274
403.328783	2525.030782
403.710606	2529.542615
404.092367	2526.712007
404.474067	2525.386184
404.855705	2524.771163
405.237282	2525.192099
405.618797	2524.962727
406.000250	2527.873993
406.381642	2526.487676
406.762972	2529.749303
407.144240	2527.198479
407.525447	2530.719725
407.906593	2524.856863
408.287677	2526.618746
408.668700	2528.826771
409.049661	2528.307532
409.430560	2527.604292
409.811399	2531.054961
410.192176	2528.433561
410.572891	2526.480114
410.953545	2529.388860
411.334138	2530.087060
411.714669	2529.310722
412.095139	2528.872142
412.475547	2528.673016
412.855894	2529.340969
413.236180	2529.144364
413.616405	2529.804755
413.996568	2529.993798
414.376670	2530.248377
414.756711	2532.000178
415.136691	2533.772143
415.516609	2528.909950
415.896466	2532.022863
416.276262	2531.463295
416.655997	2528.617563
417.035670	2525.418951
417.415283	2527.339631
417.794834	2528.670496
418.174324	2530.714683
418.553753	2530.034128
418.933121	2531.485980
419.312428	2532.668131
419.691674	2531.934643
420.070859	2530.787780
420.449983	2532.673172
420.829045	2534.256094
421.208047	2533.250384
421.586988	2530.351720
421.965867	2534.498069
422.344686	2533.852802
422.723444	2534.374561
423.102141	2532.970600
423.480777	2531.478418
423.859352	2532.431196
424.237866	2535.702905
424.616319	2533.376413
424.994712	2534.072092
425.373044	2532.257277
425.751314	2537.374048
426.129524	2533.615868
426.507673	2533.918337
426.885762	2532.451361
427.263789	2536.217103
427.641756	2534.266176
428.019662	2535.266845
428.397508	2532.194262
428.775292	2533.663758
429.153016	2533.076464
429.530679	2537.099305
429.908282	2533.081505
430.285824	2537.484953
430.663305	2533.439427
431.040726	2536.280117
431.418086	2533.623429
431.795385	2536.789274
432.172624	2536.736342
432.549802	2537.656352
432.926920	2536.086033
433.303977	2539.398071
433.680974	2536.897659
434.057910	2536.547298
434.434786	2535.541588
434.811601	2537.875643
435.188355	2538.142824
435.565050	2535.725590
435.941683	2539.027546
436.318257	2534.679551
436.694770	2533.114273
437.071222	2533.147040
437.447614	2535.854140
437.823946	2535.856660
438.200218	2536.277597
438.576429	2534.745086
438.952580	2537.026208
439.328670	2536.645601
439.704700	2538.271373
440.080670	2538.394881
440.456580	2537.648791
440.832429	2540.600386
441.208218	2534.256094
441.583947	2539.153575
441.959616	2537.482433
442.335224	2539.569470
442.710773	2537.580735
443.086261	2540.539892
443.461689	2537.810108
443.837057	2539.927392
444.212365	2538.299099
444.587612	2538.997299
444.962800	2538.694830
445.337927	2539.272042
445.712995	2538.815818
446.088002	2541.931251
446.462949	2540.620551
446.837837	2539.365303
447.212664	2537.439583
447.587431	2542.092568
447.962139	2538.430169
448.336786	2543.088196
448.711374	2539.355221
449.085901	2540.983514
449.460369	2541.200283
449.834776	2540.078627
450.209124	2540.134079
450.583412	2541.079296
450.957640	2538.699871
451.331808	2542.997455
451.705917	2540.096271
452.079965	2541.172557
452.453954	2545.850748
452.827883	2544.338402
453.201752	2542.543751
453.575562	2540.207176
453.949311	2543.045346
454.323001	2539.617361
454.696632	2543.239430
455.070202	2543.312527
455.443713	2543.267157
455.817164	2540.237423
456.190556	2541.061652
456.563888	2541.238092
456.937160	2538.931764
457.310373	2544.177085
457.683526	2538.888914
458.056619	2544.519883
458.429653	2543.753628
458.802628	2543.670449
459.175542	2542.044677
459.548398	2543.887218
459.921194	2542.934440
460.293930	2541.459903
460.666607	2545.384441
461.039224	2543.723381
461.411782	2544.577857
461.784280	2546.722867
462.156719	2544.161961
462.529099	2546.218752
462.901419	2544.867723
463.273680	2543.584749
463.645882	2544.325799
464.018024	2542.301776
464.390106	2543.980480
464.762130	2544.177085
465.134094	2547.295038
465.505999	2547.516849
465.877845	2547.017775
466.249631	2544.857641
466.621358	2546.054915
466.993026	2552.575647
467.364634	2548.424257
467.736184	2543.410829
468.107674	2547.794113
468.479105	2544.421581
468.850477	2547.219421
469.221790	2545.331509
469.593043	2547.962991
469.964238	2547.685728
470.335373	2545.858310
470.706449	2547.640358
471.077467	2546.150697
471.448425	2546.425439
471.819324	2548.315872
472.190164	2549.356870
472.560945	2547.090872
472.931667	2546.153217
473.302330	2548.043650
473.672934	2544.197249
474.043479	2545.402085
474.413965	2548.961140
474.784393	2543.221786
475.154761	2544.988711
475.525070	2543.763710
475.895321	2546.072559
476.265513	2543.562064
476.635645	2550.329813
477.005719	2549.147662
477.375734	2549.031716
477.745691	2552.212684
478.115588	2547.443753
478.485427	2551.738816
478.855207	2548.948537
479.224928	2547.322765
479.594591	2550.831408
479.964194	2548.772097
480.333739	2549.553475
480.703226	2550.844011
481.072653	2548.651109
481.442022	2550.498692
481.811333	2551.811912
482.180584	2551.201933
482.549777	2552.563044
482.918912	2549.314021
483.287988	2549.613969
483.657005	2551.292673
484.025964	2547.983156
484.394864	2547.587425
484.763706	2550.780996
485.132489	2551.474155
485.501213	2551.242262
485.869879	2549.651778
486.238487	2549.603887
486.607036	2550.733105
486.975527	2550.488609
487.343959	2550.667570
487.712333	2551.902653
488.080648	2549.331665
488.448905	2550.145811
488.817104	2550.881819
489.185244	2551.595143
489.553326	2550.075235
489.921350	2553.732592
490.289315	2551.786707
490.657222	2553.115051
491.025070	2551.582540
491.392861	2553.823333
491.760593	2554.120761
492.128267	2554.559341
492.495883	2551.968188
492.863440	2553.846018
493.230939	2553.951882
493.598380	2553.304094
493.965763	2549.553475
494.333088	2551.212015
494.700354	2551.025492
495.067563	2551.443908
495.434713	2548.343598
495.801805	2552.492468
496.168839	2555.116389
496.535815	2552.207643
496.902733	2549.913918
497.269593	2553.919115
497.636395	2552.537838
498.003139	2552.721841
498.369825	2552.739485
498.736453	2555.113868
499.103023	2554.345092
499.469535	2556.757284
499.835989	2552.752088
500.202385	2555.363405
500.568723	2555.063457
500.935003	2553.195709
501.301226	2555.348282
501.667390	2555.542366
502.033497	2556.427089
502.399546	2555.519681
502.765537	2558.940104
503.131470	2554.019938
503.497345	2556.263251
503.863163	2557.120247
504.228923	2557.132850
504.594625	2555.302911
504.960269	2555.726368
505.325856	2557.011862
505.691385	2556.341389
506.056856	2562.509241
506.422270	2558.632593
506.787625	2556.041440
507.152924	2558.083108
507.518164	2559.313149
507.883347	2558.413303
508.248472	2558.965310
508.613540	2559.035886
508.978550	2558.834240
509.343503	2560.286092
509.708398	2561.611915
510.073236	2559.822306
510.438016	2562.892368
510.802738	2561.682492
511.167403	2559.421534
511.532010	2560.137378
511.896561	2564.974365
512.261053	2564.593758
512.625488	2557.299208
512.989866	2559.981102
513.354186	2559.323232
513.718449	2559.524878
514.082655	2563.908161
514.446803	2561.039744
514.810894	2563.842626
515.174927	2566.678275
515.538904	2566.879921
515.902822	2566.736248
516.266684	2565.211299
516.630488	2567.142061
516.994235	2568.026784
517.357925	2568.276321
517.721558	2567.404201
518.085133	2569.345045
518.448651	2570.116342
518.812112	2571.558112
519.175516	2572.064748
519.538863	2569.866805
519.902152	2570.267577
520.265385	2573.327557
520.628560	2573.403174
520.991678	2573.758576
521.354739	2574.736559
521.717743	2574.867629
522.080690	2576.125397
522.443580	2575.835531
522.806413	2578.925758
523.169189	2578.119174
523.531908	2581.733681
523.894569	2580.420460
524.257174	2582.043712
524.619722	2581.337950
524.982213	2584.438260
525.344647	2585.617890
525.707025	2587.508323
526.069345	2587.334403
526.431608	2591.415217
526.793815	2590.013776
527.155964	2592.375557
527.518057	2594.271031
527.880093	2596.728593
528.242072	2596.816813
528.603995	2600.602720
528.965860	2600.753954
529.327669	2601.903337
529.689421	2605.220417
530.051117	2606.228647
530.412755	2609.165120
530.774337	2611.665532
531.135862	2613.669391
531.497331	2616.913373
531.858743	2615.942951
532.220098	2621.957047
532.581396	2621.377315
532.942638	2623.885289
533.303824	2626.597430
533.664953	2636.170581
534.026025	2637.710653
534.387040	2642.976138
534.747999	2643.848258
535.108902	2652.856800
535.469748	2650.777324
535.830537	2656.950217
536.191270	2661.260403
536.551947	2665.429438
536.912567	2673.301199
537.273131	2673.717095
537.633638	2678.647343
537.994089	2684.973991
538.354483	2690.209229
538.714821	2696.112421
539.075103	2702.633153
539.435328	2710.598176
539.795497	2713.237220
540.155609	2725.474621
540.515665	2729.600806
540.875665	2733.921074
541.235609	2741.991962
541.595496	2749.427664
541.955328	2758.108531
542.315102	2761.977616
542.674821	2771.732249
543.034483	2780.405554
543.394090	2787.770680
543.753640	2795.455919
544.113134	2810.478557
544.472571	2813.490647
544.831953	2829.249294
545.191278	2830.234839
545.550548	2841.900069
545.909761	2858.896319
546.268918	2868.434182
546.628019	2883.119064
546.987064	2892.921587
547.346053	2896.805796
547.704986	2916.796492
548.063863	2927.433327
548.422684	2939.408588
548.781449	2948.409568
549.140158	2967.029069
549.498811	2975.631798
549.857408	2977.996100
550.215949	3006.213958
550.574434	3008.800070
550.932864	3034.714122
551.291237	3045.671069
551.649555	3065.944070
552.007817	3081.851431
552.366022	3092.687391
552.724173	3113.585494
553.082267	3124.048409
553.440305	3162.348575
553.798288	3159.054181
554.156215	3192.958461
554.514086	3206.801470
554.871902	3214.524517
555.229661	3240.282293
555.587365	3255.257041
555.945014	3266.259359
556.302606	3301.315543
556.660143	3308.574804
557.017625	3352.717668
557.375050	3362.840305
557.732421	3397.601581
558.089735	3415.785023
558.446994	3435.548867
558.804197	3465.531129
559.161345	3489.365705
559.518437	3486.867813
559.875474	3529.531098
560.232455	3562.560738
560.589381	3575.214034
560.946251	3615.139972
561.303065	3634.240904
561.659825	3664.019000
562.016528	3674.867563
562.373177	3673.927388
562.729770	3734.156574
563.086307	3738.617995
563.442789	3779.378244
563.799216	3802.822130
564.155587	3831.317252
564.511904	3857.311962
564.868164	3884.882033
565.224370	3907.723501
565.580520	3943.553502
565.936615	3952.534317
566.292654	3972.646000
566.648638	4019.604348
567.004567	4050.405798
567.360441	4072.118048
567.716260	4092.587653
568.072023	4133.229436
568.427732	4166.916946
568.783385	4165.147501
569.138982	4221.905852
569.494525	4256.624279
569.850013	4254.910287
570.205445	4321.995441
570.560823	4324.342098
570.916145	4343.291796
571.271412	4396.218870
571.626625	4417.880708
571.981782	4436.787556
572.336884	4473.870283
572.691931	4488.996265
573.046923	4529.101165
573.401860	4545.303433
573.756743	4565.914191
574.111570	4608.736272
574.466342	4630.516577
574.821059	4677.658927
575.175722	4678.039535
575.530330	4719.737439
575.884882	4749.838168
576.239380	4766.829377
576.593823	4784.823776
576.948211	4836.994677
577.302544	4817.830731
577.656823	4872.179410
578.011047	4900.104882
578.365216	4926.316362
578.719330	4934.483031
579.073389	4981.569928
579.427394	4982.530268
579.781344	5008.121686
580.135239	5025.866547
580.489080	5060.158996
580.842866	5064.373401
581.196597	5101.980408
581.550273	5146.861801
581.903895	5174.336090
582.257463	5228.586467
582.610975	5227.769800
582.964434	5259.624851
583.317837	5272.913333
583.671186	5288.210714
584.024481	5325.999203
584.377721	5321.552905
584.730906	5343.749106
585.084037	5392.668463
585.437113	5386.394747
585.790135	5442.863232
586.143103	5425.199028
586.496016	5437.600267
586.848874	5502.832798
587.201679	5526.924472
587.554428	5508.743551
587.907124	5566.008538
588.259765	5574.961627
588.612352	5619.069202
588.964884	5585.283389
589.317362	5628.680162
589.669786	5657.964225
590.022155	5703.538776
590.374470	5751.344038
590.726731	5743.293316
591.078937	5707.584302
591.431090	5805.642306
591.783188	5757.020378
592.135232	5792.026150
592.487222	5807.656247
592.839157	5873.649992
593.191038	5862.214135
593.542866	5861.505853
593.894639	5840.136402
594.246358	5891.553650
594.598022	5930.720895
594.949633	5901.688890
595.301190	5918.423000
595.652692	5963.241378
596.004141	6063.252830
596.355535	5953.622857
596.706876	5970.523325
597.058162	5967.128108
597.409395	6034.036823
597.760573	6101.958809
598.111698	6067.948664
598.462768	6091.163178
598.813785	6091.057314
599.164748	6103.692966
599.515657	6113.654286
599.866511	6096.688282
600.217312	6188.079361
600.568060	6132.248582
600.918753	6215.974585
601.269392	6220.073043
601.619978	6195.270567
601.970510	6261.476040
602.320988	6275.929028
602.671412	6347.689853
603.021783	6325.024825
603.372100	6333.952709
603.722363	6367.521752
604.072572	6363.435897
604.422728	6396.636936
604.772830	6371.524428
605.122878	6396.531072
605.472872	6414.497744
605.822813	6457.891997
606.172701	6443.436488
606.522534	6514.786459
606.872314	6534.991404
607.222041	6543.702517
607.571714	6605.670901
607.921333	6594.587924
608.270899	6618.543488
608.620411	6702.503905
608.969870	6657.990516
609.319276	6671.440315
609.668627	6704.749739
610.017926	6749.530308
610.367171	6804.983001
610.716362	6804.836807
611.065500	6815.539177
611.414585	6863.087340
611.763616	6865.549944
612.112594	6869.033381
612.461518	6906.219452
612.810389	6967.494677
613.159207	6942.601460
613.507971	6916.102634
613.856682	7029.458020
614.205340	7012.239959
614.553945	7091.144099
614.902496	7026.781167
615.250994	7090.919767
615.599439	7093.568894
615.947830	7115.896164
616.296169	7112.727799
616.644454	7141.510267
616.992686	7150.357492
617.340864	7214.881741
617.688990	7152.497462
618.037063	7240.087510
618.385082	7208.330761
618.733048	7299.247971
619.080961	7253.580158
619.428821	7286.778677
619.776628	7308.188457
620.124382	7276.698890
620.472083	7281.329189
620.819731	7311.359343
621.167326	7245.652944
621.514868	7265.978876
621.862357	7187.364602
622.209793	7209.694393
622.557176	7174.151738
622.904506	7163.376272
623.251783	7121.748944
623.599007	7095.547547
623.946179	7119.147708
624.293297	7095.822290
624.640363	7033.483381
624.987376	7031.734101
625.334336	6998.217989
625.681243	6968.147507
626.028097	6962.067875
626.374899	6953.210568
626.721647	6962.849254
627.068343	6903.383803
627.414987	6890.791001
627.761577	6862.356373
628.108115	6898.829121
628.454600	6819.698129
628.801032	6871.644699
629.147412	6844.339289
629.493739	6842.350554
629.840014	6790.494725
630.186236	6854.968562
630.532405	6751.040134
630.878521	6807.944679
631.224585	6770.675428
631.570597	6708.613783
631.916556	6742.875985
632.262462	6744.602581
632.608316	6721.652728
632.954117	6712.656789
633.299866	6697.361928
633.645562	6700.643719
633.991206	6638.745912
634.336797	6595.155054
634.682336	6561.656587
635.027823	6536.491147
635.373257	6532.763214
635.718639	6475.097455
636.063968	6499.063100
636.409245	6402.761938
636.754470	6407.135139
637.099642	6367.983018
637.444762	6325.087840
637.789829	6338.482186
638.134845	6288.713394
638.479808	6280.518999
638.824719	6286.359175
639.169577	6224.625205
639.514383	6250.897179
639.859137	6186.519123
640.203839	6197.234096
640.548489	6187.625657
640.893086	6173.175189
641.237632	6146.923381
641.582125	6173.253327
641.926566	6144.700232
642.270955	6155.362272
642.615292	6160.879815
642.959576	6170.425240
643.303809	6166.906514
643.647990	6177.135016
643.992118	6172.832391
644.336195	6123.678620
644.680219	6148.644935
645.024192	6143.084542
645.368112	6237.482668
645.711981	6267.759838
646.055797	6331.724519
646.399562	6302.009437
646.743274	6419.007057
647.086935	6471.772814
647.430544	6474.555531
647.774101	6493.900959
648.117606	6502.468400
648.461059	6500.527555
648.804460	6461.700588
649.147810	6373.954265
649.491108	6347.788156
649.834354	6332.586556
650.177548	6252.071768
650.520690	6168.723850
650.863781	6152.708105
651.206820	6167.057749
651.549807	6099.037460
651.892742	6038.999838
652.235626	6047.587444
652.578458	6039.705600
652.921238	5948.385098
653.263967	5993.803374
653.606644	5930.816677
653.949269	5938.822029
654.291843	5884.990068
654.634365	5931.003200
654.976836	5892.093054
655.319255	5886.976283
655.661622	5870.222008
656.003938	5863.628178
656.346203	5825.625440
656.688416	5866.441142
657.030577	5813.178831
657.372687	5788.721673
657.714746	5778.324294
658.056753	5821.133772
658.398708	5758.832672
658.740612	5756.498618
659.082465	5801.805988
659.424266	5793.793074
659.766016	5795.229803
660.107715	5771.009579
660.449362	5782.465602
660.790958	5780.292864
661.132503	5766.495226
661.473996	5805.967461
661.815438	5793.672087
662.156829	5793.919103
662.498168	5789.969359
662.839456	5763.818373
663.180693	5801.677439
663.521879	5803.978726
663.863013	5789.371982
664.204097	5808.921577
664.545129	5848.038410
664.886110	5845.326269
665.227040	5880.261466
665.567918	5843.105641
665.908746	5875.560590
666.249522	5878.376074
666.590248	5868.997007
666.930922	5893.527262
667.271545	5906.936731
667.612118	5914.392598
667.952639	5887.180449
668.293109	5906.372122
668.633528	5864.356625
668.973896	5864.787644
669.314213	5859.393609
669.654480	5844.139078
669.994695	5837.431823
670.334859	5830.190205
670.674973	5822.078988
671.015035	5824.483619
671.355047	5825.133928
671.695008	5810.136495
672.034918	5784.078771
672.374777	5796.704341
672.714585	5783.385612
673.054342	5787.957939
673.394049	5776.176762
673.733705	5807.797400
674.073310	5795.436490
674.412864	5760.904587
674.752368	5751.243215
675.091820	5757.310244
675.431223	5691.926478
675.770574	5691.180388
676.109875	5641.910671
676.449125	5648.118852
676.788324	5614.635508
677.127473	5561.862189
677.466571	5552.737700
677.805619	5544.578593
678.144616	5529.530748
678.483562	5508.662892
678.822458	5478.811700
679.161303	5478.791535
679.500098	5465.447601
679.838842	5449.187359
680.177535	5452.595179
680.516179	5468.414320
680.854771	5476.573427
681.193314	5560.944699
681.531805	5672.641544
681.870247	5815.659079
682.208638	5913.119706
682.546978	5925.704947
682.885268	5902.742491
683.223508	5824.667621
683.561697	5768.640237
683.899836	5739.711576
684.237925	5692.980080
684.575963	5659.174102
684.913951	5618.121466
685.251889	5682.257545
685.589776	5650.833513
685.927614	5625.564729
686.265401	5691.538310
686.603137	5681.970200
686.940824	5754.746817
687.278460	5775.218943
687.616046	5784.620695
687.953582	5848.224933
688.291068	5834.593653
688.628504	5901.714096
688.965889	5856.792374
689.303224	5802.380680
689.640510	5759.886273
689.977745	5684.397515
690.314930	5581.865487
690.652065	5529.863465
690.989150	5439.442809
691.326185	5357.793760
691.663170	5309.381039
692.000105	5235.628959
692.336990	5157.042411
692.673825	5135.650275
693.010610	5063.932300
693.347345	4996.375797
693.684030	4982.908355
694.020665	4941.180204
694.357251	4850.605792
694.693786	4863.974932
695.030272	4829.538811
695.366707	4793.960867
695.703093	4757.886370
696.039429	4782.101553
696.375716	4769.992701
696.711952	4742.883897
697.048139	4730.074325
697.384276	4714.358527
697.720363	4722.452100
698.056400	4729.887802
698.392388	4677.323691
698.728326	4662.232997
699.064214	4639.578051
699.400053	4632.548162
699.735842	4600.367957
700.071581	4576.523299
700.407270	4551.788878
700.742910	4534.346485
701.078501	4484.670955
701.414042	4480.764061
701.749533	4451.016212
702.084974	4385.952560
702.420366	4441.397691
702.755709	4383.502559
703.091002	4325.897294
703.426246	4378.831930
703.761440	4328.674970
704.096584	4294.725320
704.431679	4316.465296
704.766725	4302.392915
705.101721	4290.848672
705.436668	4316.588804
705.771565	4263.145011
706.106413	4294.042243
706.441212	4325.862006
706.775961	4336.743337
707.110661	4313.710305
707.445311	4342.565870
707.779913	4366.294581
708.114465	4380.649266
708.448967	4400.098038
708.783421	4458.114157
709.117825	4501.044623
709.452180	4503.658461
709.786485	4548.416346
710.120742	4634.239469
710.454949	4620.867809
710.789107	4684.315771
711.123216	4756.626082
711.457275	4750.589300
711.791286	4820.358869
712.125247	4835.850335
712.459159	4739.909616
712.793023	4816.416687
713.126837	4776.510913
713.460602	4772.351961
713.794318	4689.273746
714.127985	4698.851938
714.461602	4616.187097
714.795171	4586.237602
715.128691	4521.047922
715.462162	4464.806289
715.795584	4418.321809
716.128957	4396.501175
716.462281	4344.352959
716.795556	4319.618537
717.128782	4280.786529
717.461960	4218.550964
717.795088	4223.486254
718.128167	4188.180533
718.461198	4125.345071
718.794180	4118.917600
719.127113	4101.485290
719.459997	4081.124069
719.792833	4039.569838
720.125619	4028.844783
720.458357	3990.708455
720.791046	3996.654496
721.123686	3971.007625
721.456278	3931.691667
721.788821	3947.299079
722.121315	3920.404523
722.453761	3898.039444
722.786158	3907.529416
723.118506	3930.391049
723.450805	3880.685272
723.783056	3903.592275
724.115259	3918.788833
724.447412	3926.247220
724.779518	3918.110798
725.111574	3922.766304
725.443582	3949.466775
725.775542	3935.094445
726.107453	3989.473372
726.439315	3989.022189
726.771129	4005.615147
727.102895	4038.004560
727.434612	4085.126746
727.766281	4092.995987
728.097901	4097.389352
728.429473	4101.991926
728.760996	4106.584417
729.092471	4102.851443
729.423897	4087.796037
729.755276	4094.654526
730.086606	4092.564968
730.417887	4129.047798
730.749120	4194.529866
731.080305	4256.523456
731.411442	4289.333806
731.742530	4253.493722
732.073570	4258.040843
732.404562	4311.502280
732.735506	4299.746309
733.066401	4266.152060
733.397249	4205.670816
733.728048	4126.307931
734.058798	4042.697874
734.389501	3974.299499
734.720156	3915.444028
735.050762	3872.208572
735.381320	3862.980740
735.711831	3812.082730
736.042293	3780.923358
736.372707	3805.458654
736.703073	3778.652318
737.033391	3769.061523
737.363661	3788.974081
737.693883	3811.293789
738.024056	3818.391734
738.354182	3815.472906
738.684260	3883.228534
739.014290	3896.133888
739.344272	3892.249679
739.674207	3940.269190
740.004093	3941.179118
740.333931	3932.427675
740.663722	3934.391204
740.993464	3935.006225
741.323159	3908.159560
741.652806	3879.795508
741.982405	3852.926158
742.311956	3822.044050
742.641460	3815.351918
742.970915	3786.261940
743.300323	3746.424222
743.629683	3714.788461
743.958996	3704.650700
744.288260	3679.507945
744.617477	3647.325219
744.946647	3631.692601
745.275768	3608.420114
745.604842	3607.406843
745.933869	3557.343144
746.262847	3550.305693
746.591778	3591.081066
746.920662	3556.629820
747.249498	3527.418854
747.578286	3575.912234
747.907027	3590.022423
748.235720	3589.218359
748.564365	3612.294241
748.892963	3613.221813
749.221514	3597.443002
749.550017	3577.679158
749.878473	3572.043148
750.206881	3544.067265
750.535242	3536.508055
750.863555	3538.791697
751.191821	3535.996378
751.520039	3516.361083
751.848210	3492.085407
752.176334	3527.711241
752.504411	3533.669885
752.832440	3494.162362
753.160421	3476.543530
753.488356	3486.451918
753.816243	3500.000019
754.144082	3455.239614
754.471875	3440.390895
754.799620	3462.889565
755.127318	3452.928245
755.454969	3452.262812
755.782572	3456.961168
756.110129	3432.052827
756.437638	3422.905653
756.765100	3436.068106
757.092515	3447.652677
757.419882	3456.951085
757.747203	3424.995211
758.074477	3430.006118
758.401703	3447.110753
758.728882	3468.059268
759.056014	3472.099753
759.383099	3475.787357
759.710138	3469.712766
760.037129	3490.121878
760.364073	3521.644213
760.690970	3505.202489
761.017820	3481.022595
761.344623	3499.301819
761.671379	3548.004406
761.998088	3597.485852
762.324751	3722.879513
762.651366	3964.207109
762.977935	4435.096248
763.304456	4875.617477
763.630931	4957.589159
763.957359	4602.233184
764.283740	4263.775156
764.610074	4076.516455
764.936362	3881.645612
765.262602	3727.119123
765.588796	3616.281794
765.914943	3529.455481
766.241044	3445.487502
766.567097	3415.384251
766.893104	3370.323898
767.219064	3338.927592
767.544978	3312.690906
767.870845	3256.126640
768.196665	3236.234247
768.522438	3245.449476
768.848165	3241.948394
769.173846	3205.692416
769.499479	3190.054757
769.825066	3174.031449
770.150607	3158.507216
770.476101	3169.355779
770.801548	3167.238494
771.126949	3122.896505
771.452303	3107.258846
771.777611	3112.766307
772.102872	3117.999024
772.428087	3092.737802
772.753256	3084.366966
773.078378	3076.535534
773.403453	3043.901624
773.728482	3028.546270
774.053465	3052.743808
774.378401	3041.005482
774.703291	3006.740759
775.028135	3008.404340
775.352932	3006.055162
775.677683	2992.774242
776.002388	2989.870538
776.327046	2990.631752
776.651658	2979.596666
776.976224	2967.593679
777.300743	2971.482929
777.625216	2960.725107
777.949643	2954.859724
778.274024	2956.263685
778.598359	2946.937551
778.922647	2951.507357
779.246889	2948.911163
779.571086	2934.039759
779.895236	2930.258893
780.219339	2940.394133
780.543397	2952.001390
780.867409	2953.365022
781.191374	2947.101388
781.515294	2946.027623
781.839167	2945.291614
782.162995	2937.185439
782.486776	2947.940740
782.810511	2944.021243
783.134201	2933.822989
783.457844	2938.602003
783.781441	2927.624890
784.104993	2908.579411
784.428498	2909.872467
784.751958	2925.610949
785.075372	2915.168199
785.398739	2900.105232
785.722061	2918.162645
786.045337	2928.159253
786.368568	2912.942530
786.691752	2904.196128
787.014891	2954.035495
787.337983	2982.772593
787.661030	3007.456603
787.984031	3077.823549
788.306987	3119.619755
788.629897	3110.553240
788.952760	3097.973041
789.275579	3083.809919
789.598351	3022.900178
789.921078	2977.794453
790.243759	2969.209368
790.566395	2951.628344
790.888984	2929.185128
791.211529	2915.866399
791.534027	2905.927764
791.856480	2895.066598
792.178888	2880.207797
792.501249	2873.046838
792.823566	2870.808566
793.145836	2867.166332
793.468062	2861.931094
793.790241	2859.682739
794.112375	2866.652135
794.434464	2880.192674
794.756507	2879.025647
795.078505	2886.557131
795.400457	2902.706467
795.722364	2940.469750
796.044226	2963.069243
796.366042	2964.942032
796.687812	2956.644293
797.009538	2973.522076
797.331218	2960.493213
797.652852	2948.147428
797.974442	2928.988523
798.295986	2925.731937
798.617484	2922.188006
798.938938	2904.274266
799.260346	2892.349416
799.581709	2884.313817
799.903026	2881.165617
800.224299	2872.646067
800.545526	2863.793800
800.866708	2848.151100
801.187845	2839.273628
801.508936	2842.613392
801.829983	2846.008610
802.150984	2833.861949
802.471940	2822.209322
802.792851	2822.589929
803.113717	2822.443736
803.434538	2828.689726
803.755314	2816.868220
804.076045	2815.350832
804.396731	2811.625420
804.717372	2814.962664
805.037967	2811.053249
805.358518	2816.999290
805.679024	2826.401042
805.999485	2820.281081
806.319901	2826.711073
806.640272	2818.146152
806.960598	2824.755105
807.280879	2834.476970
807.601115	2837.824296
807.921306	2825.052533
808.241453	2822.380722
808.561554	2831.290961
808.881611	2832.705005
809.201623	2826.194354
809.521590	2828.538491
809.841513	2819.020792
810.161390	2826.453974
810.481223	2817.800833
810.801011	2808.840182
811.120755	2802.891621
811.440453	2809.702220
811.760107	2806.561581
812.079716	2808.066365
812.399281	2795.859211
812.718801	2791.095321
813.038276	2787.382511
813.357707	2791.521298
813.677093	2798.336938
813.996434	2792.539611
814.315731	2788.804116
814.634983	2782.502674
814.954191	2786.215484
815.273354	2799.360292
815.592473	2807.257260
815.911547	2808.915800
816.230577	2814.725729
816.549562	2826.262410
816.868502	2821.732933
817.187399	2834.124089
817.506250	2850.258302
817.825058	2843.828311
818.143821	2852.763756
818.462539	2872.346118
818.781213	2898.113976
819.099843	2933.817948
819.418429	2986.858448
819.736970	3048.441183
820.055466	3117.540279
820.373919	3222.222359
820.692327	3358.111703
821.010691	3524.235366
821.329011	3953.419040
821.647286	4833.090303
821.965517	6186.461150
822.283704	6898.627475
822.601847	6865.423915
822.919945	6247.592702
823.237999	5761.000368
823.556010	5192.217062
823.873976	4653.713447
824.191897	4257.713168
824.509775	3973.795383
824.827609	3711.599931
825.145398	3589.470417
825.463144	3582.690065
825.780845	3670.910258
826.098502	3775.584776
826.416116	4053.937127
826.733685	4356.650853
827.051210	4412.010284
827.368692	4299.693377
827.686129	4039.937842
828.003522	3725.427816
828.320872	3475.041266
828.638177	3285.695528
828.955439	3150.431287
829.272656	3070.168557
829.589830	3006.713033
829.906960	2960.193265
830.224046	2914.805236
830.541088	2881.455483
830.858086	2865.999305
831.175041	2849.965915
831.491952	2852.597398
831.808819	2864.547453
832.125642	2886.930176
832.442421	2928.791918
832.759157	3012.550689
833.075849	3184.355732
833.392497	3456.633493
833.709101	3654.143380
834.025662	3601.985082
834.342179	3447.589663
834.658653	3275.159516
834.975083	3133.155253
835.291469	3035.233360
835.607811	2953.899384
835.924110	2899.583472
836.240366	2851.435412
836.556578	2806.939667
836.872746	2786.936369
837.188871	2763.152205
837.504952	2747.953126
837.820990	2741.167733
838.136984	2727.425548
838.452935	2722.926318
838.768842	2717.383569
839.084706	2737.575911
839.400526	2813.722540
839.716303	2940.631067
840.032037	3017.385155
840.347727	3004.237826
840.663373	2946.423353
840.978977	2873.407281
841.294537	2800.371044
841.610054	2755.953437
841.925527	2737.505335
842.240957	2713.829556
842.556344	2692.497913
842.871687	2678.506191
843.186987	2668.517144
843.502244	2663.549087
843.817458	2658.147491
844.132629	2646.220121
844.447756	2638.328195
844.762840	2634.401136
845.077881	2637.456075
845.392879	2635.416928
845.707833	2631.482308
846.022745	2619.895216
846.337613	2626.063067
846.652438	2625.735392
846.967221	2624.197840
847.281960	2623.920577
847.596656	2620.875720
847.911309	2620.374125
848.225919	2617.581326
848.540485	2616.106788
848.855009	2613.916407
849.169490	2611.247116
849.483928	2614.208794
849.798323	2615.247272
850.112675	2614.269288
850.426984	2611.768876
850.741251	2611.965481
851.055474	2611.463886
851.369654	2616.414299
851.683792	2614.843979
851.997887	2614.929679
852.311938	2612.812394
852.625947	2613.762652
852.939914	2614.753239
853.253837	2617.223404
853.567718	2607.330140
853.881555	2613.518156
854.195350	2614.029833
854.509103	2615.350615
854.822812	2609.323916
855.136479	2610.231324
855.450103	2612.870368
855.763685	2612.840121
856.077224	2612.247785
856.390720	2611.829369
856.704173	2613.923969
857.017584	2616.724330
857.330953	2617.402365
857.644278	2621.641975
857.957561	2619.113837
858.270802	2615.191819
858.584000	2612.678804
858.897155	2616.300873
859.210268	2618.387911
859.523339	2616.603342
859.836367	2610.879112
860.149352	2609.548247
860.462295	2613.843310
860.775195	2610.611931
861.088054	2607.297372
861.400869	2607.940119
861.713642	2602.571290
862.026373	2607.241919
862.339062	2608.489605
862.651708	2616.356326
862.964312	2616.268105
863.276873	2613.704679
863.589392	2615.022940
863.901869	2621.334465
864.214303	2623.393776
864.526696	2626.904940
864.839045	2629.702780
865.151353	2634.449027
865.463619	2628.850825
865.775842	2630.529530
866.088023	2630.443830
866.400162	2632.714870
866.712258	2631.036166
867.024313	2631.328552
867.336325	2627.199847
867.648296	2631.401649
867.960224	2634.232257
868.272110	2632.934160
868.583954	2625.579117
868.895755	2628.311422
869.207515	2630.388377
869.519233	2639.238123
869.830909	2633.486166
870.142542	2630.673202
870.454134	2632.054479
870.765684	2638.912968
871.077191	2638.116466
871.388657	2643.268525
871.700081	2638.902886
872.011463	2640.637043
872.322803	2640.218627
872.634101	2644.130563
872.945357	2650.787406
873.256571	2654.205309
873.567744	2651.820843
873.878874	2650.832777
874.189963	2654.187665
874.501010	2659.226298
874.812015	2662.702173
875.122979	2661.625887
875.433900	2656.068015
875.744780	2653.585247
876.055618	2659.284271
876.366415	2665.653769
876.677169	2662.392142
876.987882	2658.218067
877.298554	2656.592295
877.609183	2666.026814
877.919771	2673.467557
878.230317	2677.329081
878.540822	2687.509692
878.851285	2703.389326
879.161707	2724.587378
879.472087	2761.624735
879.782425	2807.910089
880.092722	2915.629465
880.402977	3100.826334
880.713191	3349.246833
881.023363	3623.362094
881.333494	3809.796567
881.643583	3974.977534
881.953631	3970.153150
882.263637	3797.907005
882.573602	3583.950354
882.883526	3461.944348
883.193408	3354.320755
883.503248	3257.185282
883.813048	3149.418016
884.122806	3038.300902
884.432522	2955.855352
884.742197	2897.277144
885.051831	2859.365147
885.361424	2826.466577
885.670975	2792.191772
885.980485	2762.136412
886.289954	2747.927920
886.599382	2729.454612
886.908768	2722.664178
887.218113	2701.839171
887.527417	2689.942048
887.836680	2684.041378
888.145901	2678.997703
888.455082	2671.325067
888.764221	2660.342913
889.073319	2652.738333
889.382376	2651.530977
889.691392	2654.500216
890.000366	2656.304949
890.309300	2652.067859
890.618193	2653.043323
890.927044	2658.356699
891.235855	2659.269148
891.544625	2655.253869
891.853353	2655.090031
892.162041	2662.361896
892.470687	2683.615400
892.779293	2693.009590
893.087858	2701.677854
893.396381	2724.148798
893.704864	2761.165990
894.013306	2829.481187
894.321707	2920.728592
894.630068	2965.259624
894.938387	2981.978611
895.246665	2975.823362
895.554903	2932.812238
895.863100	2894.191958
896.171256	2840.359997
896.479371	2780.801285
896.787446	2745.772827
897.095480	2726.061916
897.403473	2719.717623
897.711425	2708.803525
898.019336	2688.767459
898.327207	2676.361180
898.635038	2673.999399
898.942827	2674.289266
899.250576	2664.179232
899.558284	2653.612973
899.865952	2647.614000
900.173579	2646.497384
900.481165	2644.911942
900.788711	2635.827782
901.096216	2630.721093
901.403681	2627.078860
901.711105	2628.192955
902.018489	2626.834364
902.325832	2632.644294
902.633135	2632.661938
902.940397	2645.912611
903.247619	2680.124401
903.554800	2747.547313
903.861941	2867.216744
904.169041	2984.423571
904.476101	3042.858106
904.783121	3035.394677
905.090100	2980.826708
905.397039	2910.762231
905.703938	2842.026098
906.010796	2782.991666
906.317614	2735.365365
906.624391	2702.454192
906.931129	2677.339164
907.237826	2655.115237
907.544483	2635.081692
907.851099	2624.331431
908.157675	2615.080914
908.464211	2610.281735
908.770707	2597.666248
909.077163	2594.092070
909.383578	2592.688108
909.689954	2590.500247
909.996289	2585.363312
910.302584	2587.263827
910.608839	2583.296439
910.915054	2584.917170
911.221229	2589.060998
911.527363	2588.365319
911.833458	2588.161152
912.139513	2589.018148
912.445527	2590.790114
912.751502	2596.007708
913.057436	2601.265632
913.363331	2606.299224
913.669186	2616.933538
913.975000	2631.648666
914.280775	2645.408495
914.586510	2663.987668
914.892205	2697.337421
915.197859	2758.642893
915.503475	2836.261539
915.809050	2900.264028
916.114585	2911.034453
916.420081	2922.989549
916.725536	2933.056734
917.030952	2910.323650
917.336328	2867.065509
917.641665	2821.732933
917.946961	2770.953391
918.252218	2741.346694
918.557435	2718.142263
918.862612	2695.820034
919.167750	2679.353105
919.472848	2665.527740
919.777906	2650.721871
920.082925	2638.229892
920.387904	2629.612040
920.692843	2624.107100
920.997743	2622.579630
921.302603	2614.211315
921.607423	2606.939450
921.912204	2600.348142
922.216946	2597.643562
922.521647	2599.319746
922.826310	2591.957141
923.130932	2589.333220
923.435516	2586.147211
923.740059	2585.900195
924.044564	2580.952302
924.349028	2581.247210
924.653454	2573.083061
924.957840	2570.673389
925.262186	2568.135168
925.566493	2569.491239
925.870761	2564.351782
926.174989	2567.051320
926.479178	2564.379509
926.783328	2562.673078
927.087438	2562.098387
927.391509	2563.343552
927.695541	2560.359189
927.999533	2561.793397
928.303486	2558.902295
928.607400	2555.320555
928.911275	2554.662685
929.215110	2556.724517
929.518906	2556.401883
929.822663	2555.691080
930.126381	2556.550597
930.430060	2556.543035
930.733699	2555.433981
931.037299	2558.209137
931.340861	2558.332645
931.644383	2558.456153
931.947866	2557.458005
932.251309	2557.747871
932.554714	2557.584033
932.858080	2558.365412
933.161407	2554.090514
933.464694	2555.098745
933.767943	2557.193344
934.071153	2554.939948
934.374323	2552.895760
934.677455	2555.403734
934.980548	2555.159238
935.283602	2556.401883
935.586617	2553.654454
935.889593	2554.579506
936.192530	2554.531615
936.495428	2554.887016
936.798287	2557.062274
937.101108	2555.416337
937.403890	2562.196689
937.706632	2561.168294
938.009336	2566.753892
938.312002	2568.183059
938.614628	2570.665828
938.917216	2575.273442
939.219765	2575.827969
939.522275	2575.651529
939.824747	2575.865778
940.127179	2570.076013
940.429573	2565.843964
940.731929	2566.085939
941.034246	2565.438151
941.336524	2566.915209
941.638763	2564.981927
941.940964	2565.647359
942.243126	2564.757595
942.545250	2563.845147
942.847335	2560.008828
943.149381	2561.201061
943.451389	2562.098387
943.753359	2555.897768
944.055290	2557.694939
944.357182	2558.473797
944.659036	2556.601008
944.960851	2557.445402
945.262628	2556.112017
945.564367	2557.765515
945.866067	2557.263920
946.167729	2560.008828
946.469352	2557.122768
946.770937	2556.802655
947.072484	2554.098076
947.373992	2557.175700
947.675462	2557.110165
947.976893	2556.936245
948.278286	2555.597819
948.579641	2557.117727
948.880958	2555.547407
949.182236	2554.400545
949.483476	2554.410627
949.784678	2553.956923
950.085841	2554.143446
950.386967	2555.393652
950.688054	2552.494989
950.989103	2555.229815
951.290114	2555.943138
951.591087	2559.618139
951.892021	2559.265258
952.192917	2558.849363
952.493776	2559.842470
952.794596	2562.489076
953.095378	2562.047975
953.396122	2563.484704
953.696828	2560.066802
953.997496	2560.253324
954.298126	2557.866338
954.598718	2558.188972
954.899272	2553.702345
955.199788	2555.091183
955.500266	2553.442726
955.800706	2550.014741
956.101108	2546.070038
956.401472	2548.673794
956.701798	2545.389482
957.002087	2543.403268
957.302337	2546.816129
957.602550	2549.530790
957.902724	2545.576005
958.202861	2544.885367
958.502960	2545.502908
958.803022	2545.180274
959.103045	2544.807229
959.403031	2544.918134
959.702979	2546.213711
960.002889	2545.528114
960.302762	2543.617517
960.602596	2541.875798
960.902393	2543.703216
961.202153	2544.076262
961.501875	2542.372352
961.801559	2540.436549
962.101205	2541.641384
962.400814	2543.330171
962.700385	2542.720191
962.999918	2541.991745
963.299414	2540.275232
963.598873	2544.784544
963.898293	2540.930582
964.197677	2542.755479
964.497022	2539.209028
964.796331	2542.763041
965.095601	2536.602751
965.394835	2540.769265
965.694030	2541.107022
965.993189	2540.575180
966.292309	2541.507794
966.591393	2543.206663
966.890439	2540.444110
967.189447	2541.147351
967.488419	2541.880839
967.787353	2542.768082
968.086249	2538.374717
968.385108	2543.635161
968.683930	2541.981662
968.982714	2541.482588
969.281462	2541.785057
969.580172	2541.832948
969.878844	2543.458720
970.177480	2542.962167
970.476078	2540.174409
970.774639	2545.011396
971.073162	2539.309851
971.371649	2538.853626
971.670098	2538.268853
971.968510	2539.226672
972.266885	2538.258770
972.565223	2541.699358
972.863524	2539.367824
973.161788	2543.909904
973.460014	2540.998637
973.758204	2546.017106
974.056356	2544.129194
974.354471	2542.783206
974.652550	2541.855633
974.950591	2543.584749
975.248595	2541.094419
975.546563	2541.197763
975.844493	2538.936805
976.142386	2541.994265
976.440243	2543.080634
976.738062	2542.689944
977.035845	2542.470654
977.333590	2539.793802
977.631299	2539.478729
977.928971	2540.933102
978.226606	2542.135418
978.524204	2539.226672
978.821765	2538.145344
979.119290	2541.611137
979.416777	2537.999151
979.714228	2542.067362
980.011642	2540.252547
980.309020	2541.164995
980.606360	2538.399923
980.903664	2540.650798
981.200931	2541.056611
981.498162	2542.102650
981.795356	2542.994934
982.092513	2545.966694
982.389633	2549.124977
982.686717	2551.002807
982.983764	2551.456511
983.280775	2557.077398
983.577749	2555.887685
983.874686	2551.025492
984.171587	2549.084648
984.468451	2552.956254
984.765279	2547.962991
985.062070	2545.102137
985.358824	2546.664894
985.655543	2543.494008
985.952224	2543.118443
986.248869	2540.998637
986.545478	2536.973276
986.842050	2539.380427
987.138586	2534.019160
987.435086	2539.224151
987.731549	2536.096115
988.027975	2538.520910
988.324366	2539.451003
988.620719	2539.496373
988.917037	2541.109543
989.213318	2538.546116
989.509563	2539.037628
989.805772	2539.287166
990.101944	2538.175591
990.398080	2538.687268
990.694180	2535.254243
990.990244	2541.878319
991.286271	2536.983358
991.582262	2539.264480
991.878217	2537.333718
992.174136	2538.031918
992.470019	2535.531506
992.765865	2538.261291
993.061676	2537.437062
993.357450	2537.744573
993.653188	2538.016795
993.948890	2538.127700
994.244556	2536.811959
994.540186	2540.635674
994.835780	2538.674665
995.131337	2542.861344
995.426859	2538.410005
995.722345	2539.393030
996.017795	2543.902342
996.313208	2543.995603
996.608586	2541.817825
996.903928	2540.169368
997.199234	2542.516025
997.494504	2545.326468
997.789738	2539.314892
998.084936	2542.715150
998.380099	2539.917310
998.675225	2542.238761
998.970316	2538.793133
999.265371	2540.575180
999.560390	2536.456558
999.855373	2540.267670
1000.150320	2537.305992
1000.445232	2537.782381
1000.740108	2537.651311
1001.034948	2537.391692
1001.329752	2537.341280
1001.624521	2538.029398
1001.919254	2534.664427
1002.213951	2533.136958
1002.508613	2534.467822
1002.803239	2534.893800
1003.097829	2531.491021
1003.392384	2534.523275
1003.686903	2537.653832
1003.981386	2540.000489
1004.275834	2536.116280
1004.570246	2538.818338
1004.864623	2536.320447
1005.158964	2537.162319
1005.453270	2538.069727
1005.747540	2536.519572
1006.041775	2537.651311
1006.335974	2538.631816
1006.630138	2534.084695
1006.924266	2535.392874
1007.218359	2534.929088
1007.512416	2538.558719
1007.806438	2537.064017
1008.100425	2535.972607
1008.394376	2535.362627
1008.688292	2538.155427
1008.982172	2537.568132
1009.276017	2536.625436
1009.569827	2536.267514
1009.863602	2537.978986
1010.157341	2537.200128
1010.451045	2536.275076
1010.744714	2538.740200
1011.038347	2536.612833
1011.331945	2534.868594
1011.625508	2538.702392
1011.919036	2537.346321
1012.212528	2536.514531
1012.505986	2535.680220
1012.799408	2535.012267
1013.092795	2535.039993
1013.386147	2534.601413
1013.679464	2535.839016
1013.972745	2536.338091
1014.265992	2538.087371
1014.559204	2538.473019
1014.852380	2534.782895
1015.145521	2538.384799
1015.438628	2535.723070
1015.731699	2538.510828
1016.024736	2534.997144
1016.317737	2536.469161
1016.610703	2534.309026
1016.903635	2534.528316
1017.196531	2529.449354
1017.489393	2535.738193
1017.782219	2530.755013
1018.075011	2533.328522
1018.367768	2534.125024
1018.660490	2535.652494
1018.953177	2535.652494
1019.245829	2535.652494
