Dividing Wavelength (nm)	Counts (n)	Blue Motor Position (mm): 5.300000	Red Motor Position (mm): 0.000000	
326.493990	2159.340441
326.888308	2159.340441
327.282561	2159.340441
327.676750	2119.696808
328.070874	2116.291508
328.464933	2113.733123
328.858929	2121.236880
329.252859	2122.988681
329.646726	2132.461009
330.040528	2144.564819
330.434265	2158.710297
330.827938	2177.223935
331.221547	2194.764629
331.615091	2210.135108
332.008571	2227.572459
332.401986	2247.742115
332.795338	2267.142996
333.188625	2286.236366
333.581847	2303.562812
333.975006	2321.232056
334.368100	2341.449603
334.761129	2354.657427
335.154095	2372.303986
335.546996	2392.082953
335.939833	2407.100550
336.332606	2417.455080
336.725315	2436.132555
337.117960	2447.084462
337.510540	2458.532922
337.903056	2469.426856
338.295508	2478.412712
338.687896	2487.111223
339.080220	2496.444920
339.472480	2505.365241
339.864676	2504.450272
340.256807	2511.160048
340.648875	2513.829339
341.040879	2517.975688
341.432818	2520.428209
341.824694	2522.709331
342.216506	2526.359127
342.608253	2524.748478
342.999937	2525.232429
343.391557	2525.751667
343.783113	2529.378778
344.174605	2523.707480
344.566033	2525.003056
344.957397	2524.390556
345.348697	2520.410565
345.739934	2519.314114
346.131106	2518.033661
346.522215	2518.230266
346.913260	2515.034174
347.304241	2511.810357
347.695159	2512.957219
348.086012	2512.024606
348.476802	2507.139728
348.867528	2502.151506
349.258191	2501.521362
349.648789	2500.306443
350.039324	2495.056082
350.429796	2498.100939
350.820203	2499.273007
351.210548	2495.381236
351.600828	2497.354848
351.991045	2496.689416
352.381198	2493.851246
352.771288	2494.052892
353.161314	2492.031389
353.551276	2495.051041
353.941175	2493.314363
354.331010	2491.139105
354.720782	2489.654485
355.110490	2494.567090
355.500135	2488.716831
355.889717	2491.890237
356.279235	2492.996770
356.668689	2491.786893
357.058080	2491.063488
357.447408	2491.209681
357.836672	2490.937459
358.225873	2493.337048
358.615010	2492.792604
359.004084	2494.002481
359.393095	2493.712614
359.782043	2496.155053
360.170927	2495.724035
360.559748	2496.155053
360.948505	2497.430465
361.337199	2494.337717
361.725830	2497.145640
362.114398	2496.878459
362.502903	2499.663696
362.891344	2498.022801
363.279722	2500.243429
363.668037	2498.111021
364.056289	2503.575632
364.444478	2499.572956
364.832603	2500.445075
365.220665	2502.383399
365.608665	2500.845847
365.996601	2502.612771
366.384474	2502.189314
366.772284	2501.919613
367.160031	2503.396671
367.547715	2505.100581
367.935336	2504.246105
368.322893	2502.358193
368.710388	2498.005157
369.097820	2501.256701
369.485189	2498.491628
369.872495	2505.181239
370.259738	2504.951867
370.646918	2505.264418
371.034035	2506.474295
371.421090	2506.970849
371.808081	2506.297855
372.195010	2508.160561
372.581875	2506.680982
372.968678	2508.392454
373.355418	2510.071158
373.742096	2507.578308
374.128710	2508.687362
374.515262	2506.068482
374.901751	2507.043946
375.288177	2509.400685
375.674540	2507.321209
376.060841	2509.206601
376.447079	2509.574605
376.833254	2510.655932
377.219367	2509.569564
377.605417	2509.582167
377.991404	2511.044101
378.377329	2509.655263
378.763191	2512.001920
379.148991	2510.527383
379.534727	2508.460510
379.920402	2510.688700
380.306013	2511.049142
380.691563	2512.987466
381.077049	2512.624503
381.462474	2512.251457
381.847835	2510.292969
382.233134	2510.978566
382.618371	2513.385717
383.003545	2512.334637
383.388657	2513.131139
383.773706	2511.676766
384.158693	2512.816067
384.543618	2515.964267
384.928480	2516.521315
385.313280	2513.022754
385.698017	2514.850172
386.082692	2515.558454
386.467305	2514.366222
386.851856	2515.535769
387.236344	2514.693897
387.620770	2514.262878
388.005133	2509.380520
388.389435	2513.027795
388.773674	2508.420181
389.157851	2516.498630
389.541965	2517.002745
389.926018	2517.418640
390.310008	2517.428722
390.693936	2518.114319
391.077802	2519.382170
391.461606	2519.649351
391.845348	2516.312107
392.229027	2516.468383
392.612645	2518.653723
392.996200	2516.760770
393.379694	2518.666326
393.763125	2519.624145
394.146494	2518.494927
394.529801	2519.598939
394.913047	2517.902591
395.296230	2519.664474
395.679351	2518.275636
396.062410	2518.749505
396.445408	2520.919722
396.828343	2521.491893
397.211217	2518.656243
397.594028	2522.321162
397.976778	2522.323683
398.359466	2520.677746
398.742092	2520.468538
399.124656	2520.720596
399.507158	2521.764115
399.889598	2523.029444
400.271977	2520.191275
400.654294	2523.500792
401.036549	2519.893847
401.418742	2522.890813
401.800874	2522.618590
402.182944	2520.276974
402.564952	2524.393077
402.946898	2524.700587
403.328783	2522.721934
403.710606	2523.183200
404.092367	2524.289733
404.474067	2524.856863
404.855705	2524.957686
405.237282	2522.311080
405.618797	2524.330062
406.000250	2523.551204
406.381642	2526.258303
406.762972	2519.543487
407.144240	2521.653209
407.525447	2521.882582
407.906593	2519.702283
408.287677	2525.779394
408.668700	2523.783097
409.049661	2524.123375
409.430560	2524.226718
409.811399	2526.775022
410.192176	2527.130423
410.572891	2525.809641
410.953545	2527.321987
411.334138	2527.054806
411.714669	2526.414579
412.095139	2527.957172
412.475547	2526.225536
412.855894	2528.166380
413.236180	2528.834333
413.616405	2525.161853
413.996568	2528.413397
414.376670	2528.788963
414.756711	2525.497089
415.136691	2527.173273
415.516609	2526.694363
415.896466	2527.069929
416.276262	2528.272244
416.655997	2530.893644
417.035670	2528.153777
417.415283	2531.279293
417.794834	2527.442975
418.174324	2529.149405
418.553753	2528.287368
418.933121	2529.146885
419.312428	2530.737369
419.691674	2528.794004
420.070859	2527.821061
420.449983	2531.274252
420.829045	2532.295085
421.208047	2529.562780
421.586988	2528.718387
421.965867	2533.230219
422.344686	2530.467667
422.723444	2530.760054
423.102141	2532.078316
423.480777	2533.739376
423.859352	2531.337266
424.237866	2531.692667
424.616319	2531.264169
424.994712	2530.185362
425.373044	2530.961700
425.751314	2530.485311
426.129524	2527.107738
426.507673	2529.895496
426.885762	2525.484486
427.263789	2532.867256
427.641756	2531.491021
428.019662	2533.383974
428.397508	2534.051927
428.775292	2531.639735
429.153016	2530.288706
429.530679	2530.581093
429.908282	2532.892462
430.285824	2532.955476
430.663305	2533.792308
431.040726	2534.107380
431.418086	2533.550332
431.795385	2537.484953
432.172624	2536.111239
432.549802	2533.741896
432.926920	2533.920857
433.303977	2533.414221
433.680974	2533.835158
434.057910	2534.019160
434.434786	2533.610826
434.811601	2535.652494
435.188355	2533.583100
435.565050	2532.486649
435.941683	2534.891279
436.318257	2537.051414
436.694770	2535.478574
437.071222	2531.533871
437.447614	2532.342976
437.823946	2535.299613
438.200218	2533.993954
438.576429	2537.177443
438.952580	2534.268697
439.328670	2534.339273
439.704700	2535.342463
440.080670	2534.906403
440.456580	2535.586959
440.832429	2539.037628
441.208218	2534.803059
441.583947	2536.708615
441.959616	2536.499408
442.335224	2537.013605
442.710773	2538.195756
443.086261	2537.210210
443.461689	2535.445806
443.837057	2534.339273
444.212365	2537.162319
444.587612	2533.043697
444.962800	2531.922040
445.337927	2536.058307
445.712995	2530.316432
446.088002	2537.386651
446.462949	2536.522093
446.837837	2537.802546
447.212664	2539.650129
447.587431	2536.978317
447.962139	2536.688451
448.336786	2539.574511
448.711374	2537.316074
449.085901	2539.380427
449.460369	2539.241795
449.834776	2542.377393
450.209124	2536.796836
450.583412	2539.488812
450.957640	2535.962525
451.331808	2539.793802
451.705917	2540.988555
452.079965	2535.125693
452.453954	2540.860006
452.827883	2537.154758
453.201752	2537.542926
453.575562	2539.304810
453.949311	2538.911600
454.323001	2539.420756
454.696632	2538.694830
455.070202	2536.290200
455.443713	2540.726415
455.817164	2539.549306
456.190556	2538.765406
456.563888	2539.476209
456.937160	2537.232895
457.310373	2536.622916
457.683526	2539.516538
458.056619	2537.570653
458.429653	2540.033256
458.802628	2540.307999
459.175542	2539.831610
459.548398	2539.982845
459.921194	2542.175747
460.293930	2540.983514
460.666607	2539.861857
461.039224	2540.431507
461.411782	2540.204656
461.784280	2542.251364
462.156719	2542.437887
462.529099	2540.728936
462.901419	2541.341436
463.273680	2538.946888
463.645882	2537.656352
464.018024	2537.951260
464.390106	2536.572504
464.762130	2539.274563
465.134094	2541.802701
465.505999	2540.857485
465.877845	2541.956457
466.249631	2540.625592
466.621358	2541.585932
466.993026	2541.401930
467.364634	2544.776982
467.736184	2540.706250
468.107674	2541.233051
468.479105	2542.548792
468.850477	2542.758000
469.221790	2541.391847
469.593043	2543.007537
469.964238	2543.211704
470.335373	2546.422919
470.706449	2541.820345
471.077467	2541.999306
471.448425	2542.503422
471.819324	2541.762372
472.190164	2541.601055
472.560945	2541.548123
472.931667	2542.974770
473.302330	2543.826725
473.672934	2542.652136
474.043479	2540.807073
474.413965	2543.834286
474.784393	2542.992414
475.154761	2542.737835
475.525070	2541.308668
475.895321	2542.962167
476.265513	2543.118443
476.635645	2542.274049
477.005719	2543.811601
477.375734	2543.380582
477.745691	2540.479398
478.115588	2545.586087
478.485427	2542.878988
478.855207	2540.865047
479.224928	2545.104657
479.594591	2542.579039
479.964194	2544.333361
480.333739	2541.316230
480.703226	2542.664739
481.072653	2546.455686
481.442022	2542.276570
481.811333	2539.289686
482.180584	2541.028884
482.549777	2541.994265
482.918912	2538.772968
483.287988	2542.621889
483.657005	2542.460572
484.025964	2547.421067
484.394864	2543.239430
484.763706	2545.265974
485.132489	2543.657846
485.501213	2542.485778
485.869879	2544.991231
486.238487	2542.858823
486.607036	2545.714637
486.975527	2542.442928
487.343959	2546.480892
487.712333	2544.393854
488.080648	2544.678680
488.448905	2543.047866
488.817104	2547.073228
489.185244	2544.759338
489.553326	2544.449307
489.921350	2547.121119
490.289315	2543.894780
490.657222	2543.957795
491.025070	2544.333361
491.392861	2544.088865
491.760593	2543.183978
492.128267	2545.946530
492.495883	2545.321427
492.863440	2544.913093
493.230939	2543.370500
493.598380	2546.697662
493.965763	2547.766386
494.333088	2544.751776
494.700354	2545.709596
495.067563	2546.193546
495.434713	2543.310006
495.801805	2548.494833
496.168839	2544.091385
496.535815	2545.928886
496.902733	2546.400234
497.269593	2546.584236
497.636395	2547.804195
498.003139	2544.398896
498.369825	2547.620193
498.736453	2542.926879
499.103023	2544.633309
499.469535	2546.853938
499.835989	2546.879143
500.202385	2544.572815
500.568723	2540.018133
500.935003	2543.236910
501.301226	2539.612320
501.667390	2542.440407
502.033497	2546.352343
502.399546	2543.005017
502.765537	2545.480223
503.131470	2545.349153
503.497345	2547.395862
503.863163	2544.771941
504.228923	2545.419729
504.594625	2545.719678
504.960269	2545.321427
505.325856	2544.751776
505.691385	2547.773948
506.056856	2545.908721
506.422270	2545.190357
506.787625	2546.077600
507.152924	2544.010727
507.518164	2546.301931
507.883347	2548.192364
508.248472	2546.775800
508.613540	2546.090203
508.978550	2547.539534
509.343503	2546.871582
509.708398	2545.346632
510.073236	2546.740512
510.438016	2548.857796
510.802738	2546.372507
511.167403	2546.649771
511.532010	2545.762528
511.896561	2550.816284
512.261053	2546.564071
512.625488	2544.625748
512.989866	2546.039791
513.354186	2546.748073
513.718449	2546.702703
514.082655	2548.935934
514.446803	2547.431150
514.810894	2548.643547
515.174927	2546.576674
515.538904	2547.766386
515.902822	2544.287990
516.266684	2548.799823
516.630488	2545.339071
516.994235	2548.583053
517.357925	2545.505429
517.721558	2548.245296
518.085133	2547.141283
518.448651	2544.098947
518.812112	2543.723381
519.175516	2543.902342
519.538863	2541.028884
519.902152	2548.038609
520.265385	2546.750594
520.628560	2547.136242
520.991678	2548.673794
521.354739	2547.383259
521.717743	2545.696993
522.080690	2546.143135
522.443580	2547.736139
522.806413	2547.668084
523.169189	2548.782179
523.531908	2547.584905
523.894569	2546.034750
524.257174	2547.834442
524.619722	2548.769576
524.982213	2549.563558
525.344647	2545.966694
525.707025	2550.518856
526.069345	2546.730429
526.431608	2547.421067
526.793815	2546.901828
527.155964	2547.615152
527.518057	2548.898125
527.880093	2548.716644
528.242072	2544.724050
528.603995	2547.635316
528.965860	2546.942158
529.327669	2549.303938
529.689421	2547.962991
530.051117	2547.980635
530.412755	2548.802343
530.774337	2548.560368
531.135862	2548.325954
531.497331	2548.731767
531.858743	2551.217056
532.220098	2551.948023
532.581396	2548.303269
532.942638	2551.262427
533.303824	2547.277394
533.664953	2551.106151
534.026025	2548.288146
534.387040	2549.888712
534.747999	2549.671942
535.108902	2549.359391
535.469748	2549.014072
535.830537	2547.264792
536.191270	2548.154555
536.551947	2544.943340
536.912567	2547.224462
537.273131	2544.731612
537.633638	2544.653474
537.994089	2547.436191
538.354483	2547.544576
538.714821	2546.395192
539.075103	2546.178423
539.435328	2550.249155
539.795497	2547.456355
540.155609	2547.675646
540.515665	2549.402241
540.875665	2551.317879
541.235609	2547.912580
541.595496	2550.964998
541.955328	2550.637323
542.315102	2545.248330
542.674821	2549.959288
543.034483	2551.093548
543.394090	2549.903836
543.753640	2547.625234
544.113134	2548.242775
544.472571	2548.638506
544.831953	2547.930224
545.191278	2552.144628
545.550548	2549.535831
545.909761	2550.102961
546.268918	2549.931562
546.628019	2548.139432
546.987064	2552.227808
547.346053	2550.589432
547.704986	2550.564227
548.063863	2548.696479
548.422684	2546.463248
548.781449	2548.736808
549.140158	2548.081458
549.498811	2551.358208
549.857408	2549.437529
550.215949	2551.184289
550.574434	2549.142621
550.932864	2550.382745
551.291237	2550.528939
551.649555	2549.009031
552.007817	2548.699000
552.366022	2548.918290
552.724173	2549.283774
553.082267	2548.777138
553.440305	2552.381563
553.798288	2551.257385
554.156215	2549.820657
554.514086	2549.533311
554.871902	2544.897970
555.229661	2547.862168
555.587365	2544.214893
555.945014	2548.220090
556.302606	2547.549617
556.660143	2551.522046
557.017625	2547.456355
557.375050	2548.903167
557.732421	2549.649257
558.089735	2548.351160
558.446994	2551.300235
558.804197	2554.093034
559.161345	2547.743701
559.518437	2547.569781
559.875474	2547.456355
560.232455	2549.858465
560.589381	2547.771427
560.946251	2547.902497
561.303065	2549.261088
561.659825	2550.876778
562.016528	2549.054401
562.373177	2549.326623
562.729770	2550.024823
563.086307	2549.853424
563.442789	2550.964998
563.799216	2550.954916
564.155587	2549.422405
564.511904	2548.764535
564.868164	2547.161448
565.224370	2547.484082
565.580520	2551.143959
565.936615	2547.887374
566.292654	2551.038095
566.648638	2549.122457
567.004567	2547.025337
567.360441	2548.313352
567.716260	2549.772766
568.072023	2549.666901
568.427732	2549.014072
568.783385	2549.283774
569.138982	2549.102292
569.494525	2548.207487
569.850013	2551.723692
570.205445	2550.954916
570.560823	2550.909546
570.916145	2549.964329
571.271412	2550.622200
571.626625	2549.646737
571.981782	2547.650440
572.336884	2550.130688
572.691931	2547.831921
573.046923	2548.653629
573.401860	2543.151210
573.756743	2548.797302
574.111570	2552.048847
574.466342	2549.492982
574.821059	2551.549772
575.175722	2551.118754
575.530330	2551.645554
575.884882	2549.447611
576.239380	2549.482899
576.593823	2552.386604
576.948211	2549.346788
577.302544	2549.795451
577.656823	2550.687735
578.011047	2549.712272
578.365216	2550.037426
578.719330	2550.844011
579.073389	2551.821995
579.427394	2552.585729
579.781344	2550.818805
580.135239	2549.172868
580.489080	2551.509443
580.842866	2548.489792
581.196597	2552.005997
581.550273	2551.154042
581.903895	2552.908363
582.257463	2549.860986
582.610975	2548.449463
582.964434	2551.053219
583.317837	2549.860986
583.671186	2550.415513
584.024481	2549.364432
584.377721	2550.748229
584.730906	2548.746891
585.084037	2550.239072
585.437113	2550.667570
585.790135	2549.329144
586.143103	2551.660678
586.496016	2552.719320
586.848874	2549.697148
587.201679	2552.868034
587.554428	2551.242262
587.907124	2551.592622
588.259765	2550.201264
588.612352	2550.329813
588.964884	2551.610266
589.317362	2550.559186
589.669786	2551.280071
590.022155	2547.166489
590.374470	2545.457538
590.726731	2548.273022
591.078937	2547.970553
591.431090	2551.358208
591.783188	2551.388455
592.135232	2551.312838
592.487222	2550.591953
592.839157	2551.264947
593.191038	2551.776624
593.542866	2549.888712
593.894639	2549.790410
594.246358	2551.932900
594.598022	2549.684545
594.949633	2547.559699
595.301190	2549.296377
595.652692	2549.089689
596.004141	2551.292673
596.355535	2550.879299
596.706876	2549.394679
597.058162	2551.680842
597.409395	2550.418033
597.760573	2552.222766
598.111698	2548.197405
598.462768	2548.688918
598.813785	2548.023485
599.164748	2550.927190
599.515657	2552.764690
599.866511	2550.869217
600.217312	2547.809236
600.568060	2550.412992
600.918753	2550.899463
601.269392	2551.466593
601.619978	2551.229659
601.970510	2551.091027
602.320988	2549.475337
602.671412	2550.559186
603.021783	2550.773435
603.372100	2553.006666
603.722363	2549.243444
604.072572	2549.089689
604.422728	2546.808567
604.772830	2553.687222
605.122878	2548.583053
605.472872	2551.206974
605.822813	2546.932075
606.172701	2550.536500
606.522534	2553.253682
606.872314	2550.927190
607.222041	2552.873075
607.571714	2548.487271
607.921333	2547.206818
608.270899	2550.332334
608.620411	2548.419216
608.969870	2553.009186
609.319276	2554.065308
609.668627	2558.748540
610.017926	2561.596792
610.367171	2565.261711
610.716362	2565.967472
611.065500	2561.155691
611.414585	2559.570248
611.763616	2557.170659
612.112594	2555.247459
612.461518	2553.316697
612.810389	2554.798796
613.159207	2552.787376
613.507971	2554.549259
613.856682	2553.866182
614.205340	2554.387942
614.553945	2551.582540
614.902496	2553.089845
615.250994	2552.409289
615.599439	2548.585574
615.947830	2550.838970
616.296169	2552.242931
616.644454	2548.681356
616.992686	2552.303425
617.340864	2550.395348
617.688990	2550.387786
618.037063	2551.796789
618.385082	2547.320244
618.733048	2550.786038
619.080961	2551.549772
619.428821	2549.523228
619.776628	2550.228990
620.124382	2553.558672
620.472083	2551.396017
620.819731	2550.405430
621.167326	2549.913918
621.514868	2553.248641
621.862357	2550.029864
622.209793	2552.908363
622.557176	2553.173024
622.904506	2551.159083
623.251783	2549.258568
623.599007	2549.278732
623.946179	2551.716130
624.293297	2553.848538
624.640363	2548.416695
624.987376	2547.453835
625.334336	2550.821326
625.681243	2547.262271
626.028097	2547.557178
626.374899	2549.850903
626.721647	2552.310987
627.068343	2548.822508
627.414987	2550.206305
627.761577	2549.833259
628.108115	2548.260419
628.454600	2549.694628
628.801032	2549.150183
629.147412	2550.649926
629.493739	2550.322251
629.840014	2552.467262
630.186236	2551.524567
630.532405	2553.535987
630.878521	2551.282591
631.224585	2554.254351
631.570597	2551.179248
631.916556	2551.940462
632.262462	2548.106664
632.608316	2549.752601
632.954117	2548.462066
633.299866	2549.931562
633.645562	2551.229659
633.991206	2552.419371
634.336797	2549.414844
634.682336	2548.736808
635.027823	2551.295194
635.373257	2547.761345
635.718639	2548.895605
636.063968	2550.256716
636.409245	2550.660009
636.754470	2548.898125
637.099642	2549.117416
637.444762	2549.659340
637.789829	2551.249824
638.134845	2547.504246
638.479808	2547.799154
638.824719	2550.569268
639.169577	2548.925852
639.514383	2549.692107
639.859137	2549.747560
640.203839	2549.739998
640.548489	2552.008517
640.893086	2551.242262
641.237632	2549.921480
641.582125	2548.696479
641.926566	2551.481717
642.270955	2545.044163
642.615292	2547.476520
642.959576	2547.698331
643.303809	2543.587270
643.647990	2551.837118
643.992118	2548.318393
644.336195	2548.572971
644.680219	2549.371994
645.024192	2552.021120
645.368112	2550.856614
645.711981	2552.452139
646.055797	2551.287632
646.399562	2550.844011
646.743274	2551.615307
647.086935	2550.901984
647.430544	2547.521890
647.774101	2549.450132
648.117606	2548.981304
648.461059	2549.087169
648.804460	2552.200081
649.147810	2547.703372
649.491108	2547.600028
649.834354	2547.655481
650.177548	2547.915100
650.520690	2550.171017
650.863781	2549.876109
651.206820	2551.574978
651.549807	2550.324772
651.892742	2549.528270
652.235626	2549.613969
652.578458	2546.601880
652.921238	2548.106664
653.263967	2550.264278
653.606644	2550.140770
653.949269	2551.446429
654.291843	2548.701520
654.634365	2550.846531
654.976836	2546.377548
655.319255	2550.181099
655.661622	2550.309648
656.003938	2550.100441
656.346203	2549.067004
656.688416	2551.370811
657.030577	2547.466438
657.372687	2549.989535
657.714746	2549.135060
658.056753	2547.552137
658.398708	2550.634803
658.740612	2550.939793
659.082465	2549.102292
659.424266	2546.342260
659.766016	2545.671787
660.107715	2547.363094
660.449362	2546.493495
660.790958	2549.392158
661.132503	2547.330327
661.473996	2551.844680
661.815438	2546.553989
662.156829	2550.249155
662.498168	2549.460214
662.839456	2549.535831
663.180693	2549.727395
663.521879	2551.436346
663.863013	2549.684545
664.204097	2549.702189
664.545129	2549.339226
664.886110	2551.655637
665.227040	2549.193033
665.567918	2550.496171
665.908746	2549.387117
666.249522	2546.790923
666.590248	2547.610111
666.930922	2551.769063
667.271545	2548.751932
667.612118	2550.395348
667.952639	2548.091541
668.293109	2549.276212
668.633528	2549.344267
668.973896	2549.606407
669.314213	2549.467776
669.654480	2549.513146
669.994695	2549.800492
670.334859	2552.005997
670.674973	2551.688404
671.015035	2549.860986
671.355047	2546.390151
671.695008	2548.167158
672.034918	2550.375183
672.374777	2547.642878
672.714585	2548.711603
673.054342	2548.391489
673.394049	2549.392158
673.733705	2550.412992
674.073310	2548.900646
674.412864	2549.838301
674.752368	2548.434339
675.091820	2548.139432
675.431223	2547.468958
675.770574	2550.108002
676.109875	2547.358053
676.449125	2546.652291
676.788324	2547.627755
677.127473	2548.472148
677.466571	2545.538196
677.805619	2550.473486
678.144616	2549.772766
678.483562	2550.203784
678.822458	2548.731767
679.161303	2547.826880
679.500098	2550.097920
679.838842	2548.860317
680.177535	2551.267468
680.516179	2551.305276
680.854771	2548.247817
681.193314	2547.897456
681.531805	2550.027344
681.870247	2547.347971
682.208638	2548.633465
682.546978	2550.108002
682.885268	2550.087838
683.223508	2549.427447
683.561697	2545.969215
683.899836	2549.664381
684.237925	2547.340409
684.575963	2549.981973
684.913951	2549.331665
685.251889	2551.325441
685.589776	2548.116747
685.927614	2547.690769
686.265401	2548.285625
686.603137	2551.549772
686.940824	2549.785368
687.278460	2550.518856
687.616046	2549.888712
687.953582	2549.092210
688.291068	2550.720502
688.628504	2548.880481
688.965889	2548.532642
689.303224	2549.480379
689.640510	2550.355019
689.977745	2548.499874
690.314930	2547.705892
690.652065	2550.362581
690.989150	2548.691438
691.326185	2548.353681
691.663170	2549.871068
692.000105	2551.075904
692.336990	2547.955430
692.673825	2552.288301
693.010610	2545.903680
693.347345	2544.958464
693.684030	2541.689275
694.020665	2545.843186
694.357251	2543.042825
694.693786	2547.113557
695.030272	2547.292518
695.366707	2547.433670
695.703093	2548.711603
696.039429	2550.294525
696.375716	2547.849565
696.711952	2548.217570
697.048139	2547.519370
697.384276	2549.752601
697.720363	2547.849565
698.056400	2548.068856
698.392388	2547.526932
698.728326	2548.104144
699.064214	2548.951058
699.400053	2547.511808
699.735842	2549.558517
700.071581	2548.431819
700.407270	2548.535162
700.742910	2551.456511
701.078501	2549.092210
701.414042	2546.090203
701.749533	2549.447611
702.084974	2547.360573
702.420366	2546.889226
702.755709	2545.989380
703.091002	2548.807385
703.426246	2548.930893
703.761440	2546.052394
704.096584	2547.713454
704.431679	2549.646737
704.766725	2549.203115
705.101721	2552.043805
705.436668	2549.523228
705.771565	2547.035419
706.106413	2549.233362
706.441212	2547.925183
706.775961	2548.772097
707.110661	2551.053219
707.445311	2551.070863
707.779913	2548.913249
708.114465	2550.730585
708.448967	2546.649771
708.783421	2550.319731
709.117825	2547.816798
709.452180	2550.044988
709.786485	2547.726057
710.120742	2546.780841
710.454949	2545.591128
710.789107	2544.628268
711.123216	2546.001982
711.457275	2547.844524
711.791286	2546.730429
712.125247	2553.193188
712.459159	2546.185985
712.793023	2545.533155
713.126837	2548.378887
713.460602	2549.384597
713.794318	2548.298228
714.127985	2548.749411
714.461602	2547.975594
714.795171	2548.772097
715.128691	2546.468289
715.462162	2549.467776
715.795584	2547.279915
716.128957	2550.773435
716.462281	2549.896274
716.795556	2551.224618
717.128782	2549.107333
717.461960	2549.182951
717.795088	2550.150852
718.128167	2550.463404
718.461198	2548.578012
718.794180	2547.930224
719.127113	2546.236396
719.459997	2548.699000
719.792833	2549.437529
720.125619	2547.852086
720.458357	2547.879812
720.791046	2550.453321
721.123686	2546.879143
721.456278	2549.555996
721.788821	2546.354863
722.121315	2545.596170
722.453761	2548.542724
722.786158	2547.925183
723.118506	2548.585574
723.450805	2547.350491
723.783056	2549.860986
724.115259	2548.961140
724.447412	2548.255378
724.779518	2546.838814
725.111574	2548.368804
725.443582	2548.988866
725.775542	2549.356870
726.107453	2548.734288
726.439315	2545.407126
726.771129	2549.724875
727.102895	2543.932589
727.434612	2547.257230
727.766281	2543.950233
728.097901	2550.488609
728.429473	2548.847714
728.760996	2547.534493
729.092471	2547.068187
729.423897	2547.186654
729.755276	2546.433001
730.086606	2548.144473
730.417887	2548.283105
730.749120	2549.949206
731.080305	2547.602549
731.411442	2549.964329
731.742530	2546.879143
732.073570	2549.293856
732.404562	2549.051881
732.735506	2547.968032
733.066401	2548.441901
733.397249	2547.625234
733.728048	2549.198074
734.058798	2549.442570
734.389501	2549.036757
734.720156	2547.305121
735.050762	2548.058773
735.381320	2548.250337
735.711831	2546.798485
736.042293	2550.460883
736.372707	2547.095913
736.703073	2547.151366
737.033391	2549.803013
737.363661	2547.443753
737.693883	2549.601366
738.024056	2548.704041
738.354182	2548.325954
738.684260	2548.038609
739.014290	2547.310162
739.344272	2549.379556
739.674207	2546.377548
740.004093	2548.666232
740.333931	2546.417878
740.663722	2549.145142
740.993464	2549.790410
741.323159	2549.944165
741.652806	2547.405944
741.982405	2547.216901
742.311956	2547.408464
742.641460	2550.909546
742.970915	2549.460214
743.300323	2546.536345
743.629683	2543.307486
743.958996	2546.543907
744.288260	2544.832435
744.617477	2546.649771
744.946647	2548.938455
745.275768	2549.538352
745.604842	2549.613969
745.933869	2548.444422
746.262847	2548.431819
746.591778	2547.002652
746.920662	2546.702703
747.249498	2548.671273
747.578286	2545.664225
747.907027	2548.227652
748.235720	2549.175389
748.564365	2549.303938
748.892963	2547.204298
749.221514	2547.564740
749.550017	2549.240924
749.878473	2548.116747
750.206881	2548.046170
750.535242	2549.613969
750.863555	2543.957795
751.191821	2548.779658
751.520039	2544.270346
751.848210	2550.309648
752.176334	2546.559030
752.504411	2549.193033
752.832440	2547.809236
753.160421	2551.529608
753.488356	2549.011551
753.816243	2550.783517
754.144082	2550.171017
754.471875	2546.233876
754.799620	2545.492826
755.127318	2549.228321
755.454969	2547.002652
755.782572	2548.419216
756.110129	2546.312013
756.437638	2549.157745
756.765100	2546.743032
757.092515	2547.955430
757.419882	2545.528114
757.747203	2548.046170
758.074477	2545.954092
758.401703	2552.404248
758.728882	2543.756148
759.056014	2551.136398
759.383099	2548.139432
759.710138	2546.591797
760.037129	2543.060469
760.364073	2544.028371
760.690970	2542.964687
761.017820	2548.227652
761.344623	2547.494164
761.671379	2550.712941
761.998088	2547.221942
762.324751	2547.259750
762.651366	2549.389638
762.977935	2548.628424
763.304456	2552.621018
763.630931	2553.099927
763.957359	2551.562375
764.283740	2550.677653
764.610074	2551.393497
764.936362	2549.722354
765.262602	2550.223949
765.588796	2549.724875
765.914943	2551.917777
766.241044	2549.442570
766.567097	2548.903167
766.893104	2546.939637
767.219064	2547.158927
767.544978	2549.253527
767.870845	2551.118754
768.196665	2549.921480
768.522438	2546.949719
768.848165	2548.499874
769.173846	2548.658671
769.499479	2548.578012
769.825066	2546.490974
770.150607	2548.630944
770.476101	2547.957950
770.801548	2547.531973
771.126949	2547.436191
771.452303	2548.406613
771.777611	2549.147663
772.102872	2546.528783
772.428087	2546.034750
772.753256	2548.893084
773.078378	2551.063301
773.403453	2549.094730
773.728482	2549.034237
774.053465	2548.850234
774.378401	2548.026006
774.703291	2546.561551
775.028135	2546.821170
775.352932	2547.284956
775.677683	2548.313352
776.002388	2545.860830
776.327046	2544.096426
776.651658	2547.587425
776.976224	2542.810932
777.300743	2546.405275
777.625216	2546.584236
777.949643	2547.216901
778.274024	2546.296890
778.598359	2549.155224
778.922647	2547.378217
779.246889	2544.834955
779.571086	2548.179761
779.895236	2548.537683
780.219339	2546.198588
780.543397	2547.103475
780.867409	2547.345450
781.191374	2548.419216
781.515294	2546.342260
781.839167	2549.107333
782.162995	2545.971736
782.486776	2548.414175
782.810511	2547.736139
783.134201	2547.408464
783.457844	2546.939637
783.781441	2546.483413
784.104993	2547.567261
784.428498	2545.636499
784.751958	2546.322096
785.075372	2549.130018
785.398739	2547.131201
785.722061	2545.127342
786.045337	2546.685059
786.368568	2547.597508
786.691752	2545.840666
787.014891	2545.540717
787.337983	2546.632127
787.661030	2547.791592
787.984031	2546.914431
788.306987	2546.566592
788.629897	2546.453166
788.952760	2547.126160
789.275579	2547.529452
789.598351	2546.770758
789.921078	2547.360573
790.243759	2547.042981
790.566395	2547.554658
790.888984	2547.242106
791.211529	2549.455173
791.534027	2545.906201
791.856480	2547.289997
792.178888	2544.905532
792.501249	2543.264636
792.823566	2544.482075
793.145836	2541.240613
793.468062	2544.782023
793.790241	2546.027188
794.112375	2546.206149
794.434464	2546.359904
794.756507	2547.990718
795.078505	2546.652291
795.400457	2546.312013
795.722364	2548.477189
796.044226	2548.434339
796.366042	2548.116747
796.687812	2545.853268
797.009538	2546.546427
797.331218	2547.247147
797.652852	2545.255892
797.974442	2549.414844
798.295986	2546.758156
798.617484	2548.278063
798.938938	2547.489123
799.260346	2547.105995
799.581709	2543.665408
799.903026	2549.114895
800.224299	2546.306972
800.545526	2547.350491
800.866708	2547.070707
801.187845	2547.174051
801.508936	2546.397713
801.829983	2546.138094
802.150984	2544.086344
802.471940	2547.141283
802.792851	2548.235214
803.113717	2547.892415
803.434538	2546.443083
803.755314	2548.840152
804.076045	2547.408464
804.396731	2549.747560
804.717372	2547.116078
805.037967	2546.785882
805.358518	2543.993083
805.679024	2549.717313
805.999485	2545.812939
806.319901	2547.229503
806.640272	2546.811088
806.960598	2545.911242
807.280879	2545.896118
807.601115	2547.350491
807.921306	2545.553320
808.241453	2545.066848
808.561554	2546.851417
808.881611	2544.330840
809.201623	2543.007537
809.521590	2546.435522
809.841513	2544.950902
810.161390	2549.336706
810.481223	2546.692621
810.801011	2549.709751
811.120755	2545.974256
811.440453	2547.358053
811.760107	2545.162630
812.079716	2543.662887
812.399281	2544.398896
812.718801	2544.890408
813.038276	2546.503577
813.357707	2546.755635
813.677093	2546.143135
813.996434	2547.902497
814.315731	2543.733463
814.634983	2548.111705
814.954191	2546.221273
815.273354	2548.194884
815.592473	2546.503577
815.911547	2545.049204
816.230577	2548.295708
816.549562	2548.215049
816.868502	2545.525593
817.187399	2548.169679
817.506250	2545.197918
817.825058	2547.844524
818.143821	2546.256561
818.462539	2548.807385
818.781213	2547.027857
819.099843	2545.512991
819.418429	2549.104813
819.736970	2546.866540
820.055466	2547.136242
820.373919	2546.148176
820.692327	2551.965667
821.010691	2552.142108
821.329011	2552.908363
821.647286	2559.870197
821.965517	2564.911351
822.283704	2570.499470
822.601847	2571.195149
822.919945	2571.611044
823.237999	2573.156158
823.556010	2570.144068
823.873976	2564.225754
824.191897	2557.705021
824.509775	2554.082952
824.827609	2552.240410
825.145398	2550.009700
825.463144	2553.188147
825.780845	2554.135884
826.098502	2553.946841
826.416116	2555.693601
826.733685	2558.128478
827.051210	2556.747202
827.368692	2560.752399
827.686129	2556.033879
828.003522	2556.283416
828.320872	2551.055739
828.638177	2554.251831
828.955439	2551.111192
829.272656	2548.225131
829.589830	2550.322251
829.906960	2550.929710
830.224046	2548.918290
830.541088	2548.391489
830.858086	2547.577343
831.175041	2550.591953
831.491952	2549.956768
831.808819	2545.447456
832.125642	2549.283774
832.442421	2547.589946
832.759157	2549.966850
833.075849	2548.822508
833.392497	2551.630431
833.709101	2551.721172
834.025662	2552.187478
834.342179	2554.713096
834.658653	2550.528939
834.975083	2552.003476
835.291469	2555.807027
835.607811	2547.544576
835.924110	2546.347302
836.240366	2549.959288
836.556578	2546.536345
836.872746	2546.906870
837.188871	2545.845707
837.504952	2547.365615
837.820990	2547.526932
838.136984	2545.853268
838.452935	2547.826880
838.768842	2545.860830
839.084706	2545.134904
839.400526	2547.337888
839.716303	2549.369473
840.032037	2544.918134
840.347727	2545.029040
840.663373	2545.928886
840.978977	2542.523586
841.294537	2547.040460
841.610054	2547.458876
841.925527	2545.951571
842.240957	2545.434853
842.556344	2546.095244
842.871687	2545.712116
843.186987	2544.683721
843.502244	2545.354194
843.817458	2545.691952
844.132629	2547.053063
844.447756	2545.734801
844.762840	2544.517363
845.077881	2546.097764
845.392879	2545.976777
845.707833	2550.211346
846.022745	2544.797147
846.337613	2545.581046
846.652438	2544.986190
846.967221	2542.561395
847.281960	2544.088865
847.596656	2546.057435
847.911309	2543.115922
848.225919	2543.267157
848.540485	2544.303114
848.855009	2541.351518
849.169490	2544.111550
849.483928	2544.867723
849.798323	2542.085006
850.112675	2545.752445
850.426984	2543.015099
850.741251	2543.075593
851.055474	2545.545758
851.369654	2544.277908
851.683792	2541.885880
851.997887	2545.291180
852.311938	2542.490819
852.625947	2542.780685
852.939914	2546.029709
853.253837	2544.293031
853.567718	2544.832435
853.881555	2545.719678
854.195350	2544.124153
854.509103	2546.022147
854.822812	2547.153886
855.136479	2541.991745
855.450103	2548.414175
855.763685	2543.725902
856.077224	2540.986034
856.390720	2541.109543
856.704173	2541.283462
857.017584	2546.425439
857.330953	2543.627599
857.644278	2545.013916
857.957561	2548.731767
858.270802	2546.596839
858.584000	2543.826725
858.897155	2544.257743
859.210268	2541.132228
859.523339	2546.485933
859.836367	2544.625748
860.149352	2541.994265
860.462295	2543.367980
860.775195	2544.383772
861.088054	2541.782537
861.400869	2543.867054
861.713642	2545.593649
862.026373	2546.861499
862.339062	2540.159285
862.651708	2544.023330
862.964312	2546.874102
863.276873	2544.124153
863.589392	2545.477702
863.901869	2544.986190
864.214303	2543.622558
864.526696	2544.542568
864.839045	2542.211035
865.151353	2544.542568
865.463619	2544.570295
865.775842	2544.282949
866.088023	2544.875285
866.400162	2544.429142
866.712258	2544.371169
867.024313	2545.097095
867.336325	2543.829245
867.648296	2543.851930
867.960224	2543.604914
868.272110	2545.938968
868.583954	2546.019627
868.895755	2543.965356
869.207515	2542.170706
869.519233	2546.732950
869.830909	2543.410829
870.142542	2544.766900
870.454134	2544.116591
870.765684	2544.716488
871.077191	2544.338402
871.388657	2543.516694
871.700081	2540.779347
872.011463	2542.266488
872.322803	2539.539223
872.634101	2544.930737
872.945357	2544.214893
873.256571	2546.175902
873.567744	2546.117929
873.878874	2544.966025
874.189963	2546.387631
874.501010	2544.562733
874.812015	2545.480223
875.122979	2546.622044
875.433900	2543.035263
875.744780	2544.585418
876.055618	2543.783875
876.366415	2542.684903
876.677169	2544.724050
876.987882	2543.327650
877.298554	2546.095244
877.609183	2543.892260
877.919771	2545.107178
878.230317	2545.596170
878.540822	2546.392672
878.851285	2546.750594
879.161707	2547.017775
879.472087	2545.185316
879.782425	2550.755791
880.092722	2550.140770
880.402977	2548.764535
880.713191	2552.936090
881.023363	2553.485575
881.333494	2557.168138
881.643583	2556.787531
881.953631	2555.428940
882.263637	2556.233004
882.573602	2556.966492
882.883526	2554.861810
883.193408	2552.076573
883.503248	2552.903322
883.813048	2552.857952
884.122806	2552.293343
884.432522	2553.031872
884.742197	2548.888043
885.051831	2548.288146
885.361424	2546.564071
885.670975	2545.676828
885.980485	2547.955430
886.289954	2546.233876
886.599382	2545.533155
886.908768	2543.173895
887.218113	2544.966025
887.527417	2543.849410
887.836680	2541.283462
888.145901	2544.028371
888.455082	2545.258412
888.764221	2545.699513
889.073319	2544.287990
889.382376	2543.345294
889.691392	2543.930068
890.000366	2546.737991
890.309300	2543.206663
890.618193	2546.591798
890.927044	2546.790923
891.235855	2544.388813
891.544625	2543.531817
891.853353	2545.271015
892.162041	2546.816129
892.470687	2544.416540
892.779293	2547.395862
893.087858	2545.770089
893.396381	2546.606921
893.704864	2545.392003
894.013306	2545.649102
894.321707	2549.881150
894.630068	2546.322096
894.938387	2552.356357
895.246665	2548.517518
895.554903	2550.193702
895.863100	2547.514329
896.171256	2550.775955
896.479371	2546.095244
896.787446	2547.209339
897.095480	2545.039122
897.403473	2545.691952
897.711425	2545.840666
898.019336	2543.672969
898.327207	2543.826725
898.635038	2546.531304
898.942827	2544.666077
899.250576	2545.326468
899.558284	2545.477702
899.865952	2545.346632
900.173579	2545.961653
900.481165	2544.449307
900.788711	2542.006868
901.096216	2543.829245
901.403681	2541.333874
901.711105	2542.407640
902.018489	2542.952084
902.325832	2541.326312
902.633135	2539.337577
902.940397	2540.408822
903.247619	2538.503266
903.554800	2544.978628
903.861941	2544.421581
904.169041	2546.906870
904.476101	2549.092210
904.783121	2547.582384
905.090100	2547.849565
905.397039	2548.237734
905.703938	2546.932075
906.010796	2547.050543
906.317614	2543.841848
906.624391	2546.221273
906.931129	2545.041643
907.237826	2543.378062
907.544483	2543.854451
907.851099	2545.510470
908.157675	2541.870757
908.464211	2546.899308
908.770707	2542.929399
909.077163	2545.427291
909.383578	2541.164995
909.689954	2543.743546
909.996289	2542.455531
910.302584	2543.171375
910.608839	2544.184647
910.915054	2542.878988
911.221229	2540.933102
911.527363	2543.927548
911.833458	2542.712630
912.139513	2542.684903
912.445527	2542.556354
912.751502	2544.035932
913.057436	2541.477547
913.363331	2541.946374
913.669186	2542.584080
913.975000	2543.408309
914.280775	2544.403937
914.586510	2544.567774
914.892205	2546.503577
915.197859	2545.510470
915.503475	2545.520552
915.809050	2546.707744
916.114585	2547.398382
916.420081	2543.415871
916.725536	2548.618341
917.030952	2545.263453
917.336328	2546.097764
917.641665	2540.746580
917.946961	2540.948226
918.252218	2541.553164
918.557435	2540.076106
918.862612	2543.521735
919.167750	2544.986190
919.472848	2545.618855
919.777906	2542.170706
920.082925	2547.002652
920.387904	2545.273536
920.692843	2542.329502
920.997743	2545.528114
921.302603	2543.678011
921.607423	2540.086188
921.912204	2544.555171
922.216946	2541.210366
922.521647	2543.572146
922.826310	2540.456713
923.130932	2542.392516
923.435516	2541.492670
923.740059	2544.056097
924.044564	2541.533000
924.349028	2543.405788
924.653454	2540.645757
924.957840	2541.762372
925.262186	2538.064686
925.566493	2540.698689
925.870761	2541.890922
926.174989	2541.938813
926.479178	2542.803370
926.783328	2544.033412
927.087438	2541.525438
927.391509	2541.162475
927.695541	2540.940664
927.999533	2542.332022
928.303486	2542.137938
928.607400	2544.532486
928.911275	2542.271529
929.215110	2542.745397
929.518906	2539.481250
929.822663	2541.545603
930.126381	2543.788916
930.430060	2543.020140
930.733699	2542.861344
931.037299	2541.515356
931.340861	2541.343956
931.644383	2541.384286
931.947866	2539.902186
932.251309	2543.390665
932.554714	2542.775644
932.858080	2540.083668
933.161407	2537.467309
933.464694	2538.820859
933.767943	2537.459747
934.071153	2542.402599
934.374323	2540.471837
934.677455	2541.991745
934.980548	2540.149203
935.283602	2539.382947
935.586617	2544.043494
935.889593	2541.938812
936.192530	2539.617361
936.495428	2542.430325
936.798287	2541.291024
937.101108	2542.304296
937.403890	2541.386806
937.706632	2542.213555
938.009336	2542.916796
938.312002	2542.455531
938.614628	2539.632485
938.917216	2543.080634
939.219765	2542.112732
939.522275	2542.929399
939.824747	2541.860675
940.127179	2541.530479
940.429573	2543.299924
940.731929	2543.201622
941.034246	2544.701365
941.336524	2543.040305
941.638763	2543.282280
941.940964	2543.604914
942.243126	2540.413863
942.545250	2541.442259
942.847335	2542.029553
943.149381	2541.487629
943.451389	2542.357228
943.753359	2542.299255
944.055290	2541.543082
944.357182	2542.299255
944.659036	2541.873277
944.960851	2541.437218
945.262628	2540.786909
945.564367	2542.190870
945.866067	2541.255736
946.167729	2538.457896
946.469352	2539.985365
946.770937	2541.328833
947.072484	2541.641384
947.373992	2541.336395
947.675462	2540.983514
947.976893	2539.534182
948.278286	2538.503266
948.579641	2540.330684
948.880958	2534.999664
949.182236	2539.128369
949.483476	2538.692309
949.784678	2542.016950
950.085841	2542.266487
950.386967	2541.469985
950.688054	2539.365303
950.989103	2541.485109
951.290114	2542.150541
951.591087	2542.158103
951.892021	2541.119625
952.192917	2540.570139
952.493776	2540.393699
952.794596	2542.198432
953.095378	2541.359080
953.396122	2539.584594
953.696828	2540.718853
953.997496	2541.679193
954.298126	2543.340253
954.598718	2540.706250
954.899272	2541.038967
955.199788	2542.987372
955.500266	2539.287166
955.800706	2542.526107
956.101108	2541.825387
956.401472	2541.205325
956.701798	2543.320089
957.002087	2538.508307
957.302337	2540.645757
957.602550	2539.077958
957.902724	2543.478885
958.202861	2540.101312
958.502960	2541.601055
958.803022	2540.118956
959.103045	2541.190201
959.403031	2540.676003
959.702979	2541.132228
960.002889	2540.920499
960.302762	2540.975952
960.602596	2540.260108
960.902393	2540.807073
961.202153	2538.954449
961.501875	2540.267670
961.801559	2540.111394
962.101205	2538.082330
962.400814	2538.452855
962.700385	2539.529141
962.999918	2538.692309
963.299414	2537.835313
963.598873	2540.847403
963.898293	2535.760878
964.197677	2539.201466
964.497022	2538.397402
964.796331	2541.800181
965.095601	2539.826569
965.394835	2540.340767
965.694030	2543.423432
965.993189	2541.585932
966.292309	2539.062834
966.591393	2539.761034
966.890439	2540.063503
967.189447	2539.995448
967.488419	2538.616692
967.787353	2538.594007
968.086249	2540.950746
968.385108	2539.622402
968.683930	2544.421581
968.982714	2541.931251
969.281462	2537.850437
969.580172	2539.103163
969.878844	2537.573173
970.177480	2541.182639
970.476078	2542.095088
970.774639	2540.555016
971.073162	2542.450490
971.371649	2540.988555
971.670098	2538.846065
971.968510	2541.964018
972.266885	2537.772299
972.565223	2540.459234
972.863524	2537.154758
973.161788	2540.365972
973.460014	2537.782381
973.758204	2538.725077
974.056356	2538.165509
974.354471	2541.006199
974.652550	2539.347659
974.950591	2542.624409
975.248595	2542.344625
975.546563	2539.544264
975.844493	2539.226672
976.142386	2539.163657
976.440243	2539.292207
976.738062	2540.323123
977.035845	2541.081816
977.333590	2540.048380
977.631299	2539.398071
977.928971	2539.287166
978.226606	2535.513862
978.524204	2537.860519
978.821765	2535.992772
979.119290	2539.027546
979.416777	2540.761703
979.714228	2539.564429
980.011642	2540.020653
980.309020	2539.453524
980.606360	2540.189532
980.903664	2541.666590
981.200931	2539.463606
981.498162	2539.609799
981.795356	2539.927392
982.092513	2540.338246
982.389633	2539.819007
982.686717	2540.434028
982.983764	2542.561395
983.280775	2540.456713
983.577749	2538.525951
983.874686	2540.796991
984.171587	2537.462268
984.468451	2539.995448
984.765279	2541.147351
985.062070	2539.561908
985.358824	2539.251878
985.655543	2538.039480
985.952224	2540.365972
986.248869	2540.386137
986.545478	2541.366642
986.842050	2540.214738
987.138586	2539.592155
987.435086	2540.174409
987.731549	2540.161806
988.027975	2537.777340
988.324366	2540.156765
988.620719	2540.068544
988.917037	2540.996117
989.213318	2538.898997
989.509563	2540.640715
989.805772	2539.438400
990.101944	2541.006199
990.398080	2542.858823
990.694180	2541.008720
990.990244	2537.759696
991.286271	2538.470499
991.582262	2542.306817
991.878217	2536.842206
992.174136	2540.552495
992.470019	2539.156096
992.765865	2539.052752
993.061676	2534.339273
993.357450	2536.340611
993.653188	2537.018646
993.948890	2540.789429
994.244556	2540.552495
994.540186	2539.309851
994.835780	2538.157947
995.131337	2539.181301
995.426859	2537.568132
995.722345	2540.497042
996.017795	2539.277083
996.313208	2539.234233
996.608586	2541.417053
996.903928	2540.766744
997.199234	2539.267001
997.494504	2539.592155
997.789738	2537.240457
998.084936	2540.698689
998.380099	2541.185160
998.675225	2540.439069
998.970316	2539.173740
999.265371	2538.636857
999.560390	2541.354039
999.855373	2539.811446
1000.150320	2539.957639
1000.445232	2538.168029
1000.740108	2539.695499
1001.034948	2539.534182
1001.329752	2541.059131
1001.624521	2538.714995
1001.919254	2537.336239
1002.213951	2540.111394
1002.508613	2540.025695
1002.803239	2541.459903
1003.097829	2539.287166
1003.392384	2539.075437
1003.686903	2539.866898
1003.981386	2540.101312
1004.275834	2539.604758
1004.570246	2539.249357
1004.864623	2537.459747
1005.158964	2540.492001
1005.453270	2538.420087
1005.747540	2539.090561
1006.041775	2539.267001
1006.335974	2539.534182
1006.630138	2538.175591
1006.924266	2539.052752
1007.218359	2539.420756
1007.512416	2536.980838
1007.806438	2534.669469
1008.100425	2534.482946
1008.394376	2535.549150
1008.688292	2539.168698
1008.982172	2537.616023
1009.276017	2541.810263
1009.569827	2539.473688
1009.863602	2538.178112
1010.157341	2539.617361
1010.451045	2538.047042
1010.744714	2539.682896
1011.038347	2542.634492
1011.331945	2538.483102
1011.625508	2539.934954
1011.919036	2538.571322
1012.212528	2539.645088
1012.505986	2538.402443
1012.799408	2539.249357
1013.092795	2538.571322
1013.386147	2538.142824
1013.679464	2538.873791
1013.972745	2539.284645
1014.265992	2538.788091
1014.559204	2541.943854
1014.852380	2540.852444
1015.145521	2540.965870
1015.438628	2537.179963
1015.731699	2539.783719
1016.024736	2539.952598
1016.317737	2538.631816
1016.610703	2539.471168
1016.903635	2540.403781
1017.196531	2538.772968
1017.489393	2537.673996
1017.782219	2536.917823
1018.075011	2538.962011
1018.367768	2538.604089
1018.660490	2539.529141
1018.953177	2539.529141
1019.245829	2539.529141
