Dividing Wavelength (nm)	Counts (n)	Blue Motor Position (mm): 24.300000	Red Motor Position (mm): 0.000000	
326.493990	2136.594755
326.888308	2136.594755
327.282561	2136.594755
327.676750	2099.428848
328.070874	2100.568149
328.464933	2103.411360
328.858929	2110.995776
329.252859	2119.843001
329.646726	2132.105608
330.040528	2144.816877
330.434265	2160.119300
330.827938	2177.907011
331.221547	2194.943590
331.615091	2214.972095
332.008571	2232.051524
332.401986	2254.608167
332.795338	2272.368152
333.188625	2292.628549
333.581847	2312.417598
333.975006	2331.934426
334.368100	2347.516632
334.761129	2366.206710
335.154095	2381.975439
335.546996	2402.261042
335.939833	2423.005390
336.332606	2440.152875
336.725315	2454.862962
337.117960	2462.757409
337.510540	2471.256794
337.903056	2483.506798
338.295508	2489.165493
338.687896	2498.975579
339.080220	2507.714419
339.472480	2511.616272
339.864676	2517.852179
340.256807	2521.247397
340.648875	2523.528519
341.040879	2524.642614
341.432818	2527.737882
341.824694	2530.197965
342.216506	2532.395908
342.608253	2531.143182
342.999937	2532.368182
343.391557	2528.743592
343.783113	2530.843233
344.174605	2526.704446
344.566033	2527.841226
344.957397	2523.997346
345.348697	2522.222860
345.739934	2519.908970
346.131106	2518.545338
346.522215	2519.251100
346.913260	2516.717920
347.304241	2516.022241
347.695159	2511.502846
348.086012	2512.866478
348.476802	2505.420694
348.867528	2509.569564
349.258191	2505.418173
349.648789	2507.278359
350.039324	2502.668224
350.429796	2505.887001
350.820203	2498.355517
351.210548	2498.388284
351.600828	2495.172028
351.991045	2501.755775
352.381198	2495.363592
352.771288	2498.307626
353.161314	2496.923829
353.551276	2497.962307
353.941175	2497.589262
354.331010	2495.943325
354.720782	2496.901144
355.110490	2497.853922
355.500135	2497.553973
355.889717	2495.257728
356.279235	2497.306957
356.668689	2498.264776
357.058080	2498.894920
357.447408	2494.798983
357.836672	2492.500217
358.225873	2496.029024
358.615010	2491.136585
359.004084	2498.834427
359.393095	2498.486587
359.782043	2498.910044
360.170927	2502.234685
360.559748	2501.644870
360.948505	2504.132679
361.337199	2503.336177
361.725830	2503.500014
362.114398	2503.691578
362.502903	2504.256188
362.891344	2505.244254
363.279722	2504.034377
363.668037	2505.662669
364.056289	2504.024294
364.444478	2508.740294
364.832603	2504.709891
365.220665	2509.758607
365.608665	2506.645694
365.996601	2509.453617
366.384474	2507.684172
366.772284	2508.979749
367.160031	2506.630571
367.547715	2511.712054
367.935336	2511.399502
368.322893	2509.304903
368.710388	2510.562671
369.097820	2510.880264
369.485189	2509.546878
369.872495	2512.155676
370.259738	2511.437311
370.646918	2509.453617
371.034035	2512.836231
371.421090	2513.826818
371.808081	2510.792043
372.195010	2512.390089
372.581875	2513.176509
372.968678	2513.310100
373.355418	2513.675583
373.742096	2514.968639
374.128710	2511.636437
374.515262	2513.463855
374.901751	2514.983763
375.288177	2515.455111
375.674540	2513.161386
376.060841	2513.146262
376.447079	2514.068793
376.833254	2514.333454
377.219367	2509.960253
377.605417	2514.709020
377.991404	2509.309944
378.377329	2510.998731
378.763191	2510.184584
379.148991	2519.677077
379.534727	2516.241531
379.920402	2518.167252
380.306013	2517.509381
380.691563	2516.475944
381.077049	2518.469721
381.462474	2515.835718
381.847835	2518.484844
382.233134	2519.117509
382.618371	2517.012827
383.003545	2521.161697
383.388657	2516.780934
383.773706	2516.677591
384.158693	2518.857890
384.543618	2521.723786
384.928480	2519.356964
385.313280	2520.433250
385.698017	2519.094824
386.082692	2519.896367
386.467305	2521.829650
386.851856	2520.859228
387.236344	2520.428209
387.620770	2521.930473
388.005133	2523.571368
388.389435	2525.212264
388.773674	2519.150277
389.157851	2520.211439
389.541965	2524.806451
389.926018	2522.648837
390.310008	2522.328724
390.693936	2525.252593
391.077802	2524.435926
391.461606	2522.714372
391.845348	2521.522139
392.229027	2523.725124
392.612645	2523.258817
392.996200	2523.750329
393.379694	2523.967099
393.763125	2523.336955
394.146494	2524.708149
394.529801	2527.206040
394.913047	2524.529188
395.296230	2526.228057
395.679351	2526.407018
396.062410	2527.145547
396.445408	2526.313756
396.828343	2528.930115
397.211217	2519.525842
397.594028	2523.341996
397.976778	2524.158663
398.359466	2524.907274
398.742092	2521.156656
399.124656	2527.511030
399.507158	2527.016997
399.889598	2529.648479
400.271977	2528.153777
400.654294	2531.551515
401.036549	2529.504807
401.418742	2528.441123
401.800874	2528.315094
402.182944	2529.340969
402.564952	2530.235774
402.946898	2528.993129
403.328783	2528.105886
403.710606	2529.582944
404.092367	2529.431710
404.474067	2528.708304
404.855705	2530.906247
405.237282	2530.686957
405.618797	2531.493542
406.000250	2533.313398
406.381642	2528.373068
406.762972	2530.480270
407.144240	2533.121834
407.525447	2532.509334
407.906593	2529.542615
408.287677	2532.804242
408.668700	2530.213089
409.049661	2530.626463
409.430560	2533.227699
409.811399	2532.892462
410.192176	2531.853984
410.572891	2533.308357
410.953545	2534.475384
411.334138	2534.785415
411.714669	2534.127545
412.095139	2533.429345
412.475547	2534.515713
412.855894	2532.834489
413.236180	2533.595703
413.616405	2535.539068
413.996568	2533.888090
414.376670	2533.701567
414.756711	2534.671989
415.136691	2535.221475
415.516609	2535.413039
415.896466	2536.126362
416.276262	2536.370858
416.655997	2530.820548
417.035670	2531.770805
417.415283	2537.742052
417.794834	2532.171577
418.174324	2534.301464
418.553753	2535.380271
418.933121	2540.711292
419.312428	2537.197607
419.691674	2538.410005
420.070859	2535.581918
420.449983	2537.396733
420.829045	2535.183666
421.208047	2536.514531
421.586988	2537.545447
421.965867	2538.291538
422.344686	2539.350180
422.723444	2539.400592
423.102141	2536.396064
423.480777	2537.124511
423.859352	2539.040149
424.237866	2539.574511
424.616319	2539.314892
424.994712	2537.822710
425.373044	2539.798843
425.751314	2538.689789
426.129524	2537.706764
426.507673	2541.870757
426.885762	2539.140972
427.263789	2542.783206
427.641756	2541.303627
428.019662	2543.176416
428.397508	2538.898997
428.775292	2541.817825
429.153016	2540.640715
429.530679	2543.262115
429.908282	2542.286652
430.285824	2542.115253
430.663305	2543.204142
431.040726	2541.018802
431.418086	2542.581560
431.795385	2542.483257
432.172624	2542.745397
432.549802	2540.693648
432.926920	2542.135417
433.303977	2542.518545
433.680974	2540.849923
434.057910	2543.282280
434.434786	2543.171375
434.811601	2545.651622
435.188355	2543.259595
435.565050	2544.895449
435.941683	2542.568957
436.318257	2543.153731
436.694770	2540.915458
437.071222	2543.534338
437.447614	2539.703061
437.823946	2541.888401
438.200218	2542.929399
438.576429	2546.087682
438.952580	2546.077600
439.328670	2546.919472
439.704700	2544.111550
440.080670	2548.333516
440.456580	2545.054246
440.832429	2547.353012
441.208218	2546.967363
441.583947	2549.775286
441.959616	2545.535676
442.335224	2547.751263
442.710773	2545.457538
443.086261	2550.095399
443.461689	2547.544576
443.837057	2549.079607
444.212365	2548.381407
444.587612	2551.882488
444.962800	2546.198587
445.337927	2550.271840
445.712995	2551.083466
446.088002	2549.835780
446.462949	2551.065822
446.837837	2552.706717
447.212664	2551.166645
447.587431	2549.797971
447.962139	2554.357695
448.336786	2554.587068
448.711374	2554.251831
449.085901	2556.520350
449.460369	2551.287632
449.834776	2556.855587
450.209124	2554.612273
450.583412	2558.856925
450.957640	2555.928014
451.331808	2558.221739
451.705917	2555.779300
452.079965	2561.246432
452.453954	2561.490928
452.827883	2560.732234
453.201752	2561.206103
453.575562	2563.179714
453.949311	2566.287586
454.323001	2565.042421
454.696632	2568.919068
455.070202	2567.873028
455.443713	2570.887638
455.817164	2574.106415
456.190556	2577.957857
456.563888	2581.481623
456.937160	2581.774010
457.310373	2586.313569
457.683526	2591.629466
458.056619	2595.385126
458.429653	2598.752616
458.802628	2601.701691
459.175542	2609.961622
459.548398	2621.762963
459.921194	2628.359313
460.293930	2637.647639
460.666607	2657.265289
461.039224	2672.524862
461.411782	2683.759073
461.784280	2690.816688
462.156719	2697.072760
462.529099	2703.782536
462.901419	2701.178780
463.273680	2708.352342
463.645882	2716.614793
464.018024	2726.654251
464.390106	2741.381982
464.762130	2768.982299
465.134094	2814.511480
465.505999	2890.902605
465.877845	2982.477685
466.249631	3030.217412
466.621358	3017.395238
466.993026	3008.227899
467.364634	3006.581963
467.736184	3008.653877
468.107674	3016.092099
468.479105	3050.840773
468.850477	3049.088972
469.221790	3056.945610
469.593043	3059.249417
469.964238	3077.647108
470.335373	3105.554936
470.706449	3140.306130
471.077467	3169.804442
471.448425	3343.668797
471.819324	3506.825741
472.190164	3534.854556
472.560945	3429.930501
472.931667	3377.537789
473.302330	3392.782238
473.672934	3385.674211
474.043479	3473.513796
474.413965	3504.882376
474.784393	3534.191645
475.154761	3595.749174
475.525070	3655.242351
475.895321	3670.872449
476.265513	3747.064448
476.635645	3822.084379
477.005719	3882.878174
477.375734	3954.018937
477.745691	4057.786048
478.115588	4145.214779
478.485427	4261.289867
478.855207	4449.322385
479.224928	4736.274944
479.594591	4963.136949
479.964194	4986.787523
480.333739	5028.596332
480.703226	5096.246096
481.072653	5203.970513
481.442022	5375.717583
481.811333	5507.929404
482.180584	5531.403537
482.549777	5537.626842
482.918912	5558.245161
483.287988	5656.202342
483.657005	5737.687553
484.025964	5712.660744
484.394864	5844.552452
484.763706	5925.059679
485.132489	5909.124592
485.501213	5978.319470
485.869879	6081.247228
486.238487	6120.298527
486.607036	6230.288942
486.975527	6238.967288
487.343959	6399.679273
487.712333	6512.996849
488.080648	6554.349434
488.448905	6672.279667
488.817104	6721.756071
489.185244	6934.172650
489.553326	7115.344158
489.921350	7476.376473
490.289315	8118.995039
490.657222	8385.614104
491.025070	8451.287736
491.392861	8478.222621
491.760593	8381.646716
492.128267	8291.765463
492.495883	8199.116617
492.863440	8089.592509
493.230939	7975.559088
493.598380	8017.400665
493.965763	8029.945577
494.333088	8025.698405
494.700354	8068.006288
495.067563	8168.204262
495.434713	8149.645254
495.801805	8300.320302
496.168839	8329.415321
496.535815	8363.914457
496.902733	8419.886388
497.269593	8449.430071
497.636395	8579.849762
498.003139	8654.693252
498.369825	8611.546017
498.736453	8800.826220
499.103023	8800.702712
499.469535	8894.949603
499.835989	8946.117315
500.202385	8981.677614
500.568723	8919.094210
500.935003	9142.142582
501.301226	9066.333711
501.667390	9319.155138
502.033497	9449.355539
502.399546	9391.911591
502.765537	9371.936019
503.131470	9483.156475
503.497345	9676.635960
503.863163	9406.503211
504.228923	9714.752124
504.594625	9820.177775
504.960269	9647.921548
505.325856	9883.444255
505.691385	9741.997040
506.056856	9919.080172
506.422270	9988.201953
506.787625	9924.582591
507.152924	10069.883769
507.518164	10090.459238
507.883347	10056.688548
508.248472	10018.252271
508.613540	10263.232183
508.978550	10188.429022
509.343503	10195.330362
509.708398	10339.588020
510.073236	10471.857815
510.438016	10511.309885
510.802738	10486.719136
511.167403	10557.688500
511.532010	10495.092493
511.896561	10735.762218
512.261053	10826.699593
512.625488	10723.406350
512.989866	10725.208563
513.354186	10740.304298
513.718449	10667.381487
514.082655	10868.122754
514.446803	10789.029571
514.810894	10924.689541
515.174927	10814.759620
515.538904	10849.246153
515.902822	11014.364106
516.266684	10916.709395
516.630488	10874.179700
516.994235	10939.863414
517.357925	11016.960301
517.721558	11112.202820
518.085133	11139.104938
518.448651	11159.193936
518.812112	11057.458410
519.175516	11080.370454
519.538863	11205.607839
519.902152	11129.239400
520.265385	11301.586367
520.628560	11220.469161
520.991678	11202.182375
521.354739	11272.791297
521.717743	11211.311905
522.080690	11204.178672
522.443580	11337.567603
522.806413	11300.273147
523.169189	11332.833959
523.531908	11394.540203
523.894569	11218.571166
524.257174	11230.362425
524.619722	11345.590599
524.982213	11300.031171
525.344647	11360.192301
525.707025	11309.238839
526.069345	11402.227963
526.431608	11328.342291
526.793815	11436.167531
527.155964	11227.430994
527.518057	11282.061978
527.880093	11230.430481
528.242072	11301.793055
528.603995	11222.364635
528.965860	11142.616101
529.327669	11184.707215
529.689421	11145.020732
530.051117	11118.945363
530.412755	11222.372196
530.774337	11103.615215
531.135862	11089.706671
531.497331	11120.036773
531.858743	10973.543363
532.220098	11141.307922
532.581396	11007.727427
532.942638	10991.343677
533.303824	10961.217742
533.664953	10977.031842
534.026025	10887.533717
534.387040	10989.226393
534.747999	10997.995480
535.108902	11043.615402
535.469748	10807.616305
535.830537	10918.199056
536.191270	10888.907431
536.551947	10916.119580
536.912567	10915.496997
537.273131	10846.904537
537.633638	10826.626496
537.994089	10808.624536
538.354483	10762.845818
538.714821	10898.316745
539.075103	10913.654455
539.435328	10881.270083
539.795497	10709.734741
540.155609	10868.657116
540.515665	10951.556371
540.875665	10686.631133
541.235609	10755.589077
541.595496	10762.697103
541.955328	10908.015925
542.315102	10794.915118
542.674821	10745.962993
543.034483	10749.557336
543.394090	10749.098591
543.753640	10674.648310
544.113134	10901.631303
544.472571	10755.243758
544.831953	10903.617518
545.191278	10703.266941
545.550548	10733.985212
545.909761	10869.912363
546.268918	10844.154588
546.628019	10919.698799
546.987064	10799.076590
547.346053	10709.772550
547.704986	10812.475977
548.063863	10800.803185
548.422684	10792.855806
548.781449	10706.054699
549.140158	10808.017077
549.498811	10686.946205
549.857408	10542.083608
550.215949	10772.481983
550.574434	10631.639706
550.932864	10726.395755
551.291237	10777.959197
551.649555	10728.737371
552.007817	10745.332849
552.366022	10701.497496
552.724173	10705.873217
553.082267	10685.975783
553.440305	10829.739408
553.798288	10622.250557
554.156215	10779.279979
554.514086	10753.065979
554.871902	10601.070149
555.229661	10639.692950
555.587365	10615.896183
555.945014	10508.065902
556.302606	10640.353341
556.660143	10533.740499
557.017625	10683.853457
557.375050	10578.261449
557.732421	10716.205062
558.089735	10629.560230
558.446994	10627.589139
558.804197	10668.475417
559.161345	10666.060705
559.518437	10522.753304
559.875474	10605.062743
560.232455	10636.645572
560.589381	10585.492984
560.946251	10584.530124
561.303065	10688.400578
561.659825	10624.629982
562.016528	10556.259333
562.373177	10434.767525
562.729770	10551.066944
563.086307	10470.973092
563.442789	10557.083562
563.799216	10437.260376
564.155587	10478.330656
564.511904	10443.985275
564.868164	10431.006824
565.224370	10444.267580
565.580520	10372.426096
565.936615	10372.915088
566.292654	10246.659390
566.648638	10375.390295
567.004567	10332.840436
567.360441	10315.244288
567.716260	10227.860927
568.072023	10317.351490
568.427732	10272.598647
568.783385	10179.612044
569.138982	10249.505121
569.494525	10267.083625
569.850013	10149.526438
570.205445	10226.840094
570.560823	10119.574422
570.916145	10044.771261
571.271412	10116.267425
571.626625	10060.330782
571.981782	10031.944045
572.336884	10005.798100
572.691931	10009.152988
573.046923	9961.980391
573.401860	9916.176467
573.756743	9850.144914
574.111570	9892.165452
574.466342	9879.784378
574.821059	9906.802442
575.175722	9797.023755
575.530330	9810.115632
575.884882	9795.161049
576.239380	9725.910718
576.593823	9703.217964
576.948211	9720.254544
577.302544	9600.116286
577.656823	9617.866188
578.011047	9621.132856
578.365216	9595.478424
578.719330	9517.456486
579.073389	9532.529536
579.427394	9480.933327
579.781344	9458.623700
580.135239	9401.774608
580.489080	9409.994210
580.842866	9310.081061
581.196597	9317.327720
581.550273	9356.920942
581.903895	9328.786262
582.257463	9393.565089
582.610975	9274.256101
582.964434	9292.293350
583.317837	9216.514725
583.671186	9198.482518
584.024481	9195.661992
584.377721	9115.681566
584.730906	9091.408410
585.084037	9125.499213
585.437113	9056.190909
585.790135	9076.584897
586.143103	8979.504877
586.496016	8951.753325
586.848874	9009.832458
587.201679	8999.084718
587.554428	8886.165393
587.907124	8934.343700
588.259765	8903.050738
588.612352	8903.549812
588.964884	8780.870812
589.317362	8792.231053
589.669786	8797.415879
590.022155	8844.512859
590.374470	8857.881999
590.726731	8800.503586
591.078937	8648.023806
591.431090	8761.222915
591.783188	8638.740521
592.135232	8631.871949
592.487222	8622.157645
592.839157	8679.067231
593.191038	8614.742108
593.542866	8558.903767
593.894639	8459.315773
594.246358	8512.441973
594.598022	8532.160446
594.949633	8429.056247
595.301190	8408.016992
595.652692	8429.436854
596.004141	8540.470788
596.355535	8315.027868
596.706876	8302.921537
597.058162	8234.019046
597.409395	8308.096281
597.760573	8372.134059
598.111698	8282.283053
598.462768	8268.044314
598.813785	8226.895896
599.164748	8195.242491
599.515657	8190.728138
599.866511	8100.478881
600.217312	8227.142912
600.568060	8084.707631
600.918753	8187.756377
601.269392	8159.200761
601.619978	8068.515445
601.970510	8138.544633
602.320988	8125.825802
602.671412	8188.661264
603.021783	8124.825133
603.372100	8092.256759
603.722363	8100.977955
604.072572	8071.724139
604.422728	8085.408351
604.772830	8016.725151
605.122878	8023.576079
605.472872	8021.839401
605.822813	8045.787403
606.172701	7985.167528
606.522534	8066.569559
606.872314	8063.360865
607.222041	8036.304992
607.571714	8091.929084
607.921333	8046.911580
608.270899	8054.034730
608.620411	8144.871282
608.969870	8049.792599
609.319276	8043.060138
609.668627	8062.962614
610.017926	8097.265145
610.367171	8131.481977
610.716362	8115.251982
611.065500	8107.793595
611.414585	8138.733677
611.763616	8129.024414
612.112594	8107.533976
612.461518	8118.964792
612.810389	8182.342178
613.159207	8119.252138
613.507971	8070.126093
613.856682	8190.952469
614.205340	8143.177454
614.553945	8223.669557
614.902496	8118.248948
615.250994	8177.747166
615.599439	8153.405955
615.947830	8164.093201
616.296169	8140.757700
616.644454	8155.969382
616.992686	8152.090214
617.340864	8211.454842
617.688990	8113.963967
618.037063	8205.007206
618.385082	8152.375039
618.733048	8243.277125
619.080961	8177.787496
619.428821	8198.378088
619.776628	8198.748613
620.124382	8149.269688
620.472083	8136.838203
620.819731	8158.626070
621.167326	8051.665388
621.514868	8065.256339
621.862357	7953.378012
622.209793	7965.784291
622.557176	7904.050321
622.904506	7876.145014
623.251783	7808.868295
623.599007	7759.908609
623.946179	7766.540247
624.293297	7723.781180
624.640363	7644.612380
624.987376	7622.738813
625.334336	7566.809732
625.681243	7523.433123
626.028097	7509.814446
626.374899	7487.870304
626.721647	7480.858059
627.068343	7408.799806
627.414987	7384.786269
627.761577	7341.346647
628.108115	7379.682101
628.454600	7274.924403
628.801032	7325.666137
629.147412	7281.233407
629.493739	7270.919207
629.840014	7208.698765
630.186236	7262.971828
630.532405	7146.659806
630.878521	7198.228289
631.224585	7155.474263
631.570597	7080.230001
631.916556	7118.580579
632.262462	7110.774352
632.608316	7069.020995
632.954117	7049.544497
633.299866	7035.489760
633.645562	7030.839296
633.991206	6948.050947
634.336797	6896.598410
634.682336	6849.879517
635.027823	6818.889024
635.373257	6809.169679
635.718639	6740.627631
636.063968	6753.462408
636.409245	6647.504916
636.754470	6645.753115
637.099642	6604.473627
637.444762	6550.084618
637.789829	6557.903448
638.134845	6498.334653
638.479808	6488.665720
638.824719	6490.016750
639.169577	6415.662251
639.514383	6440.379028
639.859137	6368.731629
640.203839	6376.734461
640.548489	6360.607810
640.893086	6338.262895
641.237632	6314.619884
641.582125	6327.469785
641.926566	6302.831146
642.270955	6312.832795
642.615292	6310.297094
642.959576	6324.888714
643.303809	6311.353216
643.647990	6319.340924
643.992118	6314.307332
644.336195	6256.288693
644.680219	6285.600482
645.024192	6275.072032
645.368112	6370.266661
645.711981	6386.332818
646.055797	6467.394572
646.399562	6425.240443
646.743274	6547.997581
647.086935	6604.448421
647.430544	6597.206804
647.774101	6619.231605
648.117606	6623.062882
648.461059	6615.193641
648.804460	6578.930101
649.147810	6486.550956
649.491108	6456.994671
649.834354	6433.543224
650.177548	6349.416448
650.520690	6263.989055
650.863781	6243.572382
651.206820	6266.416371
651.549807	6184.472415
651.892742	6125.490915
652.235626	6133.783613
652.578458	6119.678465
652.921238	6028.355442
653.263967	6063.333488
653.606644	6006.728892
653.949269	6010.023286
654.291843	5950.189831
654.634365	5997.889229
654.976836	5951.613957
655.319255	5950.767043
655.661622	5929.427839
656.003938	5927.928096
656.346203	5887.016612
656.688416	5915.181538
657.030577	5871.252924
657.372687	5843.670250
657.714746	5829.181974
658.056753	5868.876020
658.398708	5810.554911
658.740612	5802.894878
659.082465	5851.083267
659.424266	5840.637996
659.766016	5843.569427
660.107715	5820.480943
660.449362	5828.730791
660.790958	5827.009237
661.132503	5815.240663
661.473996	5850.947156
661.815438	5840.741340
662.156829	5839.569272
662.498168	5827.243651
662.839456	5804.235824
663.180693	5837.497358
663.521879	5843.738306
663.863013	5827.644422
664.204097	5848.650910
664.545129	5886.507455
664.886110	5882.363627
665.227040	5915.589872
665.567918	5881.153750
665.908746	5910.520992
666.249522	5911.451084
666.590248	5904.811885
666.930922	5930.375576
667.271545	5940.130209
667.612118	5940.568789
667.952639	5918.249080
668.293109	5942.048368
668.633528	5892.491305
668.973896	5900.247120
669.314213	5887.825717
669.654480	5869.884250
669.994695	5868.497933
670.334859	5857.455286
670.674973	5847.088153
671.015035	5850.934553
671.355047	5848.814748
671.695008	5837.482234
672.034918	5809.390404
672.374777	5822.625954
672.714585	5809.750847
673.054342	5810.479293
673.394049	5801.972346
673.733705	5835.821174
674.073310	5822.270552
674.412864	5783.194048
674.752368	5773.149549
675.091820	5775.796155
675.431223	5714.372216
675.770574	5715.985385
676.109875	5666.831615
676.449125	5675.033572
676.788324	5638.989322
677.127473	5581.381536
677.466571	5571.382408
677.805619	5565.033074
678.144616	5550.844747
678.483562	5529.636613
678.822458	5499.767776
679.161303	5495.414740
679.500098	5483.076516
679.838842	5465.689576
680.177535	5471.769208
680.516179	5485.430735
680.854771	5498.588146
681.193314	5583.760961
681.531805	5686.729049
681.870247	5837.998952
682.208638	5937.400424
682.546978	5947.346620
682.885268	5924.288383
683.223508	5842.110013
683.561697	5787.975583
683.899836	5756.511221
684.237925	5712.754006
684.575963	5680.893913
684.913951	5638.923787
685.251889	5701.134146
685.589776	5667.262633
685.927614	5641.827492
686.265401	5708.816864
686.603137	5697.565009
686.940824	5769.595536
687.278460	5795.295338
687.616046	5801.881606
687.953582	5866.002562
688.291068	5853.344225
688.628504	5915.433596
688.965889	5875.827771
689.303224	5824.004709
689.640510	5775.511330
689.977745	5701.736564
690.314930	5604.785093
690.652065	5548.341814
690.989150	5452.169202
691.326185	5378.520464
691.663170	5323.458462
692.000105	5249.945836
692.336990	5170.940873
692.673825	5148.152337
693.010610	5080.227830
693.347345	5008.653527
693.684030	4996.665663
694.020665	4951.234785
694.357251	4868.438874
694.693786	4878.352303
695.030272	4843.273434
695.366707	4808.212209
695.703093	4774.693577
696.039429	4798.628976
696.375716	4781.509217
696.711952	4756.706740
697.048139	4741.996653
697.384276	4720.657449
697.720363	4732.952823
698.056400	4741.961365
698.392388	4691.141493
698.728326	4671.140716
699.064214	4650.764372
699.400053	4644.382271
699.735842	4612.620481
700.071581	4587.938992
700.407270	4564.464859
700.742910	4540.907547
701.078501	4490.291842
701.414042	4487.725895
701.749533	4460.513746
702.084974	4394.401534
702.420366	4450.673414
702.755709	4393.098396
703.091002	4336.362730
703.426246	4386.171850
703.761440	4342.419676
704.096584	4304.197648
704.431679	4325.118436
704.766725	4308.971620
705.101721	4301.329231
705.436668	4330.462059
705.771565	4276.254532
706.106413	4301.709838
706.441212	4339.498327
706.775961	4343.274152
707.110661	4322.731450
707.445311	4352.761603
707.779913	4374.446127
708.114465	4386.749063
708.448967	4406.759923
708.783421	4471.274089
709.117825	4510.322867
709.452180	4517.078013
709.786485	4561.281370
710.120742	4646.769257
710.454949	4627.814519
710.789107	4696.782545
711.123216	4768.634110
711.457275	4761.952061
711.791286	4834.516950
712.125247	4852.639898
712.459159	4754.821349
712.793023	4829.062422
713.126837	4794.888440
713.460602	4783.578611
713.794318	4704.094738
714.127985	4712.412642
714.461602	4624.855362
714.795171	4597.345785
715.128691	4531.193244
715.462162	4475.803566
715.795584	4429.009055
716.128957	4406.591044
716.462281	4358.233776
716.795556	4328.312007
717.128782	4294.410248
717.461960	4225.679156
717.795088	4234.491093
718.128167	4195.767470
718.461198	4132.793376
718.794180	4132.558962
719.127113	4111.721353
719.459997	4087.891818
719.792833	4049.042166
720.125619	4036.905588
720.458357	4000.437882
720.791046	4008.082791
721.123686	3981.652022
721.456278	3942.084005
721.788821	3952.206642
722.121315	3929.198816
722.453761	3901.878283
722.786158	3915.696085
723.118506	3940.753141
723.450805	3889.411509
723.783056	3915.060900
724.115259	3928.515740
724.447412	3932.962037
724.779518	3927.177313
725.111574	3935.699384
725.443582	3961.557982
725.775542	3946.994089
726.107453	3997.675329
726.439315	4000.674816
726.771129	4013.081095
727.102895	4046.735838
727.434612	4095.640072
727.766281	4108.973924
728.097901	4107.335549
728.429473	4110.655149
728.760996	4118.504225
729.092471	4114.846868
729.423897	4098.614353
729.755276	4104.262966
730.086606	4101.848253
730.417887	4138.232781
730.749120	4207.029407
731.080305	4268.158439
731.411442	4294.758087
731.742530	4266.520064
732.073570	4266.315897
732.404562	4324.573992
732.735506	4313.198628
733.066401	4279.198566
733.397249	4222.475503
733.728048	4138.920898
734.058798	4056.094741
734.389501	3985.077486
734.720156	3923.182199
735.050762	3878.699057
735.381320	3872.947101
735.711831	3818.217814
736.042293	3793.490954
736.372707	3816.536589
736.703073	3785.178092
737.033391	3779.423615
737.363661	3797.110503
737.693883	3821.310562
738.024056	3830.014114
738.354182	3824.393228
738.684260	3888.723392
739.014290	3907.705857
739.344272	3900.121441
739.674207	3946.172381
740.004093	3951.470634
740.333931	3944.095426
740.663722	3944.405457
740.993464	3943.240950
741.323159	3918.128442
741.652806	3887.430336
741.982405	3863.013507
742.311956	3832.575020
742.641460	3822.762414
742.970915	3796.117396
743.300323	3758.470059
743.629683	3725.760532
743.958996	3714.402812
744.288260	3688.347609
744.617477	3656.401817
744.946647	3641.732059
745.275768	3617.640385
745.604842	3614.930765
745.933869	3568.957962
746.262847	3557.650654
746.591778	3595.396293
746.920662	3567.932087
747.249498	3537.077705
747.578286	3581.603697
747.907027	3600.263527
748.235720	3597.248917
748.564365	3622.240438
748.892963	3623.939307
749.221514	3606.670834
749.550017	3583.443718
749.878473	3577.117070
750.206881	3548.725291
750.535242	3547.338974
750.863555	3548.881567
751.191821	3543.752193
751.520039	3525.162938
751.848210	3503.997654
752.176334	3534.668034
752.504411	3544.783109
752.832440	3504.849609
753.160421	3485.428563
753.488356	3494.432064
753.816243	3506.263652
754.144082	3462.826550
754.471875	3448.497070
754.799620	3471.015905
755.127318	3459.237249
755.454969	3458.342444
755.782572	3465.077425
756.110129	3441.744445
756.437638	3433.408897
756.765100	3446.667132
757.092515	3456.623410
757.419882	3462.594657
757.747203	3435.107766
758.074477	3433.681119
758.401703	3452.411526
758.728882	3470.819300
759.056014	3479.895897
759.383099	3481.587204
759.710138	3480.871360
760.037129	3499.483300
760.364073	3531.315666
760.690970	3513.931247
761.017820	3487.039212
761.344623	3513.863192
761.671379	3554.915828
761.998088	3603.880555
762.324751	3731.058785
762.651366	3979.058348
762.977935	4446.675779
763.304456	4890.796392
763.630931	4980.816276
763.957359	4620.358652
764.283740	4279.674955
764.610074	4091.861727
764.936362	3897.991553
765.262602	3737.395515
765.588796	3629.303094
765.914943	3540.326729
766.241044	3451.267184
766.567097	3423.364398
766.893104	3376.469064
767.219064	3344.309023
767.544978	3321.044098
767.870845	3264.772218
768.196665	3246.626585
768.522438	3254.589088
768.848165	3249.275712
769.173846	3214.332954
769.499479	3196.487269
769.825066	3181.779703
770.150607	3163.550890
770.476101	3179.848941
770.801548	3175.493384
771.126949	3130.370016
771.452303	3110.061727
771.777611	3117.472224
772.102872	3124.708800
772.428087	3098.366251
772.753256	3087.694128
773.078378	3078.405802
773.403453	3046.976728
773.728482	3035.992054
774.053465	3059.632545
774.378401	3044.115873
774.703291	3013.994979
775.028135	3015.668642
775.352932	3011.156810
775.677683	2997.512927
776.002388	2995.110817
776.327046	2995.695591
776.651658	2987.339878
776.976224	2972.838999
777.300743	2976.375369
777.625216	2965.914974
777.949643	2958.633028
778.274024	2963.265848
778.598359	2949.198508
778.922647	2956.805609
779.246889	2955.638582
779.571086	2939.310285
779.895236	2935.363062
780.219339	2946.307407
780.543397	2958.305353
780.867409	2962.741568
781.191374	2952.845783
781.515294	2948.180195
781.839167	2950.428550
782.162995	2942.445883
782.486776	2952.901236
782.810511	2947.696244
783.134201	2935.473967
783.457844	2941.241047
783.781441	2935.070675
784.104993	2911.911614
784.428498	2914.187695
784.751958	2928.381063
785.075372	2921.908222
785.398739	2905.642939
785.722061	2920.521905
786.045337	2930.505910
786.368568	2918.651637
786.691752	2910.018661
787.014891	2956.598922
787.337983	2987.075218
787.661030	3014.473889
787.984031	3080.875967
788.306987	3129.260962
788.629897	3120.955661
788.952760	3102.888166
789.275579	3090.328131
789.598351	3032.266641
789.921078	2985.855258
790.243759	2975.510811
790.566395	2958.789303
790.888984	2936.978751
791.211529	2921.837646
791.534027	2909.670821
791.856480	2898.481980
792.178888	2883.721482
792.501249	2877.858620
792.823566	2876.860471
793.145836	2872.517517
793.468062	2867.622557
793.790241	2867.093236
794.112375	2872.394009
794.434464	2882.194012
794.756507	2888.170300
795.078505	2892.127606
795.400457	2907.127559
795.722364	2945.074844
796.044226	2970.643577
796.366042	2972.597024
796.687812	2958.476752
797.009538	2979.102633
797.331218	2968.251549
797.652852	2951.850155
797.974442	2934.412804
798.295986	2932.353493
798.617484	2929.008687
798.938938	2910.230389
799.260346	2897.630025
799.581709	2888.245917
799.903026	2882.970350
800.224299	2878.672766
800.545526	2867.733462
800.866708	2852.272243
801.187845	2844.140862
801.508936	2842.189936
801.829983	2851.468179
802.150984	2837.592403
802.471940	2825.138233
802.792851	2826.953048
803.113717	2823.414158
803.434538	2831.812720
803.755314	2824.122440
804.076045	2819.618169
804.396731	2817.334527
804.717372	2816.792602
805.037967	2812.711788
805.358518	2822.168993
805.679024	2830.814572
805.999485	2827.976402
806.319901	2831.968996
806.640272	2823.298212
806.960598	2832.314315
807.280879	2839.024091
807.601115	2841.300172
807.921306	2831.467401
808.241453	2829.771053
808.561554	2834.479491
808.881611	2834.890345
809.201623	2829.549242
809.521590	2830.746516
809.841513	2825.264262
810.161390	2830.686022
810.481223	2822.022800
810.801011	2817.246306
811.120755	2810.791109
811.440453	2812.928558
811.760107	2812.762200
812.079716	2811.733805
812.399281	2801.807773
812.718801	2795.776032
813.038276	2790.172790
813.357707	2796.701084
813.677093	2803.350366
813.996434	2795.982719
814.315731	2791.561627
814.634983	2788.519291
814.954191	2790.888633
815.273354	2800.207206
815.592473	2810.554175
815.911547	2815.141625
816.230577	2823.278047
816.549562	2831.744665
816.868502	2830.126454
817.187399	2837.325222
817.506250	2855.473376
817.825058	2847.594053
818.143821	2861.673995
818.462539	2876.658825
818.781213	2904.917013
819.099843	2938.211313
819.418429	2999.320180
819.736970	3058.909139
820.055466	3129.195427
820.373919	3233.506982
820.692327	3373.986296
821.010691	3537.259187
821.329011	3977.049448
821.647286	4870.304101
821.965517	6231.508901
822.283704	6964.686755
822.601847	6938.659277
822.919945	6315.426468
823.237999	5818.693854
823.556010	5243.079784
823.873976	4696.850600
824.191897	4291.506543
824.509775	4001.541894
824.827609	3731.270513
825.145398	3613.877163
825.463144	3602.380812
825.780845	3688.264430
826.098502	3796.177889
826.416116	4076.902103
826.733685	4386.086151
827.051210	4446.448927
827.368692	4333.229653
827.686129	4071.135023
828.003522	3747.500508
828.320872	3493.456601
828.638177	3300.491314
828.955439	3162.991322
829.272656	3081.680031
829.589830	3015.199815
829.906960	2968.264152
830.224046	2923.488624
830.541088	2890.020403
830.858086	2873.661859
831.175041	2856.584950
831.491952	2856.274919
831.808819	2870.884183
832.125642	2892.253634
832.442421	2939.806839
832.759157	3016.071935
833.075849	3196.497351
833.392497	3471.189824
833.709101	3673.080474
834.025662	3624.647589
834.342179	3468.334011
834.658653	3290.628297
834.975083	3145.894249
835.291469	3046.623848
835.607811	2961.514047
835.924110	2904.327198
836.240366	2857.008407
836.556578	2815.098775
836.872746	2791.566669
837.188871	2767.543050
837.504952	2752.059146
837.820990	2745.210738
838.136984	2730.573748
838.452935	2726.336658
838.768842	2723.342213
839.084706	2739.526837
839.400526	2819.088848
839.716303	2950.811678
840.032037	3027.727082
840.347727	3011.610513
840.663373	2953.778397
840.978977	2879.325595
841.294537	2806.090233
841.610054	2762.083480
841.925527	2739.695716
842.240957	2718.298539
842.556344	2695.285671
842.871687	2679.373269
843.186987	2670.649552
843.502244	2667.677792
843.817458	2663.160918
844.132629	2650.830256
844.447756	2640.838689
844.762840	2636.893986
845.077881	2638.819707
845.392879	2637.372896
845.707833	2632.697226
846.022745	2626.063067
846.337613	2627.409055
846.652438	2626.559621
846.967221	2627.482152
847.281960	2626.541977
847.596656	2622.693056
847.911309	2621.863786
848.225919	2619.496964
848.540485	2617.694752
848.855009	2617.256172
849.169490	2616.666357
849.483928	2617.445215
849.798323	2614.659977
850.112675	2614.755759
850.426984	2612.847682
850.741251	2614.533948
851.055474	2612.646036
851.369654	2619.832201
851.683792	2618.150976
851.997887	2614.324741
852.311938	2613.679473
852.625947	2615.070831
852.939914	2617.389762
853.253837	2618.650051
853.567718	2615.292642
853.881555	2611.945316
854.195350	2615.547220
854.509103	2616.822632
854.822812	2612.278032
855.136479	2612.010851
855.450103	2614.228959
855.763685	2615.849690
856.077224	2615.070831
856.390720	2611.758793
856.704173	2615.774072
857.017584	2619.262551
857.330953	2622.312449
857.644278	2623.799589
857.957561	2617.813219
858.270802	2617.959412
858.584000	2618.902108
858.897155	2620.865638
859.210268	2620.353961
859.523339	2618.244238
859.836367	2612.204935
860.149352	2614.322220
860.462295	2615.385903
860.775195	2611.952878
861.088054	2613.281222
861.400869	2612.736777
861.713642	2607.345263
862.026373	2608.965994
862.339062	2611.017744
862.651708	2618.907149
862.964312	2615.148969
863.276873	2614.846500
863.589392	2618.949999
863.901869	2623.101389
864.214303	2625.087604
864.526696	2630.595065
864.839045	2630.728655
865.151353	2632.523306
865.463619	2634.509521
865.775842	2636.863739
866.088023	2633.075312
866.400162	2634.822072
866.712258	2633.473563
867.024313	2631.711680
867.336325	2628.059364
867.648296	2630.257307
867.960224	2636.349542
868.272110	2634.827113
868.583954	2627.207409
868.895755	2631.552884
869.207515	2635.056486
869.519233	2640.755510
869.830909	2635.815179
870.142542	2631.852832
870.454134	2635.734521
870.765684	2641.693165
871.077191	2641.904893
871.388657	2648.622231
871.700081	2645.002682
872.011463	2644.196098
872.322803	2648.554175
872.634101	2648.128198
872.945357	2655.011893
873.256571	2659.616987
873.567744	2655.455515
873.878874	2656.544404
874.189963	2658.575989
874.501010	2663.412976
874.812015	2666.931702
875.122979	2665.532781
875.433900	2660.100938
875.744780	2656.136071
876.055618	2661.973727
876.366415	2667.539161
876.677169	2667.619819
876.987882	2660.849549
877.298554	2658.507933
877.609183	2669.825324
877.919771	2675.627692
878.230317	2684.850483
878.540822	2695.941021
878.851285	2708.004502
879.161707	2731.037534
879.472087	2768.465581
879.782425	2812.568116
880.092722	2927.894592
880.402977	3114.029116
880.713191	3371.216182
881.023363	3655.413751
881.333494	3842.138089
881.643583	4009.948018
881.953631	4009.728728
882.263637	3832.764063
882.573602	3620.045015
882.883526	3489.269923
883.193408	3380.534755
883.503248	3281.629837
883.813048	3167.523320
884.122806	3055.254303
884.432522	2969.438741
884.742197	2909.121335
885.051831	2871.201776
885.361424	2836.019563
885.670975	2799.924902
885.980485	2771.918772
886.289954	2754.110896
886.599382	2741.661766
886.908768	2729.759602
887.218113	2711.830738
887.527417	2694.589992
887.836680	2689.410207
888.145901	2684.490040
888.455082	2677.213135
888.764221	2662.770229
889.073319	2658.903664
889.382376	2656.385608
889.691392	2656.294867
890.000366	2658.671771
890.309300	2658.016421
890.618193	2656.153715
890.927044	2661.290650
891.235855	2660.678150
891.544625	2660.839467
891.853353	2659.223777
892.162041	2667.823986
892.470687	2689.077490
892.779293	2698.007894
893.087858	2707.790253
893.396381	2731.007287
893.704864	2769.988010
894.013306	2841.229596
894.321707	2931.872063
894.630068	2981.358549
894.938387	2999.907475
895.246665	2990.760301
895.554903	2948.770010
895.863100	2907.871129
896.171256	2849.343333
896.479371	2789.141874
896.787446	2751.426481
897.095480	2732.398646
897.403473	2728.166597
897.711425	2714.779813
898.019336	2695.464632
898.327207	2680.948630
898.635038	2681.566171
898.942827	2678.337312
899.250576	2668.300375
899.558284	2657.471976
899.865952	2654.157418
900.173579	2650.313538
900.481165	2649.355719
900.788711	2640.919348
901.096216	2637.531692
901.403681	2630.902575
901.711105	2634.897689
902.018489	2630.542133
902.325832	2637.090591
902.633135	2635.686630
902.940397	2651.815802
903.247619	2686.299815
903.554800	2753.611821
903.861941	2878.246788
904.169041	3000.784636
904.476101	3063.521795
904.783121	3059.095662
905.090100	2999.988133
905.397039	2927.244283
905.703938	2853.638396
906.010796	2795.602112
906.317614	2740.409039
906.624391	2706.512321
906.931129	2682.105575
907.237826	2657.691267
907.544483	2643.066879
907.851099	2628.077008
908.157675	2618.806326
908.464211	2612.111674
908.770707	2601.031218
909.077163	2599.352514
909.383578	2596.040476
909.689954	2594.308839
909.996289	2589.865062
910.302584	2592.189034
910.608839	2588.700556
910.915054	2589.849939
911.221229	2591.027048
911.527363	2590.036461
911.833458	2590.719538
912.139513	2593.235073
912.445527	2595.932091
912.751502	2599.150867
913.057436	2604.441558
913.363331	2611.499174
913.669186	2624.444857
913.975000	2635.230406
914.280775	2650.676501
914.586510	2666.122596
914.892205	2700.170549
915.197859	2767.616147
915.503475	2852.718385
915.809050	2917.653488
916.114585	2928.239911
916.420081	2938.017229
916.725536	2948.591049
917.030952	2926.213367
917.336328	2883.013199
917.641665	2836.995027
917.946961	2784.458642
918.252218	2751.381111
918.557435	2725.215002
918.862612	2704.780685
919.167750	2684.603466
919.472848	2669.848009
919.777906	2653.839825
920.082925	2641.015130
920.387904	2632.235960
920.692843	2627.255300
920.997743	2625.198509
921.302603	2618.740791
921.607423	2613.384565
921.912204	2607.380551
922.216946	2603.319902
922.521647	2599.352514
922.826310	2598.188007
923.130932	2592.340269
923.435516	2589.862542
923.740059	2584.826429
924.044564	2583.626634
924.349028	2583.349371
924.653454	2573.446024
924.957840	2572.810839
925.262186	2570.784295
925.566493	2573.042732
925.870761	2566.166598
926.174989	2571.240519
926.479178	2566.713563
926.783328	2564.145095
927.087438	2565.906978
927.391509	2564.361865
927.695541	2559.759291
927.999533	2560.205433
928.303486	2560.369271
928.607400	2556.507747
928.911275	2558.642676
929.215110	2558.201575
929.518906	2557.032027
929.822663	2556.651420
930.126381	2558.151163
930.430060	2558.735937
930.733699	2556.003632
931.037299	2558.546894
931.340861	2558.998077
931.644383	2560.601164
931.947866	2557.848694
932.251309	2558.309960
932.554714	2560.003787
932.858080	2558.065464
933.161407	2560.041596
933.464694	2558.330124
933.767943	2558.234342
934.071153	2556.351471
934.374323	2557.337017
934.677455	2557.049671
934.980548	2555.532284
935.283602	2555.466749
935.586617	2557.437840
935.889593	2557.831050
936.192530	2557.805844
936.495428	2556.812737
936.798287	2553.964485
937.101108	2557.800803
937.403890	2557.465566
937.706632	2562.960424
938.009336	2566.375806
938.312002	2570.393605
938.614628	2574.232444
938.917216	2579.475244
939.219765	2574.958370
939.522275	2578.938361
939.824747	2576.863926
940.127179	2569.828996
940.429573	2569.075344
940.731929	2571.381672
941.034246	2566.189283
941.336524	2567.610888
941.638763	2571.111970
941.940964	2567.273131
942.243126	2566.789180
942.545250	2568.044428
942.847335	2564.767678
943.149381	2565.468398
943.451389	2561.299364
943.753359	2562.237018
944.055290	2560.903633
944.357182	2558.987995
944.659036	2558.642676
944.960851	2557.949517
945.262628	2558.375495
945.564367	2560.439847
945.866067	2560.570917
946.167729	2561.014539
946.469352	2559.106462
946.770937	2557.621842
947.072484	2556.492624
947.373992	2556.764846
947.675462	2556.364074
947.976893	2559.577810
948.278286	2555.842315
948.579641	2555.491955
948.880958	2555.839794
949.182236	2557.556307
949.483476	2553.525905
949.784678	2557.664692
950.085841	2553.818292
950.386967	2557.694939
950.688054	2556.215360
950.989103	2556.260731
951.290114	2559.751730
951.591087	2561.289282
951.892021	2559.502192
952.192917	2561.831206
952.493776	2561.480845
952.794596	2562.405897
953.095378	2563.121741
953.396122	2561.223747
953.696828	2560.326421
953.997496	2561.594271
954.298126	2559.784497
954.598718	2558.274672
954.899272	2557.140412
955.199788	2556.444733
955.500266	2554.587067
955.800706	2551.393497
956.101108	2547.905018
956.401472	2549.316541
956.701798	2547.594987
957.002087	2546.669935
957.302337	2546.198588
957.602550	2547.867209
957.902724	2547.537014
958.202861	2548.008362
958.502960	2545.555840
958.803022	2548.401572
959.103045	2544.688762
959.403031	2546.765717
959.702979	2544.456869
960.002889	2544.028371
960.302762	2541.177598
960.602596	2542.919317
960.902393	2542.684903
961.202153	2541.437218
961.501875	2542.533669
961.801559	2542.221117
962.101205	2540.250026
962.400814	2541.311189
962.700385	2543.181457
962.999918	2542.316899
963.299414	2541.520397
963.598873	2541.754810
963.898293	2541.021323
964.197677	2541.971580
964.497022	2542.944523
964.796331	2539.960160
965.095601	2541.590973
965.394835	2543.461241
965.694030	2539.438400
965.993189	2541.578370
966.292309	2537.890766
966.591393	2541.432177
966.890439	2539.428318
967.189447	2540.257588
967.488419	2538.324305
967.787353	2542.916796
968.086249	2541.086857
968.385108	2540.832279
968.683930	2541.590973
968.982714	2540.940664
969.281462	2539.347659
969.580172	2545.122301
969.878844	2542.962167
970.177480	2541.946374
970.476078	2541.643905
970.774639	2543.814122
971.073162	2541.895963
971.371649	2536.862371
971.670098	2537.739531
971.968510	2540.371014
972.266885	2534.775333
972.565223	2539.882022
972.863524	2542.011909
973.161788	2543.783875
973.460014	2542.831097
973.758204	2542.977290
974.056356	2539.463606
974.354471	2543.438556
974.652550	2542.417722
974.950591	2541.994265
975.248595	2540.514687
975.546563	2541.376724
975.844493	2542.463092
976.142386	2540.587783
976.440243	2541.875798
976.738062	2540.804553
977.035845	2540.338246
977.333590	2539.551826
977.631299	2541.164995
977.928971	2539.559388
978.226606	2538.271373
978.524204	2541.948895
978.821765	2539.324974
979.119290	2540.287835
979.416777	2541.248174
979.714228	2541.285983
980.011642	2537.474871
980.309020	2542.659698
980.606360	2540.237423
980.903664	2539.564429
981.200931	2540.408822
981.498162	2541.588452
981.795356	2542.011909
982.092513	2544.570295
982.389633	2547.461397
982.686717	2552.842828
982.983764	2553.450287
983.280775	2558.955227
983.577749	2554.793755
983.874686	2555.824671
984.171587	2550.549103
984.468451	2551.179247
984.765279	2543.695655
985.062070	2546.853938
985.358824	2544.676159
985.655543	2541.069213
985.952224	2540.872608
986.248869	2540.560057
986.545478	2534.576207
986.842050	2538.568801
987.138586	2535.312216
987.435086	2536.675848
987.731549	2533.862884
988.027975	2540.207176
988.324366	2537.058976
988.620719	2539.665252
988.917037	2536.708615
989.213318	2539.312371
989.509563	2537.280786
989.805772	2536.073430
990.101944	2536.406146
990.398080	2535.589479
990.694180	2538.576363
990.990244	2538.089892
991.286271	2536.496887
991.582262	2535.660055
991.878217	2537.585776
992.174136	2538.553678
992.470019	2537.154758
992.765865	2538.858667
993.061676	2537.263142
993.357450	2539.909748
993.653188	2538.271373
993.948890	2535.985210
994.244556	2537.008564
994.540186	2541.694317
994.835780	2539.546785
995.131337	2540.610468
995.426859	2541.059131
995.722345	2539.173740
996.017795	2539.319933
996.313208	2542.344625
996.608586	2541.288504
996.903928	2540.829759
997.199234	2540.078627
997.494504	2539.728267
997.789738	2541.396888
998.084936	2539.030067
998.380099	2537.822710
998.675225	2539.612320
998.970316	2536.126362
999.265371	2539.665252
999.560390	2538.432690
999.855373	2539.629964
1000.150320	2537.452186
1000.445232	2535.874304
1000.740108	2537.739531
1001.034948	2537.832793
1001.329752	2536.121321
1001.624521	2535.667617
1001.919254	2532.756351
1002.213951	2532.837009
1002.508613	2530.185362
1002.803239	2535.171063
1003.097829	2531.322142
1003.392384	2537.870601
1003.686903	2534.457740
1003.981386	2537.673996
1004.275834	2538.536034
1004.570246	2536.234747
1004.864623	2535.982689
1005.158964	2535.634850
1005.453270	2535.982689
1005.747540	2535.329860
1006.041775	2535.755837
1006.335974	2536.275076
1006.630138	2535.720549
1006.924266	2534.619057
1007.218359	2535.463450
1007.512416	2536.091074
1007.806438	2537.061496
1008.100425	2535.549150
1008.394376	2534.979500
1008.688292	2536.660724
1008.982172	2537.058976
1009.276017	2535.629808
1009.569827	2534.407329
1009.863602	2535.455889
1010.157341	2536.917823
1010.451045	2533.225178
1010.744714	2533.169725
1011.038347	2536.030580
1011.331945	2534.785415
1011.625508	2537.220292
1011.919036	2534.107380
1012.212528	2535.813811
1012.505986	2534.989582
1012.799408	2536.779192
1013.092795	2535.657535
1013.386147	2532.864736
1013.679464	2534.253573
1013.972745	2536.907741
1014.265992	2533.555374
1014.559204	2534.989582
1014.852380	2534.987061
1015.145521	2536.247350
1015.438628	2538.727598
1015.731699	2533.477236
1016.024736	2532.857174
1016.317737	2536.653163
1016.610703	2536.811959
1016.903635	2533.000847
1017.196531	2531.942204
1017.489393	2534.777853
1017.782219	2529.945907
1018.075011	2533.656197
1018.367768	2533.358769
1018.660490	2534.742565
1018.953177	2534.742565
1019.245829	2534.742565
