Dividing Wavelength (nm)	Counts (n)	Blue Motor Position (mm): 37.600000	Red Motor Position (mm): 0.000000	
326.493990	2236.190311
326.888308	2236.190311
327.282561	2236.190311
327.676750	2199.286544
328.070874	2198.321163
328.464933	2196.415607
328.858929	2198.611030
329.252859	2206.167719
329.646726	2216.325644
330.040528	2225.636656
330.434265	2238.373131
330.827938	2258.114289
331.221547	2272.963008
331.615091	2290.072684
332.008571	2310.154120
332.401986	2329.839826
332.795338	2348.018227
333.188625	2367.363655
333.581847	2389.305277
333.975006	2405.925961
334.368100	2424.737027
334.761129	2443.227979
335.154095	2461.224898
335.546996	2488.207674
335.939833	2524.327542
336.332606	2543.899821
336.725315	2553.422561
337.117960	2567.850343
337.510540	2580.395255
337.903056	2590.253231
338.295508	2597.754468
338.687896	2606.730242
339.080220	2616.129474
339.472480	2621.110134
339.864676	2626.017697
340.256807	2630.456433
340.648875	2637.158647
341.040879	2638.996147
341.432818	2639.253246
341.824694	2644.354894
342.216506	2644.992600
342.608253	2646.666263
342.999937	2647.452683
343.391557	2646.915800
343.783113	2645.781541
344.174605	2643.331540
344.566033	2643.956643
344.957397	2642.749287
345.348697	2641.844399
345.739934	2641.199132
346.131106	2639.102012
346.522215	2637.229223
346.913260	2635.237967
347.304241	2632.722432
347.695159	2631.875518
348.086012	2632.394757
348.476802	2626.622635
348.867528	2621.410082
349.258191	2620.822788
349.648789	2620.293467
350.039324	2615.128805
350.429796	2619.985956
350.820203	2617.818260
351.210548	2618.150976
351.600828	2615.655605
351.991045	2617.374639
352.381198	2614.843979
352.771288	2614.596963
353.161314	2614.932200
353.551276	2613.382045
353.941175	2611.569750
354.331010	2611.675614
354.720782	2613.437497
355.110490	2612.520007
355.500135	2612.157044
355.889717	2610.538834
356.279235	2610.364914
356.668689	2611.534462
357.058080	2610.178392
357.447408	2614.065121
357.836672	2613.432456
358.225873	2611.103443
358.615010	2613.223248
359.004084	2617.977057
359.393095	2616.232817
359.782043	2613.649226
360.170927	2613.969339
360.559748	2616.933538
360.948505	2619.408744
361.337199	2619.328086
361.725830	2618.740791
362.114398	2618.723147
362.502903	2615.595111
362.891344	2620.366563
363.279722	2621.389918
363.668037	2619.804475
364.056289	2621.442850
364.444478	2621.450412
364.832603	2621.785648
365.220665	2621.170627
365.608665	2622.335134
365.996601	2622.388066
366.384474	2624.790176
366.772284	2624.442336
367.160031	2625.085083
367.547715	2627.028448
367.935336	2626.892337
368.322893	2621.125257
368.710388	2624.550721
369.097820	2622.756070
369.485189	2622.304887
369.872495	2626.884775
370.259738	2627.124230
370.646918	2629.349900
371.034035	2630.905096
371.421090	2628.127420
371.808081	2630.716052
372.195010	2628.966772
372.581875	2630.133799
372.968678	2631.809983
373.355418	2630.287554
373.742096	2630.070785
374.128710	2633.753347
374.515262	2633.738224
374.901751	2632.460292
375.288177	2635.268214
375.674540	2633.266876
376.060841	2636.583955
376.447079	2634.809469
376.833254	2637.514048
377.219367	2638.834831
377.605417	2635.336270
377.991404	2638.040849
378.377329	2639.301137
378.763191	2640.155613
379.148991	2639.283493
379.534727	2641.607465
379.920402	2639.260808
380.306013	2640.022022
380.691563	2642.570326
381.077049	2641.620068
381.462474	2642.542599
381.847835	2643.223155
382.233134	2641.673000
382.618371	2641.783906
383.003545	2643.986890
383.388657	2642.749287
383.773706	2647.293887
384.158693	2648.286994
384.543618	2647.956798
384.928480	2646.817498
385.313280	2647.571150
385.698017	2648.599546
386.082692	2649.385966
386.467305	2650.888229
386.851856	2649.950575
387.236344	2652.145997
387.620770	2648.322282
388.005133	2650.696666
388.389435	2649.698517
388.773674	2649.179278
389.157851	2655.266472
389.541965	2656.153715
389.926018	2654.832932
390.310008	2657.421565
390.693936	2657.855104
391.077802	2657.885351
391.461606	2659.715290
391.845348	2658.903664
392.229027	2663.286947
392.612645	2661.089004
392.996200	2663.851557
393.379694	2666.551094
393.763125	2667.380364
394.146494	2668.764161
394.529801	2672.323216
394.913047	2678.435615
395.296230	2683.643127
395.679351	2690.889785
396.062410	2696.568645
396.445408	2707.069368
396.828343	2723.274157
397.211217	2741.742425
397.594028	2756.339086
397.976778	2781.176851
398.359466	2809.341777
398.742092	2840.909482
399.124656	2870.314533
399.507158	2916.859506
399.889598	2966.799697
400.271977	3032.511137
400.654294	3080.031574
401.036549	3144.029022
401.418742	3185.996628
401.800874	3286.824746
402.182944	3363.800645
402.564952	3461.520891
402.946898	3546.723953
403.328783	3575.781164
403.710606	3650.543996
404.092367	3831.413034
404.474067	3922.809153
404.855705	3965.018735
405.237282	4012.350128
405.618797	4201.337945
406.000250	4273.413842
406.381642	4446.746355
406.762972	4543.090367
407.144240	4658.036236
407.525447	4731.173296
407.906593	4835.585675
408.287677	5010.964896
408.668700	5036.553793
409.049661	5187.644736
409.430560	5286.887411
409.811399	5261.056539
410.192176	5528.683835
410.572891	5600.311069
410.953545	5833.093910
411.334138	5699.924269
411.714669	5905.177368
412.095139	5802.957892
412.475547	6060.490277
412.855894	6170.931876
413.236180	6376.956272
413.616405	6171.390621
413.996568	6410.931128
414.376670	6479.765563
414.756711	6435.466424
415.136691	6560.645836
415.516609	6776.387056
415.896466	6819.320042
416.276262	7030.390633
416.655997	7041.803806
417.035670	7257.882783
417.415283	7597.870801
417.794834	7671.668252
418.174324	7569.549599
418.553753	7514.827874
418.933121	7846.344233
419.312428	7957.237015
419.691674	7766.373889
420.070859	8241.739573
420.449983	7943.688914
420.829045	8315.436201
421.208047	8114.548741
421.586988	8410.250223
421.965867	8429.711597
422.344686	8555.841267
422.723444	8587.262778
423.102141	7974.797874
423.480777	8719.550217
423.859352	8249.223166
424.237866	8872.098053
424.616319	8742.540399
424.994712	9151.166248
425.373044	8729.516578
425.751314	9182.212194
426.129524	9044.860916
426.507673	9190.726703
426.885762	9337.668775
427.263789	9247.679138
427.641756	9170.854474
428.019662	9276.779199
428.397508	9509.998099
428.775292	9208.088436
429.153016	9580.783461
429.530679	9411.796422
429.908282	9468.116193
430.285824	9176.913941
430.663305	9854.558444
431.040726	9305.735586
431.418086	9297.258886
431.795385	9619.497002
432.172624	9702.043375
432.549802	9622.917425
432.926920	9707.248367
433.303977	9586.686652
433.680974	9794.576275
434.057910	9872.628460
434.434786	9940.673954
434.811601	9782.626220
435.188355	10347.958856
435.565050	10074.163708
435.941683	10003.862297
436.318257	10500.378142
436.694770	10619.374579
437.071222	10692.579695
437.447614	10541.619822
437.823946	10430.177555
438.200218	10579.017622
438.576429	10392.991483
438.952580	10629.048553
439.328670	10688.450990
439.704700	10469.269182
440.080670	10459.862389
440.456580	11020.176557
440.832429	10775.884762
441.208218	10367.314366
441.583947	10699.067660
441.959616	10851.081133
442.335224	10646.760647
442.710773	10794.665581
443.086261	11003.974288
443.461689	10276.387074
443.837057	10932.558782
444.212365	11213.088912
444.587612	10854.995589
444.962800	11083.616957
445.337927	10847.267500
445.712995	10442.417476
446.088002	11519.790191
446.462949	11178.415855
446.837837	11158.553709
447.212664	11144.995526
447.587431	11655.122487
447.962139	12379.062426
448.336786	14644.783816
448.711374	15200.205544
449.085901	13047.612687
449.460369	12654.498469
449.834776	12110.447064
450.209124	12981.361843
450.583412	13383.340930
450.957640	14344.898177
451.331808	13477.711330
451.705917	12465.956795
452.079965	11770.083479
452.453954	12670.952795
452.827883	12307.987198
453.201752	12594.133172
453.575562	12118.167591
453.949311	12538.882126
454.323001	12498.908297
454.696632	12725.944222
455.070202	13012.296884
455.443713	13243.005290
455.817164	13711.459552
456.190556	13708.555847
456.563888	14062.573397
456.937160	14235.500097
457.310373	13570.909662
457.683526	13665.365762
458.056619	13208.695197
458.429653	13360.645656
458.802628	12784.842543
459.175542	13161.762054
459.548398	14111.951499
459.921194	14449.106388
460.293930	14505.632847
460.666607	15388.608587
461.039224	16434.282526
461.411782	17133.009134
461.784280	16994.815984
462.156719	17060.832414
462.529099	16739.375678
462.901419	15680.866960
463.273680	15464.762777
463.645882	15330.973075
464.018024	15062.277054
464.390106	15288.599656
464.762130	16008.509193
465.134094	16774.991429
465.505999	18783.356875
465.877845	22037.404038
466.249631	24868.710123
466.621358	24548.879158
466.993026	23101.037088
467.364634	22540.632180
467.736184	21072.837223
468.107674	20280.014958
468.479105	20409.106305
468.850477	19871.195025
469.221790	19457.270924
469.593043	18780.937121
469.964238	18219.249239
470.335373	17875.629069
470.706449	18319.643818
471.077467	17877.895068
471.448425	19725.717407
471.819324	23767.044088
472.190164	25755.870021
472.560945	22183.360566
472.931667	19832.448717
473.302330	19187.259162
473.672934	18746.707686
474.043479	19045.335558
474.413965	18864.159009
474.784393	18487.015167
475.154761	19185.366209
475.525070	19162.577673
475.895321	18840.914249
476.265513	19419.177445
476.635645	20004.508338
477.005719	19787.867272
477.375734	19971.491301
477.745691	20460.437854
478.115588	20986.333544
478.485427	21519.133094
478.855207	22580.641297
479.224928	24356.896896
479.594591	26575.228920
479.964194	26595.030572
480.333739	26800.097149
480.703226	26370.653856
481.072653	26059.775980
481.442022	26640.181667
481.811333	27562.647286
482.180584	27481.832548
482.549777	26527.849636
482.918912	26182.389445
483.287988	26296.672403
483.657005	25958.163963
484.025964	25721.630504
484.394864	25623.522088
484.763706	25306.115919
485.132489	24738.688683
485.501213	24915.983543
485.869879	24837.187788
486.238487	24649.535877
486.607036	24791.696416
486.975527	24503.874257
487.343959	24820.229346
487.712333	24753.673513
488.080648	24415.253293
488.448905	24907.332923
488.817104	24667.056407
489.185244	25342.681928
489.553326	25311.572968
489.921350	26311.483313
490.289315	28609.831051
490.657222	30386.376516
491.025070	30876.134694
491.392861	30653.103966
491.760593	29803.462855
492.128267	28894.303362
492.495883	27860.138377
492.863440	26972.446637
493.230939	26104.014626
493.598380	25946.710461
493.965763	25553.553393
494.333088	25085.073925
494.700354	25040.431988
495.067563	24906.826287
495.434713	24646.105372
495.801805	24810.147039
496.168839	24611.328972
496.535815	24451.625218
496.902733	24674.204763
497.269593	24355.772719
497.636395	24537.271902
498.003139	24484.836340
498.369825	24235.793258
498.736453	24433.726602
499.103023	24317.500279
499.469535	24315.786287
499.835989	24537.715523
500.202385	24558.170005
500.568723	24079.116717
500.935003	24295.009171
501.301226	23948.742396
501.667390	24779.900116
502.033497	25004.380176
502.399546	24736.768003
502.765537	24293.269973
503.131470	24684.329921
503.497345	24821.199768
503.863163	24029.627709
504.228923	24619.997236
504.594625	24832.489433
504.960269	24376.733837
505.325856	24864.830955
505.691385	24267.970942
506.056856	24867.656522
506.422270	24845.926628
506.787625	24398.740994
507.152924	24824.935263
507.518164	24854.673030
507.883347	24668.135214
508.248472	24332.933772
508.613540	25132.140658
508.978550	24917.067391
509.343503	24918.970427
509.708398	25154.795604
510.073236	25307.933255
510.438016	25533.673603
510.802738	25205.086154
511.167403	25460.168539
511.532010	25178.267216
511.896561	25923.488386
512.261053	25904.122794
512.625488	25735.329839
512.989866	25628.669106
513.354186	25469.603058
513.718449	25585.887354
514.082655	25962.295188
514.446803	25692.532964
514.810894	26161.750961
515.174927	25649.821788
515.538904	25694.115886
515.902822	26186.379518
516.266684	25937.502794
516.630488	25837.539234
516.994235	25799.526413
517.357925	26122.908871
517.721558	26289.042616
518.085133	26406.234320
518.448651	26305.012992
518.812112	26029.851691
519.175516	26257.729489
519.538863	26400.436993
519.902152	26176.576994
520.265385	26465.205737
520.628560	26253.956185
520.991678	26258.571362
521.354739	26325.533008
521.717743	26401.810707
522.080690	26181.512284
522.443580	26505.403898
522.806413	26508.778951
523.169189	26605.296882
523.531908	26644.015464
523.894569	26252.153973
524.257174	26339.905338
524.619722	26508.300041
524.982213	26204.381478
525.344647	26251.533911
525.707025	26404.744659
526.069345	26369.081016
526.431608	26330.407804
526.793815	26522.569027
527.155964	25993.961196
527.518057	26158.874983
527.880093	26089.778408
528.242072	26314.044219
528.603995	26013.467941
528.965860	25821.571379
529.327669	25864.040579
529.689421	25851.619176
530.051117	25693.395001
530.412755	25856.846853
530.774337	25648.004452
531.135862	25537.567895
531.497331	25730.881021
531.858743	25306.224303
532.220098	25756.611070
532.581396	25453.725944
532.942638	25376.389603
533.303824	25496.800083
533.664953	25494.178683
534.026025	25152.706045
534.387040	25405.842545
534.747999	25449.854338
535.108902	25615.839370
535.469748	25111.950837
535.830537	25280.007783
536.191270	25409.119295
536.551947	25270.991679
536.912567	24913.006742
537.273131	25299.494363
537.633638	24982.922504
537.994089	25198.666245
538.354483	24711.579878
538.714821	25229.223199
539.075103	25263.465237
539.435328	25042.317379
539.795497	24614.729230
540.155609	25001.153837
540.515665	25291.466326
540.875665	24521.823286
541.235609	24839.307593
541.595496	24778.806185
541.955328	25145.605580
542.315102	25060.548712
542.674821	24597.420429
543.034483	24471.981398
543.394090	24655.459233
543.753640	24444.489465
544.113134	25083.342289
544.472571	24669.019937
544.831953	24974.138294
545.191278	24601.334885
545.550548	24518.017214
545.909761	24704.308014
546.268918	24939.535814
546.628019	24913.594036
546.987064	24603.134577
547.346053	24352.284241
547.704986	24469.218845
548.063863	24618.076557
548.422684	24644.335927
548.781449	24153.889631
549.140158	24574.001748
549.498811	24134.196363
549.857408	23900.483430
550.215949	24309.719258
550.574434	23986.314115
550.932864	24194.397823
551.291237	24371.677559
551.649555	24217.594692
552.007817	24284.079950
552.366022	24145.821264
552.724173	24173.068701
553.082267	24123.562049
553.440305	24600.840852
553.798288	23857.121945
554.156215	24359.520817
554.514086	24477.254444
554.871902	23859.486246
555.229661	24141.276664
555.587365	23988.277645
555.945014	23870.438153
556.302606	24099.913997
556.660143	24063.317740
557.017625	24319.836854
557.375050	23835.124870
557.732421	24228.448296
558.089735	24037.426374
558.446994	24091.346556
558.804197	24127.688234
559.161345	24054.830958
559.518437	23819.126769
559.875474	24013.969885
560.232455	24195.635426
560.589381	24000.285673
560.946251	23995.683100
561.303065	24310.888806
561.659825	24405.836418
562.016528	24008.911087
562.373177	23737.510488
562.729770	24113.099135
563.086307	23953.584424
563.442789	24125.848213
563.799216	23961.801505
564.155587	23963.341577
564.511904	23954.804383
564.868164	23892.074785
565.224370	23858.583880
565.580520	23789.625936
565.936615	23912.914915
566.292654	23598.760290
566.648638	23867.708368
567.004567	23709.653072
567.360441	23649.759123
567.716260	23374.610425
568.072023	23700.904149
568.427732	23466.616524
568.783385	23250.570314
569.138982	23485.437672
569.494525	23518.928578
569.850013	23268.912553
570.205445	23376.977247
570.560823	23193.222148
570.916145	22952.474285
571.271412	23120.412763
571.626625	22878.881000
571.981782	22980.001505
572.336884	22797.269761
572.691931	22933.753960
573.046923	22670.328466
573.401860	22544.408004
573.756743	22563.569430
574.111570	22465.178710
574.466342	22387.865054
574.821059	22461.745684
575.175722	22175.040141
575.530330	22152.874188
575.884882	22178.337056
576.239380	22086.320875
576.593823	21986.274136
576.948211	21961.396041
577.302544	21799.960651
577.656823	21673.042041
578.011047	21783.319802
578.365216	21636.458388
578.719330	21510.981548
579.073389	21408.958677
579.427394	21560.445350
579.781344	21331.166111
580.135239	21207.720856
580.489080	21167.048827
580.842866	20953.404727
581.196597	21147.516876
581.550273	21115.939089
581.903895	20991.490644
582.257463	21317.769245
582.610975	20841.342398
582.964434	21164.281233
583.317837	20848.042091
583.671186	20939.168508
584.024481	20914.255126
584.377721	20689.868327
584.730906	20750.866289
585.084037	20757.276116
585.437113	20668.443423
585.790135	20884.121629
586.143103	20335.462609
586.496016	20364.635766
586.848874	20592.967268
587.201679	20517.080259
587.554428	20207.981911
587.907124	20540.332581
588.259765	20299.869542
588.612352	20373.835872
588.964884	19938.819583
589.317362	20113.777869
589.669786	20176.573002
590.022155	20195.913388
590.374470	20410.134700
590.726731	20189.322080
591.078937	19967.730601
591.431090	20060.921371
591.783188	19817.244597
592.135232	19786.299474
592.487222	19879.482682
592.839157	19902.251053
593.191038	19776.895201
593.542866	19668.381844
593.894639	19377.766887
594.246358	19595.940463
594.598022	19499.800618
594.949633	19246.696887
595.301190	19221.627228
595.652692	19393.954032
596.004141	19621.630183
596.355535	18946.380228
596.706876	18969.219176
597.058162	18858.162557
597.409395	19087.948431
597.760573	19160.558691
598.111698	18932.559905
598.462768	18866.891315
598.813785	18839.467438
599.164748	18644.629362
599.515657	18691.136527
599.866511	18486.742944
600.217312	18836.672118
600.568060	18359.083285
600.918753	18667.354884
601.269392	18574.522036
601.619978	18362.904479
601.970510	18554.594354
602.320988	18501.871447
602.671412	18711.573365
603.021783	18623.285117
603.372100	18340.390686
603.722363	18493.273759
604.072572	18437.253937
604.422728	18570.302590
604.772830	18337.968412
605.122878	18298.720509
605.472872	18285.285834
605.822813	18260.914375
606.172701	18242.153721
606.522534	18426.133152
606.872314	18457.670610
607.222041	18286.810783
607.571714	18502.884719
607.921333	18331.999686
608.270899	18405.028361
608.620411	18575.772242
608.969870	18360.935909
609.319276	18355.229323
609.668627	18383.686636
610.017926	18512.263786
610.367171	18632.162589
610.716362	18681.638993
611.065500	18485.656576
611.414585	18643.061563
611.763616	18615.360423
612.112594	18559.759017
612.461518	18529.267597
612.810389	18718.215085
613.159207	18578.290298
613.507971	18489.979365
613.856682	18753.112472
614.205340	18671.851593
614.553945	18830.751283
614.902496	18574.093538
615.250994	18794.515469
615.599439	18745.439836
615.947830	18726.437207
616.296169	18792.834244
616.644454	18748.242718
616.992686	18723.664572
617.340864	18949.967009
617.688990	18693.266414
618.037063	18867.529021
618.385082	18715.475218
618.733048	19002.044649
619.080961	18877.341627
619.428821	18910.595598
619.776628	18790.787536
620.124382	18719.296412
620.472083	18766.869781
620.819731	18774.512170
621.167326	18475.846490
621.514868	18506.839504
621.862357	18292.015774
622.209793	18289.734652
622.557176	18126.676010
622.904506	17954.530689
623.251783	17872.921970
623.599007	17630.805433
623.946179	17580.109069
624.293297	17504.877410
624.640363	17248.081033
624.987376	17276.387112
625.334336	17072.041420
625.681243	16919.181032
626.028097	16932.527487
626.374899	16850.946494
626.721647	16723.213738
627.068343	16551.350721
627.414987	16484.147099
627.761577	16458.031402
628.108115	16484.575597
628.454600	16213.981582
628.801032	16317.068137
629.147412	16246.537354
629.493739	16267.745488
629.840014	16065.620425
630.186236	16172.450037
630.532405	15935.414983
630.878521	16135.730272
631.224585	16033.296546
631.570597	15854.040677
631.916556	15884.181736
632.262462	15863.906215
632.608316	15775.673420
632.954117	15728.170628
633.299866	15711.658328
633.645562	15626.304032
633.991206	15392.341561
634.336797	15263.033444
634.682336	15230.076901
635.027823	15107.602068
635.373257	14991.663092
635.718639	14900.269493
636.063968	14842.029043
636.409245	14595.241877
636.754470	14620.283808
637.099642	14466.674810
637.444762	14241.178957
637.789829	14288.422130
638.134845	14122.401811
638.479808	14148.414164
638.824719	14079.531838
639.169577	13937.595631
639.514383	13982.557682
639.859137	13811.276919
640.203839	13897.798242
640.548489	13732.821441
640.893086	13721.572107
641.237632	13601.511987
641.582125	13757.996964
641.926566	13573.238675
642.270955	13599.498046
642.615292	13547.380077
642.959576	13556.307960
643.303809	13594.580400
643.647990	13520.238504
643.992118	13579.678749
644.336195	13352.121065
644.680219	13574.057863
645.024192	13487.730624
645.368112	13724.115369
645.711981	13781.781128
646.055797	13960.268221
646.399562	13933.441720
646.743274	14208.897928
647.086935	14477.384741
647.430544	14443.823259
647.774101	14476.598321
648.117606	14621.274395
648.461059	14587.685187
648.804460	14581.852572
649.147810	14302.549964
649.491108	14210.218711
649.834354	14218.415627
650.177548	13908.228389
650.520690	13715.873082
650.863781	13642.317606
651.206820	13687.453577
651.549807	13516.750026
651.892742	13309.634220
652.235626	13254.539450
652.578458	13261.292075
652.921238	12948.251545
653.263967	13141.983087
653.606644	12973.202736
653.949269	12959.523565
654.291843	12753.962955
654.634365	12920.074015
654.976836	12766.449893
655.319255	12768.536931
655.661622	12726.428173
656.003938	12652.935711
656.346203	12574.059298
656.688416	12652.315649
657.030577	12611.373918
657.372687	12516.948066
657.714746	12500.980211
658.056753	12688.412832
658.398708	12499.611538
658.740612	12504.851817
659.082465	12610.574896
659.424266	12581.361409
659.766016	12599.381013
660.107715	12516.048220
660.449362	12592.456989
660.790958	12541.289277
661.132503	12487.394301
661.473996	12558.179663
661.815438	12570.507805
662.156829	12592.973707
662.498168	12576.078280
662.839456	12564.924727
663.180693	12589.817945
663.521879	12686.353520
663.863013	12655.766319
664.204097	12620.258952
664.545129	12759.687185
664.886110	12729.286507
665.227040	12825.063389
665.567918	12812.415134
665.908746	12852.693953
666.249522	12831.037156
666.590248	12881.904919
666.930922	12998.123680
667.271545	12973.537973
667.612118	13061.332187
667.952639	12956.879480
668.293109	12985.082215
668.633528	12936.745111
668.973896	12904.504412
669.314213	12981.394611
669.654480	12723.400960
669.994695	12806.549751
670.334859	12822.197493
670.674973	12770.003907
671.015035	12805.387765
671.355047	12754.351124
671.695008	12722.624622
672.034918	12733.974780
672.374777	12773.759566
672.714585	12682.597861
673.054342	12722.175959
673.394049	12670.052949
673.733705	12770.719750
674.073310	12673.488496
674.412864	12678.499403
674.752368	12543.719113
675.091820	12578.684556
675.431223	12564.196280
675.770574	12426.267790
676.109875	12349.591840
676.449125	12304.092906
676.788324	12254.724887
677.127473	12085.659710
677.466571	12081.125192
677.805619	11969.662760
678.144616	11891.706357
678.483562	11865.905732
678.822458	11735.551576
679.161303	11714.540046
679.500098	11705.201309
679.838842	11654.895635
680.177535	11686.564163
680.516179	11749.450037
680.854771	11687.456447
681.193314	11903.013665
681.531805	12072.000704
681.870247	12500.415602
682.208638	12920.595775
682.546978	13216.836660
682.885268	13256.525664
683.223508	12957.708749
683.561697	12796.064151
683.899836	12697.436497
684.237925	12497.532062
684.575963	12414.378229
684.913951	12328.406391
685.251889	12289.057665
685.589776	12380.201727
685.927614	12303.729943
686.265401	12272.542845
686.603137	12321.094198
686.940824	12480.825678
687.278460	12608.553393
687.616046	12645.207623
687.953582	12806.494299
688.291068	12746.703693
688.628504	12980.227584
688.965889	12985.787976
689.303224	12947.802882
689.640510	12831.581601
689.977745	12520.224816
690.314930	12293.269549
690.652065	12205.303935
690.989150	11912.319635
691.326185	11689.397292
691.663170	11486.571508
692.000105	11246.310115
692.336990	11124.331836
692.673825	10866.113854
693.010610	10753.343242
693.347345	10535.688905
693.684030	10354.464465
694.020665	10290.421647
694.357251	10100.012225
694.693786	10024.281491
695.030272	9865.711997
695.366707	9754.642775
695.703093	9685.823463
696.039429	9682.574439
696.375716	9590.260830
696.711952	9469.255494
697.048139	9517.675776
697.384276	9469.361358
697.720363	9491.086210
698.056400	9425.284029
698.392388	9369.491059
698.728326	9333.477056
699.064214	9268.514227
699.400053	9313.786309
699.735842	9130.878124
700.071581	9091.012679
700.407270	9018.233541
700.742910	8934.227754
701.078501	8841.435235
701.414042	8707.411119
701.749533	8653.180906
702.084974	8511.274946
702.420366	8630.760374
702.755709	8510.576746
703.091002	8375.070531
703.426246	8405.198987
703.761440	8359.810958
704.096584	8315.302611
704.431679	8247.501612
704.766725	8234.923933
705.101721	8184.638424
705.436668	8234.036690
705.771565	8121.117365
706.106413	8207.353863
706.441212	8245.275943
706.775961	8203.298255
707.110661	8247.085717
707.445311	8381.147642
707.779913	8280.296838
708.114465	8404.828462
708.448967	8445.868495
708.783421	8597.425745
709.117825	8772.673896
709.452180	8810.474988
709.786485	8905.420080
710.120742	9184.634468
710.454949	9187.066825
710.789107	9286.223800
711.123216	9515.616465
711.457275	9680.079068
711.791286	9838.371299
712.125247	9837.718469
712.459159	9820.896139
712.793023	10058.190812
713.126837	9632.417479
713.460602	9782.424573
713.794318	9618.050191
714.127985	9641.373089
714.461602	9314.527359
714.795171	9258.676415
715.128691	9014.591308
715.462162	8771.017877
715.795584	8717.276657
716.128957	8553.688694
716.462281	8393.281699
716.795556	8433.563039
717.128782	8229.487049
717.461960	7970.374262
717.795088	8037.890435
718.128167	7944.772762
718.461198	7780.889892
718.794180	7721.825212
719.127113	7714.220632
719.459997	7555.351189
719.792833	7328.388361
720.125619	7394.127527
720.458357	7248.226453
720.791046	7247.397183
721.123686	7230.695840
721.456278	7075.140956
721.788821	7090.728204
722.121315	6986.237687
722.453761	7057.706125
722.786158	6991.130127
723.118506	7003.372569
723.450805	6970.549617
723.783056	7034.746190
724.115259	6955.247194
724.447412	6949.568334
724.779518	6996.103225
725.111574	6998.293607
725.443582	7077.684218
725.775542	7058.832823
726.107453	7253.025631
726.439315	7161.145561
726.771129	7233.029894
727.102895	7400.181953
727.434612	7510.840321
727.766281	7544.795013
728.097901	7631.565873
728.429473	7624.057075
728.760996	7606.539065
729.092471	7580.735919
729.423897	7522.694594
729.755276	7530.200873
730.086606	7440.627130
730.417887	7552.631487
730.749120	7759.596058
731.080305	7947.031199
731.411442	8064.280876
731.742530	8055.083290
732.073570	8163.823499
732.404562	8247.141170
732.735506	8098.991740
733.066401	8236.895024
733.397249	8171.430601
733.728048	7922.606808
734.058798	7590.309070
734.389501	7364.097374
734.720156	7178.194743
735.050762	6957.593851
735.381320	6867.957095
735.711831	6806.049205
736.042293	6696.956115
736.372707	6718.814558
736.703073	6583.837664
737.033391	6622.422655
737.363661	6636.361446
737.693883	6664.866650
738.024056	6751.609784
738.354182	6791.679396
738.684260	6821.994374
739.014290	6947.330062
739.344272	7058.338790
739.674207	7087.264931
740.004093	7152.953686
740.333931	7170.270050
740.663722	7176.523601
740.993464	7248.503716
741.323159	7229.833803
741.652806	6984.571586
741.982405	7013.621235
742.311956	7061.875160
742.641460	6886.876545
742.970915	6695.501742
743.300323	6685.462284
743.629683	6641.095089
743.958996	6509.372260
744.288260	6413.713845
744.617477	6363.584611
744.946647	6360.910279
745.275768	6196.140166
745.604842	6151.029400
745.933869	6134.141535
746.262847	6095.831286
746.591778	6080.743113
746.920662	6032.143869
747.249498	6036.328027
747.578286	6082.431899
747.907027	6161.635988
748.235720	6221.368620
748.564365	6196.210742
748.892963	6227.120577
749.221514	6368.640888
749.550017	6196.331729
749.878473	6078.262865
750.206881	6135.888295
750.535242	6083.780408
750.863555	6008.299212
751.191821	6026.270925
751.520039	6023.548702
751.848210	5929.541265
752.176334	5957.953208
752.504411	6005.584550
752.832440	5925.946922
753.160421	5859.471747
753.488356	5908.393625
753.816243	5934.232059
754.144082	5785.686899
754.471875	5760.584473
754.799620	5802.771369
755.127318	5818.928267
755.454969	5773.315907
755.782572	5735.527418
756.110129	5782.122803
756.437638	5757.683289
756.765100	5703.717737
757.092515	5709.149581
757.419882	5758.683958
757.747203	5737.506071
758.074477	5796.704341
758.401703	5782.906703
758.728882	5734.730916
759.056014	5803.608201
759.383099	5921.813176
759.710138	5933.944713
760.037129	5919.519451
760.364073	5921.397281
760.690970	6005.508933
761.017820	5983.247198
761.344623	5950.252846
761.671379	6050.062651
761.998088	6174.644686
762.324751	6428.837307
762.651366	7056.372740
762.977935	8399.933502
763.304456	10046.006343
763.630931	10924.986969
763.957359	10502.255972
764.283740	9545.533192
764.610074	8691.712966
764.936362	7687.142074
765.262602	7092.258194
765.588796	6550.087139
765.914943	6222.581017
766.241044	6056.500204
766.567097	5845.401887
766.893104	5581.673923
767.219064	5403.491820
767.544978	5340.646276
767.870845	5264.436632
768.196665	5157.092823
768.522438	5085.415177
768.848165	5051.871339
769.173846	4981.814424
769.499479	4937.061581
769.825066	4883.557295
770.150607	4825.626875
770.476101	4801.557886
770.801548	4796.725940
771.126949	4714.386254
771.452303	4662.273326
771.777611	4626.022389
772.102872	4646.005522
772.428087	4608.358186
772.753256	4564.177513
773.078378	4515.487529
773.403453	4449.692909
773.728482	4432.356381
774.053465	4385.405595
774.378401	4373.717680
774.703291	4369.294067
775.028135	4297.203047
775.352932	4248.087085
775.677683	4239.154160
776.002388	4257.763580
776.327046	4267.823202
776.651658	4191.908466
776.976224	4131.729692
777.300743	4139.737565
777.625216	4161.807737
777.949643	4151.533865
778.274024	4106.259262
778.598359	4069.201741
778.922647	4090.724947
779.246889	4081.693720
779.571086	4073.650559
779.895236	4056.545924
780.219339	4048.749779
780.543397	4043.141496
780.867409	4096.613015
781.191374	4106.110548
781.515294	4042.355076
781.839167	4035.814179
782.162995	4057.042477
782.486776	4045.072258
782.810511	4053.327147
783.134201	4049.415212
783.457844	4004.082636
783.781441	3946.880663
784.104993	3952.506591
784.428498	3974.269252
784.751958	3967.191472
785.075372	3948.955098
785.398739	3911.542175
785.722061	3924.150100
786.045337	3967.662820
786.368568	3995.653827
786.691752	3908.076381
787.014891	3964.449084
787.337983	4093.956327
787.661030	4252.979525
787.984031	4418.707457
788.306987	4583.898507
788.629897	4668.239532
788.952760	4622.186071
789.275579	4558.768355
789.598351	4489.298735
789.921078	4341.582845
790.243759	4143.697392
790.566395	4127.782469
790.888984	4122.471613
791.211529	4015.715098
791.534027	3952.980459
791.856480	3940.816155
792.178888	3879.049417
792.501249	3832.471677
792.823566	3843.526927
793.145836	3869.715721
793.468062	3818.875685
793.790241	3773.764919
794.112375	3804.606699
794.434464	3868.006770
794.756507	3895.755801
795.078505	3866.953169
795.400457	3908.968666
795.722364	4049.805901
796.044226	4155.450842
796.366042	4226.200915
796.687812	4203.808110
797.009538	4206.290878
797.331218	4169.505579
797.652852	4143.631857
797.974442	4120.722333
798.295986	4119.184781
798.617484	4037.777708
798.938938	3950.664049
799.260346	3995.341275
799.581709	3986.761231
799.903026	3909.107297
800.224299	3878.167216
800.545526	3871.550701
800.866708	3833.220288
801.187845	3772.928088
801.508936	3806.807162
801.829983	3801.503868
802.150984	3723.484451
802.471940	3720.026219
802.792851	3722.909759
803.113717	3726.569637
803.434538	3723.368504
803.755314	3666.864732
804.076045	3644.240033
804.396731	3663.898013
804.717372	3689.333154
805.037967	3677.582225
805.358518	3663.703928
805.679024	3691.667208
805.999485	3703.791183
806.319901	3710.805949
806.640272	3724.278433
806.960598	3734.902664
807.280879	3711.708316
807.601115	3726.022672
807.921306	3742.928181
808.241453	3783.022998
808.561554	3753.895212
808.881611	3685.685879
809.201623	3729.622056
809.521590	3737.619846
809.841513	3708.895352
810.161390	3740.742841
810.481223	3715.305179
810.801011	3663.590502
811.120755	3660.475069
811.440453	3692.897250
811.760107	3691.304245
812.079716	3647.541989
812.399281	3621.668267
812.718801	3644.683655
813.038276	3618.111733
813.357707	3617.534521
813.677093	3630.482724
813.996434	3577.170002
814.315731	3588.419337
814.634983	3591.252465
814.954191	3607.333746
815.273354	3633.882983
815.592473	3628.662868
815.911547	3636.920278
816.230577	3681.509283
816.549562	3729.191037
816.868502	3772.870115
817.187399	3798.111172
817.506250	3795.290646
817.825058	3772.033283
818.143821	3868.039537
818.462539	3965.492603
818.781213	4010.250487
819.099843	4071.485383
819.418429	4333.519519
819.736970	4571.277978
820.055466	4826.088141
820.373919	5196.002969
820.692327	5612.971927
821.010691	6081.670685
821.329011	7526.540995
821.647286	10362.545435
821.965517	15045.618561
822.283704	19068.978569
822.601847	21147.277422
822.919945	19261.386809
823.237999	16629.644882
823.556010	14117.446356
823.873976	11984.118269
824.191897	9866.324497
824.509775	8522.297429
824.827609	7384.181331
825.145398	6850.648293
825.463144	6735.251240
825.780845	6845.314752
826.098502	7054.706639
826.416116	7972.310065
826.733685	9329.877672
827.051210	10434.016393
827.368692	10425.426267
827.686129	9125.375705
828.003522	7605.107378
828.320872	6575.093783
828.638177	5865.427870
828.955439	5295.928720
829.272656	4794.661588
829.589830	4515.860574
829.906960	4342.654090
830.224046	4149.207373
830.541088	4024.058208
830.858086	3976.804952
831.175041	3897.953744
831.491952	3887.649626
831.808819	3893.817478
832.125642	3972.824961
832.442421	4126.978405
832.759157	4414.142692
833.075849	4983.601513
833.392497	5871.996494
833.709101	6659.928840
834.025662	6983.775084
834.342179	6582.542087
834.658653	5906.278861
834.975083	5247.533643
835.291469	4666.333975
835.607811	4261.579733
835.924110	4120.102271
836.240366	3913.344387
836.556578	3712.456927
836.872746	3601.866614
837.188871	3563.122827
837.504952	3491.929131
837.820990	3405.977458
838.136984	3363.969523
838.452935	3390.276785
838.768842	3384.086248
839.084706	3407.961152
839.400526	3572.544743
839.716303	3924.908794
840.032037	4470.827947
840.347727	4720.670052
840.663373	4423.070576
840.978977	4031.763612
841.294537	3719.388513
841.610054	3494.767301
841.925527	3386.185888
842.240957	3315.592090
842.556344	3262.843977
842.871687	3202.264431
843.186987	3150.955567
843.502244	3112.015175
843.817458	3079.111563
844.132629	3049.819939
844.447756	3057.301011
844.762840	3041.423897
845.077881	3009.405009
845.392879	2991.856752
845.707833	2987.400372
846.022745	2984.471462
846.337613	2986.848366
846.652438	2977.933085
846.967221	2972.339925
847.281960	2957.052626
847.596656	2952.780248
847.911309	2955.089097
848.225919	2949.500978
848.540485	2943.358332
848.855009	2942.987807
849.169490	2930.387443
849.483928	2922.180444
849.798323	2924.706062
850.112675	2919.450659
850.426984	2932.240067
850.741251	2928.650765
851.055474	2916.342788
851.369654	2913.118970
851.683792	2918.006369
851.997887	2926.495672
852.311938	2927.912236
852.625947	2913.996131
852.939914	2920.234559
853.253837	2923.750764
853.567718	2908.997827
853.881555	2909.524628
854.195350	2923.700352
854.509103	2918.311359
854.822812	2911.120153
855.136479	2909.925399
855.450103	2913.192067
855.763685	2904.846437
856.077224	2901.776374
856.390720	2913.711306
856.704173	2922.515681
857.017584	2914.424629
857.330953	2913.814649
857.644278	2920.912594
857.957561	2932.482042
858.270802	2935.226950
858.584000	2932.129161
858.897155	2920.869744
859.210268	2919.864034
859.523339	2917.076276
859.836367	2918.283632
860.149352	2911.793147
860.462295	2906.696540
860.775195	2914.878333
861.088054	2914.255750
861.400869	2894.507030
861.713642	2896.710014
862.026373	2908.869278
862.339062	2914.343971
862.651708	2918.734816
862.964312	2920.655495
863.276873	2913.192067
863.589392	2925.431988
863.901869	2936.517486
864.214303	2958.852318
864.526696	2975.536017
864.839045	2970.923361
865.151353	2967.558391
865.463619	2970.958649
865.775842	2968.667444
866.088023	2989.794920
866.400162	2996.063595
866.712258	2966.129223
867.024313	2955.235290
867.336325	2966.361117
867.648296	2988.448932
867.960224	2979.793271
868.272110	2963.654017
868.583954	2969.733648
868.895755	2984.174034
869.207515	2974.134576
869.519233	2979.599187
869.830909	2988.300218
870.142542	2994.699963
870.454134	2994.100066
870.765684	2997.860766
871.077191	2997.538133
871.388657	3005.344359
871.700081	3020.392203
872.011463	3031.402083
872.322803	3031.165149
872.634101	3034.237733
872.945357	3047.412788
873.256571	3075.033270
873.567744	3065.588668
873.878874	3060.214798
874.189963	3081.611976
874.501010	3082.824373
874.812015	3074.244329
875.122979	3073.142837
875.433900	3072.106880
875.744780	3079.358580
876.055618	3084.303952
876.366415	3081.606935
876.677169	3094.277875
876.987882	3087.905856
877.298554	3084.543407
877.609183	3109.295472
877.919771	3131.317753
878.230317	3159.954027
878.540822	3213.128118
878.851285	3253.976587
879.161707	3298.300933
879.472087	3402.292375
879.782425	3647.789005
880.092722	4101.845732
880.402977	4633.001866
880.713191	5287.235251
881.023363	6483.473332
881.333494	7786.480531
881.643583	8320.827715
881.953631	8011.875561
882.263637	7347.340578
882.573602	6744.758856
882.883526	6151.775491
883.193408	5576.491617
883.503248	5122.092092
883.813048	4810.836130
884.122806	4490.490967
884.432522	4167.451308
884.742197	3930.227211
885.051831	3735.293354
885.361424	3603.986420
885.670975	3528.472456
885.980485	3435.750513
886.289954	3360.211343
886.599382	3314.621668
886.908768	3274.113477
887.218113	3232.657548
887.527417	3172.869463
887.836680	3120.121350
888.145901	3116.007768
888.455082	3104.758434
888.764221	3052.211967
889.073319	3021.879344
889.382376	3019.391534
889.691392	3026.502082
890.000366	3027.341434
890.309300	3013.253930
890.618193	3024.684746
890.927044	3042.195194
891.235855	3038.794936
891.544625	3028.790766
891.853353	3039.561191
892.162041	3055.982750
892.470687	3098.252825
892.779293	3154.323058
893.087858	3197.941642
893.396381	3274.607510
893.704864	3403.003178
894.013306	3650.453255
894.321707	3961.000935
894.630068	4164.169517
894.938387	4153.812467
895.246665	4111.842340
895.554903	3983.413905
895.863100	3777.215589
896.171256	3609.506483
896.479371	3465.737817
896.787446	3339.615709
897.095480	3235.863722
897.403473	3171.089936
897.711425	3136.522744
898.019336	3124.459263
898.327207	3093.350303
898.635038	3060.285374
898.942827	3042.580842
899.250576	3031.633977
899.558284	2999.078205
899.865952	2980.930051
900.173579	2957.297122
900.481165	2951.217490
900.788711	2936.681323
901.096216	2915.299269
901.403681	2902.371230
901.711105	2908.836510
902.018489	2908.070255
902.325832	2906.331057
902.633135	2916.562078
902.940397	2953.405351
903.247619	3041.877601
903.554800	3242.412181
903.861941	3603.913323
904.169041	4042.120662
904.476101	4339.359696
904.783121	4280.368113
905.090100	4023.183568
905.397039	3744.836258
905.703938	3490.484841
906.010796	3306.460040
906.317614	3192.126671
906.624391	3093.965323
906.931129	3020.104858
907.237826	2956.969447
907.544483	2911.490678
907.851099	2879.784340
908.157675	2857.419261
908.464211	2837.224399
908.770707	2825.057574
909.077163	2812.517704
909.383578	2795.226546
909.689954	2782.590894
909.996289	2782.122067
910.302584	2784.672891
910.608839	2782.416974
910.915054	2775.934051
911.221229	2770.091353
911.527363	2775.561005
911.833458	2779.407406
912.139513	2785.872685
912.445527	2785.736574
912.751502	2796.557411
913.057436	2807.244657
913.363331	2821.788386
913.669186	2845.728826
913.975000	2879.494474
914.280775	2942.234154
914.586510	3012.911131
914.892205	3097.574789
915.197859	3228.102865
915.503475	3432.824123
915.809050	3655.799399
916.114585	3801.932367
916.420081	3817.423832
916.725536	3753.096189
917.030952	3629.703866
917.336328	3497.030779
917.641665	3365.219729
917.946961	3261.180396
918.252218	3189.225487
918.557435	3107.987293
918.862612	3048.040412
919.167750	2997.588544
919.472848	2958.144036
919.777906	2928.363419
920.082925	2903.318967
920.387904	2871.985675
920.692843	2853.630834
920.997743	2843.641788
921.302603	2829.501351
921.607423	2818.136070
921.912204	2805.840696
922.216946	2792.930301
922.521647	2785.134156
922.826310	2776.375152
923.130932	2771.197887
923.435516	2758.552152
923.740059	2751.650812
924.044564	2744.880543
924.349028	2740.260325
924.653454	2731.811352
924.957840	2725.260372
925.262186	2720.491441
925.566493	2718.069166
925.870761	2710.504915
926.174989	2708.052393
926.479178	2702.819676
926.783328	2698.927905
927.087438	2701.478729
927.391509	2696.475384
927.695541	2693.725434
927.999533	2690.486493
928.303486	2686.385514
928.607400	2686.866944
928.911275	2687.396266
929.215110	2685.520956
929.518906	2684.364012
929.822663	2683.683456
930.126381	2682.771007
930.430060	2683.857376
930.733699	2684.563137
931.037299	2684.427026
931.340861	2685.405010
931.644383	2688.926256
931.947866	2686.579599
932.251309	2686.435926
932.554714	2684.747139
932.858080	2681.750173
933.161407	2679.600121
933.464694	2679.864782
933.767943	2676.404030
934.071153	2678.362518
934.374323	2677.220697
934.677455	2678.725481
934.980548	2677.666839
935.283602	2676.588032
935.586617	2674.932013
935.889593	2676.078875
936.192530	2675.534431
936.495428	2675.776406
936.798287	2677.626509
937.101108	2681.094823
937.403890	2684.507684
937.706632	2688.953982
938.009336	2696.704756
938.312002	2704.379913
938.614628	2713.088506
938.917216	2720.088148
939.219765	2722.712069
939.522275	2721.043447
939.824747	2715.543548
940.127179	2716.392982
940.429573	2714.099257
940.731929	2709.531972
941.034246	2706.986189
941.336524	2703.502752
941.638763	2700.586445
941.940964	2697.297092
942.243126	2694.216947
942.545250	2696.467822
942.847335	2693.644776
943.149381	2688.152439
943.451389	2684.288394
943.753359	2684.197653
944.055290	2681.878723
944.357182	2681.828311
944.659036	2678.871674
944.960851	2679.670697
945.262628	2676.043587
945.564367	2676.693896
945.866067	2680.010975
946.167729	2678.843948
946.469352	2678.029802
946.770937	2676.890501
947.072484	2674.808504
947.373992	2678.458300
947.675462	2674.377486
947.976893	2669.936229
948.278286	2670.281548
948.579641	2669.069151
948.880958	2668.045797
949.182236	2670.344563
949.483476	2669.701816
949.784678	2668.096208
950.085841	2669.517813
950.386967	2669.331291
950.688054	2670.594100
950.989103	2669.840447
951.290114	2672.222392
951.591087	2673.313802
951.892021	2675.448731
952.192917	2678.929648
952.493776	2676.462003
952.794596	2681.906449
953.095378	2682.730678
953.396122	2679.584998
953.696828	2677.550892
953.997496	2680.043743
954.298126	2675.105932
954.598718	2670.962104
954.899272	2669.301044
955.199788	2669.482525
955.500266	2665.036228
955.800706	2663.526402
956.101108	2659.589261
956.401472	2657.766884
956.701798	2656.446102
957.002087	2657.008190
957.302337	2654.583395
957.602550	2652.846718
957.902724	2649.814464
958.202861	2649.874957
958.502960	2646.320944
958.803022	2646.850265
959.103045	2649.506953
959.403031	2646.167189
959.702979	2645.022847
960.002889	2646.114257
960.302762	2646.192395
960.602596	2644.241468
960.902393	2645.902528
961.202153	2645.032929
961.501875	2644.019657
961.801559	2642.595531
962.101205	2643.825573
962.400814	2643.366828
962.700385	2642.106539
962.999918	2639.865747
963.299414	2636.813328
963.598873	2641.796508
963.898293	2635.084212
964.197677	2639.391878
964.497022	2639.971611
964.796331	2641.292393
965.095601	2643.129894
965.394835	2639.845582
965.694030	2639.407002
965.993189	2639.041518
966.292309	2639.641415
966.591393	2641.236940
966.890439	2640.606796
967.189447	2637.425828
967.488419	2638.807104
967.787353	2639.165026
968.086249	2639.563277
968.385108	2640.647125
968.683930	2642.106539
968.982714	2641.234420
969.281462	2639.225520
969.580172	2637.801394
969.878844	2639.553195
970.177480	2638.829789
970.476078	2638.779378
970.774639	2638.905407
971.073162	2640.279121
971.371649	2643.145017
971.670098	2641.864564
971.968510	2642.492188
972.266885	2641.615027
972.565223	2643.172743
972.863524	2641.168885
973.161788	2640.889101
973.460014	2642.247692
973.758204	2643.376910
974.056356	2639.013792
974.354471	2640.016981
974.652550	2637.728297
974.950591	2642.446817
975.248595	2642.771972
975.546563	2640.402629
975.844493	2638.696199
976.142386	2638.171919
976.440243	2642.741725
976.738062	2638.628143
977.035845	2641.161323
977.333590	2639.817856
977.631299	2636.934316
977.928971	2635.762247
978.226606	2635.439613
978.524204	2634.905251
978.821765	2633.707977
979.119290	2637.609830
979.416777	2639.228041
979.714228	2637.889614
980.011642	2639.701909
980.309020	2638.212248
980.606360	2636.432721
980.903664	2640.432876
981.200931	2639.061682
981.498162	2640.319450
981.795356	2638.930612
982.092513	2641.239461
982.389633	2644.291880
982.686717	2649.083496
982.983764	2650.225318
983.280775	2655.430309
983.577749	2655.019455
983.874686	2654.046512
984.171587	2652.609783
984.468451	2650.910915
984.765279	2647.016623
985.062070	2645.534524
985.358824	2644.974956
985.655543	2642.298103
985.952224	2640.987403
986.248869	2641.052938
986.545478	2639.855664
986.842050	2639.021353
987.138586	2638.640746
987.435086	2637.587145
987.731549	2638.673514
988.027975	2633.584469
988.324366	2635.852988
988.620719	2636.609161
988.917037	2633.675210
989.213318	2635.192597
989.509563	2635.734521
989.805772	2634.781743
990.101944	2637.130921
990.398080	2635.273255
990.694180	2633.924747
990.990244	2636.190745
991.286271	2634.050776
991.582262	2635.598410
991.878217	2633.813841
992.174136	2637.042700
992.470019	2635.852988
992.765865	2632.949283
993.061676	2629.559107
993.357450	2631.416773
993.653188	2631.000878
993.948890	2634.527165
994.244556	2634.779222
994.540186	2635.933647
994.835780	2633.100518
995.131337	2636.692340
995.426859	2638.429018
995.722345	2636.911630
996.017795	2636.344501
996.313208	2640.639564
996.608586	2640.458082
996.903928	2640.790798
997.199234	2641.418422
997.494504	2642.973618
997.789738	2638.799542
998.084936	2639.074285
998.380099	2641.713329
998.675225	2635.316105
998.970316	2634.207051
999.265371	2637.917341
999.560390	2636.440282
999.855373	2634.295272
1000.150320	2635.260652
1000.445232	2635.089253
1000.740108	2633.740745
1001.034948	2634.963224
1001.329752	2634.814510
1001.624521	2631.943573
1001.919254	2633.796197
1002.213951	2634.224695
1002.508613	2633.377782
1002.803239	2635.759727
1003.097829	2632.029273
1003.392384	2630.398460
1003.686903	2631.908285
1003.981386	2632.233440
1004.275834	2633.327370
1004.570246	2631.809983
1004.864623	2632.162863
1005.158964	2632.172946
1005.453270	2633.239150
1005.747540	2630.095990
1006.041775	2630.892493
1006.335974	2633.208903
1006.630138	2632.117493
1006.924266	2631.023563
1007.218359	2631.431896
1007.512416	2630.801752
1007.806438	2630.113634
1008.100425	2630.219499
1008.394376	2627.114148
1008.688292	2629.798562
1008.982172	2631.545322
1009.276017	2633.960035
1009.569827	2630.738737
1009.863602	2632.213275
1010.157341	2632.349386
1010.451045	2632.790487
1010.744714	2633.256794
1011.038347	2634.741414
1011.331945	2633.816362
1011.625508	2633.327370
1011.919036	2630.320322
1012.212528	2633.201341
1012.505986	2630.907616
1012.799408	2632.893831
1013.092795	2633.453399
1013.386147	2630.610188
1013.679464	2630.794190
1013.972745	2631.729324
1014.265992	2629.428037
1014.559204	2631.721762
1014.852380	2630.022894
1015.145521	2632.745117
1015.438628	2629.223871
1015.731699	2632.848460
1016.024736	2632.745117
1016.317737	2630.990795
1016.610703	2631.746968
1016.903635	2632.682102
1017.196531	2630.978192
1017.489393	2632.765281
1017.782219	2630.043058
1018.075011	2630.584982
1018.367768	2630.958028
1018.660490	2632.062040
1018.953177	2632.062040
1019.245829	2632.062040
