Dividing Wavelength (nm)	Counts (n)	Blue Motor Position (mm): 16.800000	Red Motor Position (mm): 0.000000	
326.493990	2178.085972
326.888308	2178.085972
327.282561	2178.085972
327.676750	2134.472429
328.070874	2132.955042
328.464933	2133.983438
328.858929	2136.468726
329.252859	2142.029119
329.646726	2152.643268
330.040528	2164.711791
330.434265	2176.666887
330.827938	2194.351255
331.221547	2209.099150
331.615091	2228.986502
332.008571	2246.108781
332.401986	2266.916144
332.795338	2284.865172
333.188625	2302.514252
333.581847	2323.233394
333.975006	2340.212000
334.368100	2360.973992
334.761129	2374.811960
335.154095	2392.967675
335.546996	2418.992632
335.939833	2443.669080
336.332606	2459.062243
336.725315	2472.128914
337.117960	2483.400934
337.510540	2498.098418
337.903056	2509.854389
338.295508	2515.825636
338.687896	2524.143539
339.080220	2529.409025
339.472480	2539.120807
339.864676	2544.850079
340.256807	2546.990049
340.648875	2552.623538
341.040879	2557.276523
341.432818	2555.539846
341.824694	2561.148129
342.216506	2564.432441
342.608253	2562.141237
342.999937	2563.338511
343.391557	2563.252811
343.783113	2564.379509
344.174605	2563.562842
344.566033	2560.664178
344.957397	2562.332800
345.348697	2558.196534
345.739934	2557.062274
346.131106	2557.243756
346.522215	2551.940462
346.913260	2553.102448
347.304241	2551.713610
347.695159	2547.229503
348.086012	2548.580533
348.476802	2544.287990
348.867528	2539.771116
349.258191	2538.198276
349.648789	2537.686599
350.039324	2533.865405
350.429796	2538.599048
350.820203	2532.970600
351.210548	2535.476053
351.600828	2535.198790
351.991045	2532.983203
352.381198	2532.837009
352.771288	2530.666792
353.161314	2530.455064
353.551276	2529.555218
353.941175	2530.318953
354.331010	2529.482121
354.720782	2529.436751
355.110490	2531.546474
355.500135	2527.894158
355.889717	2530.865918
356.279235	2528.226874
356.668689	2530.507996
357.058080	2527.533715
357.447408	2529.018335
357.836672	2528.690660
358.225873	2530.581093
358.615010	2529.593027
359.004084	2533.212575
359.393095	2532.305167
359.782043	2531.352389
360.170927	2529.930784
360.559748	2532.809283
360.948505	2534.251053
361.337199	2536.809438
361.725830	2531.115455
362.114398	2536.204500
362.502903	2533.109232
362.891344	2536.073430
363.279722	2539.050231
363.668037	2535.874304
364.056289	2537.046373
364.444478	2536.983358
364.832603	2539.453524
365.220665	2540.602907
365.608665	2540.282793
365.996601	2542.460572
366.384474	2537.154757
366.772284	2540.144162
367.160031	2539.430838
367.547715	2538.972093
367.935336	2540.948226
368.322893	2537.147196
368.710388	2536.038142
369.097820	2541.175078
369.485189	2537.414377
369.872495	2543.551982
370.259738	2541.961498
370.646918	2544.000644
371.034035	2542.243802
371.421090	2541.454862
371.808081	2544.106509
372.195010	2546.314534
372.581875	2546.533824
372.968678	2543.725902
373.355418	2545.555840
373.742096	2546.344781
374.128710	2544.156920
374.515262	2547.932744
374.901751	2545.576005
375.288177	2545.427291
375.674540	2548.237734
376.060841	2545.427291
376.447079	2546.183464
376.833254	2546.090203
377.219367	2546.372507
377.605417	2550.723023
377.991404	2547.214380
378.377329	2547.584905
378.763191	2548.298228
379.148991	2549.117416
379.534727	2550.987684
379.920402	2547.615152
380.306013	2549.951727
380.691563	2551.718651
381.077049	2549.843342
381.462474	2547.947868
381.847835	2549.606407
382.233134	2551.335523
382.618371	2550.670091
383.003545	2550.690256
383.388657	2550.997766
383.773706	2552.220246
384.158693	2550.206305
384.543618	2550.488609
384.928480	2551.726213
385.313280	2551.378373
385.698017	2552.525236
386.082692	2551.587581
386.467305	2553.203271
386.851856	2552.000956
387.236344	2553.631769
387.620770	2549.233362
388.005133	2548.308310
388.389435	2548.825029
388.773674	2548.346119
389.157851	2557.357182
389.541965	2552.275698
389.926018	2552.862993
390.310008	2552.502550
390.693936	2554.090514
391.077802	2554.145967
391.461606	2555.285267
391.845348	2554.730740
392.229027	2558.367933
392.612645	2552.704197
392.996200	2555.890206
393.379694	2556.021276
393.763125	2554.239228
394.146494	2556.071687
394.529801	2559.224929
394.913047	2556.868190
395.296230	2558.269630
395.679351	2559.149312
396.062410	2557.410114
396.445408	2557.309291
396.828343	2559.235011
397.211217	2559.308108
397.594028	2561.546380
397.976778	2557.667212
398.359466	2558.637635
398.742092	2562.005125
399.124656	2557.236194
399.507158	2558.670402
399.889598	2560.240722
400.271977	2559.197203
400.654294	2562.022769
401.036549	2560.785166
401.418742	2561.737944
401.800874	2559.108982
402.182944	2560.560835
402.564952	2558.098231
402.946898	2561.327090
403.328783	2560.399518
403.710606	2563.204920
404.092367	2563.335990
404.474067	2561.947152
404.855705	2563.555280
405.237282	2561.541339
405.618797	2562.688202
406.000250	2563.056206
406.381642	2563.446895
406.762972	2560.759960
407.144240	2559.287943
407.525447	2561.760629
407.906593	2559.482028
408.287677	2563.109138
408.668700	2561.863973
409.049661	2564.031669
409.430560	2564.339180
409.811399	2567.812535
410.192176	2563.119220
410.572891	2564.800445
410.953545	2563.905640
411.334138	2565.942267
411.714669	2563.996381
412.095139	2566.259859
412.475547	2565.062585
412.855894	2567.464695
413.236180	2565.294478
413.616405	2566.572411
413.996568	2564.808007
414.376670	2563.981258
414.756711	2567.217678
415.136691	2566.035528
415.516609	2566.297668
415.896466	2567.689026
416.276262	2567.845302
416.655997	2565.906978
417.035670	2566.751372
417.415283	2568.137689
417.794834	2570.499470
418.174324	2565.906978
418.553753	2566.224571
418.933121	2566.549726
419.312428	2568.936712
419.691674	2568.845971
420.070859	2569.539130
420.449983	2567.545353
420.829045	2568.510734
421.208047	2568.936712
421.586988	2569.065261
421.965867	2571.227916
422.344686	2571.341342
422.723444	2572.084912
423.102141	2570.227247
423.480777	2570.829665
423.859352	2570.577607
424.237866	2570.890159
424.616319	2570.131465
424.994712	2574.756724
425.373044	2570.086095
425.751314	2570.277659
426.129524	2565.932184
426.507673	2568.883780
426.885762	2566.993347
427.263789	2570.355797
427.641756	2571.699264
428.019662	2575.666652
428.397508	2573.806467
428.775292	2571.986610
429.153016	2572.614234
429.530679	2571.424521
429.908282	2573.909810
430.285824	2576.296797
430.663305	2572.304203
431.040726	2571.225396
431.418086	2573.541806
431.795385	2573.088102
432.172624	2572.818400
432.549802	2574.141703
432.926920	2570.960735
433.303977	2572.394943
433.680974	2572.815880
434.057910	2572.722618
434.434786	2574.918041
434.811601	2576.702609
435.188355	2573.970304
435.565050	2572.044583
435.941683	2574.665983
436.318257	2572.710016
436.694770	2575.255798
437.071222	2574.718915
437.447614	2576.677404
437.823946	2574.746642
438.200218	2576.183371
438.576429	2574.484502
438.952580	2574.056004
439.328670	2573.567012
439.704700	2575.759914
440.080670	2572.599110
440.456580	2572.954512
440.832429	2577.461303
441.208218	2576.836200
441.583947	2577.073134
441.959616	2574.436611
442.335224	2575.477609
442.710773	2574.968452
443.086261	2575.308730
443.461689	2577.957857
443.837057	2577.728484
444.212365	2580.269226
444.587612	2572.949470
444.962800	2574.280335
445.337927	2572.770509
445.712995	2571.679100
446.088002	2578.509863
446.462949	2580.654874
446.837837	2579.412230
447.212664	2577.950295
447.587431	2576.911817
447.962139	2578.686303
448.336786	2580.541448
448.711374	2583.044381
449.085901	2582.510019
449.460369	2578.482137
449.834776	2580.556572
450.209124	2579.457600
450.583412	2581.718557
450.957640	2580.412899
451.331808	2582.719227
451.705917	2580.465831
452.079965	2581.375759
452.453954	2580.062538
452.827883	2579.097157
453.201752	2580.213773
453.575562	2580.811150
453.949311	2581.232086
454.323001	2580.430543
454.696632	2582.139494
455.070202	2580.591860
455.443713	2580.546489
455.817164	2579.424833
456.190556	2584.176120
456.563888	2583.581264
456.937160	2582.636047
457.310373	2583.457756
457.683526	2581.562282
458.056619	2583.936665
458.429653	2582.177302
458.802628	2585.300297
459.175542	2583.644278
459.548398	2586.051429
459.921194	2583.533373
460.293930	2584.045050
460.666607	2585.491861
461.039224	2584.052612
461.411782	2584.586974
461.784280	2586.411872
462.156719	2586.588312
462.529099	2587.604105
462.901419	2587.798189
463.273680	2584.302149
463.645882	2582.386510
464.018024	2583.452714
464.390106	2582.331058
464.762130	2584.770976
465.134094	2589.418920
465.505999	2589.794486
465.877845	2588.740885
466.249631	2591.959662
466.621358	2595.901844
466.993026	2593.081318
467.364634	2598.780343
467.736184	2591.831112
468.107674	2591.044692
468.479105	2592.894796
468.850477	2591.616863
469.221790	2592.171390
469.593043	2592.456215
469.964238	2591.382449
470.335373	2591.405135
470.706449	2590.636359
471.077467	2590.467480
471.448425	2592.874631
471.819324	2593.961000
472.190164	2594.964189
472.560945	2595.952255
472.931667	2591.223653
473.302330	2593.872779
473.672934	2591.574013
474.043479	2595.198603
474.413965	2590.049064
474.784393	2593.988726
475.154761	2593.391349
475.525070	2592.423448
475.895321	2592.395721
476.265513	2592.186513
476.635645	2598.389653
477.005719	2592.289857
477.375734	2594.059302
477.745691	2596.274889
478.115588	2595.546442
478.485427	2598.699684
478.855207	2598.039293
479.224928	2601.565580
479.594591	2603.884511
479.964194	2601.878132
480.333739	2602.208327
480.703226	2603.375354
481.072653	2600.953080
481.442022	2602.437700
481.811333	2603.839141
482.180584	2601.474839
482.549777	2600.053234
482.918912	2599.450816
483.287988	2604.247474
483.657005	2600.217072
484.025964	2605.076744
484.394864	2605.414501
484.763706	2606.657146
485.132489	2603.584562
485.501213	2604.640684
485.869879	2604.519696
486.238487	2607.637650
486.607036	2603.808894
486.975527	2605.001127
487.343959	2607.385592
487.712333	2607.493977
488.080648	2604.721342
488.448905	2605.059100
488.817104	2607.108329
489.185244	2605.840479
489.553326	2607.796446
489.921350	2609.008844
490.289315	2612.222579
490.657222	2615.426233
491.025070	2612.086468
491.392861	2614.876747
491.760593	2612.898094
492.128267	2614.433125
492.495883	2610.236365
492.863440	2613.326592
493.230939	2610.112857
493.598380	2615.201901
493.965763	2609.810387
494.333088	2614.493619
494.700354	2611.055552
495.067563	2612.328444
495.434713	2613.772734
495.801805	2611.857096
496.168839	2612.988835
496.535815	2613.805502
496.902733	2612.363732
497.269593	2614.150821
497.636395	2615.552262
498.003139	2616.847838
498.369825	2617.044443
498.736453	2615.368259
499.103023	2618.609721
499.469535	2616.845317
499.835989	2618.418158
500.202385	2614.707868
500.568723	2612.328444
500.935003	2616.610904
501.301226	2617.301542
501.667390	2618.768518
502.033497	2623.494599
502.399546	2621.737757
502.765537	2621.967130
503.131470	2620.560648
503.497345	2626.078191
503.863163	2623.602984
504.228923	2627.686319
504.594625	2628.656741
504.960269	2628.001391
505.325856	2633.178656
505.691385	2630.774026
506.056856	2633.360137
506.422270	2631.804942
506.787625	2635.164871
507.152924	2638.315592
507.518164	2639.676703
507.883347	2640.082516
508.248472	2642.038484
508.613540	2644.876653
508.978550	2643.916314
509.343503	2646.068886
509.708398	2648.145842
510.073236	2650.928559
510.438016	2657.403921
510.802738	2657.391318
511.167403	2659.516164
511.532010	2661.804848
511.896561	2665.699139
512.261053	2668.113852
512.625488	2672.817249
512.989866	2674.395130
513.354186	2677.621468
513.718449	2682.508867
514.082655	2687.086235
514.446803	2688.827953
514.810894	2697.516382
515.174927	2700.228523
515.538904	2701.864377
515.902822	2708.206149
516.266684	2712.687734
516.630488	2718.636296
516.994235	2725.361195
517.357925	2730.805641
517.721558	2737.454923
518.085133	2744.061355
518.448651	2750.803899
518.812112	2755.212388
519.175516	2765.090529
519.538863	2769.186466
519.902152	2780.937396
520.265385	2792.348047
520.628560	2801.119655
520.991678	2811.194401
521.354739	2824.114878
521.717743	2832.561332
522.080690	2847.730164
522.443580	2857.300794
522.806413	2872.812425
523.169189	2882.708210
523.531908	2899.833009
523.894569	2908.465985
524.257174	2927.113213
524.619722	2945.092488
524.982213	2955.890640
525.344647	2974.956284
525.707025	2996.587875
526.069345	3015.353570
526.431608	3032.843853
526.793815	3058.147925
527.155964	3070.710481
527.518057	3091.817792
527.880093	3114.208077
528.242072	3135.204482
528.603995	3157.655261
528.965860	3178.780216
529.327669	3205.369782
529.689421	3231.203175
530.051117	3255.342740
530.412755	3292.256589
530.774337	3316.214673
531.135862	3343.517562
531.497331	3379.539127
531.858743	3400.412024
532.220098	3457.225828
532.581396	3469.664875
532.942638	3516.469468
533.303824	3552.337278
533.664953	3596.218002
534.026025	3627.697487
534.387040	3670.317922
534.747999	3724.653999
535.108902	3770.440278
535.469748	3792.568423
535.830537	3849.891384
536.191270	3897.706728
536.551947	3952.511632
536.912567	3964.338179
537.273131	4039.469015
537.633638	4072.428079
537.994089	4156.333044
538.354483	4170.559180
538.714821	4264.284312
539.075103	4341.290458
539.435328	4378.645408
539.795497	4398.628542
540.155609	4496.265609
540.515665	4580.513372
540.875665	4580.911623
541.235609	4662.880785
541.595496	4734.828133
541.955328	4840.556252
542.315102	4900.256117
542.674821	4927.387607
543.034483	4978.696471
543.394090	5049.948139
543.753640	5105.801603
544.113134	5231.964040
544.472571	5282.511689
544.831953	5415.209982
545.191278	5434.076500
545.550548	5515.070199
545.909761	5577.575465
546.268918	5708.567327
546.628019	5777.701711
546.987064	5862.985431
547.346053	5908.496968
547.704986	5989.099977
548.063863	6107.993070
548.422684	6155.894114
548.781449	6206.512340
549.140158	6353.593044
549.498811	6410.492548
549.857408	6420.927736
550.215949	6594.492142
550.574434	6629.376927
550.932864	6764.273163
551.291237	6864.720674
551.649555	6963.398740
552.007817	7075.476193
552.366022	7147.872203
552.724173	7228.386992
553.082267	7326.316446
553.440305	7526.916561
553.798288	7477.296483
554.156215	7697.322684
554.514086	7816.427506
554.871902	7781.046167
555.229661	7942.617669
555.587365	8040.708440
555.945014	8087.046726
556.302606	8287.745143
556.660143	8341.367897
557.017625	8543.389617
557.375050	8540.062455
557.732421	8715.928148
558.089735	8807.614134
558.446994	8903.214575
558.804197	9044.870998
559.161345	9163.806941
559.518437	9141.925813
559.875474	9361.858752
560.232455	9483.801743
560.589381	9589.423998
560.946251	9649.325509
561.303065	9896.636955
561.659825	10033.204333
562.016528	10021.806284
562.373177	10060.391276
562.729770	10257.729764
563.086307	10397.094983
563.442789	10547.419670
563.799216	10610.325708
564.155587	10698.931548
564.511904	10847.695998
564.868164	10896.209543
565.224370	11052.288707
565.580520	11088.262381
565.936615	11294.042281
566.292654	11251.106773
566.648638	11542.384642
567.004567	11546.047041
567.360441	11646.267700
567.716260	11633.138015
568.072023	11929.167171
568.427732	11931.927203
568.783385	11937.583378
569.138982	12146.004842
569.494525	12306.305973
569.850013	12319.702839
570.205445	12459.098305
570.560823	12454.767954
570.916145	12504.904749
571.271412	12663.829645
571.626625	12708.806819
571.981782	12832.920027
572.336884	12838.472858
572.691931	13036.388558
573.046923	12964.564719
573.401860	13072.480699
573.756743	13193.864122
574.111570	13243.953027
574.466342	13303.478971
574.821059	13472.617244
575.175722	13403.646698
575.530330	13543.384962
575.884882	13641.536228
576.239380	13711.532649
576.593823	13741.585487
576.948211	13813.187516
577.302544	13826.657479
577.656823	13866.611144
578.011047	14035.769582
578.365216	14047.200398
578.719330	14084.424278
579.073389	14106.943112
579.427394	14321.267768
579.781344	14243.339091
580.135239	14305.582218
580.489080	14350.967726
580.842866	14280.479792
581.196597	14540.217683
581.550273	14554.738726
581.903895	14631.951559
582.257463	14900.856788
582.610975	14694.436661
582.964434	14974.702130
583.317837	14882.426329
583.671186	15026.706673
584.024481	15095.127733
584.377721	15007.764537
584.730906	15127.514626
585.084037	15252.872999
585.437113	15259.597898
585.790135	15465.781090
586.143103	15186.619634
586.496016	15254.350057
586.848874	15546.724377
587.201679	15567.209106
587.554428	15385.805705
587.907124	15699.264651
588.259765	15620.390758
588.612352	15773.732576
588.964884	15526.456418
589.317362	15722.685852
589.669786	15826.115206
590.022155	15938.822803
590.374470	16149.485060
590.726731	16081.036273
591.078937	15957.096985
591.431090	16097.057060
591.783188	15945.071313
592.135232	15982.731253
592.487222	16160.638613
592.839157	16231.197123
593.191038	16231.978502
593.542866	16185.153744
593.894639	16048.677107
594.246358	16276.247394
594.598022	16249.350318
594.949633	16125.902543
595.301190	16124.778365
595.652692	16338.666961
596.004141	16590.349088
596.355535	16100.870693
596.706876	16157.611400
597.058162	16139.879142
597.409395	16353.452665
597.760573	16516.014753
598.111698	16364.099582
598.462768	16364.260899
598.813785	16367.759460
599.164748	16277.346366
599.515657	16341.056468
599.866511	16222.891822
600.217312	16563.121816
600.568060	16218.889146
600.918753	16525.071186
601.269392	16499.550345
601.619978	16331.725292
601.970510	16579.893734
602.320988	16552.535393
602.671412	16788.100950
603.021783	16731.324955
603.372100	16549.016667
603.722363	16707.830657
604.072572	16696.556117
604.422728	16828.301631
604.772830	16685.319385
605.122878	16646.333622
605.472872	16690.995724
605.822813	16721.875312
606.172701	16706.358640
606.522534	16931.904905
606.872314	16985.966238
607.222041	16850.908686
607.571714	17076.969148
607.921333	16963.152497
608.270899	17064.325934
608.620411	17267.204650
608.969870	17059.993062
609.319276	17099.886233
609.668627	17161.443763
610.017926	17307.402811
610.367171	17452.721632
610.716362	17512.066095
611.065500	17362.167385
611.414585	17506.359509
611.763616	17514.253956
612.112594	17495.082448
612.461518	17482.003174
612.810389	17700.935444
613.159207	17555.858598
613.507971	17500.710896
613.856682	17815.357034
614.205340	17767.508922
614.553945	17925.042459
614.902496	17680.692691
615.250994	17963.934961
615.599439	17902.752997
615.947830	17902.029592
616.296169	17942.442002
616.644454	17939.540818
616.992686	17921.493487
617.340864	18140.186303
617.688990	17923.888035
618.037063	18109.473073
618.385082	17955.581769
618.733048	18253.939939
619.080961	18129.607441
619.428821	18191.250670
619.776628	18107.824615
620.124382	18021.956121
620.472083	18074.041323
620.819731	18121.113097
621.167326	17828.872367
621.514868	17891.541471
621.862357	17668.959406
622.209793	17693.787088
622.557176	17550.706539
622.904506	17388.651087
623.251783	17304.993139
623.599007	17105.759177
623.946179	17070.488744
624.293297	17030.814864
624.640363	16791.957433
624.987376	16820.157647
625.334336	16610.339783
625.681243	16476.729042
626.028097	16474.029504
626.374899	16429.435457
626.721647	16312.614278
627.068343	16148.091181
627.414987	16086.107674
627.761577	16061.869806
628.108115	16127.863551
628.454600	15843.509707
628.801032	15941.713904
629.147412	15868.407966
629.493739	15899.499282
629.840014	15716.122270
630.186236	15825.343909
630.532405	15580.674028
630.878521	15789.045081
631.224585	15672.785991
631.570597	15507.103428
631.916556	15539.961669
632.262462	15526.980698
632.608316	15448.719305
632.954117	15393.559000
633.299866	15387.219749
633.645562	15321.152907
633.991206	15074.922789
634.336797	14953.100785
634.682336	14923.098358
635.027823	14822.741588
635.373257	14714.313931
635.718639	14603.413587
636.063968	14566.431682
636.409245	14320.627542
636.754470	14354.617521
637.099642	14201.900807
637.444762	13970.080827
637.789829	14025.893961
638.134845	13883.652764
638.479808	13901.150609
638.824719	13853.264689
639.169577	13702.284652
639.514383	13755.211726
639.859137	13567.433787
640.203839	13649.213905
640.548489	13494.984844
640.893086	13474.308552
641.237632	13349.877751
641.582125	13491.035100
641.926566	13338.464579
642.270955	13344.110671
642.615292	13318.781394
642.959576	13332.211028
643.303809	13365.722098
643.647990	13309.636741
643.992118	13348.670395
644.336195	13130.118732
644.680219	13317.931959
645.024192	13263.341304
645.368112	13493.056603
645.711981	13545.938307
646.055797	13730.154671
646.399562	13693.734855
646.743274	13970.930261
647.086935	14237.950098
647.430544	14200.519531
647.774101	14233.554212
648.117606	14385.045926
648.461059	14348.384135
648.804460	14349.530997
649.147810	14077.167537
649.491108	13985.506757
649.834354	13993.693591
650.177548	13710.065673
650.520690	13513.682484
650.863781	13433.833127
651.206820	13476.425836
651.549807	13309.220845
651.892742	13121.684881
652.235626	13054.756002
652.578458	13065.140779
652.921238	12740.634144
653.263967	12932.984410
653.606644	12767.430397
653.949269	12725.021691
654.291843	12546.819423
654.634365	12694.104294
654.976836	12545.196171
655.319255	12569.350860
655.661622	12518.798169
656.003938	12433.746342
656.346203	12371.541024
656.688416	12435.306579
657.030577	12393.182698
657.372687	12326.087461
657.714746	12290.312912
658.056753	12480.392139
658.398708	12305.794296
658.740612	12306.164821
659.082465	12402.284501
659.424266	12364.559026
659.766016	12383.213816
660.107715	12294.761731
660.449362	12366.787216
660.790958	12333.266064
661.132503	12277.639452
661.473996	12331.151300
661.815438	12356.621729
662.156829	12370.066487
662.498168	12350.320287
662.839456	12349.836336
663.180693	12375.473124
663.521879	12456.050927
663.863013	12434.081579
664.204097	12415.066347
664.545129	12530.788554
664.886110	12498.898214
665.227040	12578.510637
665.567918	12593.802977
665.908746	12639.047333
666.249522	12603.315634
666.590248	12645.598312
666.930922	12764.519131
667.271545	12758.036207
667.612118	12843.156090
667.952639	12739.454514
668.293109	12750.141760
668.633528	12697.393647
668.973896	12684.163139
669.314213	12776.602777
669.654480	12509.494720
669.994695	12569.751632
670.334859	12593.089653
670.674973	12538.199050
671.015035	12580.968199
671.355047	12522.107687
671.695008	12487.512768
672.034918	12494.552740
672.374777	12537.926828
672.714585	12453.434568
673.054342	12476.346613
673.394049	12433.829521
673.733705	12526.816124
674.073310	12446.969289
674.412864	12465.077113
674.752368	12343.454236
675.091820	12339.282681
675.431223	12337.442660
675.770574	12213.344575
676.109875	12123.543981
676.449125	12097.201432
676.788324	12024.875998
677.127473	11878.672454
677.466571	11855.848630
677.805619	11767.827563
678.144616	11677.469922
678.483562	11643.482462
678.822458	11513.725683
679.161303	11493.394709
679.500098	11485.109573
679.838842	11439.487131
680.177535	11465.363373
680.516179	11514.683502
680.854771	11467.357150
681.193314	11682.921929
681.531805	11828.581029
681.870247	12222.829506
682.208638	12626.658697
682.546978	12949.642903
682.885268	13023.198379
683.223508	12712.209598
683.561697	12542.715924
683.899836	12445.792179
684.237925	12250.986871
684.575963	12170.789675
684.913951	12106.545211
685.251889	12043.543390
685.589776	12138.755663
685.927614	12064.733881
686.265401	12027.661235
686.603137	12078.501272
686.940824	12227.953839
687.278460	12342.491375
687.616046	12388.416287
687.953582	12577.293198
688.291068	12487.606030
688.628504	12716.192110
688.965889	12729.069737
689.303224	12707.932179
689.640510	12596.711723
689.977745	12303.823205
690.314930	12062.306565
690.652065	11984.120789
690.989150	11700.528159
691.326185	11475.428037
691.663170	11270.807603
692.000105	11022.785354
692.336990	10922.599983
692.673825	10668.820737
693.010610	10554.842769
693.347345	10340.833185
693.684030	10142.047886
694.020665	10087.820194
694.357251	9896.503364
694.693786	9850.147434
695.030272	9676.918265
695.366707	9557.274040
695.703093	9490.536725
696.039429	9484.885591
696.375716	9420.890664
696.711952	9287.199264
697.048139	9318.527514
697.384276	9271.937170
697.720363	9286.032237
698.056400	9231.865038
698.392388	9181.640023
698.728326	9144.418663
699.064214	9078.543385
699.400053	9122.345971
699.735842	8943.127911
700.071581	8901.359431
700.407270	8823.392945
700.742910	8752.166482
701.078501	8660.225919
701.414042	8538.267804
701.749533	8468.515879
702.084974	8336.145261
702.420366	8442.548896
702.755709	8326.796442
703.091002	8194.844240
703.426246	8223.291471
703.761440	8171.115528
704.096584	8123.837067
704.431679	8058.143271
704.766725	8048.209677
705.101721	7997.873756
705.436668	8040.524438
705.771565	7941.737987
706.106413	8021.370574
706.441212	8063.960762
706.775961	8020.470728
707.110661	8045.815129
707.445311	8193.722583
707.779913	8096.816482
708.114465	8221.252324
708.448967	8262.365454
708.783421	8391.658447
709.117825	8578.733146
709.452180	8620.610011
709.786485	8703.342908
710.120742	8975.015729
710.454949	8976.563364
710.789107	9075.158251
711.123216	9283.859499
711.457275	9447.820507
711.791286	9615.108677
712.125247	9606.914282
712.459159	9597.792314
712.793023	9855.395275
713.126837	9429.455584
713.460602	9577.612575
713.794318	9407.090505
714.127985	9432.578579
714.461602	9121.892267
714.795171	9068.836644
715.128691	8829.296136
715.462162	8574.332219
715.795584	8517.117643
716.128957	8385.233497
716.462281	8215.691931
716.795556	8259.708766
717.128782	8060.991523
717.461960	7788.852394
717.795088	7860.608178
718.128167	7764.712829
718.461198	7600.650998
718.794180	7541.798047
719.127113	7531.688013
719.459997	7395.954946
719.792833	7155.154150
720.125619	7224.049079
720.458357	7086.571772
720.791046	7065.615696
721.123686	7069.598207
721.456278	6913.950062
721.788821	6929.323060
722.121315	6820.416493
722.453761	6881.706842
722.786158	6836.545665
723.118506	6850.539908
723.450805	6817.442212
723.783056	6885.114662
724.115259	6780.440143
724.447412	6782.852335
724.779518	6825.586197
725.111574	6828.689027
725.443582	6913.014928
725.775542	6893.732514
726.107453	7075.196409
726.439315	6995.037021
726.771129	7040.430091
727.102895	7204.406223
727.434612	7323.962228
727.766281	7352.056578
728.097901	7432.321829
728.429473	7418.138543
728.760996	7389.421610
729.092471	7371.094495
729.423897	7328.539595
729.755276	7343.045515
730.086606	7275.902387
730.417887	7368.127776
730.749120	7540.028602
731.080305	7736.696616
731.411442	7874.793985
731.742530	7872.217955
732.073570	7977.099161
732.404562	8052.950882
732.735506	7902.038901
733.066401	8047.173720
733.397249	7984.053433
733.728048	7754.547342
734.058798	7422.887310
734.389501	7201.595780
734.720156	7023.159098
735.050762	6784.972141
735.381320	6684.685947
735.711831	6640.573330
736.042293	6531.817997
736.372707	6548.486573
736.703073	6420.169042
737.033391	6454.857222
737.363661	6463.651515
737.693883	6480.559545
738.024056	6565.891156
738.354182	6618.034331
738.684260	6656.016905
739.014290	6764.691579
739.344272	6866.858123
739.674207	6896.099336
740.004093	6967.744214
740.333931	6982.529919
740.663722	6994.253122
740.993464	7068.153917
741.323159	7064.340284
741.652806	6813.189999
741.982405	6810.107334
742.311956	6874.815584
742.641460	6729.799232
742.970915	6531.573501
743.300323	6528.367328
743.629683	6465.267205
743.958996	6340.082752
744.288260	6248.921046
744.617477	6196.195618
744.946647	6204.952103
745.275768	6044.920674
745.604842	5997.614486
745.933869	5974.024407
746.262847	5930.068066
746.591778	5922.808804
746.920662	5882.101487
747.249498	5867.474579
747.578286	5915.403349
747.907027	5989.432693
748.235720	6050.352517
748.564365	6024.262025
748.892963	6043.456218
749.221514	6198.764086
749.550017	6050.995264
749.878473	5917.417290
750.206881	5966.014013
750.535242	5909.911012
750.863555	5848.053534
751.191821	5866.141194
751.520039	5864.641450
751.848210	5775.095435
752.176334	5790.024812
752.504411	5843.317370
752.832440	5769.288025
753.160421	5693.436304
753.488356	5744.581330
753.816243	5782.203462
754.144082	5635.508405
754.471875	5598.440801
754.799620	5647.705477
755.127318	5660.353732
755.454969	5607.270382
755.782572	5578.374488
756.110129	5617.178770
756.437638	5612.190548
756.765100	5546.005239
757.092515	5542.052975
757.419882	5584.907823
757.747203	5572.307459
758.074477	5637.141739
758.401703	5633.007993
758.728882	5575.143108
759.056014	5620.727742
759.383099	5759.170430
759.710138	5769.963540
760.037129	5753.705819
760.364073	5757.310244
760.690970	5841.109344
761.017820	5826.162323
761.344623	5772.584940
761.671379	5866.010124
761.998088	5977.018852
762.324751	6207.724737
762.651366	6779.260513
762.977935	8050.203453
763.304456	9659.261623
763.630931	10583.574825
763.957359	10239.299305
764.283740	9315.197832
764.610074	8507.410902
764.936362	7524.353134
765.262602	6925.186794
765.588796	6384.412138
765.914943	6041.356578
766.241044	5883.576024
766.567097	5695.966963
766.893104	5435.538435
767.219064	5251.669910
767.544978	5194.510787
767.870845	5121.782061
768.196665	5012.409187
768.522438	4933.167290
768.848165	4910.116614
769.173846	4845.027756
769.499479	4805.482424
769.825066	4748.701388
770.150607	4687.340463
770.476101	4665.829860
770.801548	4659.762831
771.126949	4591.684569
771.452303	4539.236405
771.777611	4488.356039
772.102872	4510.832023
772.428087	4470.737206
772.753256	4434.352678
773.078378	4393.945310
773.403453	4323.517870
773.728482	4312.626457
774.053465	4263.306328
774.378401	4251.263012
774.703291	4253.929782
775.028135	4187.323537
775.352932	4133.531905
775.677683	4121.738125
776.002388	4139.672030
776.327046	4156.456552
776.651658	4075.442689
776.976224	4015.175695
777.300743	4021.005789
777.625216	4040.371382
777.949643	4039.877349
778.274024	3994.181810
778.598359	3944.435703
778.922647	3969.049137
779.246889	3961.729382
779.571086	3959.100420
779.895236	3947.503246
780.219339	3933.221657
780.543397	3916.948812
780.867409	3972.598109
781.191374	3987.852641
781.515294	3930.486831
781.839167	3919.978546
782.162995	3937.451185
782.486776	3927.144546
782.810511	3931.205195
783.134201	3936.034621
783.457844	3894.268661
783.781441	3836.875124
784.104993	3838.999971
784.428498	3856.356663
784.751958	3855.519832
785.075372	3832.310360
785.398739	3796.452632
785.722061	3806.240033
786.045337	3850.750900
786.368568	3886.570819
786.691752	3799.835247
787.014891	3842.508614
787.337983	3962.261223
787.661030	4119.336016
787.984031	4283.750728
788.306987	4453.965287
788.629897	4532.957647
788.952760	4491.839476
789.275579	4421.535545
789.598351	4363.390876
789.921078	4230.692583
790.243759	4031.567007
790.566395	4005.537009
790.888984	4002.691277
791.211529	3897.424423
791.534027	3838.024507
791.856480	3831.949917
792.178888	3775.582255
792.501249	3719.580077
792.823566	3724.991756
793.145836	3759.848814
793.468062	3707.554405
793.790241	3661.563958
794.112375	3690.875747
794.434464	3752.375304
794.756507	3775.282307
795.078505	3763.574227
795.400457	3790.115902
795.722364	3923.802261
796.044226	4025.694062
796.366042	4095.821553
796.687812	4088.902570
797.009538	4090.805605
797.331218	4047.829769
797.652852	4019.536293
797.974442	3998.572655
798.295986	4002.930732
798.617484	3926.509360
798.938938	3835.387984
799.260346	3873.836864
799.581709	3875.863408
799.903026	3800.661996
800.224299	3764.249742
800.545526	3761.101541
800.866708	3724.580902
801.187845	3656.726971
801.508936	3693.441695
801.829983	3700.826985
802.150984	3614.048563
802.471940	3604.407356
802.792851	3617.595014
803.113717	3617.824387
803.434538	3621.156590
803.755314	3565.756829
804.076045	3534.867159
804.396731	3552.334757
804.717372	3581.981783
805.037967	3571.077767
805.358518	3562.349009
805.679024	3582.785847
805.999485	3596.855707
806.319901	3597.811006
806.640272	3610.179477
806.960598	3630.742344
807.280879	3602.723611
807.601115	3613.630147
807.921306	3629.489617
808.241453	3669.193745
808.561554	3646.415291
808.881611	3584.688883
809.201623	3617.204325
809.521590	3628.937611
809.841513	3600.853342
810.161390	3629.454329
810.481223	3615.356742
810.801011	3556.760890
811.120755	3546.557595
811.440453	3582.642174
811.760107	3588.225252
812.079716	3542.837223
812.399281	3512.663397
812.718801	3533.775749
813.038276	3507.803725
813.357707	3505.026049
813.677093	3524.628576
813.996434	3476.414980
814.315731	3482.688696
814.634983	3484.604335
814.954191	3496.360306
815.273354	3528.492620
815.592473	3525.861138
815.911547	3526.493803
816.230577	3564.252045
816.549562	3612.858850
816.868502	3655.771672
817.187399	3685.113708
817.506250	3679.422246
817.825058	3649.429901
818.143821	3736.644383
818.462539	3840.207327
818.781213	3884.282135
819.099843	3943.170374
819.418429	4166.158253
819.736970	4408.761261
820.055466	4640.268689
820.373919	4999.932331
820.692327	5403.932921
821.010691	5811.197658
821.329011	7106.156655
821.647286	9717.421415
821.965517	14122.341317
822.283704	18134.164644
822.601847	20401.307640
822.919945	18672.345626
823.237999	16186.703899
823.556010	13752.038320
823.873976	11701.710310
824.191897	9628.644175
824.509775	8289.345710
824.827609	7162.330232
825.145398	6610.197857
825.463144	6492.817111
825.780845	6612.703311
826.098502	6768.076713
826.416116	7585.036023
826.733685	8873.476809
827.051210	9998.556483
827.368692	10101.980795
827.686129	8911.653467
828.003522	7406.377531
828.320872	6395.162399
828.638177	5711.743254
828.955439	5162.393596
829.272656	4670.119882
829.589830	4384.651942
829.906960	4207.432700
830.224046	4027.450904
830.541088	3900.993560
830.858086	3856.008824
831.175041	3783.872433
831.491952	3760.884771
831.808819	3772.297944
832.125642	3837.971575
832.442421	3980.502639
832.759157	4239.852360
833.075849	4762.065487
833.392497	5595.920224
833.709101	6361.389189
834.025662	6724.669858
834.342179	6400.921917
834.658653	5747.888327
834.975083	5113.335608
835.291469	4548.580183
835.607811	4135.230774
835.924110	4000.740351
836.240366	3806.373623
836.556578	3599.230091
836.872746	3492.677743
837.188871	3455.320272
837.504952	3395.585120
837.820990	3309.315854
838.136984	3263.481683
838.452935	3285.526649
838.768842	3282.570012
839.084706	3302.709422
839.400526	3452.343471
839.716303	3769.560597
840.032037	4273.013070
840.347727	4553.553282
840.663373	4304.850477
840.978977	3932.057150
841.294537	3627.573978
841.610054	3399.807086
841.925527	3286.454221
842.240957	3223.485168
842.556344	3167.672034
842.871687	3111.674897
843.186987	3066.506158
843.502244	3028.760519
843.817458	2993.411948
844.132629	2959.749643
844.447756	2970.658700
844.762840	2957.876855
845.077881	2927.128337
845.392879	2909.224679
845.707833	2907.271232
846.022745	2901.902403
846.337613	2903.422311
846.652438	2892.477966
846.967221	2890.484189
847.281960	2877.959443
847.596656	2873.170347
847.911309	2870.052393
848.225919	2864.318080
848.540485	2860.078470
848.855009	2864.492000
849.169490	2852.794003
849.483928	2841.718588
849.798323	2840.465861
850.112675	2834.703822
850.426984	2849.166892
850.741251	2845.113805
851.055474	2836.521158
851.369654	2829.592092
851.683792	2833.466219
851.997887	2842.313444
852.311938	2842.094154
852.625947	2835.928822
852.939914	2837.211796
853.253837	2845.438959
853.567718	2827.898264
853.881555	2824.921463
854.195350	2843.503156
854.509103	2839.329081
854.822812	2830.658296
855.136479	2829.261897
855.450103	2828.500682
855.763685	2821.291832
856.077224	2815.378559
856.390720	2835.205417
856.704173	2843.109946
857.017584	2833.630056
857.330953	2831.790035
857.644278	2842.232785
857.957561	2849.912983
858.270802	2850.767459
858.584000	2850.220494
858.897155	2837.514265
859.210268	2838.850171
859.523339	2836.856395
859.836367	2836.178360
860.149352	2830.454129
860.462295	2826.317863
860.775195	2832.427741
861.088054	2832.694922
861.400869	2819.822336
861.713642	2812.454690
862.026373	2827.931032
862.339062	2830.582679
862.651708	2838.361179
862.964312	2841.789164
863.276873	2832.538647
863.589392	2840.896880
863.901869	2855.180989
864.214303	2875.915255
864.526696	2889.740619
864.839045	2886.957902
865.151353	2884.056718
865.463619	2884.913714
865.775842	2884.873385
866.088023	2904.929616
866.400162	2911.442787
866.712258	2883.318189
867.024313	2869.664224
867.336325	2877.876264
867.648296	2899.701939
867.960224	2891.391597
868.272110	2879.091182
868.583954	2886.494116
868.895755	2897.262021
869.207515	2885.916904
869.519233	2889.433109
869.830909	2900.311919
870.142542	2911.321799
870.454134	2906.845254
870.765684	2910.689134
871.077191	2910.593352
871.388657	2918.031575
871.700081	2932.965993
872.011463	2939.819442
872.322803	2946.466203
872.634101	2944.626182
872.945357	2958.131433
873.256571	2984.481544
873.567744	2979.314361
873.878874	2967.220633
874.189963	2991.801299
874.501010	2995.514109
874.812015	2984.216883
875.122979	2984.836945
875.433900	2980.199084
875.744780	2986.997080
876.055618	2995.342710
876.366415	2990.669560
876.677169	3000.615757
876.987882	3000.260356
877.298554	2989.515136
877.609183	3010.473733
877.919771	3033.587424
878.230317	3057.127092
878.540822	3111.919393
878.851285	3147.421719
879.161707	3185.996628
879.472087	3278.932820
879.782425	3489.348061
880.092722	3901.157398
880.402977	4415.541613
880.713191	5010.831306
881.023363	6111.663030
881.333494	7365.834051
881.643583	7929.087212
881.953631	7650.059346
882.263637	7063.730304
882.573602	6506.917218
882.883526	5939.643737
883.193408	5375.599116
883.503248	4913.418569
883.813048	4619.317654
884.122806	4335.750230
884.432522	4032.063560
884.742197	3801.937408
885.051831	3608.830968
885.361424	3474.753920
885.670975	3405.304464
885.980485	3326.997701
886.289954	3250.904004
886.599382	3207.771892
886.908768	3173.262673
887.218113	3126.947072
887.527417	3074.415729
887.836680	3019.968747
888.145901	3017.117974
888.455082	3010.640091
888.764221	2959.427009
889.073319	2931.967844
889.382376	2930.095056
889.691392	2931.771239
890.000366	2933.149995
890.309300	2920.466452
890.618193	2931.408276
890.927044	2950.173972
891.235855	2950.698252
891.544625	2934.755603
891.853353	2943.549895
892.162041	2962.514716
892.470687	3001.503000
892.779293	3052.022923
893.087858	3094.292998
893.396381	3160.858914
893.704864	3274.547016
894.013306	3498.530522
894.321707	3792.472641
894.630068	4000.082480
894.938387	4002.845032
895.246665	3954.749904
895.554903	3840.464426
895.863100	3649.886125
896.171256	3485.748677
896.479371	3356.369984
896.787446	3236.317426
897.095480	3135.718680
897.403473	3070.934812
897.711425	3033.489121
898.019336	3026.522247
898.327207	2999.320180
898.635038	2964.364820
898.942827	2951.378807
899.250576	2940.421859
899.558284	2907.488001
899.865952	2891.018552
900.173579	2874.198742
900.481165	2867.814121
900.788711	2852.478931
901.096216	2831.850529
901.403681	2816.026347
901.711105	2820.029023
902.018489	2822.347954
902.325832	2822.063129
902.633135	2831.442196
902.940397	2857.701566
903.247619	2934.947166
903.554800	3111.175823
903.861941	3433.638269
904.169041	3846.143286
904.476101	4148.867095
904.783121	4125.443373
905.090100	3889.093917
905.397039	3628.995584
905.703938	3382.503325
906.010796	3201.926674
906.317614	3094.000611
906.624391	3000.401508
906.931129	2931.125972
907.237826	2872.525079
907.544483	2826.998418
907.851099	2796.859880
908.157675	2778.265584
908.464211	2757.455701
908.770707	2746.173599
909.077163	2732.086094
909.383578	2720.539332
909.689954	2706.681200
909.996289	2705.504090
910.302584	2707.780171
910.608839	2709.085830
910.915054	2705.010057
911.221229	2697.017308
911.527363	2699.752134
911.833458	2702.078626
912.139513	2705.730942
912.445527	2708.173381
912.751502	2719.800802
913.057436	2728.189282
913.363331	2739.743607
913.669186	2758.781525
913.975000	2789.217491
914.280775	2850.170082
914.586510	2915.400092
914.892205	2990.840960
915.197859	3111.299331
915.503475	3292.223822
915.809050	3491.515757
916.114585	3639.173673
916.420081	3667.182324
916.725536	3609.687965
917.030952	3497.955831
917.336328	3374.760113
917.641665	3248.832090
917.946961	3150.065804
918.252218	3087.805033
918.557435	3010.493898
918.862612	2953.569189
919.167750	2906.585635
919.472848	2867.209182
919.777906	2841.728670
920.082925	2814.892087
920.387904	2789.953499
920.692843	2773.229472
920.997743	2759.875455
921.302603	2747.534710
921.607423	2740.096488
921.912204	2727.100393
922.216946	2718.948847
922.521647	2707.878474
922.826310	2701.251877
923.130932	2695.371371
923.435516	2684.427026
923.740059	2679.458969
924.044564	2671.463699
924.349028	2667.077895
924.653454	2662.732420
924.957840	2651.583909
925.262186	2649.340595
925.566493	2648.745739
925.870761	2641.897332
926.174989	2640.208545
926.479178	2634.887607
926.783328	2629.244035
927.087438	2625.322018
927.391509	2628.361833
927.695541	2625.778242
927.999533	2622.567027
928.303486	2616.658795
928.607400	2616.734412
928.911275	2615.827004
929.215110	2615.063270
929.518906	2611.491612
929.822663	2613.495471
930.126381	2614.680142
930.430060	2611.075717
930.733699	2612.056221
931.037299	2615.711058
931.340861	2619.055863
931.644383	2618.342540
931.947866	2616.734412
932.251309	2614.465893
932.554714	2614.143259
932.858080	2613.064452
933.161407	2611.695779
933.464694	2610.001951
933.767943	2605.757300
934.071153	2608.098916
934.374323	2606.798298
934.677455	2607.393154
934.980548	2606.304265
935.283602	2606.367279
935.586617	2602.682196
935.889593	2604.872577
936.192530	2604.486929
936.495428	2608.829883
936.798287	2609.180243
937.101108	2611.829369
937.403890	2615.141407
937.706632	2619.098713
938.009336	2625.432923
938.312002	2633.750827
938.614628	2643.495377
938.917216	2649.466624
939.219765	2645.945378
939.522275	2648.007210
939.824747	2646.240286
940.127179	2643.175264
940.429573	2642.363638
940.731929	2639.384316
941.034246	2635.139665
941.336524	2632.518265
941.638763	2629.581793
941.940964	2628.384519
942.243126	2625.087604
942.545250	2625.891668
942.847335	2622.509054
943.149381	2620.863117
943.451389	2615.423712
943.753359	2610.871550
944.055290	2612.482199
944.357182	2611.269801
944.659036	2609.601179
944.960851	2605.739656
945.262628	2604.776795
945.564367	2603.682865
945.866067	2607.909872
946.167729	2606.599172
946.469352	2607.985490
946.770937	2608.315685
947.072484	2608.547578
947.373992	2606.079933
947.675462	2605.359048
947.976893	2600.832092
948.278286	2597.300764
948.579641	2601.442072
948.880958	2596.884869
949.182236	2599.758327
949.483476	2599.660024
949.784678	2597.550301
950.085841	2600.577514
950.386967	2599.544078
950.688054	2602.639346
950.989103	2601.850405
951.290114	2601.643718
951.591087	2604.807042
951.892021	2604.078595
952.192917	2606.125304
952.493776	2611.763834
952.794596	2613.840790
953.095378	2611.678135
953.396122	2609.273504
953.696828	2610.780809
953.997496	2606.392485
954.298126	2604.842330
954.598718	2607.030191
954.899272	2600.819489
955.199788	2600.786722
955.500266	2594.752461
955.800706	2595.279261
956.101108	2590.212902
956.401472	2591.364805
956.701798	2588.261975
957.002087	2586.747108
957.302337	2586.653847
957.602550	2583.634196
957.902724	2583.976994
958.202861	2582.880543
958.502960	2583.520770
958.803022	2584.337437
959.103045	2578.666139
959.403031	2579.989442
959.702979	2579.505491
960.002889	2579.039184
960.302762	2577.168916
960.602596	2577.252095
960.902393	2578.091447
961.202153	2575.374265
961.501875	2577.423494
961.801559	2574.202197
962.101205	2575.376786
962.400814	2573.534244
962.700385	2576.758062
962.999918	2571.724470
963.299414	2569.702967
963.598873	2567.961249
963.898293	2567.905796
964.197677	2574.340829
964.497022	2574.963411
964.796331	2575.437280
965.095601	2572.619275
965.394835	2574.252609
965.694030	2573.745973
965.993189	2572.508369
966.292309	2571.111970
966.591393	2570.948132
966.890439	2570.900241
967.189447	2571.497618
967.488419	2572.006775
967.787353	2572.163050
968.086249	2572.697413
968.385108	2573.188925
968.683930	2571.853019
968.982714	2571.938719
969.281462	2573.665314
969.580172	2571.893349
969.878844	2571.099367
970.177480	2573.206569
970.476078	2572.160530
970.774639	2571.643812
971.073162	2575.223031
971.371649	2573.015005
971.670098	2572.200859
971.968510	2571.971487
972.266885	2576.390058
972.565223	2574.451734
972.863524	2574.154306
973.161788	2570.454099
973.460014	2571.669017
973.758204	2573.829152
974.056356	2573.473750
974.354471	2572.493246
974.652550	2571.472412
974.950591	2573.849316
975.248595	2571.364028
975.546563	2573.435942
975.844493	2575.265881
976.142386	2571.628688
976.440243	2570.683472
976.738062	2570.655745
977.035845	2571.542988
977.333590	2571.754717
977.631299	2573.861919
977.928971	2568.283882
978.226606	2565.365054
978.524204	2568.377144
978.821765	2566.443861
979.119290	2571.046435
979.416777	2570.101218
979.714228	2570.159192
980.011642	2570.317988
980.309020	2570.839748
980.606360	2571.195149
980.903664	2568.833368
981.200931	2571.248081
981.498162	2576.052301
981.795356	2572.838565
982.092513	2575.326374
982.389633	2577.350398
982.686717	2577.403330
982.983764	2582.426840
983.280775	2586.996646
983.577749	2586.918508
983.874686	2589.355906
984.171587	2583.515729
984.468451	2576.672363
984.765279	2579.308886
985.062070	2581.257292
985.358824	2577.778896
985.655543	2573.987948
985.952224	2570.570046
986.248869	2573.927454
986.545478	2571.721949
986.842050	2572.740262
987.138586	2569.801270
987.435086	2569.614747
987.731549	2567.580642
988.027975	2569.821434
988.324366	2569.080385
988.620719	2568.185580
988.917037	2569.544171
989.213318	2569.241702
989.509563	2567.588203
989.805772	2567.235322
990.101944	2568.500652
990.398080	2570.219686
990.694180	2569.665159
990.990244	2565.354972
991.286271	2570.060889
991.582262	2566.471588
991.878217	2567.976372
992.174136	2568.525858
992.470019	2568.301527
992.765865	2567.494942
993.061676	2564.941597
993.357450	2562.148798
993.653188	2563.237687
993.948890	2569.934860
994.244556	2569.266907
994.540186	2568.140210
994.835780	2565.665003
995.131337	2567.530230
995.426859	2567.883111
995.722345	2567.530230
996.017795	2573.108267
996.313208	2574.960891
996.608586	2571.396795
996.903928	2570.086095
997.199234	2570.600293
997.494504	2572.188256
997.789738	2568.803121
998.084936	2571.974007
998.380099	2571.870663
998.675225	2570.441496
998.970316	2570.297823
999.265371	2567.048800
999.560390	2566.844633
999.855373	2570.174315
1000.150320	2566.020404
1000.445232	2567.764644
1000.740108	2567.469736
1001.034948	2565.516289
1001.329752	2566.774057
1001.624521	2568.687175
1001.919254	2567.288255
1002.213951	2566.733728
1002.508613	2567.129458
1002.803239	2566.068295
1003.097829	2566.406053
1003.392384	2567.028635
1003.686903	2566.547205
1003.981386	2570.076013
1004.275834	2567.018553
1004.570246	2566.751372
1004.864623	2564.424879
1005.158964	2566.169118
1005.453270	2565.420507
1005.747540	2565.521330
1006.041775	2564.427400
1006.335974	2565.637277
1006.630138	2562.962945
1006.924266	2566.947977
1007.218359	2563.575445
1007.512416	2563.225085
1007.806438	2560.797769
1008.100425	2561.750547
1008.394376	2562.980589
1008.688292	2566.224571
1008.982172	2561.974878
1009.276017	2563.905640
1009.569827	2564.651731
1009.863602	2563.688871
1010.157341	2567.021073
1010.451045	2565.559139
1010.744714	2564.061916
1011.038347	2566.832030
1011.331945	2566.935374
1011.625508	2563.424210
1011.919036	2564.470250
1012.212528	2566.191804
1012.505986	2565.319684
1012.799408	2566.174160
1013.092795	2563.141906
1013.386147	2565.191135
1013.679464	2564.530743
1013.972745	2565.675085
1014.265992	2563.658624
1014.559204	2563.890517
1014.852380	2565.702812
1015.145521	2563.635939
1015.438628	2566.590055
1015.731699	2564.296330
1016.024736	2564.878583
1016.317737	2565.055023
1016.610703	2564.661813
1016.903635	2566.002760
1017.196531	2562.574776
1017.489393	2565.430589
1017.782219	2562.937739
1018.075011	2566.524520
1018.367768	2562.925136
1018.660490	2566.161557
1018.953177	2566.161557
1019.245829	2566.161557
