Dividing Wavelength (nm)	Counts (n)	Blue Motor Position (mm): 22.400000	Red Motor Position (mm): 0.000000	
326.493990	2057.022662
326.888308	2057.022662
327.282561	2057.022662
327.676750	2033.258663
328.070874	2037.762934
328.464933	2041.069931
328.858929	2048.833308
329.252859	2061.796635
329.646726	2073.358521
330.040528	2091.733527
330.434265	2107.598038
330.827938	2130.116873
331.221547	2150.765439
331.615091	2170.141113
332.008571	2192.168435
332.401986	2211.712989
332.795338	2230.748386
333.188625	2249.375449
333.581847	2268.564601
333.975006	2287.229473
334.368100	2303.829993
334.761129	2321.277426
335.154095	2339.475992
335.546996	2386.618342
335.939833	2481.833135
336.332606	2493.137923
336.725315	2506.403719
337.117960	2514.860255
337.510540	2526.775022
337.903056	2535.239119
338.295508	2543.322609
338.687896	2546.059956
339.080220	2550.629762
339.472480	2557.326935
339.864676	2560.467573
340.256807	2562.703325
340.648875	2568.135168
341.040879	2568.780436
341.432818	2569.392936
341.824694	2570.796898
342.216506	2568.828327
342.608253	2568.079716
342.999937	2567.126938
343.391557	2564.457647
343.783113	2565.352452
344.174605	2561.730382
344.566033	2564.928995
344.957397	2560.737275
345.348697	2558.619991
345.739934	2558.609908
346.131106	2556.880793
346.522215	2554.609753
346.913260	2550.980122
347.304241	2551.421223
347.695159	2546.014585
348.086012	2548.454504
348.476802	2544.522404
348.867528	2541.159954
349.258191	2538.669624
349.648789	2538.326826
350.039324	2536.234747
350.429796	2541.633823
350.820203	2541.409491
351.210548	2540.164326
351.600828	2535.977648
351.991045	2537.479912
352.381198	2537.016126
352.771288	2540.658359
353.161314	2534.009078
353.551276	2535.526465
353.941175	2534.752648
354.331010	2536.146527
354.720782	2540.015612
355.110490	2541.434697
355.500135	2537.547968
355.889717	2537.711805
356.279235	2536.557381
356.668689	2535.070240
357.058080	2535.818852
357.447408	2538.523431
357.836672	2538.805735
358.225873	2539.047711
358.615010	2537.691640
359.004084	2537.797505
359.393095	2539.483771
359.782043	2539.629964
360.170927	2542.470654
360.559748	2543.693134
360.948505	2542.760521
361.337199	2543.234389
361.725830	2542.573998
362.114398	2546.637168
362.502903	2544.172044
362.891344	2544.345963
363.279722	2544.237579
363.668037	2547.166489
364.056289	2545.379400
364.444478	2547.264792
364.832603	2546.813608
365.220665	2546.606921
365.608665	2546.485933
365.996601	2547.683207
366.384474	2549.946685
366.772284	2548.255378
367.160031	2549.135060
367.547715	2552.260575
367.935336	2547.842004
368.322893	2545.684390
368.710388	2546.105326
369.097820	2546.191026
369.485189	2547.300080
369.872495	2550.034906
370.259738	2550.158414
370.646918	2550.833928
371.034035	2553.878785
371.421090	2552.404248
371.808081	2549.558517
372.195010	2553.934238
372.581875	2552.825184
372.968678	2553.765359
373.355418	2553.566234
373.742096	2554.012376
374.128710	2555.272664
374.515262	2556.013714
374.901751	2557.949517
375.288177	2555.940617
375.674540	2554.186296
376.060841	2557.901626
376.447079	2556.364074
376.833254	2555.267623
377.219367	2557.498334
377.605417	2557.137891
377.991404	2557.359702
378.377329	2556.568241
378.763191	2555.880123
379.148991	2559.716442
379.534727	2558.670402
379.920402	2557.440361
380.306013	2558.632593
380.691563	2561.112841
381.077049	2560.021431
381.462474	2559.603016
381.847835	2559.882800
382.233134	2559.547563
382.618371	2558.380536
383.003545	2564.815569
383.388657	2562.352965
383.773706	2561.412790
384.158693	2560.460012
384.543618	2561.029662
384.928480	2559.741647
385.313280	2562.179045
385.698017	2561.964796
386.082692	2559.739127
386.467305	2563.502348
386.851856	2563.479663
387.236344	2563.414128
387.620770	2559.421534
388.005133	2560.971689
388.389435	2562.269786
388.773674	2559.918088
389.157851	2563.736762
389.541965	2564.419838
389.926018	2564.200548
390.310008	2565.841443
390.693936	2563.613253
391.077802	2567.431928
391.461606	2567.230281
391.845348	2566.544684
392.229027	2565.607030
392.612645	2565.549057
392.996200	2565.112997
393.379694	2569.468554
393.763125	2564.495455
394.146494	2565.511248
394.529801	2567.704150
394.913047	2566.675754
395.296230	2568.989644
395.679351	2567.696588
396.062410	2567.976372
396.445408	2567.225240
396.828343	2571.532906
397.211217	2568.057031
397.594028	2570.093657
397.976778	2570.547361
398.359466	2571.459809
398.742092	2570.325550
399.124656	2570.781774
399.507158	2572.329408
399.889598	2570.320509
400.271977	2570.441496
400.654294	2570.968297
401.036549	2570.643142
401.418742	2571.825293
401.800874	2576.337126
402.182944	2570.544840
402.564952	2571.401836
402.946898	2570.197000
403.328783	2575.543144
403.710606	2574.139183
404.092367	2574.282856
404.474067	2572.979717
404.855705	2573.317475
405.237282	2576.110274
405.618797	2571.744635
406.000250	2576.553895
406.381642	2574.156827
406.762972	2572.687330
407.144240	2572.304203
407.525447	2577.741087
407.906593	2570.622978
408.287677	2577.138669
408.668700	2574.807136
409.049661	2579.543300
409.430560	2579.170254
409.811399	2579.918866
410.192176	2579.659246
410.572891	2577.806622
410.953545	2578.056159
411.334138	2578.645974
411.714669	2578.416602
412.095139	2579.734863
412.475547	2580.231417
412.855894	2581.416088
413.236180	2577.935172
413.616405	2579.429874
413.996568	2578.393917
414.376670	2579.084555
414.756711	2580.523804
415.136691	2579.079513
415.516609	2582.053794
415.896466	2579.860892
416.276262	2580.196129
416.655997	2580.949782
417.035670	2581.141345
417.415283	2582.812488
417.794834	2581.655543
418.174324	2579.966757
418.553753	2582.532704
418.933121	2580.785944
419.312428	2581.189236
419.691674	2580.470872
420.070859	2583.651840
420.449983	2583.571182
420.829045	2584.249217
421.208047	2582.850297
421.586988	2584.458425
421.965867	2584.196285
422.344686	2583.281315
422.723444	2587.019331
423.102141	2585.002869
423.480777	2583.475400
423.859352	2585.759042
424.237866	2584.546645
424.616319	2583.593867
424.994712	2587.417582
425.373044	2584.060173
425.751314	2584.004721
426.129524	2580.092785
426.507673	2584.075297
426.885762	2577.715881
427.263789	2585.388517
427.641756	2585.524629
428.019662	2584.508836
428.397508	2585.519587
428.775292	2585.322982
429.153016	2586.492530
429.530679	2587.694845
429.908282	2585.522108
430.285824	2585.474217
430.663305	2586.885740
431.040726	2584.730647
431.418086	2586.913467
431.795385	2588.171234
432.172624	2587.241142
432.549802	2586.699218
432.926920	2589.421441
433.303977	2590.759867
433.680974	2585.882551
434.057910	2586.835329
434.434786	2589.615525
434.811601	2588.501430
435.188355	2588.272057
435.565050	2586.285843
435.941683	2590.580906
436.318257	2589.723910
436.694770	2590.583427
437.071222	2591.127871
437.447614	2591.518561
437.823946	2590.943869
438.200218	2589.613004
438.576429	2590.457398
438.952580	2591.503437
439.328670	2592.549477
439.704700	2590.434713
440.080670	2589.721389
440.456580	2593.527460
440.832429	2591.952100
441.208218	2592.317583
441.583947	2592.307501
441.959616	2592.983016
442.335224	2590.316245
442.710773	2593.895465
443.086261	2591.145515
443.461689	2593.744230
443.837057	2595.480907
444.212365	2596.347986
444.587612	2590.911102
444.962800	2593.388829
445.337927	2592.294898
445.712995	2588.128385
446.088002	2596.342945
446.462949	2596.206834
446.837837	2599.055086
447.212664	2598.997112
447.587431	2596.196751
447.962139	2603.808894
448.336786	2598.566094
448.711374	2601.941146
449.085901	2598.160281
449.460369	2601.714294
449.834776	2601.648759
450.209124	2600.592638
450.583412	2605.323760
450.957640	2604.754110
451.331808	2606.011878
451.705917	2604.497011
452.079965	2605.361569
452.453954	2606.795777
452.827883	2605.217896
453.201752	2606.941971
453.575562	2609.155037
453.949311	2608.408947
454.323001	2611.171499
454.696632	2609.306272
455.070202	2610.644698
455.443713	2611.748711
455.817164	2612.351129
456.190556	2612.527569
456.563888	2615.096037
456.937160	2614.128136
457.310373	2617.818260
457.683526	2615.786675
458.056619	2616.721809
458.429653	2618.251799
458.802628	2617.422530
459.175542	2619.479320
459.548398	2623.567696
459.921194	2625.105248
460.293930	2624.936369
460.666607	2628.984416
461.039224	2631.527678
461.411782	2634.615385
461.784280	2632.072123
462.156719	2635.812659
462.529099	2635.666465
462.901419	2634.174284
463.273680	2632.619088
463.645882	2630.552215
464.018024	2637.133441
464.390106	2635.558081
464.762130	2646.262971
465.134094	2656.690597
465.505999	2666.888852
465.877845	2678.314627
466.249631	2686.821574
466.621358	2683.380987
466.993026	2682.758404
467.364634	2684.116995
467.736184	2686.428364
468.107674	2687.010617
468.479105	2688.364167
468.850477	2695.250383
469.221790	2696.961855
469.593043	2696.735003
469.964238	2701.743389
470.335373	2706.348483
470.706449	2717.300390
471.077467	2735.440982
471.448425	2762.549787
471.819324	2784.312448
472.190164	2787.511060
472.560945	2782.248096
472.931667	2778.822632
473.302330	2787.543828
473.672934	2795.839047
474.043479	2812.353867
474.413965	2823.867862
474.784393	2833.816579
475.154761	2856.592512
475.525070	2874.171016
475.895321	2886.693242
476.265513	2913.693662
476.635645	2940.658794
477.005719	2966.688792
477.375734	2994.566372
477.745691	3026.882689
478.115588	3069.094791
478.485427	3131.237094
478.855207	3216.379662
479.224928	3302.356541
479.594591	3369.071171
479.964194	3385.522977
480.333739	3431.261365
480.703226	3486.479644
481.072653	3560.340110
481.442022	3630.475162
481.811333	3694.858259
482.180584	3730.042992
482.549777	3777.828089
482.918912	3825.219977
483.287988	3887.468144
483.657005	3944.871763
484.025964	3987.678721
484.394864	4062.464238
484.763706	4125.241727
485.132489	4168.215043
485.501213	4248.092126
485.869879	4331.203109
486.238487	4406.553235
486.607036	4507.124255
486.975527	4575.154626
487.343959	4678.364689
487.712333	4794.346516
488.080648	4891.081217
488.448905	5015.219630
488.817104	5112.294609
489.185244	5301.458866
489.553326	5543.255290
489.921350	5873.193768
490.289315	6262.017964
490.657222	6478.885882
491.025070	6663.818090
491.392861	6758.180928
491.760593	6796.856661
492.128267	6812.617828
492.495883	6829.823286
492.863440	6858.018460
493.230939	6885.044086
493.598380	6958.402956
493.965763	7089.611588
494.333088	7172.329361
494.700354	7297.783516
495.067563	7452.166332
495.434713	7595.206551
495.801805	7804.560629
496.168839	7946.529604
496.535815	8093.290195
496.902733	8290.427037
497.269593	8429.406608
497.636395	8633.943863
498.003139	8875.775575
498.369825	9005.086212
498.736453	9275.418087
499.103023	9434.055637
499.469535	9639.782605
499.835989	9871.249704
500.202385	10038.681547
500.568723	10252.756666
500.935003	10549.473940
501.301226	10716.081554
501.667390	11112.260793
502.033497	11390.877805
502.399546	11545.255580
502.765537	11641.652523
503.131470	11992.496667
503.497345	12358.570135
503.863163	12260.378541
504.228923	12743.081624
504.594625	13132.929175
504.960269	13184.895909
505.325856	13656.284123
505.691385	13774.625210
506.056856	14118.799906
506.422270	14553.599425
506.787625	14611.313075
507.152924	15033.973496
507.518164	15367.634866
507.883347	15429.547797
508.248472	15739.026752
508.613540	16269.880417
508.978550	16649.925444
509.343503	16824.558575
509.708398	17239.700114
510.073236	17795.096637
510.438016	18112.946428
510.802738	18213.673723
511.167403	18765.022198
511.532010	19146.776176
511.896561	19661.135185
512.261053	20317.838735
512.625488	20471.977055
512.989866	20703.802077
513.354186	20992.476190
513.718449	21221.662167
514.082655	21986.140545
514.446803	22074.990882
514.810894	22693.134646
515.174927	22968.578251
515.538904	23225.719947
515.902822	23873.503175
516.266684	23946.320121
516.630488	24418.724128
516.994235	24679.069477
517.357925	25312.182947
517.721558	25716.168414
518.085133	26220.324128
518.448651	26594.455881
518.812112	26765.217406
519.175516	27121.944575
519.538863	27660.246545
519.902152	27956.555485
520.265385	28585.751979
520.628560	28850.848616
520.991678	29052.295644
521.354739	29450.995461
521.717743	29947.055082
522.080690	30103.411509
522.443580	30832.939568
522.806413	31081.521384
523.169189	31428.879569
523.531908	31799.361527
523.894569	31932.344645
524.257174	32303.471871
524.619722	32776.206073
524.982213	33102.121710
525.344647	33336.104345
525.707025	33643.902076
526.069345	34220.423553
526.431608	34334.401521
526.793815	34849.395715
527.155964	34682.447823
527.518057	35088.230461
527.880093	35150.834030
528.242072	35857.845775
528.603995	35830.956260
528.965860	35965.078679
529.327669	36323.882804
529.689421	36535.432304
530.051117	36657.758423
530.412755	37083.370439
530.774337	37321.088570
531.135862	37433.055117
531.497331	37719.150680
531.858743	37886.123778
532.220098	38383.544510
532.581396	38320.058739
532.942638	38264.719473
533.303824	38628.806727
533.664953	38822.679422
534.026025	38695.869197
534.387040	39340.557156
534.747999	39540.454030
535.108902	39974.663734
535.469748	39512.347077
535.830537	39861.963699
536.191270	40217.707843
536.551947	40107.447726
536.912567	40485.468730
537.273131	40758.376634
537.633638	40511.302123
537.994089	40800.966823
538.354483	40680.909223
538.714821	41394.051011
539.075103	41754.715322
539.435328	41755.035435
539.795497	41620.424024
540.155609	41846.986081
540.515665	42496.218641
540.875665	41949.593727
541.235609	42308.372646
541.595496	42526.581511
541.955328	43177.523022
542.315102	42729.903848
542.674821	42721.923702
543.034483	42702.449724
543.394090	42806.829335
543.753640	42859.088457
544.113134	43955.645282
544.472571	43188.984085
544.831953	44374.852513
545.191278	43729.670520
545.550548	43493.409283
545.909761	44208.643150
546.268918	44406.697482
546.628019	44886.249844
546.987064	44399.617181
547.346053	43774.393116
547.704986	44729.215381
548.063863	44443.036639
548.422684	44721.903188
548.781449	44388.214091
549.140158	44970.384181
549.498811	44792.759125
549.857408	44263.770688
550.215949	45147.011088
550.574434	45038.482608
550.932864	45009.301889
551.291237	45766.647034
551.649555	45580.252891
552.007817	45818.644015
552.366022	45518.796185
552.724173	45634.873793
553.082267	46083.566732
553.440305	46453.688248
553.798288	45752.657832
554.156215	46181.143306
554.514086	46424.510049
554.871902	46096.149452
555.229661	46303.605536
555.587365	46036.626028
555.945014	46192.203598
556.302606	46245.826351
556.660143	46363.998559
557.017625	46607.546784
557.375050	46369.342182
557.732421	46787.319371
558.089735	46857.288066
558.446994	46751.023063
558.804197	47264.693955
559.161345	47155.812594
559.518437	46517.506735
559.875474	46815.053279
560.232455	47060.832214
560.589381	47130.014489
560.946251	46965.304869
561.303065	47639.700348
561.659825	47352.352059
562.016528	47170.373967
562.373177	46778.716642
562.729770	47419.288499
563.086307	46979.049575
563.442789	47516.839867
563.799216	47384.486894
564.155587	47296.198646
564.511904	47279.711552
564.868164	47344.654217
565.224370	47674.118826
565.580520	47418.368489
565.936615	47609.768498
566.292654	47292.994993
566.648638	47655.330446
567.004567	47606.789176
567.360441	47709.943786
567.716260	47435.765511
568.072023	47818.469746
568.427732	47767.662477
568.783385	47288.074827
569.138982	47718.047441
569.494525	47856.291003
569.850013	47454.281669
570.205445	47578.233560
570.560823	47380.363230
570.916145	47264.877957
571.271412	47501.852517
571.626625	47157.304775
571.981782	47247.901872
572.336884	46858.964249
572.691931	47192.829786
573.046923	46859.309568
573.401860	46711.644090
573.756743	46729.051194
574.111570	46867.750981
574.466342	46781.234698
574.821059	46930.057122
575.175722	46436.961699
575.530330	46540.237298
575.884882	46198.386573
576.239380	46109.223685
576.593823	46176.369333
576.948211	46140.403221
577.302544	45676.085226
577.656823	45688.657863
578.011047	45949.177132
578.365216	45765.507733
578.719330	45483.036760
579.073389	45485.637995
579.427394	45525.815991
579.781344	45449.916379
580.135239	45219.029012
580.489080	45272.253515
580.842866	44773.582576
581.196597	45266.856959
581.550273	45260.500064
581.903895	45190.614549
582.257463	45624.567154
582.610975	45084.505822
582.964434	45407.363999
583.317837	44932.187358
583.671186	44882.332867
584.024481	45144.014123
584.377721	44707.026743
584.730906	44911.962249
585.084037	45038.936312
585.437113	44747.968473
585.790135	44885.904525
586.143103	44433.337459
586.496016	44589.996356
586.848874	44702.598089
587.201679	44727.360237
587.554428	44246.908028
587.907124	44516.118246
588.259765	44281.906239
588.612352	44452.876971
588.964884	43896.837702
589.317362	44215.836876
589.669786	44210.463006
590.022155	44065.239967
590.374470	44529.396646
590.726731	44099.736583
591.078937	43456.230774
591.431090	43783.411741
591.783188	43310.957323
592.135232	43102.513173
592.487222	43375.819329
592.839157	43525.932287
593.191038	43165.058769
593.542866	42990.460926
593.894639	42396.854978
594.246358	42698.973849
594.598022	42667.358252
594.949633	42255.927002
595.301190	42252.105807
595.652692	42203.262068
596.004141	42660.464474
596.355535	41579.394073
596.706876	41594.958636
597.058162	41328.952071
597.409395	41824.789881
597.760573	42026.448638
598.111698	41641.110399
598.462768	41554.793242
598.813785	41571.126581
599.164748	41165.815291
599.515657	41456.084930
599.866511	40963.912038
600.217312	41664.410612
600.568060	40584.277866
600.918753	41435.118771
601.269392	41356.595238
601.619978	41061.418036
601.970510	41278.661520
602.320988	41410.563310
602.671412	41655.374344
603.021783	41530.426825
603.372100	41106.453184
603.722363	41209.885058
604.072572	41256.868612
604.422728	41236.893040
604.772830	41034.339478
605.122878	41198.439118
605.472872	41052.679196
605.822813	41323.033756
606.172701	41076.352454
606.522534	41384.298899
606.872314	41605.897940
607.222041	41425.381782
607.571714	41766.476334
607.921333	41257.009764
608.270899	41469.443987
608.620411	41861.943185
608.969870	41577.251583
609.319276	41624.172122
609.668627	41653.214210
610.017926	42045.095866
610.367171	42164.525841
610.716362	42201.490102
611.065500	42101.178702
611.414585	42322.450068
611.763616	42497.990607
612.112594	42408.116916
612.461518	42531.592418
612.810389	42902.671752
613.159207	42701.955691
613.507971	42676.389479
613.856682	43173.122094
614.205340	43020.216336
614.553945	43686.563613
614.902496	43011.048998
615.250994	43433.132207
615.599439	43494.551105
615.947830	43592.563738
616.296169	43626.057164
616.644454	43653.919622
616.992686	43804.934947
617.340864	44263.821099
617.688990	43796.601920
618.037063	44474.503521
618.385082	44290.488803
618.733048	44615.996107
619.080961	44510.681362
619.428821	44517.673442
619.776628	44552.268361
620.124382	44338.188201
620.472083	44456.128516
620.819731	44554.373042
621.167326	44117.335251
621.514868	44113.662770
621.862357	43586.176596
622.209793	43665.529399
622.557176	43236.444028
622.904506	42992.028725
623.251783	42628.445586
623.599007	42311.999756
623.946179	42232.130235
624.293297	41968.440080
624.640363	41432.767072
624.987376	41273.517023
625.334336	41064.026833
625.681243	40655.743783
626.028097	40577.527761
626.374899	40392.598073
626.721647	40369.002953
627.068343	40150.400878
627.414987	39860.789110
627.761577	39594.396897
628.108115	39940.540164
628.454600	39189.982932
628.801032	39397.565045
629.147412	39307.540119
629.493739	39233.760312
629.840014	38784.044019
630.186236	39193.274806
630.532405	38649.586363
630.878521	38873.141372
631.224585	38657.732868
631.570597	38304.844537
631.916556	38468.619022
632.262462	38367.319557
632.608316	38284.632031
632.954117	38147.651278
633.299866	38130.682754
633.645562	38021.685446
633.991206	37491.477049
634.336797	37101.747966
634.682336	36988.271593
635.027823	36760.686182
635.373257	36630.659701
635.718639	36290.845602
636.063968	36197.299431
636.409245	35538.944903
636.754470	35503.639182
637.099642	35274.158297
637.444762	34707.429261
637.789829	34859.984659
638.134845	34463.661747
638.479808	34391.593411
638.824719	34336.115513
639.169577	33816.380113
639.514383	33935.303453
639.859137	33537.165725
640.203839	33704.229564
640.548489	33405.858791
640.893086	33419.744649
641.237632	33136.507420
641.582125	33230.421596
641.926566	33015.731457
642.270955	33049.292938
642.615292	32981.093688
642.959576	32879.637947
643.303809	32879.370766
643.647990	32947.955664
643.992118	32914.275715
644.336195	32764.167797
644.680219	32857.514843
645.024192	33043.359500
645.368112	33579.297168
645.711981	33575.798608
646.055797	34314.446113
646.399562	34123.940909
646.743274	34982.162064
647.086935	35394.651957
647.430544	35335.375549
647.774101	35376.145881
648.117606	35680.361871
648.461059	35819.714487
648.804460	35406.778452
649.147810	34905.715486
649.491108	34546.503028
649.834354	34415.526289
650.177548	33590.042388
650.520690	33105.441310
650.863781	33096.400000
651.206820	32905.655342
651.549807	32502.592407
651.892742	31912.633734
652.235626	31821.661071
652.578458	31684.574454
652.921238	31003.096154
653.263967	31305.635961
653.606644	31008.696876
653.949269	30921.613464
654.291843	30546.450794
654.634365	30892.556253
654.976836	30443.230649
655.319255	30525.640911
655.661622	30390.517824
656.003938	30252.685116
656.346203	30074.477807
656.688416	30317.073253
657.030577	30077.245400
657.372687	29912.361861
657.714746	30075.763301
658.056753	30271.924679
658.398708	29648.197838
658.740612	29706.234121
659.082465	29911.053681
659.424266	29813.199844
659.766016	29819.402984
660.107715	29667.593677
660.449362	29767.365673
660.790958	29762.818553
661.132503	29678.341417
661.473996	29758.377296
661.815438	29824.456741
662.156829	29969.878906
662.498168	29770.859193
662.839456	29736.511291
663.180693	29863.765138
663.521879	29975.628342
663.863013	29912.603836
664.204097	29889.611133
664.545129	30307.101851
664.886110	30242.842263
665.227040	30339.398003
665.567918	30344.076194
665.908746	30396.310109
666.249522	30494.733597
666.590248	30521.852484
666.930922	30634.325668
667.271545	30610.793562
667.612118	30672.378817
667.952639	30487.920478
668.293109	30526.094615
668.633528	30386.714273
668.973896	30350.584323
669.314213	30314.998818
669.654480	30133.368566
669.994695	30129.317999
670.334859	30039.875327
670.674973	29877.766943
671.015035	30073.857745
671.355047	30007.327117
671.695008	29937.698700
672.034918	29841.092548
672.374777	29945.394021
672.714585	29813.585492
673.054342	29932.705437
673.394049	29790.043304
673.733705	30002.772434
674.073310	29719.416738
674.412864	29786.340576
674.752368	29478.568052
675.091820	29709.619256
675.431223	29306.878955
675.770574	29106.561145
676.109875	28947.679099
676.449125	28748.576207
676.788324	28650.684561
677.127473	28167.495006
677.466571	28078.848837
677.805619	27795.402400
678.144616	27733.590292
678.483562	27679.138269
678.822458	27352.859668
679.161303	27299.030228
679.500098	27220.849493
679.838842	27135.384291
680.177535	27222.397127
680.516179	27467.795455
680.854771	27599.276309
681.193314	28360.525828
681.531805	29383.945594
681.870247	30120.609406
682.208638	30842.056494
682.546978	31110.959202
682.885268	31249.006159
683.223508	30808.517698
683.561697	30533.502591
683.899836	30381.214374
684.237925	29974.171448
684.575963	29822.069754
684.913951	29458.889908
685.251889	29640.225253
685.589776	29660.825928
685.927614	29647.718928
686.265401	29828.587966
686.603137	29946.266141
686.940824	30448.607039
687.278460	30768.274167
687.616046	30944.898553
687.953582	31602.106218
688.291068	31521.437675
688.628504	31840.358711
688.965889	31855.769518
689.303224	31594.620105
689.640510	31305.280559
689.977745	30673.737408
690.314930	29943.692632
690.652065	29521.233857
690.989150	28844.385857
691.326185	28009.419545
691.663170	27363.841822
692.000105	26631.105069
692.336990	26025.460846
692.673825	25612.338288
693.010610	25112.601146
693.347345	24618.300888
693.684030	23992.555064
694.020665	23795.012409
694.357251	23111.563018
694.693786	23112.384726
695.030272	22887.534141
695.366707	22394.305128
695.703093	22116.535030
696.039429	22180.361079
696.375716	21947.134617
696.711952	21937.740427
697.048139	21800.419396
697.384276	21644.080612
697.720363	21760.538828
698.056400	21655.972694
698.392388	21493.561841
698.728326	21488.797951
699.064214	21329.293322
699.400053	21327.682674
699.735842	20953.250972
700.071581	20751.098182
700.407270	20505.898979
700.742910	20328.788121
701.078501	20083.891388
701.414042	19874.449090
701.749533	19566.626154
702.084974	19257.651314
702.420366	19487.089349
702.755709	19079.882585
703.091002	18776.468138
703.426246	18838.444083
703.761440	18765.296941
704.096584	18538.112302
704.431679	18471.584195
704.766725	18424.141896
705.101721	18347.838991
705.436668	18462.431980
705.771565	18185.312191
706.106413	18507.136932
706.441212	18580.279033
706.775961	18680.040947
707.110661	18762.287372
707.445311	19111.634293
707.779913	18997.981479
708.114465	19284.117372
708.448967	19605.052349
708.783421	20233.275900
709.117825	20598.099163
709.452180	20814.364663
709.786485	21270.006833
710.120742	22032.347761
710.454949	22142.491932
710.789107	22632.804637
711.123216	23346.311908
711.457275	23561.470875
711.791286	24125.586073
712.125247	24266.839203
712.459159	24002.682742
712.793023	24763.309678
713.126837	23740.346137
713.460602	23999.957998
713.794318	23669.452390
714.127985	23399.181009
714.461602	22500.834791
714.795171	22490.263491
715.128691	21510.845437
715.462162	20986.227680
715.795584	20557.527957
716.128957	20302.853905
716.462281	19914.145656
716.795556	19628.362644
717.128782	19166.388785
717.461960	18567.028360
717.795088	18518.224950
718.128167	18170.529007
718.461198	17723.822283
718.794180	17587.340604
719.127113	17257.392044
719.459997	17073.508396
719.792833	16703.207919
720.125619	16736.028351
720.458357	16403.657517
720.791046	16267.120385
721.123686	16114.590193
721.456278	15889.041408
721.788821	15878.429780
722.121315	15609.169150
722.453761	15722.486727
722.786158	15610.626043
723.118506	15687.886767
723.450805	15566.150463
723.783056	15746.371713
724.115259	15641.934129
724.447412	15633.381812
724.779518	15843.998699
725.111574	15897.994498
725.443582	16171.950962
725.775542	16118.184536
726.107453	16636.846170
726.439315	16545.140020
726.771129	16969.809340
727.102895	17395.222231
727.434612	17652.621026
727.766281	17821.847519
728.097901	18147.067477
728.429473	18229.220641
728.760996	18241.581550
729.092471	18364.663842
729.423897	18256.387419
729.755276	18128.402605
730.086606	18251.353827
730.417887	18830.282455
730.749120	19380.695797
731.080305	19600.386761
731.411442	19995.784622
731.742530	20119.277767
732.073570	20280.985380
732.404562	20599.072105
732.735506	20451.202460
733.066401	20242.539020
733.397249	19743.366487
733.728048	19122.470253
734.058798	18258.960928
734.389501	17505.230290
734.720156	16993.054101
735.050762	16416.424239
735.381320	16035.449119
735.711831	15760.983498
736.042293	15388.038936
736.372707	15422.659060
736.703073	15205.581935
737.033391	15403.734569
737.363661	15396.843312
737.693883	15526.340472
738.024056	15722.017899
738.354182	15933.776608
738.684260	16288.782223
739.014290	16564.412351
739.344272	16796.905325
739.674207	17142.501627
740.004093	17314.251218
740.333931	17369.141822
740.663722	17447.010005
740.993464	17494.220410
741.323159	17340.182913
741.652806	17045.361113
741.982405	16889.455869
742.311956	16532.529573
742.641460	16427.373625
742.970915	16097.470435
743.300323	15758.289001
743.629683	15529.554207
743.958996	15220.133225
744.288260	14903.836109
744.617477	14598.359830
744.946647	14558.993460
745.275768	14247.515687
745.604842	14044.720150
745.933869	13870.550806
746.262847	13852.906767
746.591778	13756.575358
746.920662	13636.568170
747.249498	13648.276250
747.578286	13805.114108
747.907027	13973.954953
748.235720	14242.550151
748.564365	14311.031705
748.892963	14232.745107
749.221514	14336.544985
749.550017	14200.199417
749.878473	14177.123536
750.206881	13953.712200
750.535242	13865.935629
750.863555	13794.401656
751.191821	13687.125902
751.520039	13709.546434
751.848210	13636.878201
752.176334	13682.485520
752.504411	13605.391154
752.832440	13434.574177
753.160421	13547.916959
753.488356	13430.886573
753.816243	13342.530269
754.144082	13184.086804
754.471875	13132.911531
754.799620	13100.237292
755.127318	13076.543869
755.454969	13058.446127
755.782572	13033.215152
756.110129	13048.631000
756.437638	12955.369654
756.765100	12949.017800
757.092515	12982.909477
757.419882	13024.216692
757.747203	13027.606868
758.074477	13127.444399
758.401703	13099.891973
758.728882	13294.735090
759.056014	13338.063807
759.383099	13511.106454
759.710138	13628.346048
760.037129	13753.550666
760.364073	13808.053101
760.690970	13839.640971
761.017820	13858.426831
761.344623	14083.234566
761.671379	14464.454181
761.998088	15166.245811
762.324751	16925.043894
762.651366	20326.277627
762.977935	24781.062102
763.304456	27736.120951
763.630931	28796.809967
763.957359	27607.536240
764.283740	25353.893454
764.610074	23100.417027
764.936362	20486.571196
765.262602	18613.033930
765.588796	16680.111873
765.914943	15396.200564
766.241044	14300.493173
766.567097	13514.332792
766.893104	12787.196762
767.219064	12323.398005
767.544978	11846.078874
767.870845	11458.593104
768.196665	11249.415466
768.522438	11001.960347
768.848165	10802.938114
769.173846	10605.334966
769.499479	10470.683226
769.825066	10299.999839
770.150607	10064.724148
770.476101	9992.852417
770.801548	9864.819713
771.126949	9709.075785
771.452303	9596.113610
771.777611	9395.329493
772.102872	9388.682732
772.428087	9248.909180
772.753256	9085.376669
773.078378	9001.489349
773.403453	8819.004621
773.728482	8706.838948
774.053465	8633.565777
774.378401	8526.925208
774.703291	8409.879698
775.028135	8290.341338
775.352932	8255.907736
775.677683	8146.048391
776.002388	8038.717184
776.327046	8058.473466
776.651658	7953.458670
776.976224	7854.553752
777.300743	7854.558793
777.625216	7762.328363
777.949643	7721.749595
778.274024	7735.302737
778.598359	7645.882750
778.922647	7665.369331
779.246889	7610.874458
779.571086	7617.798482
779.895236	7623.870552
780.219339	7639.770351
780.543397	7643.100033
780.867409	7717.192392
781.191374	7731.844506
781.515294	7697.156326
781.839167	7791.002446
782.162995	7760.677385
782.486776	7708.483799
782.810511	7661.709453
783.134201	7574.837769
783.457844	7561.072899
783.781441	7515.964654
784.104993	7446.036288
784.428498	7428.689678
784.751958	7410.037409
785.075372	7381.998511
785.398739	7326.704615
785.722061	7374.804785
786.045337	7375.152624
786.368568	7538.095319
786.691752	7557.642393
787.014891	7896.120586
787.337983	8254.092921
787.661030	8847.860185
787.984031	9464.368095
788.306987	9870.324653
788.629897	10076.021373
788.952760	10027.835504
789.275579	9808.116814
789.598351	9411.506556
789.921078	9056.077483
790.243759	8648.026326
790.566395	8359.914302
790.888984	8109.754604
791.211529	7903.490753
791.534027	7677.805857
791.856480	7478.095506
792.178888	7402.863847
792.501249	7307.548231
792.823566	7146.374980
793.145836	7151.133830
793.468062	7123.296578
793.790241	7071.680204
794.112375	7139.755945
794.434464	7290.655324
794.756507	7335.251892
795.078505	7497.193918
795.400457	7800.058879
795.722364	8150.179617
796.044226	8439.504039
796.366042	8716.023930
796.687812	8658.811875
797.009538	8741.214576
797.331218	8631.367833
797.652852	8551.165596
797.974442	8398.791680
798.295986	8315.945358
798.617484	8123.169114
798.938938	7981.137125
799.260346	7878.133749
799.581709	7681.422885
799.903026	7599.577232
800.224299	7490.867270
800.545526	7321.572721
800.866708	7225.364820
801.187845	7152.832698
801.508936	7055.551032
801.829983	7015.753643
802.150984	6863.389809
802.471940	6821.901113
802.792851	6804.055428
803.113717	6769.959584
803.434538	6734.575726
803.755314	6680.698394
804.076045	6681.099166
804.396731	6627.151258
804.717372	6658.101422
805.037967	6662.351114
805.358518	6705.936931
805.679024	6781.760926
805.999485	6792.052441
806.319901	6834.980387
806.640272	6857.048038
806.960598	6937.272960
807.280879	6938.180368
807.601115	7014.339599
807.921306	6963.247505
808.241453	6978.489434
808.561554	6997.686148
808.881611	6962.710622
809.201623	6970.796633
809.521590	6914.186996
809.841513	6898.319964
810.161390	6944.464166
810.481223	6811.060112
810.801011	6794.996475
811.120755	6771.892867
811.440453	6689.114600
811.760107	6661.781464
812.079716	6631.179140
812.399281	6564.134314
812.718801	6557.321195
813.038276	6508.767321
813.357707	6451.693898
813.677093	6489.681513
813.996434	6395.747173
814.315731	6439.179234
814.634983	6429.288490
814.954191	6445.435306
815.273354	6550.041768
815.592473	6619.884434
815.911547	6739.783238
816.230577	6820.792059
816.549562	6967.940819
816.868502	7070.051911
817.187399	7165.896849
817.506250	7326.369378
817.825058	7355.436672
818.143821	7622.554811
818.462539	7891.770070
818.781213	8264.107173
819.099843	8804.319740
819.418429	9809.384664
819.736970	10769.938721
820.055466	11955.315636
820.373919	13483.990088
820.692327	15836.666341
821.010691	19993.687502
821.329011	28972.411000
821.647286	41924.302258
821.965517	55337.761562
822.283704	60737.890932
822.601847	62741.928547
822.919945	60067.989642
823.237999	55903.860453
823.556010	49757.826837
823.873976	43065.793408
824.191897	36535.810391
824.509775	31695.536443
824.827609	27167.246904
825.145398	24578.407717
825.463144	23198.245658
825.780845	23499.441998
826.098502	25263.220741
826.416116	29020.702733
826.733685	32637.181132
827.051210	33792.449756
827.368692	32002.910717
827.686129	28063.811075
828.003522	23961.088182
828.320872	20261.597102
828.638177	17416.160664
828.955439	15264.281130
829.272656	13450.438688
829.589830	11978.996457
829.906960	10713.855884
830.224046	9767.429661
830.541088	9020.252523
830.858086	8565.800066
831.175041	8184.391407
831.491952	8066.998057
831.808819	8105.381403
832.125642	8513.790482
832.442421	9406.089836
832.759157	11186.217041
833.075849	14104.898924
833.392497	17297.464176
833.709101	19474.332709
834.025662	19320.025510
834.342179	17630.651677
834.658653	15445.460199
834.975083	13531.245864
835.291469	11918.757189
835.607811	10597.924469
835.924110	9690.806643
836.240366	8819.317172
836.556578	8016.198350
836.872746	7377.428705
837.188871	6870.026488
837.504952	6456.422500
837.820990	6146.991436
838.136984	5925.437766
838.452935	5827.248692
838.768842	5865.286718
839.084706	6283.551253
839.400526	7486.214285
839.716303	9063.787928
840.032037	10157.405761
840.347727	10083.232744
840.663373	9113.443293
840.978977	8069.059889
841.294537	7271.221676
841.610054	6671.223545
841.925527	6235.496454
842.240957	5872.616556
842.556344	5539.630700
842.871687	5258.727526
843.186987	4975.807889
843.502244	4751.680710
843.817458	4587.966718
844.132629	4451.537972
844.447756	4358.800906
844.762840	4280.284934
845.077881	4202.852811
845.392879	4141.512051
845.707833	4093.275771
846.022745	4047.164337
846.337613	4017.318185
846.652438	3978.473574
846.967221	3957.008341
847.281960	3924.787806
847.596656	3908.462030
847.911309	3891.032240
848.225919	3868.137840
848.540485	3846.740662
848.855009	3836.469312
849.169490	3814.930982
849.483928	3800.924136
849.798323	3793.710245
850.112675	3775.468829
850.426984	3782.168523
850.741251	3762.979371
851.055474	3760.247065
851.369654	3764.030451
851.683792	3763.165893
851.997887	3770.949435
852.311938	3772.335752
852.625947	3773.880866
852.939914	3760.788989
853.253837	3771.277110
853.567718	3771.640073
853.881555	3759.208588
854.195350	3773.984210
854.509103	3771.841719
854.822812	3769.227881
855.136479	3762.326541
855.450103	3773.699384
855.763685	3755.722630
856.077224	3761.030965
856.390720	3776.719036
856.704173	3796.689567
857.017584	3808.309426
857.330953	3821.580264
857.644278	3840.033407
857.957561	3851.202084
858.270802	3848.316023
858.584000	3850.216538
858.897155	3844.872915
859.210268	3828.920184
859.523339	3804.228612
859.836367	3804.546205
860.149352	3797.354999
860.462295	3791.227476
860.775195	3780.545271
861.088054	3773.555712
861.400869	3770.430196
861.713642	3773.200310
862.026373	3785.561219
862.339062	3787.386117
862.651708	3810.043583
862.964312	3842.044828
863.276873	3852.787527
863.589392	3912.754572
863.901869	3957.676294
864.214303	4002.857635
864.526696	4037.021535
864.839045	4083.755552
865.151353	4109.777988
865.463619	4114.977938
865.775842	4122.879947
866.088023	4143.306702
866.400162	4129.912356
866.712258	4141.633039
867.024313	4141.325529
867.336325	4140.375271
867.648296	4146.071775
867.960224	4147.241323
868.272110	4158.364629
868.583954	4159.692973
868.895755	4172.207637
869.207515	4169.616484
869.519233	4210.621229
869.830909	4224.650761
870.142542	4249.191098
870.454134	4261.229373
870.765684	4297.873520
871.077191	4330.003314
871.388657	4356.154300
871.700081	4391.838107
872.011463	4433.536011
872.322803	4470.011280
872.634101	4501.861290
872.945357	4541.585582
873.256571	4592.604580
873.567744	4622.102892
873.878874	4641.859173
874.189963	4680.522303
874.501010	4687.504301
874.812015	4689.384651
875.122979	4732.547011
875.433900	4732.393255
875.744780	4744.005553
876.055618	4770.761477
876.366415	4770.456487
876.677169	4786.217655
876.987882	4838.499462
877.298554	4892.424684
877.609183	4971.096931
877.919771	5083.587759
878.230317	5223.406681
878.540822	5435.908960
878.851285	5766.422129
879.161707	6225.928344
879.472087	6980.541183
879.782425	8212.747897
880.092722	10389.160206
880.402977	13689.933825
880.713191	17442.084797
881.023363	21132.738734
881.333494	23337.903264
881.643583	24567.667539
881.953631	24571.743312
882.263637	23740.136929
882.573602	22270.995984
882.883526	20717.824046
883.193408	19060.126303
883.503248	17356.624637
883.813048	15804.385312
884.122806	14389.714034
884.432522	12919.953028
884.742197	11645.032617
885.051831	10558.681607
885.361424	9562.410976
885.670975	8742.555523
885.980485	8045.608442
886.289954	7472.005793
886.599382	7005.298290
886.908768	6617.532736
887.218113	6255.971100
887.527417	5969.232790
887.836680	5701.366039
888.145901	5481.319674
888.455082	5321.888142
888.764221	5168.659750
889.073319	5035.658988
889.382376	4959.514880
889.691392	4903.915994
890.000366	4878.949680
890.309300	4857.875136
890.618193	4861.645919
890.927044	4851.641750
891.235855	4871.763515
891.544625	4902.877517
891.853353	4965.639882
892.162041	5081.823355
892.470687	5271.093476
892.779293	5518.553636
893.087858	5891.077261
893.396381	6469.095961
893.704864	7271.650174
894.013306	8415.624093
894.321707	9583.114994
894.630068	10396.338809
894.938387	10605.395459
895.246665	10363.059632
895.554903	9767.832954
895.863100	9067.465450
896.171256	8517.841049
896.479371	8013.082917
896.787446	7514.646392
897.095480	7085.770229
897.403473	6762.874243
897.711425	6451.653569
898.019336	6182.400501
898.327207	5910.319345
898.635038	5687.185273
898.942827	5435.614052
899.250576	5249.575311
899.558284	5054.880908
899.865952	4932.958082
900.173579	4788.423160
900.481165	4672.474101
900.788711	4584.589145
901.096216	4511.028628
901.403681	4446.574956
901.711105	4420.275256
902.018489	4410.422321
902.325832	4475.536385
902.633135	4597.865024
902.940397	4941.167601
903.247619	5731.943158
903.554800	7175.333889
903.861941	9080.847193
904.169041	10596.659140
904.476101	11228.081303
904.783121	10869.317507
905.090100	10139.434048
905.397039	9306.859764
905.703938	8559.818737
906.010796	7864.194959
906.317614	7308.611914
906.624391	6778.726151
906.931129	6353.671182
907.237826	5951.268638
907.544483	5574.235701
907.851099	5202.430440
908.157675	4851.641750
908.464211	4527.911452
908.770707	4290.173158
909.077163	4091.692848
909.383578	3948.614820
909.689954	3836.270186
909.996289	3759.294287
910.302584	3697.184751
910.608839	3664.712159
910.915054	3632.163949
911.221229	3620.670118
911.527363	3626.454842
911.833458	3640.426400
912.139513	3670.234743
912.445527	3703.564332
912.751502	3782.977628
913.057436	3885.121487
913.363331	4021.799771
913.669186	4226.747881
913.975000	4482.536027
914.280775	4909.461264
914.586510	5483.285724
914.892205	6277.345592
915.197859	7315.104920
915.503475	8525.594343
915.809050	9578.943440
916.114585	10223.608714
916.420081	10476.014246
916.725536	10449.525503
917.030952	10010.942598
917.336328	9595.244011
917.641665	9193.459008
917.946961	8714.935041
918.252218	8293.983571
918.557435	7787.120758
918.862612	7356.001281
919.167750	6986.550239
919.472848	6557.757254
919.777906	6189.939546
920.082925	5830.974104
920.387904	5467.441377
920.692843	5199.695614
920.997743	4954.425835
921.302603	4721.332964
921.607423	4559.862286
921.912204	4395.155187
922.216946	4275.072381
922.521647	4155.039988
922.826310	4055.220100
923.130932	3957.520018
923.435516	3860.087117
923.740059	3790.040285
924.044564	3712.956001
924.349028	3653.064573
924.653454	3590.468566
924.957840	3520.678832
925.262186	3472.767706
925.566493	3413.526586
925.870761	3357.650437
926.174989	3319.138542
926.479178	3284.364663
926.783328	3239.523599
927.087438	3209.158209
927.391509	3177.066224
927.695541	3149.599497
927.999533	3123.657719
928.303486	3103.566201
928.607400	3087.787389
928.911275	3073.442786
929.215110	3057.033830
929.518906	3045.577808
929.822663	3044.756100
930.126381	3041.186963
930.430060	3050.356822
930.733699	3051.110474
931.037299	3062.987433
931.340861	3057.270764
931.644383	3072.414391
931.947866	3067.824420
932.251309	3061.187741
932.554714	3059.302349
932.858080	3054.520815
933.161407	3046.578477
933.464694	3040.271994
933.767943	3031.933925
934.071153	3027.926208
934.374323	3015.073786
934.677455	3011.849968
934.980548	3004.764627
935.283602	2998.233812
935.586617	2997.722135
935.889593	3005.230933
936.192530	3008.963908
936.495428	3022.542256
936.798287	3045.227448
937.101108	3077.412695
937.403890	3126.924387
937.706632	3189.676670
938.009336	3269.100049
938.312002	3339.441789
938.614628	3404.858322
938.917216	3453.875982
939.219765	3486.552741
939.522275	3518.170858
939.824747	3520.918287
940.127179	3522.324768
940.429573	3517.749921
940.731929	3516.209849
941.034246	3501.346007
941.336524	3487.041733
941.638763	3474.239723
941.940964	3461.591468
942.243126	3417.446083
942.545250	3395.315418
942.847335	3359.009028
943.149381	3322.551403
943.451389	3291.112247
943.753359	3258.511105
944.055290	3232.493710
944.357182	3208.089485
944.659036	3195.690767
944.960851	3182.861030
945.262628	3170.689164
945.564367	3171.377282
945.866067	3165.406035
946.167729	3159.182731
946.469352	3158.968482
946.770937	3156.140394
947.072484	3138.514000
947.373992	3141.263949
947.675462	3135.680871
947.976893	3117.663787
948.278286	3111.437962
948.579641	3102.507558
948.880958	3096.627053
949.182236	3097.647886
949.483476	3094.224943
949.784678	3094.108996
950.085841	3094.393821
950.386967	3104.849174
950.688054	3120.239817
950.989103	3143.320740
951.290114	3161.138698
951.591087	3185.371525
951.892021	3215.373952
952.192917	3246.855958
952.493776	3269.503341
952.794596	3278.774023
953.095378	3283.704272
953.396122	3277.238992
953.696828	3267.559977
953.997496	3263.864811
954.298126	3236.665265
954.598718	3214.955536
954.899272	3191.158769
955.199788	3162.998884
955.500266	3132.199955
955.800706	3094.726537
956.101108	3057.893347
956.401472	3030.048534
956.701798	2995.970334
957.002087	2956.225877
957.302337	2926.180600
957.602550	2899.250756
957.902724	2871.405943
958.202861	2846.104392
958.502960	2823.031030
958.803022	2806.246509
959.103045	2784.027623
959.403031	2766.960797
959.702979	2754.020155
960.002889	2739.058010
960.302762	2726.404714
960.602596	2717.436501
960.902393	2706.839996
961.202153	2697.264324
961.501875	2690.108406
961.801559	2683.103723
962.101205	2678.798578
962.400814	2673.616272
962.700385	2664.872390
962.999918	2659.614467
963.299414	2653.360915
963.598873	2654.336379
963.898293	2643.112250
964.197677	2648.521408
964.497022	2643.628968
964.796331	2641.733494
965.095601	2640.876498
965.394835	2635.507669
965.694030	2634.476753
965.993189	2634.181846
966.292309	2633.740745
966.591393	2632.498100
966.890439	2629.062554
967.189447	2627.993829
967.488419	2631.300826
967.787353	2632.568676
968.086249	2632.687143
968.385108	2635.064047
968.683930	2636.750313
968.982714	2641.244502
969.281462	2646.114257
969.580172	2650.127015
969.878844	2657.061122
970.177480	2663.337359
970.476078	2671.708195
970.774639	2678.687672
971.073162	2685.135308
971.371649	2692.538243
971.670098	2695.532688
971.968510	2701.387988
972.266885	2707.283617
972.565223	2712.281922
972.863524	2710.278063
973.161788	2712.934751
973.460014	2719.568909
973.758204	2722.621328
974.056356	2725.199878
974.354471	2724.841956
974.652550	2726.896227
974.950591	2722.800289
975.248595	2726.374467
975.546563	2720.572099
975.844493	2716.743343
976.142386	2715.228476
976.440243	2707.369317
976.738062	2703.901003
977.035845	2695.908254
977.333590	2688.991791
977.631299	2684.847962
977.928971	2677.830676
978.226606	2672.363545
978.524204	2671.665345
978.821765	2664.748882
979.119290	2669.167453
979.416777	2669.243071
979.714228	2671.619975
980.011642	2675.272291
980.309020	2681.024247
980.606360	2694.597554
980.903664	2720.811554
981.200931	2756.437388
981.498162	2803.310037
981.795356	2878.589587
982.092513	2966.041003
982.389633	3071.118814
982.686717	3166.368895
982.983764	3242.329002
983.280775	3288.936989
983.577749	3296.654996
983.874686	3280.951802
984.171587	3252.595311
984.468451	3211.028477
984.765279	3167.258659
985.062070	3121.295939
985.358824	3075.063517
985.655543	3019.363808
985.952224	2965.229378
986.248869	2906.845254
986.545478	2844.788650
986.842050	2792.295115
987.138586	2749.112592
987.435086	2707.288659
987.731549	2676.698937
988.027975	2653.360915
988.324366	2636.170581
988.620719	2622.153652
988.917037	2609.959101
989.213318	2600.756475
989.509563	2592.380598
989.805772	2592.720876
990.101944	2586.361460
990.398080	2581.819381
990.694180	2580.455748
990.990244	2583.044381
991.286271	2582.114288
991.582262	2584.254258
991.878217	2587.397417
992.174136	2588.493868
992.470019	2590.288519
992.765865	2594.898654
993.061676	2598.351845
993.357450	2605.532968
993.653188	2616.167282
993.948890	2634.242339
994.244556	2652.143477
994.540186	2672.487053
994.835780	2705.730942
995.131337	2743.774010
995.426859	2782.880761
995.722345	2829.796259
996.017795	2882.123436
996.313208	2918.170206
996.608586	2946.269598
996.903928	2957.423151
997.199234	2958.265023
997.494504	2951.570371
997.789738	2940.739452
998.084936	2917.671132
998.380099	2881.238713
998.675225	2855.942203
998.970316	2824.341730
999.265371	2789.562810
999.560390	2756.192892
999.855373	2723.664847
1000.150320	2694.496731
1000.445232	2672.555109
1000.740108	2651.026861
1001.034948	2632.243522
1001.329752	2617.830863
1001.624521	2607.231837
1001.919254	2594.497882
1002.213951	2587.228539
1002.508613	2577.214287
1002.803239	2568.936712
1003.097829	2564.266083
1003.392384	2560.991853
1003.686903	2557.652089
1003.981386	2551.769063
1004.275834	2551.007848
1004.570246	2545.356715
1004.864623	2546.682538
1005.158964	2543.100798
1005.453270	2539.312371
1005.747540	2537.018646
1006.041775	2535.110570
1006.335974	2535.377751
1006.630138	2532.040507
1006.924266	2535.917154
1007.218359	2532.700898
1007.512416	2526.868283
1007.806438	2524.496420
1008.100425	2528.458767
1008.394376	2525.000536
1008.688292	2529.613191
1008.982172	2529.305681
1009.276017	2528.655372
1009.569827	2528.420958
1009.863602	2526.974147
1010.157341	2527.279137
1010.451045	2526.464991
1010.744714	2523.281502
1011.038347	2525.829805
1011.331945	2521.005421
1011.625508	2521.834691
1011.919036	2523.551204
1012.212528	2519.966943
1012.505986	2518.696573
1012.799408	2518.517612
1013.092795	2518.013496
1013.386147	2520.350071
1013.679464	2515.263547
1013.972745	2516.181037
1014.265992	2515.886129
1014.559204	2517.136336
1014.852380	2518.225225
1015.145521	2515.571057
1015.438628	2516.705317
1015.731699	2517.940400
1016.024736	2518.250431
1016.317737	2522.419465
1016.610703	2523.319311
1016.903635	2523.485669
1017.196531	2522.903416
1017.489393	2521.305370
1017.782219	2524.287212
1018.075011	2527.241328
1018.367768	2528.552028
1018.660490	2528.138654
1018.953177	2528.138654
1019.245829	2528.138654
