Dividing Wavelength (nm)	Counts (n)	Blue Motor Position (mm): 2.400000	Red Motor Position (mm): 0.000000	
326.493990	2063.130020
326.888308	2063.130020
327.282561	2063.130020
327.676750	2039.010620
328.070874	2040.704447
328.464933	2047.222659
328.858929	2056.332024
329.252859	2066.094219
329.646726	2079.697772
330.040528	2096.300813
330.434265	2112.861003
330.827938	2134.134672
331.221547	2155.037817
331.615091	2175.235199
332.008571	2195.210772
332.401986	2218.589123
332.795338	2237.276680
333.188625	2254.908115
333.581847	2276.834614
333.975006	2294.471091
334.368100	2311.734522
334.761129	2326.048878
335.154095	2341.890704
335.546996	2358.400483
335.939833	2368.749972
336.332606	2387.215719
336.725315	2396.756102
337.117960	2408.338153
337.510540	2416.930800
337.903056	2423.930442
338.295508	2430.768767
338.687896	2438.615323
339.080220	2444.460541
339.472480	2448.773248
339.864676	2454.263065
340.256807	2453.151490
340.648875	2458.729527
341.040879	2455.019238
341.432818	2458.691718
341.824694	2461.056020
342.216506	2458.893365
342.608253	2460.861935
342.999937	2459.697429
343.391557	2459.208437
343.783113	2456.471090
344.174605	2455.067129
344.566033	2455.699794
344.957397	2450.938424
345.348697	2450.663681
345.739934	2448.311983
346.131106	2447.074379
346.522215	2444.599173
346.913260	2440.838472
347.304241	2439.658842
347.695159	2440.772937
348.086012	2441.529110
348.476802	2438.678338
348.867528	2435.401588
349.258191	2429.800866
349.648789	2432.175249
350.039324	2425.026893
350.429796	2430.771288
350.820203	2431.224992
351.210548	2431.749272
351.600828	2428.734662
351.991045	2429.737851
352.381198	2428.051585
352.771288	2429.682399
353.161314	2427.814651
353.551276	2428.774991
353.941175	2428.946390
354.331010	2428.296081
354.720782	2429.702563
355.110490	2428.525454
355.500135	2427.620567
355.889717	2428.197779
356.279235	2430.289858
356.668689	2427.638211
357.058080	2430.559559
357.447408	2431.179621
357.836672	2433.004519
358.225873	2430.446133
358.615010	2432.810435
359.004084	2432.349169
359.393095	2430.468819
359.782043	2432.893614
360.170927	2431.131730
360.559748	2434.221958
360.948505	2434.733635
361.337199	2435.714139
361.725830	2433.836309
362.114398	2437.274376
362.502903	2435.285641
362.891344	2437.551640
363.279722	2435.507452
363.668037	2440.682196
364.056289	2438.345622
364.444478	2440.047011
364.832603	2437.337391
365.220665	2438.942998
365.608665	2440.394851
365.996601	2440.500715
366.384474	2440.203287
366.772284	2441.549275
367.160031	2440.465427
367.547715	2442.106322
367.935336	2440.359562
368.322893	2439.492484
368.710388	2434.799170
369.097820	2441.574481
369.485189	2437.352514
369.872495	2443.966508
370.259738	2440.520879
370.646918	2444.470623
371.034035	2443.825356
371.421090	2446.250151
371.808081	2442.381065
372.195010	2444.609255
372.581875	2446.398865
372.968678	2445.652774
373.355418	2445.506581
373.742096	2445.814091
374.128710	2444.132866
374.515262	2445.032712
374.901751	2446.557661
375.288177	2445.751077
375.674540	2445.025150
376.060841	2447.109667
376.447079	2448.276695
376.833254	2448.196036
377.219367	2448.248968
377.605417	2450.298197
377.991404	2446.872733
378.377329	2447.361725
378.763191	2447.949020
379.148991	2451.180399
379.534727	2447.263423
379.920402	2448.526232
380.306013	2447.986828
380.691563	2447.684359
381.077049	2448.798454
381.462474	2450.474638
381.847835	2452.087807
382.233134	2449.884823
382.618371	2450.547734
383.003545	2451.452622
383.388657	2449.100923
383.773706	2452.027313
384.158693	2450.724175
384.543618	2450.890533
384.928480	2449.063115
385.313280	2451.245934
385.698017	2450.691407
386.082692	2450.212498
386.467305	2452.851542
386.851856	2453.312807
387.236344	2453.600153
387.620770	2450.966150
388.005133	2448.339709
388.389435	2453.164093
388.773674	2448.269133
389.157851	2452.624690
389.541965	2453.101079
389.926018	2455.236007
390.310008	2457.736420
390.693936	2455.382201
391.077802	2454.353806
391.461606	2455.248610
391.845348	2452.352468
392.229027	2455.089814
392.612645	2455.291460
392.996200	2458.802624
393.379694	2455.626697
393.763125	2457.428909
394.146494	2453.935390
394.529801	2457.663323
394.913047	2454.978909
395.296230	2458.263220
395.679351	2456.191306
396.062410	2457.733899
396.445408	2455.987139
396.828343	2458.779939
397.211217	2457.895216
397.594028	2458.016204
397.976778	2456.455967
398.359466	2458.500155
398.742092	2456.765998
399.124656	2456.269444
399.507158	2458.086780
399.889598	2459.329424
400.271977	2459.039558
400.654294	2458.182562
401.036549	2457.907819
401.418742	2461.744137
401.800874	2456.657613
402.182944	2459.286575
402.564952	2457.711214
402.946898	2458.757253
403.328783	2461.212295
403.710606	2460.660289
404.092367	2460.864456
404.474067	2461.562656
404.855705	2460.816565
405.237282	2461.476956
405.618797	2459.972172
406.000250	2463.528706
406.381642	2464.741103
406.762972	2458.570731
407.144240	2457.295319
407.525447	2459.604167
407.906593	2458.666513
408.287677	2462.848150
408.668700	2463.846298
409.049661	2463.188428
409.430560	2463.062399
409.811399	2463.967286
410.192176	2466.160188
410.572891	2463.634570
410.953545	2464.957873
411.334138	2463.448047
411.714669	2464.378140
412.095139	2464.448716
412.475547	2464.489045
412.855894	2463.357306
413.236180	2465.492235
413.616405	2462.328911
413.996568	2462.883438
414.376670	2461.867645
414.756711	2463.085084
415.136691	2465.305712
415.516609	2465.928295
415.896466	2464.070630
416.276262	2465.744293
416.655997	2466.966773
417.035670	2464.254632
417.415283	2467.276803
417.794834	2465.651031
418.174324	2467.836372
418.553753	2465.943418
418.933121	2467.057513
419.312428	2468.549695
419.691674	2464.635239
420.070859	2467.576752
420.449983	2466.883593
420.829045	2466.578604
421.208047	2466.649180
421.586988	2467.266721
421.965867	2467.107925
422.344686	2466.036680
422.723444	2466.364355
423.102141	2466.051803
423.480777	2465.504838
423.859352	2470.687144
424.237866	2467.647328
424.616319	2469.646146
424.994712	2469.016002
425.373044	2467.173460
425.751314	2467.826289
426.129524	2465.789663
426.507673	2465.993830
426.885762	2463.886628
427.263789	2469.283183
427.641756	2469.447020
428.019662	2470.283852
428.397508	2467.090281
428.775292	2470.581280
429.153016	2470.556074
429.530679	2472.096147
429.908282	2467.977524
430.285824	2469.721763
430.663305	2470.787967
431.040726	2468.148923
431.418086	2469.618419
431.795385	2470.949284
432.172624	2472.330560
432.549802	2472.824593
432.926920	2469.573049
433.303977	2470.430045
433.680974	2470.407360
434.057910	2472.025570
434.434786	2471.718060
434.811601	2471.239150
435.188355	2472.214614
435.565050	2469.681434
435.941683	2473.578246
436.318257	2471.828965
436.694770	2472.237299
437.071222	2473.084213
437.447614	2471.521455
437.823946	2472.862402
438.200218	2472.658235
438.576429	2473.273256
438.952580	2472.572536
439.328670	2472.655715
439.704700	2473.928606
440.080670	2471.581949
440.456580	2471.080354
440.832429	2471.062710
441.208218	2475.221662
441.583947	2474.616723
441.959616	2473.278297
442.335224	2472.068420
442.710773	2473.318626
443.086261	2474.717547
443.461689	2470.480457
443.837057	2474.843575
444.212365	2473.028760
444.587612	2470.288893
444.962800	2472.025570
445.337927	2472.010447
445.712995	2470.462813
446.088002	2474.465489
446.462949	2474.442804
446.837837	2471.660087
447.212664	2475.103195
447.587431	2472.103708
447.962139	2474.410036
448.336786	2475.405664
448.711374	2475.057824
449.085901	2474.231075
449.460369	2475.035139
449.834776	2479.060501
450.209124	2476.771817
450.583412	2475.077989
450.957640	2477.825418
451.331808	2475.425829
451.705917	2475.327526
452.079965	2476.408854
452.453954	2477.999338
452.827883	2473.895838
453.201752	2473.910962
453.575562	2474.369707
453.949311	2475.723257
454.323001	2475.967753
454.696632	2474.044553
455.070202	2474.704944
455.443713	2478.551344
455.817164	2475.035139
456.190556	2476.635706
456.563888	2478.079996
456.937160	2476.668473
457.310373	2476.338278
457.683526	2476.862558
458.056619	2477.333905
458.429653	2478.921869
458.802628	2475.556899
459.175542	2475.060345
459.548398	2479.012610
459.921194	2478.576550
460.293930	2477.152424
460.666607	2478.707620
461.039224	2475.498925
461.411782	2476.015644
461.784280	2478.936992
462.156719	2477.790130
462.529099	2479.012610
462.901419	2478.077476
463.273680	2476.728967
463.645882	2473.878194
464.018024	2473.308544
464.390106	2473.724439
464.762130	2477.275932
465.134094	2477.631333
465.505999	2478.977322
465.877845	2478.929431
466.249631	2480.071252
466.621358	2479.095789
466.993026	2482.375059
467.364634	2481.013948
467.736184	2479.158803
468.107674	2479.637713
468.479105	2477.182671
468.850477	2478.047229
469.221790	2480.169554
469.593043	2476.726446
469.964238	2479.519246
470.335373	2479.378093
470.706449	2478.450521
471.077467	2478.551344
471.448425	2480.527476
471.819324	2477.865747
472.190164	2479.748618
472.560945	2479.869606
472.931667	2476.875160
473.302330	2479.171406
473.672934	2480.449338
474.043479	2477.757362
474.413965	2479.032774
474.784393	2480.991263
475.154761	2480.976139
475.525070	2481.785244
475.895321	2480.169554
476.265513	2479.189050
476.635645	2480.913125
477.005719	2477.800212
477.375734	2481.384472
477.745691	2481.576036
478.115588	2479.557054
478.485427	2478.896663
478.855207	2477.994297
479.224928	2479.738536
479.594591	2477.888432
479.964194	2480.338433
480.333739	2480.114102
480.703226	2480.658546
481.072653	2481.495378
481.442022	2480.431694
481.811333	2476.542444
482.180584	2475.957670
482.549777	2480.976139
482.918912	2474.810808
483.287988	2480.345995
483.657005	2482.546458
484.025964	2481.225676
484.394864	2479.988073
484.763706	2479.567137
485.132489	2481.553351
485.501213	2481.515542
485.869879	2480.557723
486.238487	2483.511839
486.607036	2481.313896
486.975527	2483.552169
487.343959	2478.200984
487.712333	2479.728453
488.080648	2482.672487
488.448905	2481.082003
488.817104	2478.480768
489.185244	2483.279946
489.553326	2479.708289
489.921350	2483.768938
490.289315	2482.654843
490.657222	2482.869092
491.025070	2480.628299
491.392861	2482.967395
491.760593	2483.320276
492.128267	2481.056798
492.495883	2478.180819
492.863440	2481.407158
493.230939	2482.727940
493.598380	2482.914463
493.965763	2480.129225
494.333088	2482.085193
494.700354	2481.694503
495.067563	2484.245327
495.434713	2484.010914
495.801805	2483.542086
496.168839	2483.098465
496.535815	2484.459576
496.902733	2483.330358
497.269593	2485.745071
497.636395	2482.564103
498.003139	2483.937817
498.369825	2482.349853
498.736453	2482.092755
499.103023	2482.390183
499.469535	2485.092241
499.835989	2483.612663
500.202385	2481.518063
500.568723	2478.808443
500.935003	2480.950933
501.301226	2476.827269
501.667390	2482.914463
502.033497	2482.448156
502.399546	2483.547127
502.765537	2479.778865
503.131470	2480.406489
503.497345	2481.931438
503.863163	2486.440750
504.228923	2483.698362
504.594625	2480.358598
504.960269	2483.736171
505.325856	2483.736171
505.691385	2481.296252
506.056856	2481.596201
506.422270	2483.315234
506.787625	2481.182826
507.152924	2481.578557
507.518164	2483.927735
507.883347	2482.720378
508.248472	2485.697180
508.613540	2482.977477
508.978550	2485.238435
509.343503	2484.086531
509.708398	2483.849597
510.073236	2482.556541
510.438016	2484.441932
510.802738	2483.499237
511.167403	2485.208188
511.532010	2481.626448
511.896561	2483.577374
512.261053	2482.566623
512.625488	2486.160966
512.989866	2483.164000
513.354186	2484.489823
513.718449	2483.458907
514.082655	2482.276757
514.446803	2484.560399
514.810894	2483.738691
515.174927	2487.070894
515.538904	2485.941676
515.902822	2483.947899
516.266684	2485.309011
516.630488	2486.798672
516.994235	2483.743732
517.357925	2483.335399
517.721558	2484.078969
518.085133	2484.507467
518.448651	2483.557210
518.812112	2479.730974
519.175516	2481.891108
519.538863	2480.819863
519.902152	2484.116778
520.265385	2485.903867
520.628560	2483.577374
520.991678	2487.799341
521.354739	2485.634165
521.717743	2485.152735
522.080690	2485.117447
522.443580	2482.732981
522.806413	2483.466469
523.169189	2482.491006
523.531908	2484.084010
523.894569	2481.530666
524.257174	2484.152066
524.619722	2483.776500
524.982213	2484.540235
525.344647	2484.751963
525.707025	2483.370687
526.069345	2489.228508
526.431608	2484.210039
526.793815	2483.360605
527.155964	2486.120637
527.518057	2482.107878
527.880093	2485.238435
528.242072	2484.956130
528.603995	2485.712303
528.965860	2485.694659
529.327669	2484.232724
529.689421	2487.438898
530.051117	2485.379587
530.412755	2485.740029
530.774337	2486.344968
531.135862	2482.430512
531.497331	2486.448312
531.858743	2485.803044
532.220098	2484.721716
532.581396	2487.663230
532.942638	2487.854793
533.303824	2484.663743
533.664953	2484.000831
534.026025	2486.065184
534.387040	2485.780359
534.747999	2486.952427
535.108902	2482.357415
535.469748	2487.254896
535.830537	2486.163486
536.191270	2485.167858
536.551947	2484.356233
536.912567	2480.230048
537.273131	2484.817498
537.633638	2479.998155
537.994089	2485.240955
538.354483	2483.353043
538.714821	2483.040492
539.075103	2487.305308
539.435328	2486.844042
539.795497	2487.176758
540.155609	2486.788589
540.515665	2484.341109
540.875665	2483.574854
541.235609	2484.605770
541.595496	2485.987046
541.955328	2489.175576
542.315102	2484.308342
542.674821	2486.319762
543.034483	2486.839001
543.394090	2486.481079
543.753640	2486.697849
544.113134	2487.055771
544.472571	2485.742550
544.831953	2485.082159
545.191278	2485.679536
545.550548	2484.706593
545.909761	2485.999649
546.268918	2486.445791
546.628019	2485.356902
546.987064	2485.477889
547.346053	2484.807416
547.704986	2484.222642
548.063863	2488.099289
548.422684	2484.424288
548.781449	2485.387149
549.140158	2485.833291
549.498811	2487.373363
549.857408	2483.998311
550.215949	2485.324134
550.574434	2485.989567
550.932864	2486.042499
551.291237	2484.734319
551.649555	2486.695328
552.007817	2484.769607
552.366022	2486.208857
552.724173	2483.340440
553.082267	2488.202633
553.440305	2483.264823
553.798288	2489.629280
554.156215	2485.813126
554.514086	2486.251707
554.871902	2484.444453
555.229661	2484.406644
555.587365	2480.005717
555.945014	2488.515185
556.302606	2487.491830
556.660143	2486.251707
557.017625	2484.666264
557.375050	2488.197592
557.732421	2484.066366
558.089735	2486.760863
558.446994	2484.913280
558.804197	2488.835298
559.161345	2482.738022
559.518437	2484.734319
559.875474	2486.718013
560.232455	2486.486120
560.589381	2487.388487
560.946251	2486.745740
561.303065	2484.618373
561.659825	2490.035093
562.016528	2487.441419
562.373177	2487.781697
562.729770	2485.810606
563.086307	2486.423106
563.442789	2484.225163
563.799216	2486.763384
564.155587	2487.083497
564.511904	2486.115595
564.868164	2487.504433
565.224370	2484.986377
565.580520	2487.474186
565.936615	2485.493013
566.292654	2487.050729
566.648638	2487.088538
567.004567	2487.068373
567.360441	2487.554845
567.716260	2486.347488
568.072023	2488.184989
568.427732	2485.926552
568.783385	2487.877479
569.138982	2485.366984
569.494525	2488.928559
569.850013	2485.041830
570.205445	2485.669453
570.560823	2487.038127
570.916145	2484.714155
571.271412	2486.289515
571.626625	2487.829588
571.981782	2484.643578
572.336884	2484.411685
572.691931	2482.344812
573.046923	2485.172900
573.401860	2483.748774
573.756743	2484.608290
574.111570	2485.795482
574.466342	2483.083341
574.821059	2490.014928
575.175722	2484.623414
575.530330	2487.733806
575.884882	2488.210195
576.239380	2486.569299
576.593823	2487.413693
576.948211	2485.636686
577.302544	2486.692808
577.656823	2486.833960
578.011047	2486.992756
578.365216	2484.870430
578.719330	2486.695328
579.073389	2487.491830
579.427394	2487.759012
579.781344	2485.853455
580.135239	2484.605770
580.489080	2486.473517
580.842866	2485.319093
581.196597	2486.597026
581.550273	2484.179792
581.903895	2484.681387
582.257463	2484.028558
582.610975	2486.924701
582.964434	2484.676346
583.317837	2486.153404
583.671186	2487.496872
584.024481	2484.799854
584.377721	2487.423775
584.730906	2486.571820
585.084037	2487.277581
585.437113	2486.891933
585.790135	2489.402428
586.143103	2483.612663
586.496016	2485.291367
586.848874	2486.987715
587.201679	2489.538539
587.554428	2488.575678
587.907124	2486.879330
588.259765	2483.942858
588.612352	2484.154587
588.964884	2485.011583
589.317362	2488.207674
589.669786	2484.434371
590.022155	2484.202478
590.374470	2482.604432
590.726731	2484.537714
591.078937	2483.577374
591.431090	2486.970071
591.783188	2489.641883
592.135232	2488.172386
592.487222	2486.879330
592.839157	2488.694146
593.191038	2487.474186
593.542866	2485.437560
593.894639	2487.113744
594.246358	2488.179948
594.598022	2486.972592
594.949633	2488.679022
595.301190	2485.820688
595.652692	2488.734475
596.004141	2486.765904
596.355535	2485.974443
596.706876	2487.963178
597.058162	2488.202633
597.409395	2485.946717
597.760573	2486.067704
598.111698	2486.914618
598.462768	2486.990236
598.813785	2488.479897
599.164748	2486.004690
599.515657	2486.521408
599.866511	2484.283136
600.217312	2487.123826
600.568060	2487.764053
600.918753	2487.776656
601.269392	2486.166007
601.619978	2486.138281
601.970510	2486.912098
602.320988	2487.600215
602.671412	2486.496202
603.021783	2485.349340
603.372100	2486.773466
603.722363	2487.454022
604.072572	2486.329844
604.422728	2488.187510
604.772830	2487.985863
605.122878	2486.138281
605.472872	2487.814464
605.822813	2489.576348
606.172701	2486.559217
606.522534	2487.151553
606.872314	2486.087869
607.222041	2485.490492
607.571714	2485.366984
607.921333	2483.983187
608.270899	2487.756491
608.620411	2483.070738
608.969870	2486.039978
609.319276	2488.724393
609.668627	2486.506285
610.017926	2486.158445
610.367171	2484.799854
610.716362	2486.644917
611.065500	2485.198105
611.414585	2484.139463
611.763616	2487.418734
612.112594	2486.284474
612.461518	2485.417396
612.810389	2488.782366
613.159207	2486.796151
613.507971	2486.763384
613.856682	2489.919146
614.205340	2486.289515
614.553945	2486.584423
614.902496	2488.273209
615.250994	2484.341109
615.599439	2484.913280
615.947830	2488.991574
616.296169	2486.985194
616.644454	2485.268682
616.992686	2485.903867
617.340864	2486.934783
617.688990	2487.993425
618.037063	2486.768425
618.385082	2486.470997
618.733048	2488.149701
619.080961	2488.051398
619.428821	2482.831284
619.776628	2488.673981
620.124382	2485.997128
620.472083	2487.816985
620.819731	2486.476038
621.167326	2485.858497
621.514868	2488.946203
621.862357	2487.348157
622.209793	2485.820688
622.557176	2487.161635
622.904506	2487.176758
623.251783	2484.560399
623.599007	2488.124495
623.946179	2487.005359
624.293297	2487.948055
624.640363	2485.563589
624.987376	2485.031747
625.334336	2482.065028
625.681243	2484.570482
626.028097	2482.299442
626.374899	2485.228352
626.721647	2486.652478
627.068343	2487.441419
627.414987	2487.209526
627.761577	2485.936634
628.108115	2487.698518
628.454600	2487.779176
628.801032	2484.701552
629.147412	2486.967550
629.493739	2483.025368
629.840014	2490.110710
630.186236	2486.765904
630.532405	2485.934114
630.878521	2482.934627
631.224585	2489.901502
631.570597	2486.513847
631.916556	2485.959320
632.262462	2487.093579
632.608316	2486.556696
632.954117	2483.534525
633.299866	2482.430512
633.645562	2484.048722
633.991206	2485.477889
634.336797	2486.221460
634.682336	2487.416213
635.027823	2487.038127
635.373257	2484.668784
635.718639	2483.529483
636.063968	2488.363950
636.409245	2485.465287
636.754470	2485.263640
637.099642	2484.139463
637.444762	2485.621562
637.789829	2485.515698
638.134845	2487.330513
638.479808	2485.593836
638.824719	2488.641213
639.169577	2486.367653
639.514383	2489.377222
639.859137	2485.036788
640.203839	2485.513177
640.548489	2487.496872
640.893086	2488.449650
641.237632	2485.432519
641.582125	2485.820688
641.926566	2482.460759
642.270955	2486.483600
642.615292	2484.464618
642.959576	2482.370018
643.303809	2481.689462
643.647990	2487.698518
643.992118	2485.606439
644.336195	2489.115082
644.680219	2484.497385
645.024192	2486.624752
645.368112	2487.426295
645.711981	2485.208188
646.055797	2487.438898
646.399562	2487.108703
646.743274	2486.201295
647.086935	2485.765235
647.430544	2485.293887
647.774101	2485.850935
648.117606	2483.337920
648.461059	2486.907057
648.804460	2487.088538
649.147810	2485.871099
649.491108	2487.537201
649.834354	2485.750112
650.177548	2486.564258
650.520690	2487.990905
650.863781	2485.107365
651.206820	2485.432519
651.549807	2486.075266
651.892742	2484.820019
652.235626	2486.715493
652.578458	2486.730616
652.921238	2483.559730
653.263967	2486.211377
653.606644	2485.992087
653.949269	2487.910246
654.291843	2485.520739
654.634365	2487.164155
654.976836	2488.878148
655.319255	2487.237252
655.661622	2485.563589
656.003938	2484.779690
656.346203	2484.217601
656.688416	2489.178096
657.030577	2484.099134
657.372687	2486.476038
657.714746	2483.017806
658.056753	2486.644917
658.398708	2484.923363
658.740612	2487.403610
659.082465	2484.547797
659.424266	2484.426809
659.766016	2481.152579
660.107715	2483.216932
660.449362	2480.288022
660.790958	2486.660040
661.132503	2485.336737
661.473996	2484.567961
661.815438	2483.589977
662.156829	2485.861017
662.498168	2483.141315
662.839456	2487.655668
663.180693	2486.763384
663.521879	2485.969402
663.863013	2488.686584
664.204097	2485.813126
664.545129	2484.981336
664.886110	2485.137612
665.227040	2483.176603
665.567918	2486.125678
665.908746	2487.083497
666.249522	2486.493682
666.590248	2486.755822
666.930922	2487.287664
667.271545	2482.808598
667.612118	2486.554176
667.952639	2487.365802
668.293109	2489.092397
668.633528	2486.597026
668.973896	2487.930411
669.314213	2482.601911
669.654480	2485.767756
669.994695	2489.120123
670.334859	2487.963178
670.674973	2485.707262
671.015035	2487.159114
671.355047	2484.983856
671.695008	2487.247334
672.034918	2486.846563
672.374777	2484.699031
672.714585	2486.171048
673.054342	2485.435040
673.394049	2485.787920
673.733705	2484.527632
674.073310	2485.697180
674.412864	2487.892602
674.752368	2484.981336
675.091820	2484.865389
675.431223	2485.422437
675.770574	2486.022334
676.109875	2485.911429
676.449125	2484.941007
676.788324	2481.923876
677.127473	2483.239617
677.466571	2480.595532
677.805619	2488.064001
678.144616	2481.376911
678.483562	2487.224649
678.822458	2486.599546
679.161303	2484.867910
679.500098	2484.028558
679.838842	2483.355564
680.177535	2483.990749
680.516179	2483.650471
680.854771	2486.866727
681.193314	2483.307673
681.531805	2485.384628
681.870247	2486.924701
682.208638	2484.527632
682.546978	2487.864876
682.885268	2484.401603
683.223508	2486.259268
683.561697	2487.171717
683.899836	2483.113588
684.237925	2485.732468
684.575963	2487.285143
684.913951	2485.858497
685.251889	2488.500061
685.589776	2486.859166
685.927614	2486.463435
686.265401	2483.723568
686.603137	2484.721716
686.940824	2484.905718
687.278460	2485.220791
687.616046	2485.747591
687.953582	2485.566110
688.291068	2484.015955
688.628504	2487.726244
688.965889	2484.573002
689.303224	2484.847745
689.640510	2482.783393
689.977745	2486.488641
690.314930	2484.721716
690.652065	2485.845894
690.989150	2485.573671
691.326185	2486.062663
691.663170	2485.094762
692.000105	2484.701552
692.336990	2485.805564
692.673825	2485.994608
693.010610	2482.780872
693.347345	2483.363125
693.684030	2480.582929
694.020665	2481.296252
694.357251	2479.355408
694.693786	2487.360760
695.030272	2484.484782
695.366707	2485.838332
695.703093	2485.374546
696.039429	2485.462766
696.375716	2483.262302
696.711952	2484.804895
697.048139	2481.470172
697.384276	2487.048209
697.720363	2486.191213
698.056400	2484.716675
698.392388	2484.404124
698.728326	2484.583085
699.064214	2481.129894
699.400053	2485.475369
699.735842	2483.826912
700.071581	2486.445791
700.407270	2484.724237
700.742910	2484.071408
701.078501	2482.241469
701.414042	2484.822539
701.749533	2485.142653
702.084974	2485.498054
702.420366	2483.673156
702.755709	2483.756335
703.091002	2484.789772
703.426246	2484.910760
703.761440	2483.554689
704.096584	2487.053250
704.431679	2482.445635
704.766725	2484.900677
705.101721	2486.241624
705.436668	2482.939668
705.771565	2487.776656
706.106413	2486.039978
706.441212	2486.783548
706.775961	2483.905049
707.110661	2484.018475
707.445311	2483.965543
707.779913	2485.384628
708.114465	2483.380769
708.448967	2485.142653
708.783421	2486.566779
709.117825	2483.002683
709.452180	2485.979484
709.786485	2482.591829
710.120742	2482.808598
710.454949	2480.477065
710.789107	2479.509163
711.123216	2477.671663
711.457275	2483.211891
711.791286	2485.893785
712.125247	2485.147694
712.459159	2486.080307
712.793023	2487.043168
713.126837	2486.304639
713.460602	2482.833804
713.794318	2484.620893
714.127985	2484.396562
714.461602	2485.061994
714.795171	2485.188023
715.128691	2484.081490
715.462162	2486.738178
715.795584	2481.717189
716.128957	2484.036119
716.462281	2484.885554
716.795556	2485.041830
717.128782	2484.842704
717.461960	2484.852786
717.795088	2483.027889
718.128167	2487.474186
718.461198	2485.132570
718.794180	2485.039309
719.127113	2481.515542
719.459997	2485.298928
719.792833	2485.798003
720.125619	2482.889257
720.458357	2481.727271
720.791046	2482.833804
721.123686	2485.220791
721.456278	2483.995790
721.788821	2483.650471
722.121315	2487.030565
722.453761	2484.888074
722.786158	2484.600729
723.118506	2486.203816
723.450805	2484.724237
723.783056	2485.603918
724.115259	2482.438074
724.447412	2486.281953
724.779518	2484.651140
725.111574	2484.983856
725.443582	2484.472179
725.775542	2483.804226
726.107453	2483.156438
726.439315	2484.709113
726.771129	2487.103662
727.102895	2480.724081
727.434612	2483.990749
727.766281	2479.675521
728.097901	2484.290698
728.429473	2482.685090
728.760996	2484.557879
729.092471	2483.479072
729.423897	2485.692138
729.755276	2483.025368
730.086606	2483.012765
730.417887	2484.996459
730.749120	2484.479741
731.080305	2484.935965
731.411442	2485.918990
731.742530	2482.218783
732.073570	2483.655512
732.404562	2483.705924
732.735506	2483.675677
733.066401	2483.892447
733.397249	2483.229535
733.728048	2484.235245
734.058798	2482.276757
734.389501	2484.883033
734.720156	2482.705255
735.050762	2484.383959
735.381320	2484.454535
735.711831	2482.954792
736.042293	2483.784062
736.372707	2483.957982
736.703073	2485.074597
737.033391	2483.499237
737.363661	2486.728096
737.693883	2481.906232
738.024056	2482.942189
738.354182	2483.174082
738.684260	2482.702734
739.014290	2482.090234
739.344272	2482.889257
739.674207	2484.759525
740.004093	2483.731130
740.333931	2485.329175
740.663722	2483.552169
740.993464	2483.368167
741.323159	2486.047540
741.652806	2484.668784
741.982405	2482.100316
742.311956	2482.818681
742.641460	2486.050060
742.970915	2485.442601
743.300323	2482.969915
743.629683	2481.581077
743.958996	2482.367497
744.288260	2477.976652
744.617477	2485.311531
744.946647	2482.291880
745.275768	2485.366984
745.604842	2485.419916
745.933869	2484.078969
746.262847	2482.450677
746.591778	2482.816160
746.920662	2483.227014
747.249498	2484.237766
747.578286	2483.716006
747.907027	2485.361943
748.235720	2483.121150
748.564365	2483.496716
748.892963	2481.535707
749.221514	2483.557210
749.550017	2483.683239
749.878473	2482.566623
750.206881	2483.695842
750.535242	2483.978146
750.863555	2484.434371
751.191821	2482.606952
751.520039	2482.700214
751.848210	2483.035450
752.176334	2483.287508
752.504411	2486.100472
752.832440	2482.251551
753.160421	2484.847745
753.488356	2482.977477
753.816243	2483.431181
754.144082	2483.388331
754.471875	2481.676859
754.799620	2483.259782
755.127318	2482.231386
755.454969	2481.944041
755.782572	2487.711121
756.110129	2480.524956
756.437638	2483.602580
756.765100	2481.407158
757.092515	2484.409165
757.419882	2482.795996
757.747203	2483.174082
758.074477	2482.720378
758.401703	2483.746253
758.728882	2483.562251
759.056014	2484.474700
759.383099	2483.549648
759.710138	2480.330871
760.037129	2478.803402
760.364073	2480.542600
760.690970	2478.087558
761.017820	2483.746253
761.344623	2484.141984
761.671379	2482.571664
761.998088	2480.761890
762.324751	2482.256592
762.651366	2482.349853
762.977935	2484.814978
763.304456	2481.883547
763.630931	2484.401603
763.957359	2483.335399
764.283740	2481.379431
764.610074	2481.507981
764.936362	2483.557210
765.262602	2480.252733
765.588796	2484.993939
765.914943	2481.281129
766.241044	2483.620224
766.567097	2481.513022
766.893104	2485.097282
767.219064	2481.447487
767.544978	2484.217601
767.870845	2483.368167
768.196665	2482.075111
768.522438	2483.005203
768.848165	2482.443115
769.173846	2482.546458
769.499479	2482.117960
769.825066	2479.073103
770.150607	2482.808598
770.476101	2481.664257
770.801548	2482.445635
771.126949	2483.007724
771.452303	2481.865903
771.777611	2482.985039
772.102872	2481.266005
772.428087	2485.245996
772.753256	2482.433032
773.078378	2479.534369
773.403453	2482.012096
773.728482	2484.268013
774.053465	2481.598722
774.378401	2483.842035
774.703291	2481.999493
775.028135	2482.672487
775.352932	2484.872951
775.677683	2481.318938
776.002388	2479.645274
776.327046	2479.761221
776.651658	2480.348515
776.976224	2476.741570
777.300743	2482.087713
777.625216	2482.657364
777.949643	2484.159628
778.274024	2481.344143
778.598359	2482.259113
778.922647	2482.707775
779.246889	2481.520584
779.571086	2483.083341
779.895236	2483.194247
780.219339	2480.492188
780.543397	2484.268012
780.867409	2481.452528
781.191374	2482.130563
781.515294	2480.716520
781.839167	2482.853969
782.162995	2480.081334
782.486776	2482.352374
782.810511	2483.978146
783.134201	2484.842704
783.457844	2481.341623
783.781441	2484.746922
784.104993	2481.966726
784.428498	2481.505460
784.751958	2483.000162
785.075372	2486.410503
785.398739	2482.478403
785.722061	2480.499750
786.045337	2483.277426
786.368568	2481.679380
786.691752	2481.202991
787.014891	2482.906901
787.337983	2481.366828
787.661030	2482.430512
787.984031	2482.997642
788.306987	2482.485965
788.629897	2483.007724
788.952760	2479.703248
789.275579	2483.148876
789.598351	2483.053094
789.921078	2482.919504
790.243759	2482.518732
790.566395	2481.288691
790.888984	2483.627786
791.211529	2482.090234
791.534027	2481.974288
791.856480	2482.977477
792.178888	2481.505460
792.501249	2481.049236
792.823566	2481.558392
793.145836	2480.149390
793.468062	2482.196098
793.790241	2483.174082
794.112375	2482.518732
794.434464	2480.676190
794.756507	2481.792806
795.078505	2480.282980
795.400457	2483.005203
795.722364	2482.559061
796.044226	2481.082003
796.366042	2484.867910
796.687812	2483.116109
797.009538	2481.679380
797.331218	2480.156952
797.652852	2481.649133
797.974442	2482.039823
798.295986	2482.183495
798.617484	2483.781541
798.938938	2484.492344
799.260346	2480.509832
799.581709	2480.562764
799.903026	2483.562251
800.224299	2483.877323
800.545526	2481.586119
800.866708	2481.752477
801.187845	2483.680718
801.508936	2484.484782
801.829983	2480.499750
802.150984	2480.527476
802.471940	2483.932776
802.792851	2482.853969
803.113717	2481.364308
803.434538	2479.947744
803.755314	2481.480254
804.076045	2481.419761
804.396731	2481.076962
804.717372	2482.596870
805.037967	2479.826756
805.358518	2483.927735
805.679024	2481.654174
805.999485	2484.242807
806.319901	2482.450677
806.640272	2482.790954
806.960598	2478.263998
807.280879	2481.613845
807.601115	2480.908083
807.921306	2478.800881
808.241453	2477.722074
808.561554	2477.157465
808.881611	2482.392703
809.201623	2475.703092
809.521590	2480.754328
809.841513	2478.886581
810.161390	2481.946561
810.481223	2481.369349
810.801011	2481.248361
811.120755	2481.392034
811.440453	2480.978660
811.760107	2481.828094
812.079716	2480.484627
812.399281	2481.243320
812.718801	2481.205512
813.038276	2481.699545
813.357707	2481.608804
813.677093	2480.991263
813.996434	2482.470841
814.315731	2482.793475
814.634983	2481.112250
814.954191	2481.122333
815.273354	2483.005203
815.592473	2483.847076
815.911547	2483.945379
816.230577	2480.734164
816.549562	2480.633341
816.868502	2480.552682
817.187399	2480.320789
817.506250	2482.425471
817.825058	2480.900522
818.143821	2483.070738
818.462539	2481.918835
818.781213	2480.051087
819.099843	2478.135449
819.418429	2479.932620
819.736970	2478.440439
820.055466	2480.393886
820.373919	2481.167703
820.692327	2481.888588
821.010691	2481.124853
821.329011	2480.761890
821.647286	2481.865903
821.965517	2483.088382
822.283704	2483.438743
822.601847	2481.278608
822.919945	2481.896150
823.237999	2479.564616
823.556010	2482.029740
823.873976	2480.434215
824.191897	2480.257775
824.509775	2478.707620
824.827609	2481.044195
825.145398	2479.468834
825.463144	2482.296921
825.780845	2482.422950
826.098502	2480.071252
826.416116	2480.429174
826.733685	2481.137456
827.051210	2481.281129
827.368692	2478.281642
827.686129	2481.679380
828.003522	2480.892960
828.320872	2479.247023
828.638177	2480.587970
828.955439	2480.345995
829.272656	2480.323310
829.589830	2481.092086
829.906960	2482.735502
830.224046	2482.574185
830.541088	2480.777013
830.858086	2481.936479
831.175041	2480.028402
831.491952	2480.565285
831.808819	2481.719709
832.125642	2480.955974
832.442421	2480.222487
832.759157	2480.477065
833.075849	2479.075624
833.392497	2479.262147
833.709101	2480.620738
834.025662	2482.899339
834.342179	2481.568475
834.658653	2479.095789
834.975083	2480.358598
835.291469	2482.276757
835.607811	2480.305666
835.924110	2479.317599
836.240366	2478.722743
836.556578	2477.661580
836.872746	2481.699545
837.188871	2481.298773
837.504952	2480.320789
837.820990	2482.115440
838.136984	2481.513022
838.452935	2483.645430
838.768842	2480.121663
839.084706	2482.561582
839.400526	2480.338433
839.716303	2478.037146
840.032037	2475.745942
840.347727	2475.153606
840.663373	2479.640233
840.978977	2474.871302
841.294537	2479.751139
841.610054	2479.781386
841.925527	2484.220122
842.240957	2480.300624
842.556344	2480.514873
842.871687	2481.616366
843.186987	2480.227528
843.502244	2479.811633
843.817458	2479.126036
844.132629	2480.151910
844.447756	2478.773155
844.762840	2481.087044
845.077881	2481.016468
845.392879	2480.557723
845.707833	2482.110399
846.022745	2481.754997
846.337613	2479.415902
846.652438	2481.838176
846.967221	2481.109730
847.281960	2481.087044
847.596656	2480.051087
847.911309	2479.988073
848.225919	2481.573516
848.540485	2483.781541
848.855009	2478.450521
849.169490	2481.785244
849.483928	2480.966057
849.798323	2480.955974
850.112675	2481.404637
850.426984	2480.043526
850.741251	2479.597383
851.055474	2479.970429
851.369654	2479.310038
851.683792	2482.193578
851.997887	2480.008238
852.311938	2479.431025
852.625947	2483.721047
852.939914	2480.043526
853.253837	2481.248361
853.567718	2480.323310
853.881555	2482.052425
854.195350	2482.337251
854.509103	2479.867085
854.822812	2478.626961
855.136479	2481.984370
855.450103	2478.856334
855.763685	2478.327013
856.077224	2476.189563
856.390720	2476.151755
856.704173	2475.987917
857.017584	2477.996817
857.330953	2480.000676
857.644278	2481.278608
857.957561	2484.948568
858.270802	2478.984883
858.584000	2482.969915
858.897155	2481.318938
859.210268	2482.470841
859.523339	2481.654174
859.836367	2478.942033
860.149352	2480.472024
860.462295	2479.990593
860.775195	2480.406489
861.088054	2481.472693
861.400869	2479.378093
861.713642	2482.594349
862.026373	2479.078145
862.339062	2481.243320
862.651708	2480.209884
862.964312	2481.465131
863.276873	2480.275419
863.589392	2481.018989
863.901869	2485.356902
864.214303	2479.000007
864.526696	2479.131077
864.839045	2478.049749
865.151353	2478.001858
865.463619	2479.302476
865.775842	2479.431025
866.088023	2478.032105
866.400162	2479.410861
866.712258	2479.811632
867.024313	2479.625110
867.336325	2479.834318
867.648296	2480.603094
867.960224	2483.325317
868.272110	2482.649802
868.583954	2481.301293
868.895755	2479.864565
869.207515	2478.700058
869.519233	2477.646457
869.830909	2477.280973
870.142542	2480.605614
870.454134	2480.068731
870.765684	2482.813640
871.077191	2480.328351
871.388657	2479.877168
871.700081	2477.170068
872.011463	2479.476396
872.322803	2473.159830
872.634101	2479.728453
872.945357	2479.667960
873.256571	2478.742908
873.567744	2479.902373
873.878874	2479.002527
874.189963	2479.869606
874.501010	2480.973618
874.812015	2480.595532
875.122979	2480.174596
875.433900	2480.608135
875.744780	2478.047229
876.055618	2479.362970
876.366415	2480.076293
876.677169	2479.650316
876.987882	2478.599235
877.298554	2478.203504
877.609183	2480.784575
877.919771	2480.640902
878.230317	2480.383803
878.540822	2482.362456
878.851285	2477.243165
879.161707	2480.955974
879.472087	2481.182826
879.782425	2481.805409
880.092722	2475.561940
880.402977	2479.317599
880.713191	2477.722074
881.023363	2480.093937
881.333494	2479.488999
881.643583	2479.935141
881.953631	2480.391365
882.263637	2480.295583
882.573602	2477.608648
882.883526	2478.422795
883.193408	2478.742908
883.503248	2480.777013
883.813048	2478.929431
884.122806	2480.608135
884.432522	2479.945223
884.742197	2477.984214
885.051831	2476.731487
885.361424	2479.930100
885.670975	2480.076293
885.980485	2479.494040
886.289954	2477.475058
886.599382	2482.818681
886.908768	2475.861888
887.218113	2473.280818
887.527417	2475.735860
887.836680	2474.848617
888.145901	2478.437918
888.455082	2477.938844
888.764221	2477.404482
889.073319	2478.120325
889.382376	2479.115953
889.691392	2478.455562
890.000366	2478.594194
890.309300	2478.692496
890.618193	2481.142497
890.927044	2478.206025
891.235855	2478.377424
891.544625	2476.887763
891.853353	2481.855820
892.162041	2480.892960
892.470687	2478.649647
892.779293	2479.118474
893.087858	2477.827938
893.396381	2477.711992
893.704864	2479.115953
894.013306	2476.103864
894.321707	2479.047898
894.630068	2476.572691
894.938387	2479.375573
895.246665	2475.514049
895.554903	2482.329689
895.863100	2477.459934
896.171256	2478.823566
896.479371	2477.467496
896.787446	2479.425984
897.095480	2480.771972
897.403473	2481.966726
897.711425	2480.288022
898.019336	2478.526138
898.327207	2480.857672
898.635038	2479.239462
898.942827	2482.102837
899.250576	2478.536221
899.558284	2479.410861
899.865952	2478.639564
900.173579	2482.193578
900.481165	2479.388176
900.788711	2477.742239
901.096216	2477.308700
901.403681	2477.689307
901.711105	2480.192240
902.018489	2479.274750
902.325832	2477.742239
902.633135	2474.299131
902.940397	2476.983545
903.247619	2472.864922
903.554800	2480.141828
903.861941	2477.543113
904.169041	2476.439101
904.476101	2477.389358
904.783121	2478.319451
905.090100	2480.877837
905.397039	2479.168885
905.703938	2479.090748
906.010796	2481.051756
906.317614	2478.321972
906.624391	2478.795840
906.931129	2478.571509
907.237826	2477.185191
907.544483	2479.390696
907.851099	2480.973618
908.157675	2478.473206
908.464211	2478.049749
908.770707	2479.042857
909.077163	2476.650829
909.383578	2479.441108
909.689954	2477.860706
909.996289	2479.075624
910.302584	2478.281642
910.608839	2478.463124
910.915054	2479.698207
911.221229	2476.033288
911.527363	2477.606128
911.833458	2479.433546
912.139513	2478.674852
912.445527	2478.155613
912.751502	2479.635192
913.057436	2479.602425
913.363331	2479.640233
913.669186	2477.959008
913.975000	2478.571509
914.280775	2479.627630
914.586510	2478.369863
914.892205	2477.961529
915.197859	2476.285345
915.503475	2478.276601
915.809050	2477.472537
916.114585	2477.510346
916.420081	2478.082517
916.725536	2477.530510
917.030952	2478.654688
917.336328	2478.546303
917.641665	2477.129739
917.946961	2473.043883
918.252218	2477.152424
918.557435	2473.283338
918.862612	2479.748618
919.167750	2477.107053
919.472848	2478.604276
919.777906	2481.649133
920.082925	2479.539410
920.387904	2476.993627
920.692843	2479.262147
920.997743	2479.090748
921.302603	2479.272229
921.607423	2477.394399
921.912204	2480.025882
922.216946	2478.475727
922.521647	2479.320120
922.826310	2476.481950
923.130932	2479.478916
923.435516	2479.685604
923.740059	2477.278453
924.044564	2481.528145
924.349028	2477.659060
924.653454	2478.916828
924.957840	2477.533031
925.262186	2478.780717
925.566493	2477.959008
925.870761	2477.732157
926.174989	2478.647126
926.479178	2476.623103
926.783328	2479.811633
927.087438	2477.215438
927.391509	2477.442290
927.695541	2476.744090
927.999533	2477.142342
928.303486	2478.299286
928.607400	2478.369862
928.911275	2477.827938
929.215110	2480.933289
929.518906	2479.138638
929.822663	2479.047898
930.126381	2477.971611
930.430060	2477.737198
930.733699	2477.215438
931.037299	2476.643267
931.340861	2476.754173
931.644383	2478.551344
931.947866	2479.342805
932.251309	2478.276601
932.554714	2477.346508
932.858080	2474.679738
933.161407	2472.948102
933.464694	2473.404326
933.767943	2473.623616
934.071153	2479.231900
934.374323	2477.134780
934.677455	2476.292907
934.980548	2477.122177
935.283602	2478.203504
935.586617	2473.981538
935.889593	2476.933134
936.192530	2478.208546
936.495428	2479.930100
936.798287	2478.198463
937.101108	2480.061170
937.403890	2475.551857
937.706632	2479.604945
938.009336	2477.041518
938.312002	2480.076293
938.614628	2477.936323
938.917216	2477.500263
939.219765	2478.760552
939.522275	2478.538741
939.824747	2478.750470
940.127179	2477.717033
940.429573	2479.226859
940.731929	2474.891466
941.034246	2476.587815
941.336524	2477.235603
941.638763	2478.127887
941.940964	2476.517238
942.243126	2476.837352
942.545250	2478.132928
942.847335	2477.575881
943.149381	2479.017651
943.451389	2477.520428
943.753359	2478.253916
944.055290	2477.200315
944.357182	2477.444811
944.659036	2479.723412
944.960851	2477.845583
945.262628	2477.107053
945.564367	2475.579584
945.866067	2477.938844
946.167729	2477.749801
946.469352	2476.355922
946.770937	2479.214256
947.072484	2477.749801
947.373992	2478.682414
947.675462	2476.814667
947.976893	2474.939357
948.278286	2473.734522
948.579641	2475.705613
948.880958	2474.389872
949.182236	2477.883391
949.483476	2476.703761
949.784678	2478.117805
950.085841	2478.606797
950.386967	2476.827269
950.688054	2477.391879
950.989103	2475.967753
951.290114	2477.265850
951.591087	2478.463124
951.892021	2477.268370
952.192917	2477.777527
952.493776	2478.868937
952.794596	2477.159986
953.095378	2476.199646
953.396122	2478.553865
953.696828	2478.649647
953.997496	2477.865747
954.298126	2475.272073
954.598718	2476.907928
954.899272	2476.262660
955.199788	2480.146869
955.500266	2478.311889
955.800706	2476.305510
956.101108	2477.026395
956.401472	2475.990438
956.701798	2476.902887
957.002087	2479.206694
957.302337	2477.122177
957.602550	2478.606797
957.902724	2475.040180
958.202861	2477.901035
958.502960	2478.286683
958.803022	2479.201653
959.103045	2479.534369
959.403031	2476.403812
959.702979	2476.577732
960.002889	2479.352887
960.302762	2475.834162
960.602596	2477.669142
960.902393	2479.209215
961.202153	2476.368524
961.501875	2476.431539
961.801559	2478.715182
962.101205	2474.846096
962.400814	2476.973463
962.700385	2477.585963
962.999918	2474.951960
963.299414	2473.605972
963.598873	2472.421301
963.898293	2473.187556
964.197677	2477.641416
964.497022	2478.117805
964.796331	2476.746611
965.095601	2477.154944
965.394835	2472.501959
965.694030	2475.998000
965.993189	2477.568319
966.292309	2477.759883
966.591393	2476.431539
966.890439	2477.575881
967.189447	2477.467496
967.488419	2475.496405
967.787353	2477.631333
968.086249	2476.958339
968.385108	2476.517238
968.683930	2478.654688
968.982714	2475.531693
969.281462	2476.300469
969.580172	2475.877012
969.878844	2476.245016
970.177480	2477.845583
970.476078	2478.347177
970.774639	2475.551857
971.073162	2476.360963
971.371649	2476.245016
971.670098	2475.879532
971.968510	2475.302320
972.266885	2479.378093
972.565223	2479.103350
972.863524	2474.536065
973.161788	2476.073617
973.460014	2476.418936
973.758204	2474.747793
974.056356	2479.373052
974.354471	2477.167547
974.652550	2476.391210
974.950591	2479.347846
975.248595	2477.384317
975.546563	2476.880202
975.844493	2477.419605
976.142386	2477.631333
976.440243	2476.358442
976.738062	2476.761734
977.035845	2473.986579
977.333590	2479.277270
977.631299	2476.368524
977.928971	2475.892135
978.226606	2472.842237
978.524204	2473.916003
978.821765	2473.071610
979.119290	2476.867599
979.416777	2477.701910
979.714228	2475.960191
980.011642	2476.383648
980.309020	2477.621251
980.606360	2477.719554
980.903664	2476.746611
981.200931	2476.567650
981.498162	2478.074955
981.795356	2476.411374
982.092513	2478.064873
982.389633	2475.123359
982.686717	2479.078145
982.983764	2475.017495
983.280775	2479.181488
983.577749	2478.579070
983.874686	2475.705613
984.171587	2475.040180
984.468451	2477.812815
984.765279	2477.175109
985.062070	2477.346508
985.358824	2477.321302
985.655543	2477.316261
985.952224	2475.211580
986.248869	2475.060345
986.545478	2474.142855
986.842050	2477.066724
987.138586	2477.505305
987.435086	2474.828452
987.731549	2476.854996
988.027975	2474.982207
988.324366	2476.605459
988.620719	2476.391210
988.917037	2472.607824
989.213318	2472.691003
989.509563	2475.556899
989.805772	2475.882053
990.101944	2476.305510
990.398080	2476.146714
990.694180	2474.830973
990.990244	2477.883391
991.286271	2474.452886
991.582262	2476.968422
991.878217	2475.163689
992.174136	2478.059832
992.470019	2477.250726
992.765865	2476.146714
993.061676	2473.858030
993.357450	2475.423308
993.653188	2469.988944
993.948890	2477.379276
994.244556	2476.744090
994.540186	2477.003710
994.835780	2476.066055
995.131337	2476.824749
995.426859	2474.470530
995.722345	2474.614203
996.017795	2475.783751
996.313208	2477.396920
996.608586	2477.959008
996.903928	2477.409523
997.199234	2477.638895
997.494504	2476.189563
997.789738	2476.854996
998.084936	2475.095633
998.380099	2476.776858
998.675225	2474.851137
998.970316	2478.891622
999.265371	2476.476909
999.560390	2474.725108
999.855373	2475.899697
1000.150320	2474.745273
1000.445232	2475.945068
1000.740108	2474.389872
1001.034948	2477.583442
1001.329752	2475.879533
1001.624521	2473.966415
1001.919254	2475.274594
1002.213951	2474.606641
1002.508613	2472.698564
1002.803239	2476.852475
1003.097829	2477.437249
1003.392384	2477.805253
1003.686903	2476.219810
1003.981386	2478.039667
1004.275834	2476.623103
1004.570246	2476.050932
1004.864623	2474.054635
1005.158964	2474.094964
1005.453270	2476.618062
1005.747540	2475.083030
1006.041775	2477.036477
1006.335974	2474.699902
1006.630138	2477.759883
1006.924266	2477.500263
1007.218359	2476.988586
1007.512416	2471.556743
1007.806438	2471.586990
1008.100425	2473.910962
1008.394376	2468.869808
1008.688292	2475.748462
1008.982172	2476.187043
1009.276017	2476.315592
1009.569827	2475.264512
1009.863602	2477.016313
1010.157341	2478.223669
1010.451045	2473.565643
1010.744714	2477.250726
1011.038347	2475.677886
1011.331945	2475.168730
1011.625508	2474.049594
1011.919036	2475.844244
1012.212528	2470.896352
1012.505986	2474.871302
1012.799408	2476.812146
1013.092795	2474.707464
1013.386147	2476.083699
1013.679464	2475.695530
1013.972745	2478.324492
1014.265992	2472.635550
1014.559204	2476.822228
1014.852380	2474.566312
1015.145521	2475.541775
1015.438628	2475.758545
1015.731699	2475.009933
1016.024736	2477.202835
1016.317737	2475.294759
1016.610703	2476.590335
1016.903635	2476.315592
1017.196531	2474.715026
1017.489393	2475.730818
1017.782219	2475.287197
1018.075011	2476.058493
1018.367768	2475.352732
1018.660490	2476.630664
1018.953177	2476.630664
1019.245829	2476.630664
