Dividing Wavelength (nm)	Counts (n)	Blue Motor Position (mm): 35.000000	Red Motor Position (mm): 0.000000	
326.493990	2131.687192
326.888308	2131.687192
327.282561	2131.687192
327.676750	2098.816348
328.070874	2096.358786
328.464933	2099.809456
328.858929	2104.759869
329.252859	2116.084821
329.646726	2125.688219
330.040528	2139.730353
330.434265	2157.780204
330.827938	2175.209994
331.221547	2191.722293
331.615091	2212.023020
332.008571	2229.775443
332.401986	2248.798237
332.795338	2269.482091
333.188625	2289.681995
333.581847	2307.688996
333.975006	2326.661379
334.368100	2344.194512
334.761129	2362.188910
335.154095	2379.336395
335.546996	2399.644683
335.939833	2424.066553
336.332606	2438.726229
336.725315	2452.221397
337.117960	2462.258335
337.510540	2469.731845
337.903056	2479.960347
338.295508	2490.524084
338.687896	2497.337204
339.080220	2500.392143
339.472480	2511.974194
339.864676	2516.067611
340.256807	2522.240504
340.648875	2524.206554
341.040879	2525.265196
341.432818	2528.123530
341.824694	2528.151257
342.216506	2530.356762
342.608253	2532.048069
342.999937	2531.407842
343.391557	2528.617563
343.783113	2528.809127
344.174605	2528.005063
344.566033	2522.772346
344.957397	2525.512213
345.348697	2519.475431
345.739934	2520.274454
346.131106	2519.470390
346.522215	2518.003414
346.913260	2514.204905
347.304241	2514.214987
347.695159	2510.454286
348.086012	2512.203567
348.476802	2508.894049
348.867528	2504.581342
349.258191	2503.782319
349.648789	2504.104953
350.039324	2502.050683
350.429796	2502.249808
350.820203	2499.630929
351.210548	2499.608244
351.600828	2495.592965
351.991045	2497.059940
352.381198	2494.254538
352.771288	2499.691423
353.161314	2497.959786
353.551276	2497.241422
353.941175	2496.858294
354.331010	2494.178921
354.720782	2496.472646
355.110490	2497.997595
355.500135	2496.626401
355.889717	2494.390649
356.279235	2494.864518
356.668689	2499.802328
357.058080	2498.993223
357.447408	2494.685557
357.836672	2493.059785
358.225873	2495.542553
358.615010	2492.200268
359.004084	2499.071361
359.393095	2502.396002
359.782043	2500.646721
360.170927	2500.792915
360.559748	2499.313336
360.948505	2502.227123
361.337199	2498.562204
361.725830	2502.290138
362.114398	2503.389109
362.502903	2505.846672
362.891344	2503.769716
363.279722	2504.846002
363.668037	2505.095540
364.056289	2506.292814
364.444478	2507.091837
364.832603	2505.748369
365.220665	2503.799963
365.608665	2508.266425
365.996601	2506.650736
366.384474	2504.946826
366.772284	2508.102588
367.160031	2508.442866
367.547715	2507.180057
367.935336	2509.166271
368.322893	2509.070489
368.710388	2508.773061
369.097820	2511.097033
369.485189	2511.873371
369.872495	2511.081910
370.259738	2511.767507
370.646918	2508.510921
371.034035	2510.045953
371.421090	2509.675428
371.808081	2512.586694
372.195010	2511.533093
372.581875	2515.024092
372.968678	2511.621313
373.355418	2510.280366
373.742096	2513.415964
374.128710	2515.273629
374.515262	2517.199350
374.901751	2515.613907
375.288177	2515.255985
375.674540	2514.323372
376.060841	2514.996366
376.447079	2513.685666
376.833254	2514.247754
377.219367	2513.267250
377.605417	2516.760770
377.991404	2514.567868
378.377329	2516.402848
378.763191	2510.232475
379.148991	2518.510050
379.534727	2517.464011
379.920402	2516.523835
380.306013	2517.690863
380.691563	2517.234638
381.077049	2520.460977
381.462474	2516.793537
381.847835	2520.075328
382.233134	2518.494927
382.618371	2517.705986
383.003545	2521.295288
383.388657	2523.359640
383.773706	2517.559793
384.158693	2522.036337
384.543618	2522.016172
384.928480	2521.562469
385.313280	2522.225380
385.698017	2522.991636
386.082692	2521.489372
386.467305	2520.105575
386.851856	2523.173117
387.236344	2522.295957
387.620770	2525.013138
388.005133	2524.113293
388.389435	2523.455422
388.773674	2524.602284
389.157851	2523.810823
389.541965	2524.695546
389.926018	2526.646472
390.310008	2523.957017
390.693936	2525.683612
391.077802	2525.849970
391.461606	2527.316946
391.845348	2527.856349
392.229027	2530.150074
392.612645	2528.294930
392.996200	2528.231915
393.379694	2530.301309
393.763125	2533.041176
394.146494	2529.119158
394.529801	2531.594365
394.913047	2531.483459
395.296230	2532.816845
395.679351	2531.324663
396.062410	2536.075951
396.445408	2530.323994
396.828343	2536.103677
397.211217	2527.753006
397.594028	2534.223327
397.976778	2528.380629
398.359466	2533.908254
398.742092	2530.387008
399.124656	2533.900693
399.507158	2533.184849
399.889598	2535.803728
400.271977	2537.006043
400.654294	2539.254398
401.036549	2539.874460
401.418742	2540.406302
401.800874	2539.647608
402.182944	2540.098791
402.564952	2541.109543
402.946898	2547.544576
403.328783	2548.494833
403.710606	2551.769062
404.092367	2552.278219
404.474067	2560.094528
404.855705	2564.054354
405.237282	2567.787329
405.618797	2579.180337
406.000250	2584.672674
406.381642	2595.226329
406.762972	2605.555653
407.144240	2613.213166
407.525447	2628.613891
407.906593	2641.325161
408.287677	2656.614980
408.668700	2664.148985
409.049661	2685.352078
409.430560	2702.912937
409.811399	2717.602859
410.192176	2749.057139
410.572891	2764.591454
410.953545	2794.172945
411.334138	2800.706281
411.714669	2831.820282
412.095139	2841.857219
412.475547	2889.906977
412.855894	2908.029925
413.236180	2943.549895
413.616405	2959.356433
413.996568	3002.249091
414.376670	3023.805065
414.756711	3044.524207
415.136691	3083.804878
415.516609	3133.770274
415.896466	3178.376924
416.276262	3222.358471
416.655997	3256.996239
417.035670	3347.800022
417.415283	3418.000610
417.794834	3440.854681
418.174324	3465.906695
418.553753	3476.601503
418.933121	3585.354315
419.312428	3657.881395
419.691674	3682.646064
420.070859	3783.254892
420.449983	3791.189668
420.829045	3889.897981
421.208047	3889.353536
421.586988	3977.276300
421.965867	4030.732696
422.344686	4155.115605
422.723444	4117.735449
423.102141	4061.806368
423.480777	4283.443217
423.859352	4190.859906
424.237866	4399.984612
424.616319	4439.908030
424.994712	4554.717788
425.373044	4516.037015
425.751314	4663.752905
426.129524	4572.565993
426.507673	4754.990227
426.885762	4851.150237
427.263789	4854.540413
427.641756	4797.038492
428.019662	4926.868368
428.397508	4974.121623
428.775292	4974.469463
429.153016	5088.903655
429.530679	5062.919028
429.908282	5164.059697
430.285824	5085.077420
430.663305	5354.690930
431.040726	5155.545189
431.418086	5183.228685
431.795385	5303.319052
432.172624	5335.353064
432.549802	5356.288976
432.926920	5393.669132
433.303977	5417.982617
433.680974	5477.122913
434.057910	5513.260424
434.434786	5541.238828
434.811601	5526.896746
435.188355	5764.123363
435.565050	5657.502959
435.941683	5660.510008
436.318257	5873.523963
436.694770	5873.639910
437.071222	5919.708494
437.447614	5863.020719
437.823946	5791.874915
438.200218	5944.672288
438.576429	5823.409853
438.952580	5927.328198
439.328670	5976.156815
439.704700	5897.671090
440.080670	5881.249532
440.456580	6153.534854
440.832429	6046.866559
441.208218	5898.465072
441.583947	6053.538526
441.959616	6061.788374
442.335224	5988.815152
442.710773	6129.281863
443.086261	6157.973590
443.461689	5955.785512
443.837057	6108.048523
444.212365	6259.688951
444.587612	6152.710625
444.962800	6314.753474
445.337927	6296.993489
445.712995	5904.353140
446.088002	6478.943855
446.462949	6309.729965
446.837837	6245.180510
447.212664	6419.528816
447.587431	6557.439662
447.962139	7096.840603
448.336786	8029.018004
448.711374	7761.950277
449.085901	6844.533373
449.460369	6764.285766
449.834776	6699.501898
450.209124	7092.600992
450.583412	7245.113540
450.957640	7389.000674
451.331808	7155.973337
451.705917	6705.949533
452.079965	6631.516897
452.453954	6844.147725
452.827883	6718.822120
453.201752	6814.518343
453.575562	6616.443847
453.949311	6815.382901
454.323001	6703.857455
454.696632	6782.743951
455.070202	6918.565238
455.443713	7073.434525
455.817164	7175.838004
456.190556	7254.197699
456.563888	7329.963721
456.937160	7373.436111
457.310373	7029.150509
457.683526	7052.178500
458.056619	6945.137160
458.429653	6935.153155
458.802628	6867.137907
459.175542	6979.059084
459.548398	7336.149217
459.921194	7495.971438
460.293930	7496.820872
460.666607	8022.794700
461.039224	8329.102769
461.411782	8459.028428
461.784280	8475.641550
462.156719	8363.876649
462.529099	8242.087413
462.901419	7828.864032
463.273680	7725.381747
463.645882	7738.967656
464.018024	7613.810930
464.390106	7772.120804
464.762130	8156.954927
465.134094	8633.742217
465.505999	9651.747783
465.877845	10868.357168
466.249631	11514.315498
466.621358	11134.189813
466.993026	10508.885090
467.364634	10251.957643
467.736184	9881.248833
468.107674	9553.243637
468.479105	9586.399306
468.850477	9350.322072
469.221790	9118.338254
469.593043	8792.440261
469.964238	8654.481524
470.335373	8671.893669
470.706449	8730.224860
471.077467	8706.609575
471.448425	10014.340336
471.819324	11083.064951
472.190164	11103.027920
472.560945	9864.597902
472.931667	9075.896780
473.302330	8934.794883
473.672934	8589.095238
474.043479	8943.316954
474.413965	8880.983087
474.784393	8767.191642
475.154761	8921.070342
475.525070	9007.571501
475.895321	8838.385337
476.265513	9011.269187
476.635645	9182.688583
477.005719	9185.907359
477.375734	9295.262589
477.745691	9532.335452
478.115588	9664.663220
478.485427	9908.372761
478.855207	10450.072468
479.224928	11260.710171
479.594591	11885.546067
479.964194	11698.287366
480.333739	11635.149435
480.703226	11556.658670
481.072653	11641.493727
481.442022	11878.080118
481.811333	12064.323027
482.180584	11873.124664
482.549777	11582.648338
482.918912	11408.753736
483.287988	11423.834348
483.657005	11437.974785
484.025964	11125.491302
484.394864	11249.125600
484.763706	11222.372196
485.132489	10979.254990
485.501213	10944.869280
485.869879	11028.353308
486.238487	10866.512105
486.607036	10977.893879
486.975527	10761.048646
487.343959	10948.103180
487.712333	10999.255768
488.080648	10924.311455
488.448905	10973.888682
488.817104	10904.512323
489.185244	11177.326966
489.553326	11328.231386
489.921350	11868.232224
490.289315	12938.806943
490.657222	13262.116304
491.025070	13176.439374
491.392861	13044.910629
491.760593	12667.121518
492.128267	12320.887510
492.495883	11992.968014
492.863440	11651.727269
493.230939	11327.908752
493.598380	11259.021385
493.965763	11126.335695
494.333088	11025.903308
494.700354	10945.625453
495.067563	11011.188179
495.434713	10840.804741
495.801805	10962.541045
496.168839	10888.005065
496.535815	10824.975518
496.902733	10829.431898
497.269593	10759.233831
497.636395	10854.420898
498.003139	10849.019301
498.369825	10717.901410
498.736453	10875.500482
499.103023	10798.164141
499.469535	10827.871661
499.835989	10813.327932
500.202385	10783.449013
500.568723	10628.289860
500.935003	10853.316885
501.301226	10662.153811
501.667390	10917.919272
502.033497	11014.066678
502.399546	10874.373785
502.765537	10780.434403
503.131470	10851.116421
503.497345	11024.698472
503.863163	10647.383230
504.228923	10949.423962
504.594625	11011.977120
504.960269	10769.575758
505.325856	10982.723304
505.691385	10777.926429
506.056856	10925.034860
506.422270	10955.269180
506.787625	10842.047386
507.152924	10955.596855
507.518164	10937.511716
507.883347	10862.945489
508.248472	10776.610688
508.613540	11005.269865
508.978550	10897.056456
509.343503	10869.609894
509.708398	10989.554068
510.073236	11104.767118
510.438016	11112.969076
510.802738	11058.771631
511.167403	11120.069541
511.532010	11015.382419
511.896561	11244.984292
512.261053	11317.980200
512.625488	11177.773108
512.989866	11158.906590
513.354186	11153.142031
513.718449	11057.201311
514.082655	11245.775753
514.446803	11145.265228
514.810894	11264.561613
515.174927	11132.891716
515.538904	11155.375262
515.902822	11307.290433
516.266684	11189.244254
516.630488	11127.722012
516.994235	11183.721670
517.357925	11246.345403
517.721558	11342.240752
518.085133	11352.799449
518.448651	11367.098682
518.812112	11246.947821
519.175516	11266.008424
519.538863	11386.917978
519.902152	11297.964298
520.265385	11459.445059
520.628560	11363.930317
520.991678	11354.337001
521.354739	11415.403018
521.717743	11344.423572
522.080690	11327.210552
522.443580	11462.376490
522.806413	11413.179869
523.169189	11451.386774
523.531908	11507.741833
523.894569	11328.753145
524.257174	11328.659884
524.619722	11441.354878
524.982213	11387.296065
525.344647	11443.615836
525.707025	11392.369986
526.069345	11492.043680
526.431608	11409.625856
526.793815	11516.652073
527.155964	11307.673561
527.518057	11359.219359
527.880093	11310.262193
528.242072	11370.798889
528.603995	11279.193562
528.965860	11201.169103
529.327669	11255.220355
529.689421	11206.699249
530.051117	11167.652992
530.412755	11279.047368
530.774337	11171.544763
531.135862	11155.728142
531.497331	11168.817498
531.858743	11021.562874
532.220098	11194.981087
532.581396	11063.966540
532.942638	11050.854498
533.303824	11006.762046
533.664953	11021.409119
534.026025	10936.120358
534.387040	11031.332630
534.747999	11039.469052
535.108902	11102.637231
535.469748	10856.906187
535.830537	10957.441918
536.191270	10933.955182
536.551947	10960.973246
536.912567	10954.308841
537.273131	10884.763603
537.633638	10857.770744
537.994089	10856.475168
538.354483	10803.543053
538.714821	10947.931781
539.075103	10958.845879
539.435328	10921.206104
539.795497	10747.268652
540.155609	10905.500389
540.515665	10989.549027
540.875665	10724.704448
541.235609	10802.716303
541.595496	10793.347319
541.955328	10951.994951
542.315102	10835.007414
542.674821	10781.014136
543.034483	10780.953642
543.394090	10787.164344
543.753640	10712.313291
544.113134	10940.065060
544.472571	10787.118973
544.831953	10926.184243
545.191278	10741.927550
545.550548	10773.263362
545.909761	10909.485421
546.268918	10880.642459
546.628019	10964.580192
546.987064	10827.319655
547.346053	10749.537171
547.704986	10854.259581
548.063863	10834.982208
548.422684	10826.981897
548.781449	10745.718497
549.140158	10846.470998
549.498811	10724.959026
549.857408	10577.550646
550.215949	10804.783176
550.574434	10660.470065
550.932864	10760.141238
551.291237	10814.018570
551.649555	10761.759449
552.007817	10775.771336
552.366022	10738.978475
552.724173	10733.544111
553.082267	10719.998530
553.440305	10853.909221
553.798288	10655.544858
554.156215	10815.127624
554.514086	10787.625609
554.871902	10633.739347
555.229661	10673.559421
555.587365	10649.165278
555.945014	10545.398167
556.302606	10666.322845
556.660143	10563.082535
557.017625	10719.378468
557.375050	10615.525658
557.732421	10746.550288
558.089735	10664.613894
558.446994	10666.640437
558.804197	10698.956754
559.161345	10699.450787
559.518437	10550.139372
559.875474	10633.454522
560.232455	10666.322845
560.589381	10619.548499
560.946251	10617.605134
561.303065	10730.678215
561.659825	10657.526031
562.016528	10589.455331
562.373177	10467.479572
562.729770	10587.746380
563.086307	10498.830508
563.442789	10591.227297
563.799216	10462.627462
564.155587	10522.997800
564.511904	10474.988371
564.868164	10464.840528
565.224370	10483.253343
565.580520	10399.280323
565.936615	10408.316591
566.292654	10278.169122
566.648638	10406.821889
567.004567	10361.484272
567.360441	10352.836172
567.716260	10262.486092
568.072023	10347.187559
568.427732	10309.116766
568.783385	10210.731087
569.138982	10282.996027
569.494525	10301.625611
569.850013	10172.811527
570.205445	10258.601883
570.560823	10150.353187
570.916145	10070.425693
571.271412	10144.104677
571.626625	10083.580584
571.981782	10060.348426
572.336884	10036.781032
572.691931	10039.916630
573.046923	9982.225665
573.401860	9939.582545
573.756743	9878.289676
574.111570	9919.266695
574.466342	9909.370910
574.821059	9938.397873
575.175722	9831.149846
575.530330	9831.477521
575.884882	9823.938475
576.239380	9758.557231
576.593823	9743.186752
576.948211	9751.055994
577.302544	9629.607036
577.656823	9649.827104
578.011047	9648.592021
578.365216	9618.135890
578.719330	9548.494870
579.073389	9557.848731
579.427394	9504.941822
579.781344	9483.579932
580.135239	9432.818034
580.489080	9447.770096
580.842866	9343.032563
581.196597	9350.725364
581.550273	9387.251044
581.903895	9356.144604
582.257463	9416.094006
582.610975	9302.504207
582.964434	9326.459770
583.317837	9249.158717
583.671186	9232.268331
584.024481	9217.759890
584.377721	9142.051842
584.730906	9116.959498
585.084037	9155.332761
585.437113	9087.181403
585.790135	9109.881718
586.143103	9006.628805
586.496016	8978.794074
586.848874	9034.032518
587.201679	9025.696970
587.554428	8914.297552
587.907124	8954.737688
588.259765	8928.397659
588.612352	8933.247249
588.964884	8806.056417
589.317362	8827.912340
589.669786	8823.334972
590.022155	8873.055872
590.374470	8880.814208
590.726731	8826.578954
591.078937	8673.796705
591.431090	8793.841701
591.783188	8658.642996
592.135232	8657.952358
592.487222	8655.119230
592.839157	8708.152168
593.191038	8642.823856
593.542866	8586.713293
593.894639	8492.287440
594.246358	8540.921972
594.598022	8556.632728
594.949633	8450.216491
595.301190	8430.442565
595.652692	8455.091286
596.004141	8564.950632
596.355535	8341.713216
596.706876	8324.172521
597.058162	8256.921008
597.409395	8336.959408
597.760573	8401.115652
598.111698	8301.096639
598.462768	8288.148436
598.813785	8254.070236
599.164748	8230.129796
599.515657	8216.551448
599.866511	8128.074157
600.217312	8252.131912
600.568060	8113.248123
600.918753	8216.964823
601.269392	8186.957354
601.619978	8091.064526
601.970510	8161.688571
602.320988	8155.921491
602.671412	8211.215387
603.021783	8148.639544
603.372100	8125.596430
603.722363	8126.448385
604.072572	8100.589786
604.422728	8111.024975
604.772830	8038.548306
605.122878	8042.853451
605.472872	8043.881847
605.822813	8067.237512
606.172701	8017.151128
606.522534	8094.515196
606.872314	8088.428002
607.222041	8062.203920
607.571714	8117.964123
607.921333	8074.211949
608.270899	8083.202847
608.620411	8169.401536
608.969870	8076.404851
609.319276	8073.854027
609.668627	8085.335255
610.017926	8115.347764
610.367171	8167.435486
610.716362	8144.258781
611.065500	8135.038511
611.414585	8158.421903
611.763616	8152.516191
612.112594	8130.632542
612.461518	8144.757856
612.810389	8211.112043
613.159207	8144.800705
613.507971	8092.266841
613.856682	8213.539359
614.205340	8169.577977
614.553945	8252.981346
614.902496	8147.094430
615.250994	8201.853964
615.599439	8179.514091
615.947830	8190.375257
616.296169	8164.090681
616.644454	8182.175820
616.992686	8177.268257
617.340864	8231.417811
617.688990	8137.228892
618.037063	8235.296979
618.385082	8178.236158
618.733048	8267.598172
619.080961	8206.640540
619.428821	8214.172023
619.776628	8222.515133
620.124382	8176.754059
620.472083	8159.815782
620.819731	8189.392232
621.167326	8078.340654
621.514868	8092.844053
621.862357	7984.925552
622.209793	7998.357707
622.557176	7928.023528
622.904506	7901.507059
623.251783	7834.495001
623.599007	7783.418030
623.946179	7791.083105
624.293297	7751.247907
624.640363	7665.180287
624.987376	7644.786299
625.334336	7604.131914
625.681243	7547.151752
626.028097	7539.617748
626.374899	7511.843511
626.721647	7508.871751
627.068343	7436.611851
627.414987	7412.638644
627.761577	7364.639298
628.108115	7402.367293
628.454600	7296.992054
628.801032	7346.917122
629.147412	7306.749208
629.493739	7295.126827
629.840014	7232.301448
630.186236	7287.522247
630.532405	7171.704258
630.878521	7224.023873
631.224585	7180.518715
631.570597	7095.426559
631.916556	7133.804863
632.262462	7135.085316
632.608316	7093.142916
632.954117	7075.904691
633.299866	7055.871145
633.645562	7047.820423
633.991206	6972.349308
634.336797	6914.560041
634.682336	6873.482199
635.027823	6841.183527
635.373257	6829.437638
635.718639	6763.126300
636.063968	6776.336644
636.409245	6670.245561
636.754470	6663.636609
637.099642	6625.396936
637.444762	6570.181178
637.789829	6583.847746
638.134845	6517.677561
638.479808	6504.873030
638.824719	6505.886302
639.169577	6437.185457
639.514383	6458.809487
639.859137	6384.155039
640.203839	6394.819600
640.548489	6380.757302
640.893086	6358.616554
641.237632	6328.636812
641.582125	6347.654565
641.926566	6317.158105
642.270955	6331.210321
642.615292	6327.368962
642.959576	6342.832701
643.303809	6330.696123
643.647990	6340.150807
643.992118	6330.834755
644.336195	6270.819819
644.680219	6305.749974
645.024192	6291.256656
645.368112	6390.874897
645.711981	6413.678557
646.055797	6488.670762
646.399562	6442.639986
646.743274	6570.423153
647.086935	6620.328056
647.430544	6614.475276
647.774101	6642.078114
648.117606	6645.274206
648.461059	6636.830273
648.804460	6602.502536
649.147810	6506.821436
649.491108	6479.082487
649.834354	6454.756399
650.177548	6373.661878
650.520690	6288.476460
650.863781	6264.843531
651.206820	6283.649555
651.549807	6207.061825
651.892742	6144.740561
652.235626	6149.239791
652.578458	6136.576412
652.921238	6045.593668
653.263967	6083.329225
653.606644	6026.061717
653.949269	6028.420977
654.291843	5965.988807
654.634365	6016.060068
654.976836	5970.931659
655.319255	5968.161545
655.661622	5946.734120
656.003938	5946.265293
656.346203	5903.773407
656.688416	5936.334220
657.030577	5890.689092
657.372687	5857.941757
657.714746	5846.727710
658.056753	5892.952570
658.398708	5828.105688
658.740612	5824.375234
659.082465	5865.437953
659.424266	5863.358477
659.766016	5860.530389
660.107715	5830.825390
660.449362	5852.756930
660.790958	5844.433985
661.132503	5827.329350
661.473996	5870.017841
661.815438	5854.778433
662.156829	5855.002764
662.498168	5845.590930
662.839456	5821.085881
663.180693	5857.750193
663.521879	5859.000399
663.863013	5845.013718
664.204097	5861.813363
664.545129	5906.974540
664.886110	5903.975053
665.227040	5933.150731
665.567918	5897.771913
665.908746	5927.623106
666.249522	5936.866062
666.590248	5924.036325
666.930922	5948.042300
667.271545	5959.641995
667.612118	5962.207942
667.952639	5936.044353
668.293109	5957.771727
668.633528	5912.287916
668.973896	5921.863588
669.314213	5914.049799
669.654480	5891.457868
669.994695	5884.102825
670.334859	5875.739551
670.674973	5869.430547
671.015035	5868.003900
671.355047	5869.755701
671.695008	5853.621488
672.034918	5831.528631
672.374777	5846.528585
672.714585	5823.934133
673.054342	5827.440256
673.394049	5819.891128
673.733705	5851.378175
674.073310	5841.890723
674.412864	5803.812368
674.752368	5791.852230
675.091820	5797.503363
675.431223	5730.763528
675.770574	5732.346450
676.109875	5684.321898
676.449125	5690.474626
676.788324	5653.165047
677.127473	5599.441470
677.466571	5593.439976
677.805619	5580.564869
678.144616	5568.808899
678.483562	5547.328542
678.822458	5516.464078
679.161303	5509.038458
679.500098	5498.197457
679.838842	5485.105580
680.177535	5488.405015
680.516179	5498.159648
680.854771	5511.579200
681.193314	5595.398465
681.531805	5697.181881
681.870247	5845.482545
682.208638	5956.123269
682.546978	5969.986442
682.885268	5946.955931
683.223508	5860.467375
683.561697	5803.887985
683.899836	5778.941835
684.237925	5731.822170
684.575963	5693.552251
684.913951	5656.030942
685.251889	5715.622422
685.589776	5685.662845
685.927614	5655.131097
686.265401	5725.119956
686.603137	5710.102359
686.940824	5787.935253
687.278460	5810.350744
687.616046	5825.133928
687.953582	5890.656325
688.291068	5868.853334
688.628504	5937.854128
688.965889	5894.729577
689.303224	5839.171021
689.640510	5795.628054
689.977745	5718.586621
690.314930	5614.151557
690.652065	5561.622734
690.989150	5473.394980
691.326185	5397.646602
691.663170	5337.608980
692.000105	5268.983753
692.336990	5188.418553
692.673825	5166.257641
693.010610	5093.309624
693.347345	5025.543913
693.684030	5012.489845
694.020665	4968.742712
694.357251	4879.005133
694.693786	4889.909148
695.030272	4855.873798
695.366707	4822.440866
695.703093	4786.106750
696.039429	4811.735976
696.375716	4792.695538
696.711952	4764.611270
697.048139	4751.030401
697.384276	4737.822578
697.720363	4744.857508
698.056400	4753.878653
698.392388	4703.230180
698.728326	4687.156461
699.064214	4661.711237
699.400053	4657.948016
699.735842	4622.228920
700.071581	4595.936783
700.407270	4575.719235
700.742910	4554.687541
701.078501	4499.958254
701.414042	4497.727544
701.749533	4468.259479
702.084974	4404.461157
702.420366	4458.615752
702.755709	4400.924787
703.091002	4343.095191
703.426246	4393.615114
703.761440	4352.489381
704.096584	4314.728618
704.431679	4336.697967
704.766725	4319.653825
705.101721	4308.631343
705.436668	4338.482535
705.771565	4286.241058
706.106413	4310.655366
706.441212	4346.427393
706.775961	4354.369731
707.110661	4331.724868
707.445311	4360.378787
707.779913	4385.216552
708.114465	4395.220722
708.448967	4417.941202
708.783421	4479.256756
709.117825	4518.822252
709.452180	4529.580074
709.786485	4570.085746
710.120742	4656.176050
710.454949	4641.990243
710.789107	4707.822672
711.123216	4780.223723
711.457275	4773.019914
711.791286	4847.898693
712.125247	4863.596846
712.459159	4767.945993
712.793023	4844.881562
713.126837	4802.177948
713.460602	4793.212256
713.794318	4714.643353
714.127985	4724.314806
714.461602	4636.780211
714.795171	4608.085963
715.128691	4540.073236
715.462162	4487.662880
715.795584	4434.670271
716.128957	4418.775513
716.462281	4366.705435
716.795556	4341.696271
717.128782	4304.467349
717.461960	4234.702821
717.795088	4241.583996
718.128167	4201.456412
718.461198	4143.001712
718.794180	4140.990292
719.127113	4119.825008
719.459997	4098.853808
719.792833	4060.586409
720.125619	4045.835992
720.458357	4009.196886
720.791046	4018.404554
721.123686	3991.736850
721.456278	3946.036270
721.788821	3963.667705
722.121315	3936.543777
722.453761	3912.573091
722.786158	3927.885595
723.118506	3949.174388
723.450805	3901.195206
723.783056	3919.849996
724.115259	3938.063685
724.447412	3941.153912
724.779518	3933.975309
725.111574	3939.626443
725.443582	3968.809682
725.775542	3953.986169
726.107453	4002.371164
726.439315	4003.694467
726.771129	4020.010161
727.102895	4055.051222
727.434612	4100.792131
727.766281	4112.779995
728.097901	4118.166468
728.429473	4121.624699
728.760996	4127.308600
729.092471	4122.524545
729.423897	4107.968214
729.755276	4112.689254
730.086606	4113.954584
730.417887	4150.223165
730.749120	4217.111715
731.080305	4279.531282
731.411442	4307.797032
731.742530	4275.793266
732.073570	4281.905665
732.404562	4332.780990
732.735506	4324.644568
733.066401	4292.061070
733.397249	4226.147983
733.728048	4149.091426
734.058798	4061.945000
734.389501	3994.650637
734.720156	3929.483641
735.050762	3884.216600
735.381320	3879.359448
735.711831	3827.700224
736.042293	3800.934218
736.372707	3819.498267
736.703073	3793.110347
737.033391	3783.199439
737.363661	3802.633087
737.693883	3827.087724
738.024056	3838.793283
738.354182	3832.885051
738.684260	3894.480389
739.014290	3917.130294
739.344272	3912.762134
739.674207	3954.054225
740.004093	3959.203764
740.333931	3953.920634
740.663722	3954.979277
740.993464	3954.467600
741.323159	3925.065070
741.652806	3901.341400
741.982405	3873.461298
742.311956	3836.799507
742.641460	3831.105524
742.970915	3806.023263
743.300323	3764.791666
743.629683	3732.669433
743.958996	3721.024368
744.288260	3693.855069
744.617477	3663.046057
744.946647	3648.666166
745.275768	3623.052063
745.604842	3621.534676
745.933869	3573.424424
746.262847	3563.009401
746.591778	3603.915843
746.920662	3574.311668
747.249498	3541.012326
747.578286	3587.630396
747.907027	3602.421141
748.235720	3603.782253
748.564365	3630.139926
748.892963	3631.495996
749.221514	3610.539920
749.550017	3587.108637
749.878473	3586.712906
750.206881	3554.736867
750.535242	3552.516239
750.863555	3553.879871
751.191821	3549.093295
751.520039	3529.284081
751.848210	3509.132069
752.176334	3544.210938
752.504411	3549.824263
752.832440	3509.124507
753.160421	3489.085921
753.488356	3498.896006
753.816243	3513.336391
754.144082	3470.194197
754.471875	3450.647123
754.799620	3473.483549
755.127318	3463.822178
755.454969	3468.326449
755.782572	3469.037252
756.110129	3450.571505
756.437638	3440.600103
756.765100	3451.224335
757.092515	3463.134061
757.419882	3468.160091
757.747203	3441.066410
758.074477	3440.153961
758.401703	3460.976447
758.728882	3477.597131
759.056014	3487.724809
759.383099	3489.837053
759.710138	3486.202381
760.037129	3503.059999
760.364073	3535.320863
760.690970	3521.067001
761.017820	3493.562465
761.344623	3512.562574
761.671379	3558.626117
761.998088	3613.294910
762.324751	3739.759816
762.651366	3984.432218
762.977935	4459.661791
763.304456	4901.576899
763.630931	4996.025437
763.957359	4630.645127
764.283740	4296.368736
764.610074	4103.907564
764.936362	3909.853388
765.262602	3745.569746
765.588796	3635.050010
765.914943	3545.819066
766.241044	3455.007721
766.567097	3427.672064
766.893104	3381.716905
767.219064	3348.097450
767.544978	3322.702638
767.870845	3269.561315
768.196665	3248.010382
768.522438	3258.997577
768.848165	3251.153541
769.173846	3216.659446
769.499479	3200.434492
769.825066	3181.285670
770.150607	3166.689009
770.476101	3185.462266
770.801548	3175.533713
771.126949	3131.224491
771.452303	3112.879732
771.777611	3122.435240
772.102872	3128.406486
772.428087	3102.096704
772.753256	3092.425251
773.078378	3084.412337
773.403453	3051.501164
773.728482	3037.078423
774.053465	3058.415106
774.378401	3046.870864
774.703291	3013.810977
775.028135	3018.088396
775.352932	3010.128414
775.677683	3002.042403
776.002388	2996.489573
776.327046	2998.029645
776.651658	2986.808037
776.976224	2975.462920
777.300743	2974.636171
777.625216	2964.773153
777.949643	2961.471197
778.274024	2963.341465
778.598359	2953.486010
778.922647	2957.715538
779.246889	2956.813171
779.571086	2944.003599
779.895236	2935.277362
780.219339	2944.356480
780.543397	2959.890796
780.867409	2962.751650
781.191374	2955.053808
781.515294	2953.811164
781.839167	2953.680094
782.162995	2943.345729
782.486776	2951.759414
782.810511	2954.244703
783.134201	2935.673093
783.457844	2944.079217
783.781441	2937.061930
784.104993	2913.136614
784.428498	2913.169382
784.751958	2928.507092
785.075372	2924.582554
785.398739	2907.170409
785.722061	2923.344951
786.045337	2932.625715
786.368568	2919.105340
786.691752	2910.394227
787.014891	2959.444653
787.337983	2988.905157
787.661030	3018.625279
787.984031	3083.144487
788.306987	3128.343472
788.629897	3122.873820
788.952760	3105.383537
789.275579	3091.409458
789.598351	3031.265972
789.921078	2987.110506
790.243759	2979.800833
790.566395	2962.169397
790.888984	2937.069492
791.211529	2919.869075
791.534027	2914.389341
791.856480	2900.765623
792.178888	2886.305073
792.501249	2879.824670
792.823566	2874.365100
793.145836	2871.801673
793.468062	2867.365458
793.790241	2864.575179
794.112375	2873.437528
794.434464	2886.080742
794.756507	2886.698283
795.078505	2895.784963
795.400457	2908.271901
795.722364	2945.210956
796.044226	2970.562918
796.366042	2976.178764
796.687812	2961.940025
797.009538	2981.986173
797.331218	2970.885552
797.652852	2955.847790
797.974442	2934.876590
798.295986	2933.465067
798.617484	2929.399377
798.938938	2911.596542
799.260346	2898.103893
799.581709	2891.406721
799.903026	2882.395658
800.224299	2877.979607
800.545526	2871.307640
800.866708	2853.686287
801.187845	2844.781089
801.508936	2845.164216
801.829983	2852.388190
802.150984	2839.676920
802.471940	2826.781649
802.792851	2825.959941
803.113717	2828.301557
803.434538	2830.161742
803.755314	2824.550938
804.076045	2822.431133
804.396731	2820.102120
804.717372	2818.183961
805.037967	2811.088537
805.358518	2822.249652
805.679024	2830.131496
805.999485	2825.259220
806.319901	2833.473781
806.640272	2821.375011
806.960598	2827.525219
807.280879	2837.559636
807.601115	2844.415605
807.921306	2832.926815
808.241453	2831.321208
808.561554	2833.693071
808.881611	2838.504852
809.201623	2831.532936
809.521590	2828.644355
809.841513	2827.086639
810.161390	2831.396825
810.481223	2823.532625
810.801011	2814.710606
811.120755	2812.558033
811.440453	2811.116263
811.760107	2812.540389
812.079716	2809.682055
812.399281	2798.949438
812.718801	2793.772173
813.038276	2792.466515
813.357707	2796.310394
813.677093	2802.745427
813.996434	2796.128913
814.315731	2792.711011
814.634983	2788.088272
814.954191	2788.436112
815.273354	2805.949081
815.592473	2813.195739
815.911547	2815.355874
816.230577	2822.113540
816.549562	2831.855570
816.868502	2828.924139
817.187399	2839.364369
817.506250	2857.845239
817.825058	2849.643282
818.143821	2860.895137
818.462539	2878.392982
818.781213	2906.197466
819.099843	2941.888835
819.418429	3000.204903
819.736970	3060.943245
820.055466	3132.693988
820.373919	3240.804052
820.692327	3380.728839
821.010691	3546.691186
821.329011	3993.385307
821.647286	4892.573398
821.965517	6270.091372
822.283704	7012.517222
822.601847	6991.614078
822.919945	6366.211052
823.237999	5857.672055
823.556010	5276.613539
823.873976	4722.822625
824.191897	4311.759378
824.509775	4014.943802
824.827609	3748.133173
825.145398	3620.319758
825.463144	3612.601752
825.780845	3701.736913
826.098502	3810.000733
826.416116	4088.579936
826.733685	4403.596599
827.051210	4470.996826
827.368692	4356.847458
827.686129	4087.740584
828.003522	3761.232611
828.320872	3505.131913
828.638177	3306.540699
828.955439	3171.089936
829.272656	3086.874940
829.589830	3018.239631
829.906960	2971.634163
830.224046	2923.690270
830.541088	2890.471587
830.858086	2876.817621
831.175041	2857.520084
831.491952	2861.051413
831.808819	2870.279245
832.125642	2896.258831
832.442421	2938.269287
832.759157	3022.325486
833.075849	3198.377702
833.392497	3482.648367
833.709101	3687.881302
834.025662	3633.799803
834.342179	3475.615958
834.658653	3300.093063
834.975083	3153.271978
835.291469	3050.288766
835.607811	2970.129379
835.924110	2909.002868
836.240366	2858.503109
836.556578	2816.651450
836.872746	2789.645989
837.188871	2768.014398
837.504952	2752.313724
837.820990	2745.959350
838.136984	2732.340673
838.452935	2725.373798
838.768842	2721.038406
839.084706	2740.812332
839.400526	2818.103302
839.716303	2951.908128
840.032037	3031.117258
840.347727	3016.823067
840.663373	2957.985239
840.978977	2882.776265
841.294537	2810.045018
841.610054	2760.593819
841.925527	2739.115983
842.240957	2715.684700
842.556344	2695.439427
842.871687	2679.257323
843.186987	2668.912875
843.502244	2666.820796
843.817458	2661.590599
844.132629	2649.146511
844.447756	2641.113432
844.762840	2634.471712
845.077881	2637.438431
845.392879	2633.443317
845.707833	2631.328552
846.022745	2624.613736
846.337613	2627.356123
846.652438	2622.650206
846.967221	2625.337141
847.281960	2621.750360
847.596656	2622.456122
847.911309	2622.070473
848.225919	2615.910183
848.540485	2615.648043
848.855009	2615.080914
849.169490	2612.618310
849.483928	2613.739967
849.798323	2614.730553
850.112675	2614.498660
850.426984	2614.070162
850.741251	2609.550768
851.055474	2611.075717
851.369654	2617.687190
851.683792	2617.299021
851.997887	2614.234000
852.311938	2612.388937
852.625947	2613.997066
852.939914	2615.592591
853.253837	2614.733074
853.567718	2612.666201
853.881555	2612.474637
854.195350	2615.446397
854.509103	2617.435132
854.822812	2609.659153
855.136479	2612.837600
855.450103	2612.686366
855.763685	2616.169803
856.077224	2614.730553
856.390720	2607.403236
856.704173	2613.039246
857.017584	2615.325410
857.330953	2619.320524
857.644278	2620.238014
857.957561	2618.183744
858.270802	2616.502519
858.584000	2616.318517
858.897155	2622.047788
859.210268	2620.790020
859.523339	2614.715430
859.836367	2612.020933
860.149352	2614.034874
860.462295	2611.443721
860.775195	2610.523711
861.088054	2608.255191
861.400869	2608.746704
861.713642	2605.255705
862.026373	2606.773092
862.339062	2610.460696
862.651708	2616.139556
862.964312	2617.062087
863.276873	2616.817591
863.589392	2617.427571
863.901869	2618.466048
864.214303	2624.742285
864.526696	2632.687143
864.839045	2631.573048
865.151353	2632.117493
865.463619	2634.413739
865.775842	2633.082874
866.088023	2633.481125
866.400162	2633.665127
866.712258	2633.034983
867.024313	2631.104221
867.336325	2627.015845
867.648296	2629.400311
867.960224	2636.652011
868.272110	2632.263687
868.583954	2627.121710
868.895755	2627.499796
869.207515	2632.737555
869.519233	2640.112763
869.830909	2637.350211
870.142542	2630.373254
870.454134	2634.353245
870.765684	2637.776188
871.077191	2639.608648
871.388657	2644.664925
871.700081	2641.615027
872.011463	2642.456900
872.322803	2642.509832
872.634101	2648.750780
872.945357	2653.691111
873.256571	2658.031544
873.567744	2655.198416
873.878874	2657.048519
874.189963	2655.775628
874.501010	2661.401556
874.812015	2667.181239
875.122979	2667.264418
875.433900	2658.921308
875.744780	2657.204795
876.055618	2662.434992
876.366415	2666.977072
876.677169	2668.428924
876.987882	2661.754437
877.298554	2658.918787
877.609183	2669.822803
877.919771	2678.037363
878.230317	2682.939886
878.540822	2696.661906
878.851285	2708.259081
879.161707	2733.790004
879.472087	2771.291148
879.782425	2819.212356
880.092722	2933.956580
880.402977	3122.757873
880.713191	3385.013820
881.023363	3674.585259
881.333494	3869.793859
881.643583	4042.274417
881.953631	4040.691495
882.263637	3864.024258
882.573602	3639.314826
882.883526	3509.454703
883.193408	3395.509502
883.503248	3294.467135
883.813048	3179.879188
884.122806	3062.286712
884.432522	2981.139259
884.742197	2915.591656
885.051831	2878.488764
885.361424	2841.799246
885.670975	2805.024029
885.980485	2774.081427
886.289954	2756.956627
886.599382	2741.961715
886.908768	2731.531567
887.218113	2710.867878
887.527417	2696.082174
887.836680	2689.175793
888.145901	2685.006759
888.455082	2676.908145
888.764221	2664.585044
889.073319	2658.666730
889.382376	2657.257727
889.691392	2656.083138
890.000366	2660.635300
890.309300	2655.470638
890.618193	2658.447440
890.927044	2662.800476
891.235855	2662.555980
891.544625	2661.305774
891.853353	2660.688232
892.162041	2667.488749
892.470687	2689.793334
892.779293	2699.931095
893.087858	2709.186653
893.396381	2730.472925
893.704864	2773.786519
894.013306	2843.762776
894.321707	2938.438165
894.630068	2989.121926
894.938387	3007.476767
895.246665	3002.644821
895.554903	2958.743933
895.863100	2914.976635
896.171256	2857.159642
896.479371	2795.831485
896.787446	2756.228180
897.095480	2734.833523
897.403473	2728.726165
897.711425	2713.690924
898.019336	2696.939170
898.327207	2681.021727
898.635038	2681.535924
898.942827	2676.991324
899.250576	2668.222237
899.558284	2658.933911
899.865952	2652.561892
900.173579	2652.279588
900.481165	2648.942344
900.788711	2642.071251
901.096216	2638.134110
901.403681	2633.753347
901.711105	2634.590179
902.018489	2629.362502
902.325832	2630.378295
902.633135	2634.612864
902.940397	2650.157262
903.247619	2687.199661
903.554800	2757.775814
903.861941	2882.715771
904.169041	3011.839886
904.476101	3070.692837
904.783121	3067.259811
905.090100	3007.108763
905.397039	2934.780808
905.703938	2859.614684
906.010796	2798.551187
906.317614	2747.895153
906.624391	2711.934082
906.931129	2682.944927
907.237826	2658.654127
907.544483	2643.898670
907.851099	2626.753705
908.157675	2617.719958
908.464211	2613.303907
908.770707	2601.648759
909.077163	2594.840681
909.383578	2593.817327
909.689954	2590.477562
909.996289	2588.564444
910.302584	2590.626276
910.608839	2586.762232
910.915054	2588.183837
911.221229	2589.008066
911.527363	2589.542428
911.833458	2590.081832
912.139513	2593.963520
912.445527	2591.904209
912.751502	2600.756475
913.057436	2603.065323
913.363331	2610.611931
913.669186	2620.661471
913.975000	2634.806949
914.280775	2648.476037
914.586510	2670.387412
914.892205	2707.341591
915.197859	2773.441200
915.503475	2856.206864
915.809050	2923.660023
916.114585	2937.124945
916.420081	2953.692697
916.725536	2960.044551
917.030952	2936.194852
917.336328	2888.641648
917.641665	2843.546006
917.946961	2791.070115
918.252218	2754.872110
918.557435	2729.439489
918.862612	2708.657332
919.167750	2687.744105
919.472848	2671.551919
919.777906	2655.213539
920.082925	2644.816160
920.387904	2633.511372
920.692843	2629.009622
920.997743	2624.490227
921.302603	2615.950513
921.607423	2612.061262
921.912204	2603.347628
922.216946	2600.300251
922.521647	2600.370827
922.826310	2597.305805
923.130932	2592.131061
923.435516	2584.249217
923.740059	2581.733681
924.044564	2580.370049
924.349028	2580.160841
924.653454	2573.176322
924.957840	2569.609706
925.262186	2566.930333
925.566493	2567.520148
925.870761	2564.928995
926.174989	2565.256670
926.479178	2563.540157
926.783328	2562.940259
927.087438	2561.753068
927.391509	2566.002760
927.695541	2556.969013
927.999533	2556.900957
928.303486	2555.653272
928.607400	2556.752243
928.911275	2558.262069
929.215110	2557.039589
929.518906	2552.953734
929.822663	2554.430792
930.126381	2555.890206
930.430060	2557.019424
930.733699	2553.374670
931.037299	2559.287943
931.340861	2553.740154
931.644383	2557.586554
931.947866	2558.085628
932.251309	2556.248128
932.554714	2553.457849
932.858080	2557.175700
933.161407	2557.082439
933.464694	2554.924825
933.767943	2555.144115
934.071153	2554.511450
934.374323	2554.123281
934.677455	2552.817623
934.980548	2552.608415
935.283602	2552.845349
935.586617	2553.334341
935.889593	2552.684032
936.192530	2552.837787
936.495428	2553.510781
936.798287	2554.539177
937.101108	2557.601677
937.403890	2557.329455
937.706632	2561.299364
938.009336	2564.492935
938.312002	2565.894376
938.614628	2568.752710
938.917216	2574.212279
939.219765	2575.374265
939.522275	2576.798391
939.824747	2572.977197
940.127179	2569.657597
940.429573	2566.950497
940.731929	2568.064592
941.034246	2562.927657
941.336524	2563.968655
941.638763	2566.741289
941.940964	2564.437482
942.243126	2563.126782
942.545250	2561.813562
942.847335	2560.923798
943.149381	2559.676112
943.451389	2560.255845
943.753359	2556.661502
944.055290	2557.682336
944.357182	2556.086811
944.659036	2556.006152
944.960851	2556.953889
945.262628	2558.171328
945.564367	2557.679815
945.866067	2557.001780
946.167729	2558.435988
946.469352	2559.197203
946.770937	2557.891544
947.072484	2555.897767
947.373992	2555.817109
947.675462	2554.740823
947.976893	2558.609908
948.278286	2551.995914
948.579641	2552.232849
948.880958	2552.391645
949.182236	2552.777293
949.483476	2552.346275
949.784678	2551.713610
950.085841	2551.559855
950.386967	2554.108158
950.688054	2552.444577
950.989103	2554.821481
951.290114	2552.825184
951.591087	2556.981616
951.892021	2555.933056
952.192917	2557.382387
952.493776	2557.662171
952.794596	2561.231308
953.095378	2558.728375
953.396122	2562.113510
953.696828	2558.836760
953.997496	2557.526060
954.298126	2555.592778
954.598718	2555.199568
954.899272	2553.122612
955.199788	2553.019269
955.500266	2550.917107
955.800706	2547.763866
956.101108	2543.753628
956.401472	2545.039122
956.701798	2542.947043
957.002087	2542.417722
957.302337	2544.547610
957.602550	2544.940820
957.902724	2541.863195
958.202861	2541.901004
958.502960	2541.464944
958.803022	2541.961498
959.103045	2540.318082
959.403031	2543.488967
959.702979	2539.178781
960.002889	2541.396888
960.302762	2541.563247
960.602596	2541.984183
960.902393	2541.903524
961.202153	2538.208359
961.501875	2539.947557
961.801559	2539.493853
962.101205	2537.875643
962.400814	2538.941847
962.700385	2536.925385
962.999918	2539.173740
963.299414	2538.999820
963.598873	2539.012423
963.898293	2535.637370
964.197677	2536.968235
964.497022	2537.898328
964.796331	2537.847916
965.095601	2536.393543
965.394835	2538.808256
965.694030	2536.118800
965.993189	2537.416897
966.292309	2534.198121
966.591393	2536.164171
966.890439	2536.723739
967.189447	2538.359593
967.488419	2537.865560
967.787353	2539.841693
968.086249	2536.007895
968.385108	2536.915303
968.683930	2536.073430
968.982714	2537.800025
969.281462	2537.154757
969.580172	2536.529654
969.878844	2536.086033
970.177480	2536.335570
970.476078	2537.769778
970.774639	2541.538041
971.073162	2539.587114
971.371649	2536.549819
971.670098	2533.951104
971.968510	2535.965045
972.266885	2534.364479
972.565223	2537.656352
972.863524	2538.072248
973.161788	2540.111394
973.460014	2537.558050
973.758204	2536.474202
974.056356	2534.407329
974.354471	2539.090561
974.652550	2539.413194
974.950591	2538.394881
975.248595	2534.009077
975.546563	2537.502597
975.844493	2538.682227
976.142386	2536.963194
976.440243	2537.893287
976.738062	2538.162988
977.035845	2537.873122
977.333590	2536.726259
977.631299	2539.264480
977.928971	2536.673327
978.226606	2537.343801
978.524204	2535.985210
978.821765	2538.112577
979.119290	2535.856660
979.416777	2534.419932
979.714228	2534.591331
980.011642	2538.107536
980.309020	2537.434542
980.606360	2535.909592
980.903664	2538.604089
981.200931	2537.807587
981.498162	2537.706764
981.795356	2540.398740
982.092513	2544.663556
982.389633	2546.725388
982.686717	2547.501726
982.983764	2552.792417
983.280775	2553.122612
983.577749	2554.566903
983.874686	2553.442726
984.171587	2548.451983
984.468451	2545.777651
984.765279	2543.637681
985.062070	2542.432846
985.358824	2541.036446
985.655543	2539.612320
985.952224	2537.346321
986.248869	2537.416897
986.545478	2534.119983
986.842050	2534.611495
987.138586	2530.782739
987.435086	2534.553522
987.731549	2530.513037
988.027975	2535.264325
988.324366	2536.728780
988.620719	2533.744417
988.917037	2533.174767
989.213318	2534.908923
989.509563	2533.545291
989.805772	2534.288862
990.101944	2532.451361
990.398080	2534.253573
990.694180	2535.062679
990.990244	2531.962369
991.286271	2535.120652
991.582262	2530.684437
991.878217	2532.718542
992.174136	2535.536547
992.470019	2533.260466
992.765865	2533.472195
993.061676	2532.683254
993.357450	2534.130065
993.653188	2534.324150
993.948890	2536.169212
994.244556	2535.942360
994.540186	2535.488656
994.835780	2536.297761
995.131337	2536.254912
995.426859	2537.043852
995.722345	2532.811803
996.017795	2534.906403
996.313208	2537.651311
996.608586	2538.813297
996.903928	2537.623585
997.199234	2539.055273
997.494504	2539.203987
997.789738	2538.215920
998.084936	2538.475540
998.380099	2534.631660
998.675225	2536.358255
998.970316	2535.423121
999.265371	2536.101156
999.560390	2535.281969
999.855373	2535.526465
1000.150320	2535.655014
1000.445232	2531.901875
1000.740108	2535.637370
1001.034948	2531.339787
1001.329752	2536.176774
1001.624521	2534.687113
1001.919254	2528.352903
1002.213951	2530.359282
1002.508613	2528.166380
1002.803239	2531.911957
1003.097829	2529.663603
1003.392384	2532.005219
1003.686903	2533.923378
1003.981386	2535.057638
1004.275834	2531.145702
1004.570246	2532.342976
1004.864623	2531.601927
1005.158964	2535.062679
1005.453270	2531.901875
1005.747540	2530.959179
1006.041775	2531.569159
1006.335974	2531.765764
1006.630138	2531.317101
1006.924266	2533.378933
1007.218359	2532.191742
1007.512416	2534.707277
1007.806438	2531.939684
1008.100425	2533.837678
1008.394376	2532.768954
1008.688292	2530.689478
1008.982172	2532.037986
1009.276017	2529.686288
1009.569827	2532.005219
1009.863602	2529.814837
1010.157341	2532.897503
1010.451045	2530.301309
1010.744714	2532.592513
1011.038347	2534.694674
1011.331945	2531.443130
1011.625508	2531.622091
1011.919036	2529.749303
1012.212528	2532.758871
1012.505986	2531.738038
1012.799408	2533.462112
1013.092795	2529.882893
1013.386147	2532.564787
1013.679464	2531.387678
1013.972745	2528.983047
1014.265992	2530.460105
1014.559204	2532.128727
1014.852380	2531.473377
1015.145521	2534.046886
1015.438628	2532.116124
1015.731699	2531.780887
1016.024736	2529.313243
1016.317737	2530.124868
1016.610703	2528.657893
1016.903635	2528.718387
1017.196531	2526.480114
1017.489393	2526.875845
1017.782219	2528.040351
1018.075011	2529.386339
1018.367768	2528.536905
1018.660490	2531.047400
1018.953177	2531.047400
1019.245829	2531.047400
