Dividing Wavelength (nm)	Counts (n)	Blue Motor Position (mm): 24.600000	Red Motor Position (mm): 0.000000	
326.493990	2058.194731
326.888308	2058.194731
327.282561	2058.194731
327.676750	2033.914013
328.070874	2036.424508
328.464933	2039.633202
328.858929	2048.470345
329.252859	2058.693805
329.646726	2073.686196
330.040528	2089.328897
330.434265	2107.479571
330.827938	2128.559156
331.221547	2151.050264
331.615091	2168.291010
332.008571	2190.827488
332.401986	2208.123687
332.795338	2228.784856
333.188625	2251.628845
333.581847	2269.257760
333.975006	2284.913063
334.368100	2304.923923
334.761129	2319.659216
335.154095	2335.702688
335.546996	2386.739330
335.939833	2487.511995
336.332606	2493.437871
336.725315	2509.627537
337.117960	2522.522808
337.510540	2527.732841
337.903056	2537.492515
338.295508	2546.029709
338.687896	2554.519012
339.080220	2556.200237
339.472480	2561.319528
339.864676	2565.183573
340.256807	2570.353276
340.648875	2569.087947
341.040879	2570.058369
341.432818	2572.914182
341.824694	2574.013154
342.216506	2572.047104
342.608253	2570.917885
342.999937	2570.726322
343.391557	2572.082392
343.783113	2570.060889
344.174605	2566.327915
344.566033	2565.158367
344.957397	2566.070816
345.348697	2563.028480
345.739934	2560.240722
346.131106	2561.238870
346.522215	2556.190154
346.913260	2560.951524
347.304241	2557.122768
347.695159	2556.031358
348.086012	2551.060780
348.476802	2549.485420
348.867528	2546.460727
349.258191	2539.728267
349.648789	2541.467465
350.039324	2541.553164
350.429796	2546.715306
350.820203	2544.812270
351.210548	2544.703885
351.600828	2539.965201
351.991045	2541.432177
352.381198	2539.929913
352.771288	2539.866898
353.161314	2538.571322
353.551276	2537.608461
353.941175	2537.341280
354.331010	2538.294058
354.720782	2542.770603
355.110490	2547.534493
355.500135	2539.425797
355.889717	2541.989224
356.279235	2541.863195
356.668689	2539.153575
357.058080	2540.610468
357.447408	2541.132228
357.836672	2541.129707
358.225873	2541.419574
358.615010	2542.644574
359.004084	2543.882177
359.393095	2545.548279
359.782043	2544.572815
360.170927	2546.533824
360.559748	2544.398896
360.948505	2548.363763
361.337199	2550.216387
361.725830	2549.954247
362.114398	2547.877292
362.502903	2548.716644
362.891344	2549.629093
363.279722	2547.854607
363.668037	2552.910884
364.056289	2550.912066
364.444478	2554.382901
364.832603	2551.151521
365.220665	2553.687222
365.608665	2551.879968
365.996601	2550.143290
366.384474	2553.435164
366.772284	2552.585729
367.160031	2553.228477
367.547715	2554.609753
367.935336	2551.595143
368.322893	2550.680173
368.710388	2549.266130
369.097820	2554.055226
369.485189	2550.022303
369.872495	2556.447253
370.259738	2554.987839
370.646918	2554.818961
371.034035	2558.907336
371.421090	2556.548076
371.808081	2554.546738
372.195010	2556.091852
372.581875	2556.774928
372.968678	2560.104610
373.355418	2556.681667
373.742096	2555.630586
374.128710	2557.495813
374.515262	2560.044117
374.901751	2560.396997
375.288177	2561.193500
375.674540	2558.456153
376.060841	2560.563355
376.447079	2559.678633
376.833254	2560.641493
377.219367	2559.292985
377.605417	2561.647203
377.991404	2560.364230
378.377329	2561.816082
378.763191	2560.744837
379.148991	2560.717111
379.534727	2562.181566
379.920402	2560.117213
380.306013	2562.221895
380.691563	2563.913202
381.077049	2562.690722
381.462474	2560.288612
381.847835	2565.387740
382.233134	2566.920250
382.618371	2563.509910
383.003545	2566.945456
383.388657	2564.261042
383.773706	2565.652400
384.158693	2567.036197
384.543618	2566.174160
384.928480	2566.534602
385.313280	2568.112483
385.698017	2566.169118
386.082692	2564.865980
386.467305	2571.059038
386.851856	2569.377813
387.236344	2567.600806
387.620770	2566.214489
388.005133	2564.472770
388.389435	2565.909499
388.773674	2564.482853
389.157851	2570.849830
389.541965	2569.831517
389.926018	2566.993347
390.310008	2569.796229
390.693936	2569.128276
391.077802	2569.748338
391.461606	2572.455437
391.845348	2570.154151
392.229027	2572.213462
392.612645	2569.466033
392.996200	2570.643142
393.379694	2572.460478
393.763125	2571.853019
394.146494	2571.870663
394.529801	2574.038360
394.913047	2574.020716
395.296230	2573.219172
395.679351	2571.656414
396.062410	2572.142886
396.445408	2572.006775
396.828343	2572.372258
397.211217	2573.249419
397.594028	2575.097002
397.976778	2574.592887
398.359466	2574.981055
398.742092	2574.517269
399.124656	2575.709502
399.507158	2575.306210
399.889598	2576.546334
400.271977	2577.645305
400.654294	2579.654205
401.036549	2575.550706
401.418742	2577.345357
401.800874	2578.106571
402.182944	2575.462486
402.564952	2577.978021
402.946898	2576.412743
403.328783	2577.380645
403.710606	2577.746128
404.092367	2579.455079
404.474067	2579.429874
404.855705	2577.095819
405.237282	2579.613876
405.618797	2580.997672
406.000250	2580.758218
406.381642	2583.175451
406.762972	2579.298804
407.144240	2577.738567
407.525447	2581.930286
407.906593	2578.653536
408.287677	2583.019175
408.668700	2583.949268
409.049661	2584.143353
409.430560	2584.758373
409.811399	2583.598908
410.192176	2585.456573
410.572891	2583.251068
410.953545	2585.595205
411.334138	2584.594536
411.714669	2585.564958
412.095139	2583.777869
412.475547	2585.247365
412.855894	2585.701069
413.236180	2587.457911
413.616405	2586.099320
413.996568	2585.411203
414.376670	2583.603949
414.756711	2584.768456
415.136691	2585.733837
415.516609	2586.807602
415.896466	2587.926738
416.276262	2585.471697
416.655997	2587.203333
417.035670	2588.801379
417.415283	2587.830957
417.794834	2589.161821
418.174324	2586.502612
418.553753	2588.544280
418.933121	2587.740216
419.312428	2587.669640
419.691674	2585.668302
420.070859	2589.187027
420.449983	2590.510330
420.829045	2590.011256
421.208047	2589.403797
421.586988	2586.923549
421.965867	2589.408838
422.344686	2590.409507
422.723444	2592.990577
423.102141	2591.339600
423.480777	2590.210381
423.859352	2589.754157
424.237866	2592.582244
424.616319	2593.532502
424.994712	2592.592326
425.373044	2589.849939
425.751314	2593.043510
426.129524	2588.655185
426.507673	2589.938159
426.885762	2586.870617
427.263789	2593.401432
427.641756	2591.831112
428.019662	2595.732965
428.397508	2595.226329
428.775292	2596.887389
429.153016	2597.320929
429.530679	2592.821699
429.908282	2597.063830
430.285824	2597.754468
430.663305	2597.119282
431.040726	2595.768253
431.418086	2595.790938
431.795385	2597.996443
432.172624	2596.501741
432.549802	2594.679364
432.926920	2598.225816
433.303977	2598.881166
433.680974	2600.363265
434.057910	2599.758327
434.434786	2599.425610
434.811601	2598.031731
435.188355	2601.394181
435.565050	2598.450147
435.941683	2596.191710
436.318257	2601.517689
436.694770	2602.319233
437.071222	2602.641867
437.447614	2600.086002
437.823946	2601.174891
438.200218	2601.880652
438.576429	2605.389295
438.952580	2604.096239
439.328670	2603.050200
439.704700	2602.674634
440.080670	2603.897114
440.456580	2604.050869
440.832429	2606.339553
441.208218	2605.926178
441.583947	2607.249481
441.959616	2607.267125
442.335224	2608.086313
442.710773	2610.551437
443.086261	2611.557147
443.461689	2609.394492
443.837057	2608.703854
444.212365	2612.835080
444.587612	2611.365583
444.962800	2611.536982
445.337927	2613.029164
445.712995	2609.906169
446.088002	2615.653085
446.462949	2617.190637
446.837837	2617.528394
447.212664	2616.875564
447.587431	2623.643313
447.962139	2625.037192
448.336786	2628.540794
448.711374	2628.455095
449.085901	2626.854528
449.460369	2626.846967
449.834776	2630.098511
450.209124	2633.332411
450.583412	2632.291413
450.957640	2634.885087
451.331808	2637.299799
451.705917	2636.858698
452.079965	2638.300468
452.453954	2639.303658
452.827883	2642.184677
453.201752	2646.746922
453.575562	2646.966212
453.949311	2654.855617
454.323001	2655.631955
454.696632	2660.325269
455.070202	2665.873059
455.443713	2669.243071
455.817164	2674.478309
456.190556	2683.297807
456.563888	2688.603622
456.937160	2695.890610
457.310373	2698.900179
457.683526	2705.108360
458.056619	2711.797971
458.429653	2717.469269
458.802628	2730.692215
459.175542	2739.582290
459.548398	2758.474014
459.921194	2778.003444
460.293930	2800.171918
460.666607	2831.729541
461.039224	2860.232225
461.411782	2879.459186
461.784280	2888.324055
462.156719	2900.667320
462.529099	2915.856317
462.901419	2919.669950
463.273680	2928.948193
463.645882	2951.126750
464.018024	2972.745738
464.390106	3012.797705
464.762130	3088.092379
465.134094	3192.393852
465.505999	3326.264213
465.877845	3451.325158
466.249631	3526.128319
466.621358	3530.897251
466.993026	3533.359854
467.364634	3544.972152
467.736184	3550.807288
468.107674	3567.407807
468.479105	3605.503807
468.850477	3635.949856
469.221790	3655.736384
469.593043	3662.438598
469.964238	3688.887012
470.335373	3744.039756
470.706449	3868.631873
471.077467	4023.591901
471.448425	4283.675110
471.819324	4476.698371
472.190164	4497.432636
472.560945	4405.368564
472.931667	4342.225592
473.302330	4380.918968
473.672934	4404.952669
474.043479	4517.279659
474.413965	4566.826640
474.784393	4621.868478
475.154761	4768.805510
475.525070	4858.815312
475.895321	4919.503242
476.265513	5066.304163
476.635645	5227.139656
477.005719	5320.153985
477.375734	5468.121933
477.745691	5655.761241
478.115588	5851.741138
478.485427	6166.442728
478.855207	6604.481189
479.224928	7043.099382
479.594591	7366.875050
479.964194	7400.517190
480.333739	7598.952129
480.703226	7792.136706
481.072653	8053.228146
481.442022	8315.068197
481.811333	8534.323101
482.180584	8578.269360
482.549777	8693.000980
482.918912	8806.462230
483.287988	8961.626425
483.657005	9079.511287
484.025964	9159.882403
484.394864	9367.361172
484.763706	9516.435652
485.132489	9561.455677
485.501213	9750.002392
485.869879	9980.110901
486.238487	10144.341611
486.607036	10403.383822
486.975527	10499.841260
487.343959	10777.243353
487.712333	11065.108361
488.080648	11252.462844
488.448905	11574.297667
488.817104	11761.329516
489.185244	12268.633430
489.553326	12930.988113
489.921350	13873.368811
490.289315	15009.965001
490.657222	15512.323543
491.025070	15918.363280
491.392861	16023.325144
491.760593	15945.033504
492.128267	15777.641991
492.495883	15631.410721
492.863440	15522.592374
493.230939	15389.790737
493.598380	15389.309307
493.965763	15571.559622
494.333088	15589.795996
494.700354	15750.901190
495.067563	15962.236442
495.434713	16152.597973
495.801805	16521.945671
496.168839	16688.767534
496.535815	16854.419849
496.902733	17165.176737
497.269593	17301.774362
497.636395	17625.038353
498.003139	18020.060647
498.369825	18134.933420
498.736453	18594.878215
499.103023	18747.819261
499.469535	19040.264157
499.835989	19347.285550
500.202385	19501.131483
500.568723	19777.106930
500.935003	20205.602486
501.301226	20361.643842
501.667390	21032.641583
502.033497	21392.703476
502.399546	21500.407728
502.765537	21467.204168
503.131470	22006.665603
503.497345	22532.059698
503.863163	22057.079662
504.228923	22807.868787
504.594625	23310.116424
504.960269	23165.775586
505.325856	23878.425861
505.691385	23867.829356
506.056856	24301.976046
506.422270	24881.166814
506.787625	24754.981692
507.152924	25309.821167
507.518164	25666.823079
507.883347	25541.757093
508.248472	25867.977721
508.613540	26592.653668
508.978550	26981.777813
509.343503	27056.263382
509.708398	27543.448051
510.073236	28228.742505
510.438016	28508.670216
510.802738	28447.639487
511.167403	29104.189282
511.532010	29484.740945
511.896561	30069.378680
512.261053	30887.016025
512.625488	30879.335827
512.989866	31011.580416
513.354186	31218.809648
513.718449	31360.357686
514.082655	32294.559111
514.446803	32201.328012
514.810894	32898.958169
515.174927	33070.949735
515.538904	33228.737851
515.902822	33952.390444
516.266684	33836.441385
516.630488	34300.159483
516.994235	34453.503822
517.357925	35122.212879
517.721558	35491.676524
518.085133	35971.193598
518.448651	36275.044105
518.812112	36293.373741
519.175516	36568.247695
519.538863	37084.781963
519.902152	37275.229193
520.265385	37907.856192
520.628560	38025.957824
520.991678	38102.180070
521.354739	38445.245713
521.717743	38886.114781
522.080690	38895.466122
522.443580	39648.410339
522.806413	39765.972568
523.169189	39999.708186
523.531908	40298.840173
523.894569	40256.171847
524.257174	40546.265045
524.619722	40939.643924
524.982213	41151.863898
525.344647	41255.290731
525.707025	41458.817235
526.069345	41967.656181
526.431608	41948.414097
526.793815	42391.498752
527.155964	42039.411965
527.518057	42358.791746
527.880093	42267.866975
528.242072	42950.870224
528.603995	42754.300512
528.965860	42726.395205
529.327669	42996.840506
529.689421	43109.366622
530.051117	43097.086371
530.412755	43437.558340
530.774337	43550.694435
531.135862	43523.313408
531.497331	43717.435640
531.858743	43769.835913
532.220098	44202.198035
532.581396	43962.115603
532.942638	43774.425884
533.303824	44048.263881
533.664953	44157.699770
534.026025	43853.332544
534.387040	44459.140605
534.747999	44575.503039
535.108902	44912.451241
535.469748	44266.404691
535.830537	44543.406012
536.191270	44818.768959
536.551947	44571.215537
536.912567	44882.204318
537.273131	45057.822995
537.633638	44700.029621
537.994089	44922.347026
538.354483	44677.069686
538.714821	45352.690165
539.075103	45634.064688
539.435328	45512.537592
539.795497	45293.328058
540.155609	45413.766265
540.515665	46019.077772
540.875665	45340.069637
541.235609	45646.874260
541.595496	45778.907120
541.955328	46348.623040
542.315102	45818.117215
542.674821	45699.776128
543.034483	45613.184229
543.394090	45621.567667
543.753640	45617.320495
544.113134	46698.922738
544.472571	45796.132743
544.831953	46955.532592
545.191278	46212.088429
545.550548	45906.100473
545.909761	46553.644246
546.268918	46713.398412
546.628019	47135.874830
546.987064	46561.949547
547.346053	45862.605397
547.704986	46784.143444
548.063863	46425.871161
548.422684	46649.098494
548.781449	46239.913078
549.140158	46772.884027
549.498811	46554.052580
549.857408	45944.072964
550.215949	46790.870864
550.574434	46634.685835
550.932864	46551.037970
551.291237	47287.752193
551.649555	47051.601861
552.007817	47229.915035
552.366022	46890.857109
552.724173	46973.090931
553.082267	47380.080925
553.440305	47726.685458
553.798288	46985.461923
554.156215	47383.571924
554.514086	47565.933144
554.871902	47213.755616
555.229661	47380.385915
555.587365	47076.437106
555.945014	47211.053557
556.302606	47223.071668
556.660143	47333.956888
557.017625	47551.218016
557.375050	47237.683453
557.732421	47653.881114
558.089735	47711.163745
558.446994	47588.043645
558.804197	48079.873738
559.161345	47939.165052
559.518437	47271.915408
559.875474	47549.650217
560.232455	47771.617262
560.589381	47828.390737
560.946251	47621.844582
561.303065	48297.737283
561.659825	48004.231224
562.016528	47795.620716
562.373177	47372.141108
562.729770	48000.137807
563.086307	47527.373358
563.442789	48065.803877
563.799216	47923.406405
564.155587	47805.352664
564.511904	47781.939025
564.868164	47843.214250
565.224370	48157.474739
565.580520	47880.498624
565.936615	48103.491543
566.292654	47747.581041
566.648638	48108.416751
567.004567	48048.164880
567.360441	48145.743974
567.716260	47867.983959
568.072023	48225.492508
568.427732	48167.864558
568.783385	47706.404896
569.138982	48106.319631
569.494525	48252.165253
569.850013	47848.154581
570.205445	47965.913414
570.560823	47757.567567
570.916145	47620.843912
571.271412	47843.045371
571.626625	47507.823764
571.981782	47591.108667
572.336884	47178.013835
572.691931	47491.094695
573.046923	47163.964139
573.401860	47022.622788
573.756743	47025.821401
574.111570	47171.994698
574.466342	47076.711849
574.821059	47227.646515
575.175722	46732.012872
575.530330	46842.698967
575.884882	46477.769840
576.239380	46376.155302
576.593823	46470.349261
576.948211	46405.696463
577.302544	45954.848431
577.656823	45948.733511
578.011047	46205.996195
578.365216	46022.871240
578.719330	45742.366317
579.073389	45716.137193
579.427394	45777.120031
579.781344	45721.770683
580.135239	45469.975130
580.489080	45522.942534
580.842866	45019.336306
581.196597	45516.590680
581.550273	45506.238670
581.903895	45430.167659
582.257463	45876.251801
582.610975	45298.903574
582.964434	45645.848385
583.317837	45156.531308
583.671186	45111.707888
584.024481	45380.061110
584.377721	44923.859372
584.730906	45143.704092
585.084037	45250.044711
585.437113	44957.627541
585.790135	45098.414365
586.143103	44645.847299
586.496016	44802.662472
586.848874	44891.737140
587.201679	44931.501762
587.554428	44436.387357
587.907124	44707.006578
588.259765	44477.160209
588.612352	44642.270601
588.964884	44084.366105
589.317362	44398.235905
589.669786	44404.184466
590.022155	44252.604532
590.374470	44701.103387
590.726731	44264.239515
591.078937	43624.622956
591.431090	43951.181341
591.783188	43493.626053
592.135232	43273.584729
592.487222	43556.486721
592.839157	43700.522568
593.191038	43342.361191
593.542866	43142.396262
593.894639	42538.556772
594.246358	42849.409441
594.598022	42838.500384
594.949633	42411.396186
595.301190	42395.508990
595.652692	42322.828154
596.004141	42814.214626
596.355535	41729.212124
596.706876	41732.861920
597.058162	41448.840792
597.409395	41952.197482
597.760573	42167.699248
598.111698	41759.940478
598.462768	41693.515714
598.813785	41702.632641
599.164748	41300.318317
599.515657	41580.301481
599.866511	41078.580644
600.217312	41762.786209
600.568060	40706.785466
600.918753	41538.522918
601.269392	41458.998717
601.619978	41190.385875
601.970510	41373.760367
602.320988	41523.631350
602.671412	41779.764815
603.021783	41659.162771
603.372100	41213.416386
603.722363	41333.947854
604.072572	41351.725483
604.422728	41342.981602
604.772830	41122.116049
605.122878	41282.543208
605.472872	41150.780050
605.822813	41406.439647
606.172701	41158.954281
606.522534	41487.007367
606.872314	41690.891793
607.222041	41522.124045
607.571714	41849.332738
607.921333	41343.931859
608.270899	41570.161200
608.620411	41949.707153
608.969870	41688.872811
609.319276	41713.221584
609.668627	41722.910682
610.017926	42141.132367
610.367171	42272.411575
610.716362	42296.190697
611.065500	42189.010726
611.414585	42414.304932
611.763616	42601.351904
612.112594	42495.250739
612.461518	42619.777322
612.810389	43005.123122
613.159207	42807.822443
613.507971	42771.400106
613.856682	43264.366979
614.205340	43107.745891
614.553945	43800.710460
614.902496	43113.641520
615.250994	43542.076582
615.599439	43582.158797
615.947830	43713.196029
616.296169	43715.368767
616.644454	43761.202937
616.992686	43917.093058
617.340864	44368.243560
617.688990	43883.675249
618.037063	44577.799284
618.385082	44391.543773
618.733048	44727.498868
619.080961	44595.549187
619.428821	44612.064007
619.776628	44647.704965
620.124382	44453.192043
620.472083	44550.516560
620.819731	44641.736238
621.167326	44204.249784
621.514868	44190.646231
621.862357	43688.721227
622.209793	43750.770269
622.557176	43319.607943
622.904506	43071.714243
623.251783	42704.685476
623.599007	42407.895105
623.946179	42310.517657
624.293297	42062.770151
624.640363	41523.880887
624.987376	41354.203210
625.334336	41161.300938
625.681243	40745.062947
626.028097	40663.797027
626.374899	40484.457978
626.721647	40444.658069
627.068343	40229.496582
627.414987	39942.954876
627.761577	39689.629334
628.108115	40011.179332
628.454600	39261.463973
628.801032	39484.847582
629.147412	39378.491839
629.493739	39291.554620
629.840014	38857.876758
630.186236	39268.871949
630.532405	38723.658557
630.878521	38962.694949
631.224585	38739.084488
631.570597	38394.004904
631.916556	38583.464069
632.262462	38448.403996
632.608316	38389.331755
632.954117	38242.314065
633.299866	38206.511790
633.645562	38131.559915
633.991206	37594.740044
634.336797	37180.064811
634.682336	37083.191478
635.027823	36837.276432
635.373257	36712.732206
635.718639	36373.638992
636.063968	36275.323889
636.409245	35624.508407
636.754470	35590.841061
637.099642	35348.802662
637.444762	34780.732679
637.789829	34924.246768
638.134845	34552.335643
638.479808	34470.414372
638.824719	34424.222279
639.169577	33898.566044
639.514383	33994.078266
639.859137	33611.280769
640.203839	33773.406797
640.548489	33490.456914
640.893086	33479.031139
641.237632	33218.131263
641.582125	33320.996007
641.926566	33094.078549
642.270955	33145.768020
642.615292	33072.182297
642.959576	32966.103817
643.303809	32966.338231
643.647990	33043.286403
643.992118	32996.993488
644.336195	32843.321474
644.680219	32933.427058
645.024192	33145.135355
645.368112	33657.437574
645.711981	33685.136193
646.055797	34421.608441
646.399562	34214.984148
646.743274	35097.266729
647.086935	35498.391341
647.430544	35440.949913
647.774101	35490.451524
648.117606	35781.384074
648.461059	35910.261172
648.804460	35512.758629
649.147810	34998.092110
649.491108	34661.491747
649.834354	34491.748535
650.177548	33682.219886
650.520690	33194.480690
650.863781	33177.552495
651.206820	32991.735564
651.549807	32583.928903
651.892742	31994.764212
652.235626	31904.361200
652.578458	31769.439759
652.921238	31090.136716
653.263967	31387.547149
653.606644	31093.179053
653.949269	31009.387514
654.291843	30611.022934
654.634365	30974.585908
654.976836	30518.779901
655.319255	30585.280282
655.661622	30460.337804
656.003938	30330.218062
656.346203	30145.237963
656.688416	30393.295499
657.030577	30147.234260
657.372687	29971.096344
657.714746	30150.122841
658.056753	30331.281745
658.398708	29713.758043
658.740612	29769.109912
659.082465	29995.654325
659.424266	29869.247392
659.766016	29893.102133
660.107715	29741.088659
660.449362	29847.550266
660.790958	29838.892085
661.132503	29759.534241
661.473996	29832.963688
661.815438	29919.409394
662.156829	30033.767969
662.498168	29816.653034
662.839456	29819.471039
663.180693	29936.181313
663.521879	30025.644149
663.863013	29975.719082
664.204097	29957.838110
664.545129	30383.089683
664.886110	30308.062191
665.227040	30421.742731
665.567918	30413.961710
665.908746	30494.098412
666.249522	30562.516952
666.590248	30595.990213
666.930922	30695.167353
667.271545	30697.456037
667.612118	30739.370711
667.952639	30554.685519
668.293109	30591.382599
668.633528	30458.550715
668.973896	30406.689845
669.314213	30400.970656
669.654480	30201.648474
669.994695	30189.179180
670.334859	30100.147362
670.674973	29938.056622
671.015035	30139.551541
671.355047	30069.769369
671.695008	30004.977939
672.034918	29901.752752
672.374777	29996.130714
672.714585	29876.103362
673.054342	30010.124957
673.394049	29854.547388
673.733705	30073.310780
674.073310	29800.838935
674.412864	29849.818786
674.752368	29548.529185
675.091820	29775.590316
675.431223	29363.138232
675.770574	29166.187913
676.109875	29014.232412
676.449125	28803.643251
676.788324	28716.915241
677.127473	28211.138796
677.466571	28124.103275
677.805619	27846.479371
678.144616	27771.363658
678.483562	27728.763387
678.822458	27405.653152
679.161303	27343.052103
679.500098	27269.993181
679.838842	27199.437192
680.177535	27293.474876
680.516179	27526.209826
680.854771	27652.894022
681.193314	28434.262786
681.531805	29439.413410
681.870247	30211.650123
682.208638	30914.742371
682.546978	31184.847394
682.885268	31335.280466
683.223508	30883.197351
683.561697	30617.480652
683.899836	30449.947986
684.237925	30019.748520
684.575963	29891.478881
684.913951	29516.210348
685.251889	29691.715598
685.589776	29726.096267
685.927614	29731.044160
686.265401	29915.414279
686.603137	30029.482988
686.940824	30525.930778
687.278460	30865.092047
687.616046	31041.597966
687.953582	31698.009129
688.291068	31616.342437
688.628504	31944.077931
688.965889	31931.999326
689.303224	31685.439012
689.640510	31387.655534
689.977745	30758.932908
690.314930	30014.402376
690.652065	29575.554811
690.989150	28911.591999
691.326185	28073.525378
691.663170	27431.237008
692.000105	26682.963419
692.336990	26080.197695
692.673825	25650.908157
693.010610	25169.505691
693.347345	24669.198898
693.684030	24033.557289
694.020665	23831.797709
694.357251	23162.203929
694.693786	23158.823835
695.030272	22922.038318
695.366707	22436.018155
695.703093	22153.035505
696.039429	22215.061862
696.375716	21991.116164
696.711952	21992.207574
697.048139	21861.482893
697.384276	21687.830266
697.720363	21805.737813
698.056400	21701.383408
698.392388	21536.953573
698.728326	21533.507944
699.064214	21371.122296
699.400053	21379.735108
699.735842	20992.791262
700.071581	20795.253648
700.407270	20538.782426
700.742910	20370.617095
701.078501	20127.615836
701.414042	19910.599204
701.749533	19610.171641
702.084974	19297.751172
702.420366	19527.355565
702.755709	19121.240211
703.091002	18814.067584
703.426246	18886.526609
703.761440	18818.062698
704.096584	18572.901305
704.431679	18515.595988
704.766725	18452.064847
705.101721	18394.628461
705.436668	18511.250514
705.771565	18228.061176
706.106413	18548.131595
706.441212	18626.120766
706.775961	18734.651767
707.110661	18811.925094
707.445311	19170.436832
707.779913	19048.466114
708.114465	19337.210804
708.448967	19659.262397
708.783421	20282.104516
709.117825	20654.996146
709.452180	20890.864172
709.786485	21334.349600
710.120742	22106.387188
710.454949	22205.309750
710.789107	22717.836299
711.123216	23429.974897
711.457275	23655.546368
711.791286	24212.608991
712.125247	24360.836558
712.459159	24101.154121
712.793023	24836.918086
713.126837	23813.427744
713.460602	24067.627927
713.794318	23729.605959
714.127985	23459.629485
714.461602	22556.658008
714.795171	22545.146533
715.128691	21556.263712
715.462162	21040.921678
715.795584	20602.711818
716.128957	20353.555310
716.462281	19971.052721
716.795556	19683.631334
717.128782	19212.059118
717.461960	18603.392724
717.795088	18561.916630
718.128167	18219.760916
718.461198	17763.975073
718.794180	17635.339951
719.127113	17298.169937
719.459997	17102.439578
719.792833	16736.882827
720.125619	16784.514169
720.458357	16453.217100
720.791046	16306.632949
721.123686	16153.195349
721.456278	15929.854590
721.788821	15928.397697
722.121315	15666.328273
722.453761	15772.593275
722.786158	15657.095399
723.118506	15727.878241
723.450805	15606.852740
723.783056	15790.401151
724.115259	15686.253433
724.447412	15679.226065
724.779518	15899.693367
725.111574	15946.951663
725.443582	16209.424379
725.775542	16164.434602
726.107453	16687.729056
726.439315	16611.784074
726.771129	17030.429215
727.102895	17447.380529
727.434612	17716.810038
727.766281	17888.350421
728.097901	18201.506898
728.429473	18285.056461
728.760996	18307.792065
729.092471	18444.177962
729.423897	18319.606009
729.755276	18187.250515
730.086606	18317.307243
730.417887	18886.856804
730.749120	19448.612742
731.080305	19655.259721
731.411442	20062.461443
731.742530	20174.201139
732.073570	20342.870585
732.404562	20658.416568
732.735506	20499.489152
733.066401	20301.306271
733.397249	19790.234094
733.728048	19169.163940
734.058798	18308.810378
734.389501	17546.794604
734.720156	17034.230245
735.050762	16452.655011
735.381320	16073.270376
735.711831	15792.697397
736.042293	15422.580923
736.372707	15464.929135
736.703073	15240.731380
737.033391	15452.918586
737.363661	15449.311641
737.693883	15567.632563
738.024056	15771.068326
738.354182	15989.955226
738.684260	16342.747775
739.014290	16627.000797
739.344272	16858.200715
739.674207	17211.593161
740.004093	17374.687091
740.333931	17435.218746
740.663722	17516.703957
740.993464	17555.692240
741.323159	17397.304228
741.652806	17096.291890
741.982405	16931.199143
742.311956	16578.230154
742.641460	16467.458360
742.970915	16127.591329
743.300323	15781.901766
743.629683	15569.079374
743.958996	15268.072078
744.288260	14939.867757
744.617477	14630.673627
744.946647	14598.095170
745.275768	14294.985713
745.604842	14083.148866
745.933869	13910.340633
746.262847	13872.206825
746.591778	13798.618581
746.920662	13675.427905
747.249498	13675.211135
747.578286	13844.790509
747.907027	14012.628165
748.235720	14284.177479
748.564365	14361.118089
748.892963	14271.133493
749.221514	14376.801119
749.550017	14243.651643
749.878473	14213.341705
750.206881	13988.407941
750.535242	13916.793310
750.863555	13830.455988
751.191821	13732.937388
751.520039	13760.303292
751.848210	13681.777238
752.176334	13725.153846
752.504411	13659.835616
752.832440	13476.924910
753.160421	13587.114451
753.488356	13470.953664
753.816243	13380.399417
754.144082	13223.576683
754.471875	13170.021985
754.799620	13145.620280
755.127318	13110.218777
755.454969	13092.032814
755.782572	13066.527096
756.110129	13082.217688
756.437638	12989.689829
756.765100	13005.347653
757.092515	13025.918082
757.419882	13057.896641
757.747203	13067.598342
758.074477	13168.940657
758.401703	13144.491061
758.728882	13342.792409
759.056014	13384.354202
759.383099	13555.592116
759.710138	13669.827183
760.037129	13794.371409
760.364073	13855.951624
760.690970	13882.989853
761.017820	13899.048448
761.344623	14125.035813
761.671379	14509.227189
761.998088	15212.203490
762.324751	16997.754977
762.651366	20403.961808
762.977935	24888.254676
763.304456	27849.635133
763.630931	28897.554906
763.957359	27708.525675
764.283740	25443.605828
764.610074	23178.207072
764.936362	20530.656086
765.262602	18653.927770
765.588796	16735.988022
765.914943	15437.180104
766.241044	14330.724973
766.567097	13541.113922
766.893104	12826.222854
767.219064	12351.804907
767.544978	11873.396886
767.870845	11493.127528
768.196665	11266.104206
768.522438	11037.427385
768.848165	10831.478607
769.173846	10623.218459
769.499479	10497.993677
769.825066	10325.313993
770.150607	10097.784035
770.476101	10013.863947
770.801548	9887.199915
771.126949	9726.868537
771.452303	9613.830745
771.777611	9424.086755
772.102872	9403.357531
772.428087	9271.029763
772.753256	9110.143858
773.078378	9022.969705
773.403453	8834.455757
773.728482	8726.007935
774.053465	8653.314497
774.378401	8550.941265
774.703291	8421.597860
775.028135	8304.506980
775.352932	8271.321064
775.677683	8162.258221
776.002388	8058.962458
776.327046	8071.187256
776.651658	7975.367525
776.976224	7869.541102
777.300743	7872.412040
777.625216	7779.032226
777.949643	7735.784168
778.274024	7755.132116
778.598359	7666.478384
778.922647	7682.771394
779.246889	7631.943960
779.571086	7644.841752
779.895236	7647.642113
780.219339	7649.429202
780.543397	7652.975654
780.867409	7738.261895
781.191374	7750.196826
781.515294	7711.095117
781.839167	7806.312430
782.162995	7781.963657
782.486776	7727.108342
782.810511	7676.283429
783.134201	7588.156498
783.457844	7584.017710
783.781441	7534.029629
784.104993	7464.310471
784.428498	7444.435722
784.751958	7424.941580
785.075372	7395.745738
785.398739	7346.385280
785.722061	7388.582258
786.045337	7394.878659
786.368568	7546.776186
786.691752	7575.740136
787.014891	7913.363853
787.337983	8270.504397
787.661030	8866.303247
787.984031	9495.280450
788.306987	9897.110823
788.629897	10106.021280
788.952760	10053.961284
789.275579	9833.272172
789.598351	9431.734186
789.921078	9085.779962
790.243759	8668.112804
790.566395	8376.076241
790.888984	8120.278012
791.211529	7916.940552
791.534027	7692.294133
791.856480	7494.721232
792.178888	7418.698111
792.501249	7317.587688
792.823566	7161.833679
793.145836	7158.367885
793.468062	7134.321582
793.790241	7085.487924
794.112375	7152.628532
794.434464	7304.894063
794.756507	7349.793100
795.078505	7511.876278
795.400457	7820.697363
795.722364	8172.136362
796.044226	8458.350392
796.366042	8735.878514
796.687812	8688.773973
797.009538	8766.100232
797.331218	8655.749374
797.652852	8573.666787
797.974442	8419.281450
798.295986	8331.993871
798.617484	8142.154100
798.938938	7995.869897
799.260346	7894.910709
799.581709	7693.766150
799.903026	7613.190868
800.224299	7512.428285
800.545526	7334.490677
800.866708	7241.882161
801.187845	7174.073600
801.508936	7066.729791
801.829983	7027.633122
802.150984	6876.204422
802.471940	6829.888821
802.792851	6816.547408
803.113717	6784.830988
803.434538	6751.839157
803.755314	6691.466298
804.076045	6692.537544
804.396731	6642.284802
804.717372	6671.883936
805.037967	6670.154821
805.358518	6719.038889
805.679024	6800.733308
805.999485	6809.338558
806.319901	6847.328693
806.640272	6872.405913
806.960598	6954.574200
807.280879	6959.091074
807.601115	7030.930037
807.921306	6975.023641
808.241453	6992.546691
808.561554	7015.254569
808.881611	6979.114537
809.201623	6985.690722
809.521590	6933.383710
809.841513	6912.956954
810.161390	6949.848118
810.481223	6818.168139
810.801011	6808.567261
811.120755	6782.141533
811.440453	6708.671757
811.760107	6673.441653
812.079716	6645.702704
812.399281	6575.003042
812.718801	6564.850158
813.038276	6522.847264
813.357707	6461.647656
813.677093	6503.650550
813.996434	6408.793679
814.315731	6447.267765
814.634983	6443.960768
814.954191	6457.670186
815.273354	6565.293779
815.592473	6624.890300
815.911547	6743.201140
816.230577	6834.312434
816.549562	6978.315514
816.868502	7085.303922
817.187399	7179.515526
817.506250	7333.542940
817.825058	7367.845472
818.143821	7636.115515
818.462539	7913.384018
818.781213	8278.539996
819.099843	8822.483017
819.418429	9828.775463
819.736970	10797.859152
820.055466	11984.569452
820.373919	13527.477601
820.692327	15882.129987
821.010691	20029.565394
821.329011	29010.169242
821.647286	42007.594722
821.965517	55402.646253
822.283704	60787.011935
822.601847	62782.320792
822.919945	60088.532343
823.237999	55933.409177
823.556010	49789.112237
823.873976	43083.611367
824.191897	36558.145223
824.509775	31712.837683
824.827609	27192.775307
825.145398	24581.863428
825.463144	23230.420823
825.780845	23529.686400
826.098502	25294.138137
826.416116	29067.857686
826.733685	32710.492112
827.051210	33855.212121
827.368692	32082.112285
827.686129	28126.023954
828.003522	24002.546631
828.320872	20295.224119
828.638177	17450.445551
828.955439	15291.548731
829.272656	13480.126043
829.589830	11998.863644
829.906960	10722.803933
830.224046	9772.352348
830.541088	9030.105459
830.858086	8572.038494
831.175041	8189.235956
831.491952	8074.085920
831.808819	8119.907488
832.125642	8519.360957
832.442421	9411.284745
832.759157	11206.908457
833.075849	14129.235095
833.392497	17352.939553
833.709101	19537.911741
834.025662	19378.306290
834.342179	17683.387188
834.658653	15494.462735
834.975083	13553.951221
835.291469	11945.034203
835.607811	10621.265012
835.924110	9700.087408
836.240366	8836.817538
836.556578	8033.207203
836.872746	7386.301136
837.188871	6879.284567
837.504952	6461.072965
837.820990	6152.635008
838.136984	5933.223828
838.452935	5834.888560
838.768842	5869.410382
839.084706	6290.291275
839.400526	7498.189546
839.716303	9084.607893
840.032037	10189.938848
840.347727	10111.231313
840.663373	9134.568249
840.978977	8083.641427
841.294537	7279.925228
841.610054	6677.845101
841.925527	6247.721252
842.240957	5879.434716
842.556344	5548.525816
842.871687	5263.748515
843.186987	4979.024146
843.502244	4754.191205
843.817458	4589.201801
844.132629	4455.202891
844.447756	4363.940362
844.762840	4282.576139
845.077881	4203.770301
845.392879	4142.616064
845.707833	4092.864917
846.022745	4052.873443
846.337613	4021.149462
846.652438	3979.597752
846.967221	3960.015389
847.281960	3928.606480
847.596656	3912.492432
847.911309	3895.014752
848.225919	3869.360320
848.540485	3851.025643
848.855009	3837.822861
849.169490	3819.382321
849.483928	3802.834733
849.798323	3797.042447
850.112675	3780.099129
850.426984	3782.765900
850.741251	3767.002212
851.055474	3763.675050
851.369654	3769.179990
851.683792	3766.576234
851.997887	3772.139147
852.311938	3775.146196
852.625947	3776.033439
852.939914	3763.644803
853.253837	3775.491515
853.567718	3775.080661
853.881555	3763.080194
854.195350	3775.448665
854.509103	3773.669138
854.822812	3773.953963
855.136479	3764.408538
855.450103	3777.371865
855.763685	3760.872168
856.077224	3763.735544
856.390720	3783.786733
856.704173	3802.605361
857.017584	3816.201353
857.330953	3826.830625
857.644278	3844.741845
857.957561	3854.622507
858.270802	3853.110160
858.584000	3853.883978
858.897155	3847.176722
859.210268	3830.019155
859.523339	3811.308913
859.836367	3810.174653
860.149352	3800.825833
860.462295	3792.419709
860.775195	3783.012916
861.088054	3777.097122
861.400869	3780.411681
861.713642	3776.272893
862.026373	3786.798823
862.339062	3794.201757
862.651708	3809.937719
862.964312	3843.484077
863.276873	3857.685008
863.589392	3913.722474
863.901869	3962.742654
864.214303	4010.623533
864.526696	4041.682082
864.839045	4084.783947
865.151353	4113.092547
865.463619	4125.148466
865.775842	4127.278353
866.088023	4148.085716
866.400162	4136.349910
866.712258	4144.776198
867.024313	4146.354080
867.336325	4144.236795
867.648296	4152.075789
867.960224	4150.649143
868.272110	4162.510978
868.583954	4162.652130
868.895755	4178.418339
869.207515	4172.701670
869.519233	4217.711612
869.830909	4231.179055
870.142542	4256.059670
870.454134	4267.510651
870.765684	4298.102893
871.077191	4333.461546
871.388657	4359.317624
871.700081	4395.739960
872.011463	4439.933236
872.322803	4475.727948
872.634101	4508.150129
872.945357	4547.400553
873.256571	4598.490127
873.567744	4626.927276
873.878874	4644.019308
874.189963	4689.303993
874.501010	4695.749108
874.812015	4692.598387
875.122979	4738.361982
875.433900	4736.300150
875.744780	4750.271707
876.055618	4775.225419
876.366415	4777.798928
876.677169	4797.701403
876.987882	4844.001881
877.298554	4893.379983
877.609183	4976.024659
877.919771	5085.112708
878.230317	5228.984718
878.540822	5442.858190
878.851285	5764.788796
879.161707	6233.855558
879.472087	6991.336814
879.782425	8228.236843
880.092722	10405.354913
880.402977	13701.399929
880.713191	17430.217921
881.023363	21132.670678
881.333494	23331.100227
881.643583	24550.078953
881.953631	24557.988523
882.263637	23723.513724
882.573602	22257.563830
882.883526	20718.035774
883.193408	19050.948883
883.503248	17351.598606
883.813048	15813.716488
884.122806	14387.188416
884.432522	12905.084144
884.742197	11654.147023
885.051831	10564.811650
885.361424	9563.323424
885.670975	8751.375021
885.980485	8049.933752
886.289954	7483.529870
886.599382	7001.202352
886.908768	6628.961032
887.218113	6265.403099
887.527417	5972.355785
887.836680	5708.806782
888.145901	5487.384182
888.455082	5327.262012
888.764221	5179.926729
889.073319	5038.184607
889.382376	4969.085511
889.691392	4907.326335
890.000366	4885.109970
890.309300	4865.767063
890.618193	4870.624214
890.927044	4850.958673
891.235855	4880.472108
891.544625	4908.447992
891.853353	4971.593485
892.162041	5088.086988
892.470687	5271.746305
892.779293	5522.702506
893.087858	5892.327467
893.396381	6473.945551
893.704864	7279.161493
894.013306	8422.127181
894.321707	9594.719731
894.630068	10416.125338
894.938387	10622.827769
895.246665	10383.640143
895.554903	9784.206621
895.863100	9083.324920
896.171256	8527.522585
896.479371	8021.373095
896.787446	7527.647528
897.095480	7095.529903
897.403473	6778.126254
897.711425	6453.939732
898.019336	6191.691347
898.327207	5917.064409
898.635038	5689.950346
898.942827	5445.151915
899.250576	5250.868367
899.558284	5056.746135
899.865952	4935.576961
900.173579	4790.472389
900.481165	4675.418135
900.788711	4585.889763
901.096216	4514.401160
901.403681	4450.890183
901.711105	4428.139456
902.018489	4409.855191
902.325832	4480.496880
902.633135	4604.675623
902.940397	4945.331594
903.247619	5738.635289
903.554800	7179.795310
903.861941	9082.583870
904.169041	10603.585685
904.476101	11233.966850
904.783121	10879.062058
905.090100	10137.016814
905.397039	9313.186412
905.703938	8554.893530
906.010796	7865.916513
906.317614	7314.689025
906.624391	6783.109434
906.931129	6354.109762
907.237826	5954.862981
907.544483	5581.810034
907.851099	5205.634093
908.157675	4854.132080
908.464211	4524.881719
908.770707	4292.050988
909.077163	4091.612190
909.383578	3948.347639
909.689954	3832.683405
909.996289	3764.292591
910.302584	3699.584341
910.608839	3665.183507
910.915054	3635.241573
911.221229	3621.106178
911.527363	3634.876090
911.833458	3646.155672
912.139513	3671.553005
912.445527	3703.907130
912.751502	3784.106847
913.057436	3888.224317
913.363331	4021.086448
913.669186	4225.343919
913.975000	4485.916120
914.280775	4907.908588
914.586510	5488.510880
914.892205	6281.267610
915.197859	7316.982750
915.503475	8525.145681
915.809050	9578.605682
916.114585	10222.439166
916.420081	10485.708385
916.725536	10449.643970
917.030952	10010.130972
917.336328	9603.017470
917.641665	9193.695942
917.946961	8717.952171
918.252218	8297.280486
918.557435	7789.061602
918.862612	7357.301898
919.167750	6985.620146
919.472848	6560.749179
919.777906	6188.981727
920.082925	5832.519218
920.387904	5467.181758
920.692843	5202.891706
920.997743	4955.547492
921.302603	4720.954877
921.607423	4560.595773
921.912204	4398.026124
922.216946	4281.709060
922.521647	4152.615193
922.826310	4051.829924
923.130932	3957.847693
923.435516	3860.613918
923.740059	3791.673618
924.044564	3712.507338
924.349028	3654.508863
924.653454	3587.522011
924.957840	3519.983152
925.262186	3476.609065
925.566493	3412.203283
925.870761	3359.457691
926.174989	3319.272133
926.479178	3284.203346
926.783328	3243.501070
927.087438	3216.422512
927.391509	3179.843900
927.695541	3151.903304
927.999533	3125.197792
928.303486	3102.842795
928.607400	3086.280084
928.911275	3071.781726
929.215110	3053.114333
929.518906	3049.555278
929.822663	3045.247613
930.126381	3042.666542
930.430060	3053.666339
930.733699	3050.843293
931.037299	3062.432906
931.340861	3058.357133
931.644383	3072.641242
931.947866	3067.000191
932.251309	3062.286712
932.554714	3061.129768
932.858080	3056.368398
933.161407	3045.204763
933.464694	3040.057745
933.767943	3034.759492
934.071153	3027.341434
934.374323	3019.963705
934.677455	3012.568333
934.980548	3006.118176
935.283602	3000.940911
935.586617	2995.055364
935.889593	3008.250584
936.192530	3010.521624
936.495428	3025.929911
936.798287	3048.105947
937.101108	3080.611307
937.403890	3129.760036
937.706632	3188.610466
938.009336	3268.127106
938.312002	3344.896318
938.614628	3405.652304
938.917216	3456.010910
939.219765	3490.477279
939.522275	3523.423740
939.824747	3529.319369
940.127179	3524.381559
940.429573	3516.903008
940.731929	3516.303110
941.034246	3501.454392
941.336524	3490.313442
941.638763	3473.566728
941.940964	3459.695994
942.243126	3415.694282
942.545250	3396.734503
942.847335	3360.133205
943.149381	3325.097186
943.451389	3291.833132
943.753359	3254.475662
944.055290	3234.709297
944.357182	3207.008157
944.659036	3193.702032
944.960851	3181.240299
945.262628	3166.384019
945.564367	3173.996161
945.866067	3162.560304
946.167729	3161.685663
946.469352	3162.199861
946.770937	3152.246103
947.072484	3141.200935
947.373992	3143.875267
947.675462	3136.182466
947.976893	3120.259982
948.278286	3108.771192
948.579641	3103.810697
948.880958	3099.175356
949.182236	3097.461363
949.483476	3094.078749
949.784678	3090.149170
950.085841	3094.552618
950.386967	3105.552415
950.688054	3124.965899
950.989103	3142.980462
951.290114	3160.594254
951.591087	3191.970395
951.892021	3219.182544
952.192917	3245.187336
952.493776	3270.466202
952.794596	3279.799898
953.095378	3284.382307
953.396122	3279.613375
953.696828	3273.122890
953.997496	3263.138885
954.298126	3236.619895
954.598718	3218.781772
954.899272	3190.291691
955.199788	3163.931497
955.500266	3132.918319
955.800706	3098.295674
956.101108	3058.712534
956.401472	3030.109028
956.701798	2997.969151
957.002087	2956.591360
957.302337	2930.102618
957.602550	2902.154461
957.902724	2867.506610
958.202861	2842.341170
958.502960	2824.815599
958.803022	2804.502269
959.103045	2785.968467
959.403031	2771.029008
959.702979	2752.066708
960.002889	2743.040522
960.302762	2725.951010
960.602596	2715.891388
960.902393	2708.453165
961.202153	2700.543595
961.501875	2692.432378
961.801559	2684.999197
962.101205	2677.445028
962.400814	2675.698268
962.700385	2664.748882
962.999918	2658.507933
963.299414	2651.246151
963.598873	2652.173724
963.898293	2645.854637
964.197677	2647.651809
964.497022	2645.836993
964.796331	2642.477064
965.095601	2637.609830
965.394835	2638.176960
965.694030	2632.951804
965.993189	2631.520116
966.292309	2631.812503
966.591393	2631.812503
966.890439	2631.663789
967.189447	2629.329735
967.488419	2629.415435
967.787353	2633.130765
968.086249	2632.997174
968.385108	2635.401805
968.683930	2638.756693
968.982714	2639.711991
969.281462	2644.967394
969.580172	2651.583909
969.878844	2656.867038
970.177480	2665.351300
970.476078	2672.033349
970.774639	2679.675738
971.073162	2684.968950
971.371649	2693.901875
971.670098	2698.706094
971.968510	2701.254397
972.266885	2708.513659
972.565223	2711.606407
972.863524	2715.334340
973.161788	2717.680997
973.460014	2719.342057
973.758204	2723.153170
974.056356	2723.304404
974.354471	2727.899416
974.652550	2726.329097
974.950591	2729.167266
975.248595	2725.600650
975.546563	2722.021431
975.844493	2718.913559
976.142386	2713.953064
976.440243	2709.146324
976.738062	2703.396888
977.035845	2696.903882
977.333590	2689.881554
977.631299	2684.795030
977.928971	2679.574915
978.226606	2673.540654
978.524204	2668.683502
978.821765	2664.801814
979.119290	2668.071002
979.416777	2667.939932
979.714228	2670.639470
980.011642	2675.141221
980.309020	2682.604649
980.606360	2696.692153
980.903664	2718.903477
981.200931	2754.647778
981.498162	2805.059317
981.795356	2881.276522
982.092513	2964.700056
982.389633	3068.232753
982.686717	3164.748164
982.983764	3239.319433
983.280775	3286.353398
983.577749	3293.204326
983.874686	3281.264353
984.171587	3246.936616
984.468451	3212.089640
984.765279	3169.350738
985.062070	3120.030609
985.358824	3076.598548
985.655543	3020.624097
985.952224	2967.689461
986.248869	2905.045562
986.545478	2847.614217
986.842050	2791.352420
987.138586	2745.432549
987.435086	2709.035418
987.731549	2678.793537
988.027975	2653.418889
988.324366	2636.581435
988.620719	2622.400669
988.917037	2611.564709
989.213318	2601.086671
989.509563	2593.857656
989.805772	2592.327666
990.101944	2587.344485
990.398080	2583.155286
990.694180	2583.571182
990.990244	2581.143866
991.286271	2580.314596
991.582262	2584.040009
991.878217	2581.862230
992.174136	2590.399424
992.470019	2592.693149
992.765865	2596.852101
993.061676	2597.507451
993.357450	2608.038422
993.653188	2613.787858
993.948890	2632.235960
994.244556	2651.667088
994.540186	2673.240706
994.835780	2703.916127
995.131337	2743.121180
995.426859	2784.907304
995.722345	2828.661999
996.017795	2882.209135
996.313208	2917.754311
996.608586	2943.665842
996.903928	2959.384160
997.199234	2957.776032
997.494504	2954.731175
997.789738	2939.267435
998.084936	2913.308013
998.380099	2885.695093
998.675225	2855.029754
998.970316	2828.034376
999.265371	2788.673046
999.560390	2754.607449
999.855373	2722.752398
1000.150320	2695.885569
1000.445232	2667.985303
1000.740108	2649.728764
1001.034948	2631.862915
1001.329752	2617.407406
1001.624521	2605.734614
1001.919254	2594.525609
1002.213951	2586.290884
1002.508613	2578.986252
1002.803239	2572.094995
1003.097829	2562.776422
1003.392384	2560.119734
1003.686903	2558.536812
1003.981386	2552.764690
1004.275834	2547.433670
1004.570246	2547.002652
1004.864623	2543.970398
1005.158964	2542.818494
1005.453270	2541.076775
1005.747540	2538.296579
1006.041775	2538.062165
1006.335974	2535.072761
1006.630138	2533.426824
1006.924266	2535.660055
1007.218359	2533.182328
1007.512416	2528.839374
1007.806438	2527.629497
1008.100425	2530.971782
1008.394376	2524.975330
1008.688292	2526.301153
1008.982172	2528.531864
1009.276017	2530.379447
1009.569827	2530.505476
1009.863602	2525.887779
1010.157341	2527.037162
1010.451045	2526.580937
1010.744714	2526.376771
1011.038347	2525.628159
1011.331945	2523.715041
1011.625508	2520.241686
1011.919036	2520.014834
1012.212528	2521.759074
1012.505986	2516.470903
1012.799408	2517.925276
1013.092795	2517.819412
1013.386147	2516.778414
1013.679464	2514.356139
1013.972745	2515.465193
1014.265992	2516.160872
1014.559204	2519.152797
1014.852380	2517.388393
1015.145521	2516.254134
1015.438628	2516.458300
1015.731699	2517.259844
1016.024736	2519.241017
1016.317737	2520.282016
1016.610703	2520.733199
1016.903635	2523.659589
1017.196531	2524.171266
1017.489393	2524.420803
1017.782219	2523.775535
1018.075011	2524.509023
1018.367768	2528.287368
1018.660490	2529.953469
1018.953177	2529.953469
1019.245829	2529.953469
