Dividing Wavelength (nm)	Counts (n)	Blue Motor Position (mm): 47.000000	Red Motor Position (mm): 0.000000	
326.493990	2047.252906
326.888308	2047.252906
327.282561	2047.252906
327.676750	2022.836077
328.070874	2026.052334
328.464933	2033.687161
328.858929	2037.241175
329.252859	2049.914635
329.646726	2063.412325
330.040528	2080.096023
330.434265	2098.697881
330.827938	2119.296036
331.221547	2137.746659
331.615091	2160.373878
332.008571	2179.575633
332.401986	2199.112625
332.795338	2219.930069
333.188625	2239.260374
333.581847	2256.972468
333.975006	2275.339912
334.368100	2295.736420
334.761129	2313.284677
335.154095	2327.541060
335.546996	2376.941847
335.939833	2485.442601
336.332606	2496.301247
336.725315	2509.574605
337.117960	2517.733712
337.510540	2528.680578
337.903056	2534.835827
338.295508	2545.603731
338.687896	2553.283929
339.080220	2557.064795
339.472480	2559.219888
339.864676	2566.451423
340.256807	2567.709191
340.648875	2568.939232
341.040879	2569.834037
341.432818	2570.781774
341.824694	2574.363514
342.216506	2571.656414
342.608253	2571.550550
342.999937	2570.933009
343.391557	2571.540468
343.783113	2568.498132
344.174605	2568.157854
344.566033	2565.299519
344.957397	2565.319684
345.348697	2561.611915
345.739934	2561.125444
346.131106	2561.127965
346.522215	2558.083108
346.913260	2556.240566
347.304241	2556.411965
347.695159	2553.558672
348.086012	2552.401727
348.476802	2549.437529
348.867528	2547.922662
349.258191	2542.198432
349.648789	2542.576518
350.039324	2537.568132
350.429796	2544.976108
350.820203	2543.012578
351.210548	2544.227496
351.600828	2542.710109
351.991045	2541.830428
352.381198	2538.233564
352.771288	2540.638195
353.161314	2538.331867
353.551276	2541.006199
353.941175	2540.174409
354.331010	2538.594007
354.720782	2543.738504
355.110490	2544.729091
355.500135	2541.008720
355.889717	2544.645912
356.279235	2543.199101
356.668689	2543.395706
357.058080	2541.611137
357.447408	2543.882177
357.836672	2542.934440
358.225873	2542.712630
358.615010	2543.166333
359.004084	2545.601211
359.393095	2546.289328
359.782043	2546.216232
360.170927	2543.834286
360.559748	2547.484082
360.948505	2548.313352
361.337199	2548.530121
361.725830	2550.279402
362.114398	2550.798640
362.502903	2548.036088
362.891344	2552.159752
363.279722	2552.915925
363.668037	2551.244782
364.056289	2552.058929
364.444478	2551.585060
364.832603	2551.980791
365.220665	2555.847356
365.608665	2555.834753
365.996601	2553.578837
366.384474	2556.749723
366.772284	2553.881306
367.160031	2555.184444
367.547715	2556.333827
367.935336	2553.916594
368.322893	2553.253682
368.710388	2552.792417
369.097820	2558.199054
369.485189	2552.905843
369.872495	2562.496638
370.259738	2559.592933
370.646918	2561.173335
371.034035	2560.351627
371.421090	2560.023952
371.808081	2561.067471
372.195010	2559.915567
372.581875	2562.373130
372.968678	2564.949159
373.355418	2561.415310
373.742096	2562.995712
374.128710	2566.285065
374.515262	2564.500497
374.901751	2567.192473
375.288177	2567.779767
375.674540	2569.352607
376.060841	2571.157340
376.447079	2568.992165
376.833254	2572.531055
377.219367	2571.999213
377.605417	2575.109605
377.991404	2576.266550
378.377329	2579.719740
378.763191	2581.668146
379.148991	2589.116451
379.534727	2591.881524
379.920402	2593.792121
380.306013	2594.102152
380.691563	2602.397371
381.077049	2607.501539
381.462474	2612.956067
381.847835	2621.745319
382.233134	2624.386884
382.618371	2630.892493
383.003545	2643.848258
383.388657	2649.259937
383.773706	2658.354178
384.158693	2667.473626
384.543618	2679.602642
384.928480	2688.490196
385.313280	2699.298430
385.698017	2710.860316
386.082692	2724.231977
386.467305	2738.052300
386.851856	2754.499064
387.236344	2769.383071
387.620770	2783.084927
388.005133	2794.934159
388.389435	2819.119095
388.773674	2829.725683
389.157851	2852.476410
389.541965	2872.527599
389.926018	2886.413458
390.310008	2914.190215
390.693936	2932.920623
391.077802	2956.888788
391.461606	2980.166316
391.845348	2997.273472
392.229027	3025.113244
392.612645	3058.193296
392.996200	3085.075248
393.379694	3122.047071
393.763125	3154.028151
394.146494	3180.602593
394.529801	3216.235989
394.913047	3255.055394
395.296230	3266.917229
395.679351	3293.201806
396.062410	3341.826255
396.445408	3335.262673
396.828343	3373.640977
397.211217	3407.714136
397.594028	3398.057806
397.976778	3444.259981
398.359466	3481.940085
398.742092	3496.922394
399.124656	3522.470962
399.507158	3581.402050
399.889598	3590.680294
400.271977	3648.446876
400.654294	3651.748832
401.036549	3706.155485
401.418742	3715.199315
401.800874	3781.563584
402.182944	3813.433759
402.564952	3890.795306
402.946898	3890.071900
403.328783	3895.095410
403.710606	3945.998461
404.092367	4009.806866
404.474067	4072.680137
404.855705	4065.249476
405.237282	4041.177966
405.618797	4135.732368
406.000250	4208.972772
406.381642	4286.455307
406.762972	4287.839103
407.144240	4256.722581
407.525447	4317.115604
407.906593	4338.658975
408.287677	4413.361314
408.668700	4436.923667
409.049661	4480.988393
409.430560	4512.288917
409.811399	4506.733565
410.192176	4546.586407
410.572891	4620.628354
410.953545	4716.581676
411.334138	4620.996358
411.714669	4728.788830
412.095139	4652.886697
412.475547	4748.154423
412.855894	4756.726905
413.236180	4853.101164
413.616405	4787.805618
413.996568	4877.318867
414.376670	4889.324375
414.756711	4876.267786
415.136691	4946.607006
415.516609	5024.230693
415.896466	5061.510025
416.276262	5140.141943
416.655997	5250.694447
417.035670	5328.257640
417.415283	5454.208348
417.794834	5508.499055
418.174324	5472.787521
418.553753	5476.364219
418.933121	5623.230675
419.312428	5636.599815
419.691674	5575.866514
420.070859	5778.495693
420.449983	5670.627603
420.829045	5851.776426
421.208047	5789.805522
421.586988	5937.017296
421.965867	6001.067676
422.344686	6073.141053
422.723444	6231.725671
423.102141	5881.776332
423.480777	6235.430919
423.859352	6073.985446
424.237866	6414.621253
424.616319	6404.226393
424.994712	6556.312964
425.373044	6484.360575
425.751314	6768.442197
426.129524	6513.891654
426.507673	6766.478668
426.885762	6801.933103
427.263789	6830.763462
427.641756	6924.644870
428.019662	6982.134188
428.397508	7023.000302
428.775292	7022.206320
429.153016	7167.530182
429.530679	7121.277596
429.908282	7165.385172
430.285824	7107.303517
430.663305	7355.494645
431.040726	7262.898731
431.418086	7254.903461
431.795385	7390.563432
432.172624	7566.814773
432.549802	7453.345962
432.926920	7581.655930
433.303977	7531.594752
433.680974	7588.539625
434.057910	7761.519258
434.434786	7816.324162
434.811601	7774.880836
435.188355	8095.041996
435.565050	8000.109508
435.941683	8015.232969
436.318257	8323.428951
436.694770	8267.681351
437.071222	8471.860685
437.447614	8252.169721
437.823946	8223.583858
438.200218	8363.894293
438.576429	8265.687575
438.952580	8411.467662
439.328670	8427.133047
439.704700	8512.290738
440.080670	8402.683451
440.456580	8651.345926
440.832429	8639.925192
441.208218	8377.926344
441.583947	8497.205086
441.959616	8595.021114
442.335224	8630.052092
442.710773	8719.764466
443.086261	8892.302998
443.461689	8622.248386
443.837057	8777.919217
444.212365	8974.549423
444.587612	8974.662849
444.962800	8861.448616
445.337927	9007.357252
445.712995	8562.901402
446.088002	9198.127116
446.462949	9258.497454
446.837837	9266.359134
447.212664	9325.630500
447.587431	10227.722296
447.962139	11183.512462
448.336786	11921.247519
448.711374	11513.271979
449.085901	10383.085616
449.460369	10366.094407
449.834776	10284.490729
450.209124	11200.705317
450.583412	10977.558642
450.957640	11180.943994
451.331808	10771.690522
451.705917	10290.920721
452.079965	10216.246109
452.453954	10412.936808
452.827883	10366.540549
453.201752	10331.428912
453.575562	10353.879691
453.949311	10700.393483
454.323001	10783.315423
454.696632	10697.237721
455.070202	11278.160125
455.443713	11340.546925
455.817164	11488.161992
456.190556	11799.231431
456.563888	11626.849175
456.937160	11834.310300
457.310373	11345.804848
457.683526	11381.355065
458.056619	11423.148751
458.429653	11509.322235
458.802628	11679.045282
459.175542	11737.686504
459.548398	12278.715738
459.921194	12854.178573
460.293930	13186.360364
460.666607	14021.687118
461.039224	14731.605088
461.411782	14985.265868
461.784280	14581.829887
462.156719	14485.536287
462.529099	14383.316810
462.901419	13808.642916
463.273680	13460.273979
463.645882	13697.543447
464.018024	13662.971214
464.390106	14079.768772
464.762130	15243.597276
465.134094	16926.886436
465.505999	19203.600062
465.877845	21187.410047
466.249631	22047.632540
466.621358	21376.707895
466.993026	20530.285561
467.364634	19820.657458
467.736184	19124.184245
468.107674	18572.976922
468.479105	18443.885575
468.850477	18173.810799
469.221790	17744.427999
469.593043	17124.184595
469.964238	16782.691792
470.335373	16902.071356
470.706449	17745.461436
471.077467	18897.012209
471.448425	21225.896736
471.819324	22713.962173
472.190164	22183.393333
472.560945	20507.925523
472.931667	19115.039592
473.302330	18877.739878
473.672934	18427.426207
474.043479	18864.174133
474.413965	18670.954267
474.784393	18518.963479
475.154761	19141.921545
475.525070	19276.434653
475.895321	19121.696436
476.265513	19628.342480
476.635645	20215.372242
477.005719	20282.346492
477.375734	20654.610497
477.745691	21255.271540
478.115588	21903.175756
478.485427	23169.339682
478.855207	25047.608070
479.224928	26752.279284
479.594591	27907.754596
479.964194	27351.364966
480.333739	27712.782929
480.703226	27995.246341
481.072653	28499.696962
481.442022	28999.522325
481.811333	29290.666604
482.180584	28794.160841
482.549777	28585.446989
482.918912	28381.817142
483.287988	28341.240894
483.657005	28161.995108
484.025964	27815.314957
484.394864	28000.327824
484.763706	27933.797196
485.132489	27457.365308
485.501213	27531.313994
485.869879	27721.824239
486.238487	27688.666049
486.607036	27960.049005
486.975527	27676.264811
487.343959	28004.741354
487.712333	28322.238265
488.080648	28295.442012
488.448905	28734.327386
488.817104	28651.506269
489.185244	29555.112932
489.553326	30720.403370
489.921350	32650.666218
490.289315	35026.940113
490.657222	35694.121701
491.025070	36080.480773
491.392861	35686.068457
491.760593	34869.948500
492.128267	33852.580639
492.495883	32916.007351
492.863440	32083.727975
493.230939	31211.510057
493.598380	30718.119727
493.965763	30600.098754
494.333088	30164.664049
494.700354	29982.690998
495.067563	29979.477262
495.434713	29890.049714
495.801805	30182.192141
496.168839	30049.564424
496.535815	29916.929146
496.902733	30076.098538
497.269593	29894.160775
497.636395	30065.857434
498.003139	30354.650014
498.369825	30121.627719
498.736453	30525.945901
499.103023	30382.797297
499.469535	30496.664359
499.835989	30630.973300
500.202385	30489.793266
500.568723	30558.771374
500.935003	30895.492725
501.301226	30814.188996
501.667390	31496.494045
502.033497	31670.945695
502.399546	31491.674702
502.765537	31102.663983
503.131470	31557.794476
503.497345	31994.481907
503.863163	30993.853198
504.228923	31766.357093
504.594625	32157.530467
504.960269	31675.891067
505.325856	32353.812833
505.691385	32035.400953
506.056856	32339.110308
506.422270	32824.459997
506.787625	32388.367422
507.152924	32848.120653
507.518164	33042.384037
507.883347	32624.164873
508.248472	32779.969294
508.613540	33466.950014
508.978550	33694.099365
509.343503	33571.818617
509.708398	33917.737553
510.073236	34530.762025
510.438016	34649.987834
510.802738	34340.869321
511.167403	34905.173562
511.532010	35147.854708
511.896561	35629.889839
512.261053	36381.961937
512.625488	36165.104102
512.989866	36115.219364
513.354186	36159.263925
513.718449	36128.676724
514.082655	37013.210181
514.446803	36730.945895
514.810894	37339.065324
515.174927	37358.246915
515.538904	37366.141362
515.902822	38011.340998
516.266684	37703.097126
516.630488	38062.753206
516.994235	38079.898170
517.357925	38673.312554
517.721558	38937.411042
518.085133	39306.806631
518.448651	39497.573975
518.812112	39397.013038
519.175516	39551.930217
519.538863	39981.166823
519.902152	40051.687524
520.265385	40602.776380
520.628560	40621.582404
520.991678	40571.712790
521.354739	40814.169605
521.717743	41179.623012
522.080690	41077.403535
522.443580	41770.693259
522.806413	41791.293934
523.169189	41927.634460
523.531908	42151.834737
523.894569	42027.325798
524.257174	42222.844430
524.619722	42568.002151
524.982213	42713.714183
525.344647	42745.133174
525.707025	42856.076367
526.069345	43314.740709
526.431608	43218.545411
526.793815	43599.981796
527.155964	43162.800332
527.518057	43431.456023
527.880093	43281.350626
528.242072	43899.731324
528.603995	43649.916946
528.965860	43573.314092
529.327669	43793.035303
529.689421	43835.328063
530.051117	43811.072552
530.412755	44087.940283
530.774337	44147.060414
531.135862	44099.424031
531.497331	44229.339607
531.858743	44228.563269
532.220098	44645.945602
532.581396	44353.387280
532.942638	44144.476823
533.303824	44397.119289
533.664953	44433.806286
534.026025	44134.581038
534.387040	44691.222725
534.747999	44765.120999
535.108902	45080.377117
535.469748	44412.860292
535.830537	44668.086350
536.191270	44924.116471
536.551947	44663.188869
536.912567	44945.576663
537.273131	45102.003667
537.633638	44699.969127
537.994089	44915.922076
538.354483	44666.253890
538.714821	45311.209031
539.075103	45598.937928
539.435328	45445.538137
539.795497	45212.634309
540.155609	45335.651065
540.515665	45922.385920
540.875665	45230.593419
541.235609	45519.340629
541.595496	45639.504093
541.955328	46193.695779
542.315102	45626.719727
542.674821	45524.094437
543.034483	45408.072282
543.394090	45426.432164
543.753640	45426.565754
544.113134	46472.179200
544.472571	45568.012970
544.831953	46707.611167
545.191278	45959.448483
545.550548	45664.535942
545.909761	46298.650082
546.268918	46447.883359
546.628019	46863.266874
546.987064	46297.014227
547.346053	45587.650784
547.704986	46497.122829
548.063863	46160.325861
548.422684	46362.861779
548.781449	45948.133614
549.140158	46480.063565
549.498811	46253.975376
549.857408	45633.764739
550.215949	46487.597569
550.574434	46299.401214
550.932864	46243.144457
551.291237	46955.744321
551.649555	46724.345277
552.007817	46904.039727
552.366022	46573.461022
552.724173	46650.457085
553.082267	47050.823003
553.440305	47372.771252
553.798288	46641.771177
554.156215	47038.489820
554.514086	47219.459682
554.871902	46864.998511
555.229661	47020.324022
555.587365	46723.268991
555.945014	46840.266610
556.302606	46864.045733
556.660143	46973.721076
557.017625	47163.646547
557.375050	46890.340391
557.732421	47306.023855
558.089735	47344.160184
558.446994	47220.946822
558.804197	47700.274853
559.161345	47566.482630
559.518437	46906.898061
559.875474	47170.041250
560.232455	47390.226248
560.589381	47446.730020
560.946251	47249.676358
561.303065	47914.493645
561.659825	47599.245089
562.016528	47402.980367
562.373177	46982.253228
562.729770	47625.277607
563.086307	47152.843354
563.442789	47691.745221
563.799216	47529.616672
564.155587	47418.255063
564.511904	47388.234992
564.868164	47444.234649
565.224370	47745.357892
565.580520	47495.997217
565.936615	47663.867640
566.292654	47324.706371
566.648638	47706.286429
567.004567	47638.956778
567.360441	47732.709637
567.716260	47464.802557
568.072023	47826.039039
568.427732	47758.525386
568.783385	47292.536248
569.138982	47691.203297
569.494525	47823.384871
569.850013	47426.603214
570.205445	47556.460816
570.560823	47324.275352
570.916145	47203.086014
571.271412	47439.924463
571.626625	47096.828573
571.981782	47183.874177
572.336884	46758.368024
572.691931	47087.487315
573.046923	46750.327384
573.401860	46599.198633
573.756743	46608.839840
574.111570	46761.730474
574.466342	46664.647933
574.821059	46807.625139
575.175722	46318.713874
575.530330	46424.905780
575.884882	46057.549337
576.239380	45951.806094
576.593823	46045.274128
576.948211	45988.954357
577.302544	45528.026537
577.656823	45531.472166
578.011047	45789.594366
578.365216	45595.920797
578.719330	45331.025807
579.073389	45310.828424
579.427394	45353.310227
579.781344	45313.354042
580.135239	45056.464404
580.489080	45116.108815
580.842866	44601.359117
581.196597	45104.403256
581.550273	45096.080311
581.903895	45039.447989
582.257463	45464.215612
582.610975	44904.271969
582.964434	45241.754534
583.317837	44746.783802
583.671186	44707.374582
584.024481	44973.335777
584.377721	44525.348599
584.730906	44735.668058
585.084037	44850.762642
585.437113	44554.239452
585.790135	44693.314804
586.143103	44236.487963
586.496016	44402.820834
586.848874	44511.142628
587.201679	44550.934975
587.554428	44054.358636
587.907124	44307.182584
588.259765	44075.216410
588.612352	44243.411988
588.964884	43707.013054
589.317362	44018.826063
589.669786	44005.530020
590.022155	43860.014594
590.374470	44310.998737
590.726731	43871.447931
591.078937	43231.291968
591.431090	43552.080752
591.783188	43099.387658
592.135232	42883.711972
592.487222	43155.606605
592.839157	43301.164881
593.191038	42943.724388
593.542866	42753.912343
593.894639	42157.753051
594.246358	42459.438382
594.598022	42443.596557
594.949633	42020.018646
595.301190	41994.376817
595.652692	41942.405041
596.004141	42406.649940
596.355535	41328.700013
596.706876	41339.442712
597.058162	41075.850860
597.409395	41571.880233
597.760573	41783.833026
598.111698	41377.389998
598.462768	41298.001907
598.813785	41310.531695
599.164748	40935.729468
599.515657	41206.757022
599.866511	40706.926618
600.217312	41396.833728
600.568060	40348.155261
600.918753	41167.950220
601.269392	41074.988822
601.619978	40802.799282
601.970510	41004.011897
602.320988	41151.102684
602.671412	41408.405697
603.021783	41270.862855
603.372100	40847.617660
603.722363	40951.742693
604.072572	40985.087405
604.422728	40988.003713
604.772830	40759.342015
605.122878	40917.684658
605.472872	40780.557711
605.822813	41045.621581
606.172701	40789.833434
606.522534	41110.067691
606.872314	41325.493839
607.222041	41159.181133
607.571714	41487.050217
607.921333	40986.466161
608.270899	41202.230066
608.620411	41587.391864
608.969870	41327.240599
609.319276	41345.212312
609.668627	41369.982022
610.017926	41779.109465
610.367171	41908.772983
610.716362	41951.617750
611.065500	41839.709176
611.414585	42079.665578
611.763616	42237.254568
612.112594	42127.329688
612.461518	42273.820577
612.810389	42653.447188
613.159207	42446.391876
613.507971	42424.639298
613.856682	42913.217846
614.205340	42737.929365
614.553945	43430.868729
614.902496	42768.360290
615.250994	43193.029611
615.599439	43252.389197
615.947830	43368.010581
616.296169	43355.024569
616.644454	43415.941872
616.992686	43576.984052
617.340864	44026.155901
617.688990	43568.817383
618.037063	44234.143827
618.385082	44046.756576
618.733048	44398.813117
619.080961	44257.809523
619.428821	44272.955670
619.776628	44301.707891
620.124382	44092.300881
620.472083	44203.856574
620.819731	44297.760667
621.167326	43844.888612
621.514868	43841.634547
621.862357	43300.045745
622.209793	43390.083273
622.557176	42944.510808
622.904506	42711.261661
623.251783	42339.292563
623.599007	42021.672144
623.946179	41943.299846
624.293297	41678.215812
624.640363	41153.250215
624.987376	40975.262196
625.334336	40775.768615
625.681243	40380.554757
626.028097	40296.541407
626.374899	40115.858892
626.721647	40084.318912
627.068343	39884.895907
627.414987	39594.207853
627.761577	39331.397380
628.108115	39662.820478
628.454600	38927.855535
628.801032	39159.473869
629.147412	39035.721104
629.493739	38955.859145
629.840014	38534.012870
630.186236	38955.188671
630.532405	38394.670337
630.878521	38634.906523
631.224585	38418.109182
631.570597	38063.199348
631.916556	38243.861699
632.262462	38117.658933
632.608316	38048.189312
632.954117	37919.367667
633.299866	37864.986220
633.645562	37774.434494
633.991206	37251.568537
634.336797	36854.058433
634.682336	36736.697851
635.027823	36493.474781
635.373257	36354.452361
635.718639	36034.361777
636.063968	35941.196213
636.409245	35282.395543
636.754470	35234.358388
637.099642	35018.697826
637.444762	34459.492712
637.789829	34598.341213
638.134845	34233.827981
638.479808	34139.389525
638.824719	34086.911114
639.169577	33566.411979
639.514383	33678.323074
639.859137	33297.549601
640.203839	33460.686380
640.548489	33153.546520
640.893086	33153.233969
641.237632	32889.107754
641.582125	32990.190451
641.926566	32783.767803
642.270955	32824.485203
642.615292	32747.219438
642.959576	32642.844868
643.303809	32657.444050
643.647990	32743.887235
643.992118	32693.853783
644.336195	32540.806873
644.680219	32627.595378
645.024192	32847.054449
645.368112	33364.559138
645.711981	33391.652819
646.055797	34129.675222
646.399562	33930.847073
646.743274	34810.500693
647.086935	35209.714707
647.430544	35158.794012
647.774101	35206.856373
648.117606	35489.196276
648.461059	35615.547756
648.804460	35187.498342
649.147810	34705.115372
649.491108	34328.135367
649.834354	34174.203734
650.177548	33347.497353
650.520690	32862.361913
650.863781	32857.562734
651.206820	32672.111287
651.549807	32266.250511
651.892742	31694.334128
652.235626	31595.479622
652.578458	31474.181898
652.921238	30794.520934
653.263967	31099.921596
653.606644	30806.435701
653.949269	30721.865304
654.291843	30335.259216
654.634365	30690.526971
654.976836	30221.150178
655.319255	30305.526490
655.661622	30184.417810
656.003938	30055.833099
656.346203	29870.122033
656.688416	30107.182292
657.030577	29877.217457
657.372687	29703.423678
657.714746	29876.993125
658.056753	30059.435004
658.398708	29449.707446
658.740612	29508.089049
659.082465	29710.594719
659.424266	29613.575193
659.766016	29632.212339
660.107715	29487.102725
660.449362	29588.747510
660.790958	29574.607074
661.132503	29489.232613
661.473996	29567.171372
661.815438	29642.473607
662.156829	29771.237279
662.498168	29578.866849
662.839456	29547.694874
663.180693	29689.782316
663.521879	29763.882236
663.863013	29737.317876
664.204097	29705.669512
664.545129	30104.457549
664.886110	30048.762881
665.227040	30160.190025
665.567918	30157.850930
665.908746	30233.291797
666.249522	30312.067387
666.590248	30342.692397
666.930922	30434.827045
667.271545	30442.625710
667.612118	30498.211993
667.952639	30301.029781
668.293109	30336.474134
668.633528	30190.600786
668.973896	30157.613995
669.314213	30123.699633
669.654480	29945.217581
669.994695	29918.532233
670.334859	29855.981596
670.674973	29679.470635
671.015035	29880.834485
671.355047	29810.817899
671.695008	29742.956406
672.034918	29658.801905
672.374777	29755.125752
672.714585	29624.249836
673.054342	29747.231305
673.394049	29613.998650
673.733705	29826.780712
674.073310	29565.502750
674.412864	29600.269067
674.752368	29310.264089
675.091820	29530.897749
675.431223	29108.897720
675.770574	28914.904037
676.109875	28746.101001
676.449125	28536.535194
676.788324	28443.165463
677.127473	27970.917733
677.466571	27873.547846
677.805619	27585.513959
678.144616	27534.961269
678.483562	27488.832190
678.822458	27165.679105
679.161303	27112.184901
679.500098	27035.355196
679.838842	26963.319628
680.177535	27059.318321
680.516179	27301.152553
680.854771	27438.884438
681.193314	28214.332367
681.531805	29252.273176
681.870247	30001.502064
682.208638	30736.993807
682.546978	30986.074698
682.885268	31114.283843
683.223508	30671.693221
683.561697	30377.236904
683.899836	30227.045807
684.237925	29824.648304
684.575963	29677.217240
684.913951	29307.998091
685.251889	29477.763988
685.589776	29518.861994
685.927614	29518.904844
686.265401	29709.493227
686.603137	29832.298255
686.940824	30339.554279
687.278460	30688.959173
687.616046	30847.016990
687.953582	31522.947500
688.291068	31421.741296
688.628504	31746.752046
688.965889	31742.066293
689.303224	31447.108382
689.640510	31168.665290
689.977745	30523.130417
690.314930	29762.667318
690.652065	29309.679316
690.989150	28637.990936
691.326185	27803.077557
691.663170	27148.539182
692.000105	26432.055110
692.336990	25821.702449
692.673825	25415.135912
693.010610	24923.699029
693.347345	24414.812192
693.684030	23795.614827
694.020665	23608.220015
694.357251	22942.029014
694.693786	22939.160597
695.030272	22705.372047
695.366707	22223.097461
695.703093	21951.154937
696.039429	22026.822657
696.375716	21799.759005
696.711952	21798.312194
697.048139	21654.535966
697.384276	21508.208913
697.720363	21611.991148
698.056400	21514.268380
698.392388	21355.078824
698.728326	21352.802743
699.064214	21184.871826
699.400053	21188.481292
699.735842	20801.882766
700.071581	20592.137998
700.407270	20356.917760
700.742910	20178.992755
701.078501	19936.916548
701.414042	19729.977182
701.749533	19423.837992
702.084974	19116.118399
702.420366	19345.037195
702.755709	18937.868240
703.091002	18632.568402
703.426246	18704.606490
703.761440	18632.288618
704.096584	18395.356907
704.431679	18339.947065
704.766725	18275.382487
705.101721	18214.923929
705.436668	18346.334207
705.771565	18072.239110
706.106413	18398.525273
706.441212	18467.301734
706.775961	18567.585408
707.110661	18658.759716
707.445311	19018.816568
707.779913	18900.480523
708.114465	19204.744404
708.448967	19513.633544
708.783421	20137.950201
709.117825	20523.933707
709.452180	20758.117989
709.786485	21216.580684
710.120742	21974.472794
710.454949	22085.539496
710.789107	22594.948092
711.123216	23312.700015
711.457275	23522.205328
711.791286	24079.603188
712.125247	24224.334715
712.459159	23940.762249
712.793023	24674.880278
713.126837	23639.981805
713.460602	23870.153328
713.794318	23520.052755
714.127985	23260.163630
714.461602	22347.172860
714.795171	22318.531544
715.128691	21354.788958
715.462162	20837.632108
715.795584	20397.877135
716.128957	20127.852770
716.462281	19756.352499
716.795556	19478.095930
717.128782	19009.989508
717.461960	18407.150687
717.795088	18366.163585
718.128167	18035.670580
718.461198	17579.156291
718.794180	17449.205427
719.127113	17122.722660
719.459997	16936.570493
719.792833	16579.240905
720.125619	16620.117101
720.458357	16296.757329
720.791046	16156.991338
721.123686	16007.311919
721.456278	15787.474761
721.788821	15782.957887
722.121315	15521.115316
722.453761	15628.040709
722.786158	15513.034346
723.118506	15592.127529
723.450805	15478.439428
723.783056	15660.926676
724.115259	15556.176541
724.447412	15552.546910
724.779518	15768.671258
725.111574	15818.717312
725.443582	16090.208653
725.775542	16047.555450
726.107453	16564.044347
726.439315	16483.211965
726.771129	16905.862304
727.102895	17331.292839
727.434612	17597.884178
727.766281	17767.773583
728.097901	18085.842664
728.429473	18167.383328
728.760996	18172.991611
729.092471	18286.488149
729.423897	18181.922015
729.755276	18049.858908
730.086606	18162.460641
730.417887	18756.411908
730.749120	19306.737029
731.080305	19520.325676
731.411442	19922.864331
731.742530	20025.058602
732.073570	20183.837304
732.404562	20506.241778
732.735506	20337.151396
733.066401	20116.888261
733.397249	19616.967116
733.728048	18986.134768
734.058798	18132.450652
734.389501	17373.399076
734.720156	16863.297321
735.050762	16294.607277
735.381320	15919.817653
735.711831	15643.784233
736.042293	15281.809222
736.372707	15332.808055
736.703073	15132.127282
737.033391	15328.593650
737.363661	15332.321583
737.693883	15459.766994
738.024056	15666.320711
738.354182	15895.700773
738.684260	16253.592449
739.014290	16537.159873
739.344272	16759.038698
739.674207	17110.361751
740.004093	17275.257893
740.333931	17319.189028
740.663722	17403.409065
740.993464	17424.181139
741.323159	17272.694466
741.652806	16967.639124
741.982405	16794.455324
742.311956	16428.984273
742.641460	16321.789178
742.970915	15989.428426
743.300323	15646.219110
743.629683	15427.606953
743.958996	15119.438698
744.288260	14790.858811
744.617477	14495.013656
744.946647	14464.754130
745.275768	14146.032219
745.604842	13951.287405
745.933869	13779.515129
746.262847	13755.126027
746.591778	13672.108305
746.920662	13560.124113
747.249498	13568.021081
747.578286	13728.491090
747.907027	13898.849323
748.235720	14178.973639
748.564365	14247.303959
748.892963	14164.601309
749.221514	14275.186581
749.550017	14142.117763
749.878473	14107.974028
750.206881	13889.649217
750.535242	13812.035612
750.863555	13734.374117
751.191821	13639.308037
751.520039	13653.045182
751.848210	13573.750352
752.176334	13627.957880
752.504411	13559.556984
752.832440	13370.095299
753.160421	13490.631808
753.488356	13372.815001
753.816243	13286.938945
754.144082	13126.756282
754.471875	13072.233682
754.799620	13042.203529
755.127318	13018.764684
755.454969	13007.447294
755.782572	12974.168117
756.110129	12984.653717
756.437638	12900.048032
756.765100	12901.353691
757.092515	12926.904779
757.419882	12967.465903
757.747203	12986.821413
758.074477	13084.662647
758.401703	13051.842215
758.728882	13259.890634
759.056014	13304.257829
759.383099	13475.193274
759.710138	13601.617851
760.037129	13719.089338
760.364073	13783.028813
760.690970	13813.973936
761.017820	13824.580524
761.344623	14053.043095
761.671379	14431.752216
761.998088	15133.768177
762.324751	16918.802946
762.651366	20346.946358
762.977935	24837.497819
763.304456	27801.960941
763.630931	28816.104984
763.957359	27563.411020
764.283740	25286.636900
764.610074	23004.839270
764.936362	20358.074705
765.262602	18490.095312
765.588796	16578.532623
765.914943	15308.451720
766.241044	14204.194532
766.567097	13421.799893
766.893104	12710.460318
767.219064	12249.388825
767.544978	11778.648400
767.870845	11394.809905
768.196665	11175.547439
768.522438	10949.053438
768.848165	10744.821172
769.173846	10536.550942
769.499479	10408.571169
769.825066	10245.595707
770.150607	10012.243216
770.476101	9927.385473
770.801548	9804.938367
771.126949	9653.708792
771.452303	9535.251759
771.777611	9346.531124
772.102872	9332.869597
772.428087	9191.916415
772.753256	9031.695943
773.078378	8944.423487
773.403453	8766.135520
773.728482	8657.821288
774.053465	8583.675997
774.378401	8483.175554
774.703291	8357.418931
775.028135	8247.786437
775.352932	8206.201959
775.677683	8099.326977
776.002388	7996.825196
776.327046	8008.366918
776.651658	7908.426043
776.976224	7807.728995
777.300743	7810.610014
777.625216	7720.998463
777.949643	7676.422060
778.274024	7692.939401
778.598359	7605.213242
778.922647	7625.249308
779.246889	7575.241062
779.571086	7583.511074
779.895236	7594.589010
780.219339	7605.311544
780.543397	7611.451670
780.867409	7692.042076
781.191374	7701.655556
781.515294	7666.531317
781.839167	7759.888445
782.162995	7728.661017
782.486776	7674.090527
782.810511	7629.337683
783.134201	7537.359311
783.457844	7532.023250
783.781441	7474.133159
784.104993	7407.952892
784.428498	7389.961014
784.751958	7373.925103
785.075372	7349.019283
785.398739	7291.797145
785.722061	7339.965370
786.045337	7346.836463
786.368568	7498.023188
786.691752	7523.665017
787.014891	7868.404322
787.337983	8232.441165
787.661030	8831.468874
787.984031	9459.510943
788.306987	9864.940700
788.629897	10060.338344
788.952760	10014.179019
789.275579	9783.271487
789.598351	9383.359273
789.921078	9024.638327
790.243759	8608.980069
790.566395	8319.388466
790.888984	8068.172646
791.211529	7860.036007
791.534027	7638.051318
791.856480	7441.902542
792.178888	7366.670883
792.501249	7269.512725
792.823566	7110.514732
793.145836	7119.127544
793.468062	7090.516475
793.790241	7046.918056
794.112375	7108.641944
794.434464	7271.952643
794.756507	7308.117881
795.078505	7478.650033
795.400457	7790.521016
795.722364	8142.590159
796.044226	8435.357690
796.366042	8705.581180
796.687812	8654.635279
797.009538	8728.901558
797.331218	8616.808981
797.652852	8531.300930
797.974442	8376.953402
798.295986	8287.651882
798.617484	8094.268179
798.938938	7950.139070
799.260346	7847.712906
799.581709	7646.175137
799.903026	7571.941626
800.224299	7465.553116
800.545526	7291.323277
800.866708	7198.054369
801.187845	7131.039790
801.508936	7024.000971
801.829983	6988.876731
802.150984	6836.941396
802.471940	6792.843902
802.792851	6784.480628
803.113717	6748.428816
803.434538	6714.015380
803.755314	6658.305588
804.076045	6659.245764
804.396731	6612.978054
804.717372	6641.747919
805.037967	6648.308980
805.358518	6691.854467
805.679024	6773.576612
805.999485	6784.631863
806.319901	6827.968142
806.640272	6854.285485
806.960598	6932.544358
807.280879	6937.056190
807.601115	7015.385639
807.921306	6956.268028
808.241453	6976.299052
808.561554	6988.707853
808.881611	6951.463808
809.201623	6962.148534
809.521590	6902.080665
809.841513	6880.300360
810.161390	6923.490445
810.481223	6785.509023
810.801011	6772.517970
811.120755	6750.946873
811.440453	6668.249264
811.760107	6640.835470
812.079716	6607.689883
812.399281	6540.516508
812.718801	6530.227513
813.038276	6486.523230
813.357707	6426.440238
813.677093	6460.536082
813.996434	6369.523090
814.315731	6408.831487
814.634983	6405.199336
814.954191	6419.450678
815.273354	6522.035638
815.592473	6586.746410
815.911547	6710.859617
816.230577	6795.515714
816.549562	6944.305370
816.868502	7045.544342
817.187399	7137.918445
817.506250	7292.507948
817.825058	7322.021383
818.143821	7590.142712
818.462539	7864.222685
818.781213	8233.467040
819.099843	8789.123181
819.418429	9791.423033
819.736970	10767.062743
820.055466	11953.374792
820.373919	13482.994460
820.692327	15827.410782
821.010691	19958.376740
821.329011	29014.784418
821.647286	42097.349946
821.965517	55605.928261
822.283704	60971.061942
822.601847	62932.322845
822.919945	60177.927125
823.237999	55936.353211
823.556010	49695.518175
823.873976	42925.896348
824.191897	36381.596454
824.509775	31531.545188
824.827609	27012.206218
825.145398	24423.964407
825.463144	23066.114495
825.780845	23382.141909
826.098502	25181.191085
826.416116	29018.104018
826.733685	32729.356109
827.051210	33948.899445
827.368692	32141.474392
827.686129	28136.350758
828.003522	23967.064469
828.320872	20232.071064
828.638177	17376.542236
828.955439	15216.697679
829.272656	13403.450093
829.589830	11924.279773
829.906960	10655.527214
830.224046	9707.031597
830.541088	8957.369170
830.858086	8500.764140
831.175041	8127.706153
831.491952	8015.580809
831.808819	8062.203920
832.125642	8464.712328
832.442421	9361.132826
832.759157	11161.674183
833.075849	14116.536428
833.392497	17370.283643
833.709101	19580.887578
834.025662	19401.735053
834.342179	17678.961055
834.658653	15456.928824
834.975083	13521.566848
835.291469	11894.557130
835.607811	10573.769781
835.924110	9658.596191
836.240366	8788.364488
836.556578	7984.978484
836.872746	7342.415371
837.188871	6842.627817
837.504952	6422.949239
837.820990	6109.477690
838.136984	5896.846862
838.452935	5806.733716
838.768842	5832.589794
839.084706	6259.167192
839.400526	7470.644681
839.716303	9067.142816
840.032037	10171.853708
840.347727	10090.360936
840.663373	9105.500956
840.978977	8051.587250
841.294537	7242.713951
841.610054	6639.333206
841.925527	6207.621393
842.240957	5846.440364
842.556344	5517.759654
842.871687	5233.927569
843.186987	4955.050938
843.502244	4728.443511
843.817458	4561.379673
844.132629	4426.271709
844.447756	4335.329293
844.762840	4261.229373
845.077881	4185.443187
845.392879	4123.502529
845.707833	4077.413780
846.022745	4032.481976
846.337613	4003.747399
846.652438	3956.844504
846.967221	3942.570477
847.281960	3906.773243
847.596656	3893.283115
847.911309	3876.851474
848.225919	3849.263760
848.540485	3833.560566
848.855009	3821.151766
849.169490	3797.627221
849.483928	3784.769758
849.798323	3779.852113
850.112675	3759.256479
850.426984	3768.421296
850.741251	3751.311620
851.055474	3754.149790
851.369654	3753.355808
851.683792	3749.917741
851.997887	3755.475613
852.311938	3759.926952
852.625947	3762.656737
852.939914	3751.704830
853.253837	3762.356788
853.567718	3760.000049
853.881555	3749.461517
854.195350	3763.294443
854.509103	3757.476951
854.822812	3757.698762
855.136479	3750.628544
855.450103	3760.534411
855.763685	3747.427411
856.077224	3752.115684
856.390720	3771.057820
856.704173	3789.624389
857.017584	3801.264414
857.330953	3815.830828
857.644278	3833.195082
857.957561	3840.240095
858.270802	3840.958459
858.584000	3840.933253
858.897155	3832.033096
859.210268	3817.638081
859.523339	3794.400883
859.836367	3797.980102
860.149352	3787.197074
860.462295	3779.806742
860.775195	3771.433386
861.088054	3765.787293
861.400869	3764.942900
861.713642	3762.818054
862.026373	3776.154426
862.339062	3777.838172
862.651708	3798.214516
862.964312	3835.546780
863.276873	3847.955581
863.589392	3906.997574
863.901869	3952.105819
864.214303	3996.044516
864.526696	4032.328221
864.839045	4078.784974
865.151353	4104.237760
865.463619	4112.850571
865.775842	4117.523721
866.088023	4136.120537
866.400162	4129.831698
866.712258	4134.502327
867.024313	4136.506186
867.336325	4132.798417
867.648296	4139.775374
867.960224	4138.222698
868.272110	4151.538906
868.583954	4150.543278
868.895755	4167.040454
869.207515	4161.850587
869.519233	4204.153429
869.830909	4217.008371
870.142542	4242.957711
870.454134	4255.616048
870.765684	4288.179381
871.077191	4322.008044
871.388657	4348.713557
871.700081	4386.499525
872.011463	4427.111061
872.322803	4464.329900
872.634101	4497.835929
872.945357	4539.818658
873.256571	4593.421247
873.567744	4617.767499
873.878874	4638.771467
874.189963	4677.971479
874.501010	4684.840051
874.812015	4683.753682
875.122979	4726.795054
875.433900	4722.971339
875.744780	4739.155963
876.055618	4766.726034
876.366415	4764.220580
876.677169	4784.518786
876.987882	4829.627031
877.298554	4876.653434
877.609183	4961.130570
877.919771	5073.628959
878.230317	5216.875866
878.540822	5431.618938
878.851285	5751.840592
879.161707	6217.479370
879.472087	6981.899774
879.782425	8219.981953
880.092722	10419.739846
880.402977	13761.238426
880.713191	17564.615083
881.023363	21348.243020
881.333494	23606.589202
881.643583	24834.165616
881.953631	24800.969618
882.263637	23932.141876
882.573602	22411.936563
882.883526	20822.702731
883.193408	19122.797928
883.503248	17405.397800
883.813048	15851.820049
884.122806	14406.095264
884.432522	12925.316815
884.742197	11653.862198
885.051831	10564.700745
885.361424	9546.773316
885.670975	8733.234429
885.980485	8039.571660
886.289954	7466.210986
886.599382	6992.995354
886.908768	6612.264730
887.218113	6249.185707
887.527417	5963.647191
887.836680	5691.762641
888.145901	5476.056709
888.455082	5315.090146
888.764221	5159.590715
889.073319	5028.601373
889.382376	4959.068738
889.691392	4900.777876
890.000366	4876.214854
890.309300	4856.574519
890.618193	4862.800344
890.927044	4849.325339
891.235855	4867.826374
891.544625	4898.809306
891.853353	4963.268019
892.162041	5078.607099
892.470687	5266.468217
892.779293	5515.143295
893.087858	5888.463423
893.396381	6470.262988
893.704864	7280.701566
894.013306	8447.128784
894.321707	9645.219489
894.630068	10487.467747
894.938387	10693.529952
895.246665	10445.127096
895.554903	9831.452315
895.863100	9118.970919
896.171256	8554.540649
896.479371	8038.860857
896.787446	7534.722788
897.095480	7102.942919
897.403473	6782.854856
897.711425	6463.086906
898.019336	6197.750814
898.327207	5926.950112
898.635038	5688.803484
898.942827	5443.014466
899.250576	5246.210341
899.558284	5051.019384
899.865952	4928.257206
900.173579	4778.673568
900.481165	4671.334800
900.788711	4574.632866
901.096216	4506.794059
901.403681	4439.212351
901.711105	4415.493722
902.018489	4400.708018
902.325832	4473.802228
902.633135	4592.939817
902.940397	4936.189461
903.247619	5741.836422
903.554800	7199.533948
903.861941	9139.009505
904.169041	10680.685092
904.476101	11313.349900
904.783121	10940.052458
905.090100	10188.481954
905.397039	9336.829423
905.703938	8580.588291
906.010796	7880.666929
906.317614	7324.844429
906.624391	6781.350072
906.931129	6355.342325
907.237826	5952.246622
907.544483	5571.440381
907.851099	5199.345254
908.157675	4845.347869
908.464211	4517.700595
908.770707	4282.359369
909.077163	4081.557609
909.383578	3937.632666
909.689954	3820.897187
909.996289	3750.172319
910.302584	3689.590253
910.608839	3654.927279
910.915054	3623.233545
911.221229	3608.702419
911.527363	3624.100623
911.833458	3636.814413
912.139513	3665.226357
912.445527	3693.645861
912.751502	3775.531844
913.057436	3881.093605
913.363331	4016.483874
913.669186	4216.847054
913.975000	4478.014112
914.280775	4901.037496
914.586510	5488.263863
914.892205	6285.348424
915.197859	7340.169537
915.503475	8576.686438
915.809050	9657.711468
916.114585	10325.077059
916.420081	10584.961142
916.725536	10550.519979
917.030952	10101.476680
917.336328	9673.026494
917.641665	9250.716433
917.946961	8769.523175
918.252218	8344.102723
918.557435	7827.636511
918.862612	7389.668627
919.167750	7016.472008
919.472848	6583.696512
919.777906	6205.640220
920.082925	5840.385939
920.387904	5475.204754
920.692843	5201.480183
920.997743	4953.475578
921.302603	4718.840113
921.607423	4554.969846
921.912204	4393.481523
922.216946	4273.537350
922.521647	4152.451355
922.826310	4046.841703
923.130932	3953.691262
923.435516	3854.693083
923.740059	3781.545940
924.044564	3705.853015
924.349028	3645.764982
924.653454	3583.358018
924.957840	3516.098943
925.262186	3463.123978
925.566493	3403.000657
925.870761	3348.029395
926.174989	3313.530258
926.479178	3276.344187
926.783328	3233.058320
927.087438	3206.327601
927.391509	3170.237981
927.695541	3139.665903
927.999533	3113.915690
928.303486	3093.123451
928.607400	3078.065524
928.911275	3065.019018
929.215110	3048.539486
929.518906	3036.624719
929.822663	3039.861140
930.126381	3035.830737
930.430060	3044.544372
930.733699	3047.891698
931.037299	3055.859241
931.340861	3054.369580
931.644383	3064.386353
931.947866	3062.153122
932.251309	3055.029972
932.554714	3055.587019
932.858080	3049.935886
933.161407	3042.258208
933.464694	3031.767567
933.767943	3028.863863
934.071153	3023.260620
934.374323	3014.322654
934.677455	3005.523320
934.980548	3000.232629
935.283602	2992.265086
935.586617	2989.038747
935.889593	3003.307733
936.192530	3005.649349
936.495428	3019.119312
936.798287	3041.494473
937.101108	3075.996130
937.403890	3127.436064
937.706632	3192.028368
938.009336	3273.367386
938.312002	3349.962677
938.614628	3413.125814
938.917216	3467.512303
939.219765	3499.163187
939.522275	3531.698794
939.824747	3532.893547
940.127179	3527.698638
940.429573	3523.161600
940.731929	3524.394162
941.034246	3505.489835
941.336524	3492.844101
941.638763	3475.442038
941.940964	3465.296716
942.243126	3418.204777
942.545250	3396.230387
942.847335	3355.321424
943.149381	3323.345385
943.451389	3288.505971
943.753359	3256.411465
944.055290	3230.257959
944.357182	3204.132179
944.659036	3190.868903
944.960851	3180.181657
945.262628	3165.630366
945.564367	3167.992147
945.866067	3162.625839
946.167729	3161.060560
946.469352	3156.904129
946.770937	3154.615445
947.072484	3134.954945
947.373992	3139.761685
947.675462	3133.427476
947.976893	3115.942233
948.278286	3105.726335
948.579641	3100.032352
948.880958	3093.720827
949.182236	3097.899944
949.483476	3090.703697
949.784678	3088.851073
950.085841	3089.728233
950.386967	3101.794235
950.688054	3116.579939
950.989103	3140.038949
951.290114	3160.367402
951.591087	3188.602904
951.892021	3218.179354
952.192917	3249.729415
952.493776	3277.397788
952.794596	3282.721247
953.095378	3287.328861
953.396122	3280.082203
953.696828	3273.919392
953.997496	3262.319697
954.298126	3237.600399
954.598718	3216.777913
954.899272	3190.281609
955.199788	3161.526867
955.500266	3132.134420
955.800706	3094.756784
956.101108	3056.953172
956.401472	3019.237779
956.701798	2988.259889
957.002087	2950.839404
957.302337	2921.734302
957.602550	2892.145250
957.902724	2863.965200
958.202861	2838.527537
958.502960	2818.163796
958.803022	2792.831998
959.103045	2774.903135
959.403031	2756.916298
959.702979	2745.359452
960.002889	2732.892679
960.302762	2716.208980
960.602596	2706.272866
960.902393	2698.005374
961.202153	2692.490352
961.501875	2683.275122
961.801559	2677.530727
962.101205	2668.895231
962.400814	2666.775426
962.700385	2658.936432
962.999918	2650.593322
963.299414	2645.534524
963.598873	2642.409009
963.898293	2636.601599
964.197677	2637.511528
964.497022	2633.690333
964.796331	2632.351907
965.095601	2631.449540
965.394835	2627.935856
965.694030	2627.731689
965.993189	2626.307563
966.292309	2622.947634
966.591393	2623.882768
966.890439	2621.515947
967.189447	2621.447891
967.488419	2623.040896
967.787353	2622.640124
968.086249	2626.350413
968.385108	2628.359313
968.683930	2629.342338
968.982714	2635.132103
969.281462	2636.793163
969.580172	2645.620224
969.878844	2648.372694
970.177480	2657.401400
970.476078	2666.223419
970.774639	2674.536282
971.073162	2678.912004
971.371649	2688.417099
971.670098	2693.037317
971.968510	2697.407997
972.266885	2700.790611
972.565223	2705.849409
972.863524	2706.865202
973.161788	2711.558516
973.460014	2713.867364
973.758204	2717.335678
974.056356	2715.160420
974.354471	2722.681822
974.652550	2722.296174
974.950591	2718.598487
975.248595	2719.024465
975.546563	2716.718137
975.844493	2713.093547
976.142386	2705.340253
976.440243	2701.435879
976.738062	2696.780373
977.035845	2690.746112
977.333590	2682.750842
977.631299	2680.749504
977.928971	2674.253978
978.226606	2665.222750
978.524204	2663.891886
978.821765	2657.093890
979.119290	2661.217554
979.416777	2659.213695
979.714228	2662.409787
980.011642	2666.379695
980.309020	2676.151972
980.606360	2690.163859
980.903664	2713.564895
981.200931	2747.136459
981.498162	2797.845426
981.795356	2875.522045
982.092513	2965.173925
982.389633	3071.373392
982.686717	3169.280162
982.983764	3246.031729
983.280775	3292.715334
983.577749	3302.364103
983.874686	3287.626289
984.171587	3248.171699
984.468451	3213.728015
984.765279	3167.145233
985.062070	3121.331227
985.358824	3074.856830
985.655543	3018.882378
985.952224	2964.379943
986.248869	2903.263514
986.545478	2841.254802
986.842050	2785.529887
987.138586	2740.126735
987.435086	2699.759695
987.731549	2669.623678
988.027975	2645.242137
988.324366	2628.815537
988.620719	2610.836262
988.917037	2602.122628
989.213318	2593.083839
989.509563	2587.049578
989.805772	2580.692683
990.101944	2577.428536
990.398080	2572.072310
990.694180	2571.815211
990.990244	2572.246229
991.286271	2570.002916
991.582262	2574.275294
991.878217	2576.138000
992.174136	2580.019689
992.470019	2583.011613
992.765865	2586.467324
993.061676	2589.492017
993.357450	2600.937957
993.653188	2604.033225
993.948890	2624.485186
994.244556	2641.534368
994.540186	2666.644356
994.835780	2696.760209
995.131337	2734.994840
995.426859	2777.678290
995.722345	2825.486072
996.017795	2879.469268
996.313208	2918.752460
996.608586	2943.859926
996.903928	2955.623459
997.199234	2957.770990
997.494504	2954.433747
997.789738	2941.430090
998.084936	2916.307500
998.380099	2882.481358
998.675225	2853.908098
998.970316	2823.918273
999.265371	2784.627520
999.560390	2750.196440
999.855373	2720.166286
1000.150320	2690.057995
1000.445232	2664.126299
1000.740108	2642.154430
1001.034948	2624.701956
1001.329752	2609.215531
1001.624521	2595.561566
1001.919254	2585.096131
1002.213951	2579.961715
1002.508613	2567.933522
1002.803239	2561.473284
1003.097829	2556.749722
1003.392384	2552.691594
1003.686903	2547.022816
1003.981386	2543.178936
1004.275834	2541.187681
1004.570246	2535.917154
1004.864623	2535.287010
1005.158964	2532.088398
1005.453270	2528.426000
1005.747540	2529.913140
1006.041775	2525.406348
1006.335974	2525.083715
1006.630138	2524.733354
1006.924266	2524.793848
1007.218359	2520.400483
1007.512416	2521.859897
1007.806438	2516.959895
1008.100425	2516.324710
1008.394376	2517.201871
1008.688292	2517.910153
1008.982172	2518.497447
1009.276017	2518.000893
1009.569827	2516.395286
1009.863602	2518.225225
1010.157341	2516.480986
1010.451045	2515.218177
1010.744714	2512.914369
1011.038347	2513.640295
1011.331945	2513.617610
1011.625508	2512.470748
1011.919036	2508.498318
1012.212528	2510.413957
1012.505986	2509.181395
1012.799408	2510.257681
1013.092795	2508.485716
1013.386147	2507.744666
1013.679464	2508.009327
1013.972745	2506.219717
1014.265992	2505.302227
1014.559204	2505.889521
1014.852380	2504.989675
1015.145521	2508.037053
1015.438628	2507.696775
1015.731699	2507.674090
1016.024736	2509.171313
1016.317737	2510.227434
1016.610703	2511.883453
1016.903635	2511.843124
1017.196531	2514.736746
1017.489393	2515.674401
1017.782219	2518.850328
1018.075011	2516.216325
1018.367768	2518.031140
1018.660490	2516.768331
1018.953177	2516.768331
1019.245829	2516.768331
