Dividing Wavelength (nm)	Counts (n)	Blue Motor Position (mm): 40.800000	Red Motor Position (mm): 0.000000	
326.493990	2048.863555
326.888308	2048.863555
327.282561	2048.863555
327.676750	2024.061078
328.070874	2026.541326
328.464933	2032.313447
328.858929	2040.250743
329.252859	2052.883875
329.646726	2065.491801
330.040528	2081.187433
330.434265	2100.159816
330.827938	2121.708228
331.221547	2143.080200
331.615091	2161.850936
332.008571	2181.345078
332.401986	2199.931812
332.795338	2222.422920
333.188625	2242.438821
333.581847	2260.569331
333.975006	2278.593977
334.368100	2294.592078
334.761129	2310.950623
335.154095	2329.625577
335.546996	2378.660881
335.939833	2487.509474
336.332606	2494.393170
336.725315	2511.699451
337.117960	2520.788652
337.510540	2533.570497
337.903056	2539.448482
338.295508	2546.107847
338.687896	2553.044474
339.080220	2556.994218
339.472480	2564.205589
339.864676	2568.435117
340.256807	2570.391085
340.648875	2572.894018
341.040879	2571.716908
341.432818	2574.020716
341.824694	2576.044739
342.216506	2573.032649
342.608253	2575.805284
342.999937	2574.474419
343.391557	2573.282187
343.783113	2572.445355
344.174605	2567.976372
344.566033	2566.101063
344.957397	2565.143244
345.348697	2564.992009
345.739934	2562.542008
346.131106	2556.376677
346.522215	2557.808365
346.913260	2555.408776
347.304241	2558.516647
347.695159	2554.178734
348.086012	2555.491955
348.476802	2549.402241
348.867528	2549.495502
349.258191	2544.217414
349.648789	2546.927034
350.039324	2542.369831
350.429796	2546.402754
350.820203	2544.270346
351.210548	2545.928886
351.600828	2543.642722
351.991045	2544.625747
352.381198	2543.637681
352.771288	2542.440407
353.161314	2540.739018
353.551276	2542.624409
353.941175	2539.375386
354.331010	2543.110881
354.720782	2543.514173
355.110490	2547.345450
355.500135	2542.717671
355.889717	2543.310006
356.279235	2544.532486
356.668689	2544.766900
357.058080	2545.389482
357.447408	2543.337733
357.836672	2542.679862
358.225873	2541.260777
358.615010	2544.797147
359.004084	2547.020296
359.393095	2548.141952
359.782043	2546.559030
360.170927	2544.787064
360.559748	2547.932744
360.948505	2549.949206
361.337199	2552.096738
361.725830	2550.692776
362.114398	2552.613456
362.502903	2549.825698
362.891344	2550.302087
363.279722	2549.606407
363.668037	2552.457180
364.056289	2553.999773
364.444478	2553.437684
364.832603	2555.436502
365.220665	2553.230997
365.608665	2555.665874
365.996601	2555.925494
366.384474	2552.996583
366.772284	2556.873231
367.160031	2551.985832
367.547715	2557.846173
367.935336	2556.716955
368.322893	2555.423899
368.710388	2553.838456
369.097820	2554.299722
369.485189	2552.535318
369.872495	2559.025803
370.259738	2557.873900
370.646918	2561.916905
371.034035	2560.742316
371.421090	2561.039744
371.808081	2562.012687
372.195010	2558.803993
372.581875	2561.841288
372.968678	2562.287430
373.355418	2559.832388
373.742096	2563.635939
374.128710	2561.667368
374.515262	2564.208110
374.901751	2567.220199
375.288177	2566.322874
375.674540	2565.007132
376.060841	2566.486711
376.447079	2565.680127
376.833254	2568.356979
377.219367	2568.498132
377.605417	2569.740776
377.991404	2570.086095
378.377329	2569.057700
378.763191	2567.923440
379.148991	2568.760272
379.534727	2570.633060
379.920402	2573.004923
380.306013	2571.381672
380.691563	2572.084912
381.077049	2570.257494
381.462474	2569.902093
381.847835	2570.524675
382.233134	2571.018708
382.618371	2571.724470
383.003545	2575.223031
383.388657	2574.124059
383.773706	2575.749831
384.158693	2572.059707
384.543618	2574.867629
384.928480	2576.001889
385.313280	2576.702609
385.698017	2578.252764
386.082692	2578.885429
386.467305	2578.983732
386.851856	2583.238465
387.236344	2579.470203
387.620770	2581.393403
388.005133	2578.739236
388.389435	2580.380131
388.773674	2579.850810
389.157851	2584.055132
389.541965	2586.263158
389.926018	2588.151070
390.310008	2588.745926
390.693936	2592.483942
391.077802	2591.866400
391.461606	2597.641042
391.845348	2597.096597
392.229027	2600.764037
392.612645	2605.734614
392.996200	2611.451283
393.379694	2617.241048
393.763125	2620.608539
394.146494	2628.843264
394.529801	2638.368524
394.913047	2647.253557
395.296230	2652.372849
395.679351	2662.414828
396.062410	2673.258350
396.445408	2682.133301
396.828343	2697.740713
397.211217	2709.559698
397.594028	2719.337016
397.976778	2733.732031
398.359466	2749.619227
398.742092	2765.282092
399.124656	2780.277005
399.507158	2803.945222
399.889598	2819.560196
400.271977	2847.082375
400.654294	2861.041330
401.036549	2889.823798
401.418742	2911.520924
401.800874	2942.408074
402.182944	2968.969914
402.564952	3013.546317
402.946898	3032.198586
403.328783	3053.787327
403.710606	3091.918615
404.092367	3136.464771
404.474067	3182.866071
404.855705	3202.173691
405.237282	3217.776062
405.618797	3278.968108
406.000250	3335.086232
406.381642	3399.151736
406.762972	3427.140222
407.144240	3434.512910
407.525447	3494.885768
407.906593	3529.823485
408.287677	3599.061212
408.668700	3645.091988
409.049661	3698.271120
409.430560	3749.816918
409.811399	3770.054630
410.192176	3824.892302
410.572891	3899.821492
410.953545	3994.738857
411.334138	3963.821461
411.714669	4065.191503
412.095139	4044.348852
412.475547	4143.893997
412.855894	4174.231660
413.236180	4271.747740
413.616405	4256.939351
413.996568	4356.744115
414.376670	4387.469947
414.756711	4405.171959
415.136691	4488.172037
415.516609	4581.753496
415.896466	4637.077639
416.276262	4729.146752
416.655997	4841.756047
417.035670	4941.364206
417.415283	5075.118620
417.794834	5144.850381
418.174324	5134.120285
418.553753	5167.790151
418.933121	5323.019881
419.312428	5355.091702
419.691674	5320.942926
420.070859	5529.969329
420.449983	5445.978665
420.829045	5636.214167
421.208047	5594.344863
421.586988	5751.555767
421.965867	5827.223486
422.344686	5916.703967
422.723444	6082.381488
423.102141	5763.079844
423.480777	6115.307784
423.859352	5977.107072
424.237866	6313.720038
424.616319	6318.050389
424.994712	6476.340099
425.373044	6417.764412
425.751314	6707.787034
426.129524	6465.642771
426.507673	6721.297326
426.885762	6771.797085
427.263789	6811.642365
427.641756	6905.349853
428.019662	6975.840308
428.397508	7020.799838
428.775292	7018.052409
429.153016	7168.578742
429.530679	7124.773636
429.908282	7177.557037
430.285824	7125.474357
430.663305	7379.309056
431.040726	7290.199100
431.418086	7289.594161
431.795385	7427.593227
432.172624	7607.091072
432.549802	7482.781259
432.926920	7617.700180
433.303977	7574.552944
433.680974	7630.013198
434.057910	7814.821898
434.434786	7861.865946
434.811601	7816.919018
435.188355	8157.678333
435.565050	8056.207468
435.941683	8059.736275
436.318257	8379.751242
436.694770	8318.816295
437.071222	8534.247484
437.447614	8311.723392
437.823946	8287.848487
438.200218	8429.396525
438.576429	8325.634456
438.952580	8473.622568
439.328670	8488.307449
439.704700	8577.951767
440.080670	8466.748955
440.456580	8716.628868
440.832429	8700.058596
441.208218	8449.261192
441.583947	8564.459119
441.959616	8663.510230
442.335224	8706.488587
442.710773	8787.575547
443.086261	8963.332855
443.461689	8699.562042
443.837057	8852.840845
444.212365	9052.525990
444.587612	9050.242348
444.962800	8942.558260
445.337927	9080.970701
445.712995	8635.725911
446.088002	9272.839537
446.462949	9339.206327
446.837837	9345.515331
447.212664	9396.950224
447.587431	10303.992433
447.962139	11263.165213
448.336786	12025.801049
448.711374	11623.159051
449.085901	10485.070679
449.460369	10465.329520
449.834776	10383.478826
450.209124	11297.563527
450.583412	11067.422251
450.957640	11279.254056
451.331808	10875.104752
451.705917	10392.303366
452.079965	10313.013578
452.453954	10514.027067
452.827883	10471.643566
453.201752	10425.821998
453.575562	10450.934506
453.949311	10803.290995
454.323001	10884.511545
454.696632	10797.070211
455.070202	11378.141330
455.443713	11433.460431
455.817164	11593.353228
456.190556	11905.698080
456.563888	11741.079201
456.937160	11957.513579
457.310373	11463.102416
457.683526	11492.467137
458.056619	11538.656709
458.429653	11617.838113
458.802628	11794.442335
459.175542	11850.762106
459.548398	12388.806976
459.921194	12966.369452
460.293930	13289.220068
460.666607	14123.457932
461.039224	14845.741852
461.411782	15104.756337
461.784280	14721.018665
462.156719	14643.664680
462.529099	14552.581112
462.901419	13976.372187
463.273680	13619.294657
463.645882	13847.764790
464.018024	13803.180826
464.390106	14206.657135
464.762130	15373.979158
465.134094	17023.611055
465.505999	19291.545512
465.877845	21298.932973
466.249631	22209.375440
466.621358	21578.863205
466.993026	20761.639235
467.364634	20060.240815
467.736184	19359.996819
468.107674	18815.809303
468.479105	18662.563267
468.850477	18408.690759
469.221790	17979.572620
469.593043	17349.826641
469.964238	17002.841501
470.335373	17110.545753
470.706449	17981.515985
471.077467	19101.680534
471.448425	21430.123961
471.819324	22935.689763
472.190164	22412.034866
472.560945	20751.710682
472.931667	19340.406895
473.302330	19097.962683
473.672934	18648.974837
474.043479	19082.743440
474.413965	18899.003465
474.784393	18733.386437
475.154761	19364.405308
475.525070	19500.423201
475.895321	19337.828345
476.265513	19861.032059
476.635645	20431.138668
477.005719	20507.812097
477.375734	20883.655322
477.745691	21477.467957
478.115588	22148.241367
478.485427	23410.803389
478.855207	25276.347905
479.224928	26982.387793
479.594591	28168.777980
479.964194	27635.892730
480.333739	28029.868986
480.703226	28317.673500
481.072653	28820.959615
481.442022	29315.360696
481.811333	29613.774318
482.180584	29126.834145
482.549777	28920.126673
482.918912	28708.703201
483.287988	28668.706686
483.657005	28501.549587
484.025964	28150.087902
484.394864	28340.154526
484.763706	28285.377348
485.132489	27810.808166
485.501213	27867.916877
485.869879	28070.876252
486.238487	28032.230766
486.607036	28301.544328
486.975527	28018.564198
487.343959	28352.631381
487.712333	28677.170784
488.080648	28659.325099
488.448905	29080.768081
488.817104	29019.996972
489.185244	29899.973225
489.553326	31074.511660
489.921350	32990.434947
490.289315	35374.504985
490.657222	36038.152724
491.025070	36446.970137
491.392861	36079.283499
491.760593	35277.954286
492.128267	34274.114362
492.495883	33351.013558
492.863440	32505.750689
493.230939	31640.741622
493.598380	31133.336884
493.965763	31020.886386
494.333088	30547.975743
494.700354	30387.568749
495.067563	30361.417763
495.434713	30283.612595
495.801805	30574.981205
496.168839	30434.494329
496.535815	30314.119137
496.902733	30457.706322
497.269593	30276.998601
497.636395	30441.836770
498.003139	30738.924569
498.369825	30508.311945
498.736453	30898.114125
499.103023	30765.635122
499.469535	30872.676463
499.835989	31019.285819
500.202385	30879.892874
500.568723	30952.772836
500.935003	31277.433226
501.301226	31189.371830
501.667390	31877.970760
502.033497	32076.904773
502.399546	31877.716182
502.765537	31493.524806
503.131470	31984.336585
503.497345	32409.991452
503.863163	31394.030073
504.228923	32168.172343
504.594625	32570.655545
504.960269	32071.939236
505.325856	32763.023455
505.691385	32439.693930
506.056856	32754.088010
506.422270	33240.214037
506.787625	32788.332568
507.152924	33257.275823
507.518164	33464.792400
507.883347	33030.423899
508.248472	33201.089642
508.613540	33887.329313
508.978550	34147.273890
509.343503	33980.590659
509.708398	34356.401116
510.073236	34968.230835
510.438016	35074.629428
510.802738	34765.115185
511.167403	35326.014126
511.532010	35587.652532
511.896561	36080.947079
512.261053	36820.663310
512.625488	36626.001674
512.989866	36557.499955
513.354186	36611.858717
513.718449	36581.165652
514.082655	37477.949113
514.446803	37190.870525
514.810894	37802.329719
515.174927	37832.513627
515.538904	37826.307967
515.902822	38483.437494
516.266684	38175.259157
516.630488	38546.187257
516.994235	38561.300636
517.357925	39158.132922
517.721558	39405.895551
518.085133	39787.649529
518.448651	39985.361062
518.812112	39876.628415
519.175516	40029.960151
519.538863	40486.378658
519.902152	40538.781452
520.265385	41091.334764
520.628560	41119.166974
520.991678	41084.090626
521.354739	41309.634369
521.717743	41679.342510
522.080690	41589.211720
522.443580	42270.841255
522.806413	42284.432206
523.169189	42436.417953
523.531908	42667.978314
523.894569	42528.890359
524.257174	42737.271494
524.619722	43072.130139
524.982213	43214.537694
525.344647	43244.252775
525.707025	43385.692428
526.069345	43820.529756
526.431608	43737.580090
526.793815	44141.189991
527.155964	43683.294425
527.518057	43947.697903
527.880093	43794.275427
528.242072	44429.211275
528.603995	44170.653014
528.965860	44090.423051
529.327669	44312.027133
529.689421	44379.457607
530.051117	44316.574254
530.412755	44588.370584
530.774337	44679.665880
531.135862	44621.783352
531.497331	44764.563952
531.858743	44766.829951
532.220098	45165.363409
532.581396	44896.075053
532.942638	44653.083876
533.303824	44917.227734
533.664953	44975.185880
534.026025	44655.755687
534.387040	45220.783334
534.747999	45295.130271
535.108902	45613.897552
535.469748	44950.564885
535.830537	45194.249221
536.191270	45447.279856
536.551947	45180.912848
536.912567	45464.447505
537.273131	45624.466331
537.633638	45241.925933
537.994089	45433.817454
538.354483	45188.169589
538.714821	45837.550863
539.075103	46115.510004
539.435328	45975.257542
539.795497	45738.295585
540.155609	45858.582557
540.515665	46443.285827
540.875665	45743.029228
541.235609	46031.466407
541.595496	46152.897721
541.955328	46742.188441
542.315102	46158.858886
542.674821	46050.635395
543.034483	45953.686445
543.394090	45963.216746
543.753640	45938.827644
544.113134	47002.914397
544.472571	46110.514220
544.831953	47243.770646
545.191278	46507.880652
545.550548	46192.990018
545.909761	46842.920777
546.268918	46975.553535
546.628019	47406.594874
546.987064	46855.168261
547.346053	46137.126471
547.704986	47041.068370
548.063863	46687.960749
548.422684	46875.721045
548.781449	46461.960781
549.140158	47019.933333
549.498811	46779.475336
549.857408	46161.994483
550.215949	47008.711724
550.574434	46838.769387
550.932864	46779.891231
551.291237	47499.596601
551.649555	47259.985517
552.007817	47447.765977
552.366022	47118.868498
552.724173	47162.555137
553.082267	47584.592975
553.440305	47934.585163
553.798288	47169.403544
554.156215	47574.760205
554.514086	47757.998585
554.871902	47398.760921
555.229661	47560.279490
555.587365	47238.860562
555.945014	47391.673059
556.302606	47389.275990
556.660143	47511.155967
557.017625	47718.788491
557.375050	47409.228877
557.732421	47821.552412
558.089735	47890.638905
558.446994	47760.229296
558.804197	48248.210467
559.161345	48102.359804
559.518437	47465.057135
559.875474	47695.458031
560.232455	47926.022763
560.589381	47995.177312
560.946251	47786.740724
561.303065	48456.359710
561.659825	48134.729053
562.016528	47956.917475
562.373177	47528.840334
562.729770	48157.527672
563.086307	47675.580761
563.442789	48227.861850
563.799216	48069.352850
564.155587	47963.329823
564.511904	47942.409034
564.868164	47978.970002
565.224370	48285.613308
565.580520	48032.701141
565.936615	48230.783199
566.292654	47873.231800
566.648638	48237.913911
567.004567	48174.796144
567.360441	48269.277449
567.716260	47992.873505
568.072023	48351.670068
568.427732	48292.557498
568.783385	47825.605499
569.138982	48229.154906
569.494525	48362.690030
569.850013	47965.895770
570.205445	48090.356817
570.560823	47880.533912
570.916145	47729.140500
571.271412	47981.964448
571.626625	47625.196949
571.981782	47696.882157
572.336884	47294.061197
572.691931	47624.566805
573.046923	47285.723128
573.401860	47129.349057
573.756743	47139.484296
574.111570	47279.318342
574.466342	47191.282152
574.821059	47340.336468
575.175722	46831.636154
575.530330	46947.454143
575.884882	46587.833352
576.239380	46465.913046
576.593823	46567.434322
576.948211	46511.626229
577.302544	46059.283494
577.656823	46038.312294
578.011047	46317.234295
578.365216	46140.264590
578.719330	45848.853130
579.073389	45819.125446
579.427394	45886.112298
579.781344	45809.645556
580.135239	45575.118476
580.489080	45622.719571
580.842866	45105.378719
581.196597	45607.381861
581.550273	45600.263751
581.903895	45516.015988
582.257463	45982.176526
582.610975	45405.982723
582.964434	45734.918012
583.317837	45242.437610
583.671186	45190.460793
584.024481	45466.900026
584.377721	45021.483837
584.730906	45220.995062
585.084037	45342.885121
585.437113	45047.808743
585.790135	45176.017888
586.143103	44739.312812
586.496016	44893.428447
586.848874	44991.050391
587.201679	45020.652047
587.554428	44527.657447
587.907124	44794.815916
588.259765	44577.196866
588.612352	44722.951748
588.964884	44170.927757
589.317362	44490.509185
589.669786	44487.310573
590.022155	44353.094893
590.374470	44807.580118
590.726731	44367.144588
591.078937	43713.064959
591.431090	44063.251232
591.783188	43597.365437
592.135232	43388.802820
592.487222	43637.679545
592.839157	43790.413903
593.191038	43427.735652
593.542866	43223.488262
593.894639	42638.512770
594.246358	42936.601238
594.598022	42932.268366
594.949633	42497.594876
595.301190	42482.942762
595.652692	42417.017073
596.004141	42896.221596
596.355535	41808.688435
596.706876	41831.156858
597.058162	41549.996585
597.409395	42043.835577
597.760573	42252.385591
598.111698	41862.107022
598.462768	41778.728858
598.813785	41803.848928
599.164748	41392.337019
599.515657	41680.249918
599.866511	41172.131857
600.217312	41872.214536
600.568060	40792.152365
600.918753	41635.343319
601.269392	41548.514485
601.619978	41266.141814
601.970510	41473.723927
602.320988	41615.438323
602.671412	41873.111861
603.021783	41736.519277
603.372100	41307.310397
603.722363	41418.903899
604.072572	41451.956225
604.422728	41450.108642
604.772830	41235.322720
605.122878	41374.813968
605.472872	41231.133522
605.822813	41496.053718
606.172701	41259.900866
606.522534	41580.530853
606.872314	41792.496249
607.222041	41614.483025
607.571714	41945.369240
607.921333	41443.945831
608.270899	41641.183496
608.620411	42055.094994
608.969870	41761.541044
609.319276	41796.675366
609.668627	41826.014881
610.017926	42222.453740
610.367171	42358.905172
610.716362	42392.640573
611.065500	42271.363015
611.414585	42503.430012
611.763616	42683.076570
612.112594	42576.312493
612.461518	42701.247409
612.810389	43097.855147
613.159207	42887.518044
613.507971	42866.849313
613.856682	43359.196124
614.205340	43168.847196
614.553945	43864.609606
614.902496	43184.018548
615.250994	43623.292092
615.599439	43682.843242
615.947830	43799.911437
616.296169	43791.878358
616.644454	43824.940766
616.992686	43968.074247
617.340864	44442.706443
617.688990	43946.495588
618.037063	44631.220392
618.385082	44446.104181
618.733048	44794.029496
619.080961	44654.182847
619.428821	44684.737281
619.776628	44710.507659
620.124382	44528.968147
620.472083	44637.932688
620.819731	44729.931225
621.167326	44293.412672
621.514868	44290.118278
621.862357	43759.476342
622.209793	43845.319630
622.557176	43407.598762
622.904506	43187.696070
623.251783	42788.015749
623.599007	42483.593071
623.946179	42418.894903
624.293297	42143.090855
624.640363	41600.362753
624.987376	41450.166615
625.334336	41244.782446
625.681243	40848.053720
626.028097	40743.341393
626.374899	40556.107898
626.721647	40536.109641
627.068343	40324.527373
627.414987	40024.503102
627.761577	39777.337849
628.108115	40096.649575
628.454600	39331.450312
628.801032	39571.794883
629.147412	39458.764652
629.493739	39365.909119
629.840014	38934.565311
630.186236	39354.710196
630.532405	38805.176536
630.878521	39044.162516
631.224585	38800.130341
631.570597	38450.090262
631.916556	38646.029829
632.262462	38516.648616
632.608316	38461.780697
632.954117	38318.395158
633.299866	38282.045919
633.645562	38200.427117
633.991206	37658.818151
634.336797	37253.327900
634.682336	37156.822572
635.027823	36918.597805
635.373257	36791.709443
635.718639	36466.413867
636.063968	36361.152054
636.409245	35714.790432
636.754470	35662.869067
637.099642	35433.693172
637.444762	34858.260584
637.789829	35013.510479
638.134845	34628.920852
638.479808	34543.072523
638.824719	34491.360366
639.169577	33981.316585
639.514383	34075.560956
639.859137	33694.762277
640.203839	33853.435115
640.548489	33555.881009
640.893086	33548.226017
641.237632	33291.648930
641.582125	33388.698703
641.926566	33183.964843
642.270955	33205.021742
642.615292	33143.764161
642.959576	33018.841848
643.303809	33030.494476
643.647990	33117.144348
643.992118	33066.054775
644.336195	32904.185845
644.680219	32990.170286
645.024192	33206.047617
645.368112	33728.190168
645.711981	33746.292951
646.055797	34458.182012
646.399562	34251.961011
646.743274	35147.093494
647.086935	35534.453235
647.430544	35487.590669
647.774101	35541.004214
648.117606	35840.146284
648.461059	35981.265824
648.804460	35562.976083
649.147810	35064.842028
649.491108	34734.530504
649.834354	34575.792132
650.177548	33740.321705
650.520690	33260.126595
650.863781	33252.401027
651.206820	33058.790472
651.549807	32648.440549
651.892742	32068.566704
652.235626	31982.705772
652.578458	31844.373990
652.921238	31157.998209
653.263967	31467.058748
653.606644	31165.494404
653.949269	31069.054611
654.291843	30687.081343
654.634365	31048.027958
654.976836	30576.309549
655.319255	30655.952218
655.661622	30516.370229
656.003938	30403.203887
656.346203	30211.143488
656.688416	30444.006987
657.030577	30223.166639
657.372687	30048.830937
657.714746	30202.034122
658.056753	30390.275848
658.398708	29772.311045
658.740612	29839.257568
659.082465	30063.150334
659.424266	29942.361767
659.766016	29957.172677
660.107715	29796.281732
660.449362	29921.945094
660.790958	29887.854291
661.132503	29816.461471
661.473996	29891.408305
661.815438	29958.125455
662.156829	30084.449209
662.498168	29884.819517
662.839456	29866.784789
663.180693	30000.957619
663.521879	30078.566183
663.863013	30046.741378
664.204097	30014.069660
664.545129	30438.373497
664.886110	30361.218637
665.227040	30461.255294
665.567918	30457.507197
665.908746	30547.317873
666.249522	30630.630502
666.590248	30652.438533
666.930922	30749.659706
667.271545	30746.559396
667.612118	30803.799178
667.952639	30609.003952
668.293109	30649.643214
668.633528	30512.123057
668.973896	30466.346860
669.314213	30452.080394
669.654480	30257.489335
669.994695	30257.590158
670.334859	30173.488589
670.674973	30001.590284
671.015035	30198.643947
671.355047	30130.288421
671.695008	30060.198738
672.034918	29957.666710
672.374777	30061.494315
672.714585	29915.194989
673.054342	30056.178418
673.394049	29898.317206
673.733705	30126.467226
674.073310	29850.164105
674.412864	29906.035213
674.752368	29596.354611
675.091820	29821.192593
675.431223	29430.188098
675.770574	29234.447656
676.109875	29075.595857
676.449125	28867.837304
676.788324	28770.842984
677.127473	28276.431820
677.466571	28182.936061
677.805619	27905.980109
678.144616	27846.794443
678.483562	27791.346792
678.822458	27468.055075
679.161303	27400.954797
679.500098	27316.076889
679.838842	27263.379188
680.177535	27335.641607
680.516179	27571.045848
680.854771	27690.473303
681.193314	28450.737276
681.531805	29454.093250
681.870247	30189.605158
682.208638	30931.612592
682.546978	31192.693950
682.885268	31353.559690
683.223508	30909.907904
683.561697	30647.977112
683.899836	30482.833953
684.237925	30077.101727
684.575963	29928.226372
684.913951	29550.911130
685.251889	29719.373889
685.589776	29749.613250
685.927614	29754.969476
686.265401	29934.079152
686.603137	30025.077020
686.940824	30522.638904
687.278460	30863.224299
687.616046	31027.691943
687.953582	31683.881296
688.291068	31611.233228
688.628504	31944.186316
688.965889	31944.839145
689.303224	31685.078570
689.640510	31413.171334
689.977745	30798.145524
690.314930	30069.381200
690.652065	29628.527255
690.989150	28971.057450
691.326185	28136.204564
691.663170	27485.472261
692.000105	26758.641220
692.336990	26140.696582
692.673825	25713.889812
693.010610	25214.571085
693.347345	24718.816454
693.684030	24085.405556
694.020665	23892.715012
694.357251	23206.898799
694.693786	23212.411300
695.030272	22985.261949
695.366707	22476.339824
695.703093	22198.783976
696.039429	22260.603646
696.375716	22030.051516
696.711952	22028.438346
697.048139	21878.401005
697.384276	21721.593394
697.720363	21838.598575
698.056400	21735.292730
698.392388	21577.618040
698.728326	21563.686812
699.064214	21413.107546
699.400053	21410.793657
699.735842	21022.304697
700.071581	20837.569094
700.407270	20579.245247
700.742910	20405.282590
701.078501	20157.804786
701.414042	19950.966243
701.749533	19645.608432
702.084974	19334.309620
702.420366	19580.179296
702.755709	19151.086363
703.091002	18847.087142
703.426246	18902.938085
703.761440	18843.465073
704.096584	18605.436912
704.431679	18545.963899
704.766725	18484.277820
705.101721	18410.424916
705.436668	18523.250980
705.771565	18247.434330
706.106413	18568.825532
706.441212	18636.041757
706.775961	18733.514987
707.110661	18809.258323
707.445311	19167.233178
707.779913	19053.076250
708.114465	19331.645370
708.448967	19645.638678
708.783421	20263.416959
709.117825	20634.332456
709.452180	20859.001559
709.786485	21301.748458
710.120742	22068.951579
710.454949	22171.881858
710.789107	22681.620650
711.123216	23397.013313
711.457275	23615.096149
711.791286	24179.773435
712.125247	24327.877494
712.459159	24071.610438
712.793023	24832.822149
713.126837	23814.809020
713.460602	24073.352157
713.794318	23749.395008
714.127985	23495.041070
714.461602	22590.821908
714.795171	22569.497827
715.128691	21599.199220
715.462162	21093.591654
715.795584	20651.757204
716.128957	20380.502798
716.462281	20001.586990
716.795556	19713.162414
717.128782	19239.432584
717.461960	18639.265574
717.795088	18601.477085
718.128167	18257.861957
718.461198	17793.629661
718.794180	17654.874422
719.127113	17325.097261
719.459997	17135.733878
719.792833	16768.135460
720.125619	16806.110472
720.458357	16471.047661
720.791046	16331.879048
721.123686	16176.253587
721.456278	15954.760411
721.788821	15942.530571
722.121315	15680.992989
722.453761	15771.501865
722.786158	15667.414641
723.118506	15742.757206
723.450805	15616.962774
723.783056	15795.069260
724.115259	15684.862075
724.447412	15674.560477
724.779518	15899.148922
725.111574	15949.384020
725.443582	16215.045266
725.775542	16162.370249
726.107453	16678.990216
726.439315	16594.813029
726.771129	17010.551946
727.102895	17437.305783
727.434612	17708.111527
727.766281	17867.220425
728.097901	18193.751083
728.429473	18277.872817
728.760996	18297.823183
729.092471	18428.210107
729.423897	18325.327719
729.755276	18190.693623
730.086606	18298.022309
730.417887	18878.228870
730.749120	19427.807900
731.080305	19641.623399
731.411442	20044.189781
731.742530	20164.048255
732.073570	20335.016467
732.404562	20653.115795
732.735506	20502.193731
733.066401	20303.703340
733.397249	19825.295319
733.728048	19197.926244
734.058798	18335.772989
734.389501	17574.097493
734.720156	17063.962971
735.050762	16476.915564
735.381320	16087.904845
735.711831	15811.846220
736.042293	15432.517037
736.372707	15471.951463
736.703073	15249.029119
737.033391	15452.638802
737.363661	15438.145485
737.693883	15561.903291
738.024056	15755.123157
738.354182	15967.363295
738.684260	16327.125239
739.014290	16601.613546
739.344272	16827.021178
739.674207	17176.320208
740.004093	17354.368720
740.333931	17414.618071
740.663722	17496.582191
740.993464	17541.970220
741.323159	17390.155872
741.652806	17095.818022
741.982405	16938.546625
742.311956	16581.658138
742.641460	16475.383053
742.970915	16141.830068
743.300323	15809.343287
743.629683	15588.119812
743.958996	15278.166988
744.288260	14951.953923
744.617477	14646.729702
744.946647	14618.776503
745.275768	14305.060458
745.604842	14100.261063
745.933869	13917.955296
746.262847	13887.758784
746.591778	13804.781392
746.920662	13678.099716
747.249498	13683.874358
747.578286	13841.657432
747.907027	14014.082538
748.235720	14284.724444
748.564365	14350.846738
748.892963	14270.495787
749.221514	14376.092837
749.550017	14241.393206
749.878473	14213.744998
750.206881	13995.334487
750.535242	13913.004883
750.863555	13835.451772
751.191821	13735.619282
751.520039	13755.761212
751.848210	13681.066435
752.176334	13721.796438
752.504411	13645.533863
752.832440	13467.717243
753.160421	13584.261158
753.488356	13476.753511
753.816243	13375.882543
754.144082	13223.271693
754.471875	13169.737160
754.799620	13138.229948
755.127318	13113.805558
755.454969	13099.135800
755.782572	13070.958271
756.110129	13082.570568
756.437638	12985.485507
756.765100	12987.832164
757.092515	13001.718023
757.419882	13045.150083
757.747203	13065.654977
758.074477	13151.478100
758.401703	13132.891366
758.728882	13327.827744
759.056014	13366.669835
759.383099	13536.954970
759.710138	13660.818641
760.037129	13782.708700
760.364073	13844.896374
760.690970	13870.661711
761.017820	13895.053334
761.344623	14112.828659
761.671379	14490.700949
761.998088	15179.320044
762.324751	16925.611024
762.651366	20301.104625
762.977935	24761.913279
763.304456	27743.511283
763.630931	28845.762092
763.957359	27694.609570
764.283740	25457.436234
764.610074	23210.074726
764.936362	20577.866492
765.262602	18710.118992
765.588796	16775.886234
765.914943	15474.298120
766.241044	14363.371485
766.567097	13572.384200
766.893104	12850.755629
767.219064	12371.130170
767.544978	11891.298024
767.870845	11505.894250
768.196665	11279.649786
768.522438	11045.611698
768.848165	10843.095946
769.173846	10631.992587
769.499479	10504.317804
769.825066	10345.586993
770.150607	10108.315005
770.476101	10019.038691
770.801548	9897.536801
771.126949	9740.462009
771.452303	9634.222212
771.777611	9431.701418
772.102872	9421.730016
772.428087	9285.034088
772.753256	9119.711968
773.078378	9028.968678
773.403453	8852.167851
773.728482	8738.865398
774.053465	8661.735744
774.378401	8559.846463
774.703291	8438.294162
775.028135	8315.335378
775.352932	8276.440356
775.677683	8176.265067
776.002388	8066.826658
776.327046	8072.611382
776.651658	7978.976991
776.976224	7876.704582
777.300743	7873.422791
777.625216	7786.306611
777.949643	7738.702996
778.274024	7757.594720
778.598359	7667.428642
778.922647	7689.067795
779.246889	7636.526369
779.571086	7644.337637
779.895236	7649.086404
780.219339	7658.243660
780.543397	7658.720049
780.867409	7739.151658
781.191374	7748.873523
781.515294	7716.000159
781.839167	7812.535735
782.162995	7782.112371
782.486776	7729.381902
782.810511	7684.180396
783.134201	7596.348373
783.457844	7593.767302
783.781441	7535.231944
784.104993	7471.841955
784.428498	7448.529139
784.751958	7427.290758
785.075372	7403.952736
785.398739	7351.199582
785.722061	7391.856488
786.045337	7394.258597
786.368568	7553.231384
786.691752	7577.592760
787.014891	7918.639420
787.337983	8267.341073
787.661030	8854.897636
787.984031	9477.817893
788.306987	9882.461230
788.629897	10093.370504
788.952760	10047.251508
789.275579	9830.076080
789.598351	9435.066388
789.921078	9089.838091
790.243759	8677.688476
790.566395	8390.993015
790.888984	8135.225034
791.211529	7930.647449
791.534027	7699.936522
791.856480	7499.044021
792.178888	7430.156654
792.501249	7328.194276
792.823566	7163.782085
793.145836	7170.345667
793.468062	7140.207129
793.790241	7088.799962
794.112375	7161.180849
794.434464	7312.536452
794.756507	7347.247317
795.078505	7505.547110
795.400457	7817.337434
795.722364	8156.145822
796.044226	8446.407899
796.366042	8727.570693
796.687812	8678.976490
797.009538	8762.652083
797.331218	8661.266917
797.652852	8573.137465
797.974442	8423.878982
798.295986	8339.916044
798.617484	8140.818194
798.938938	8004.644026
799.260346	7901.570073
799.581709	7701.378293
799.903026	7623.379040
800.224299	7517.282916
800.545526	7346.198757
800.866708	7252.808862
801.187845	7175.437232
801.508936	7076.638179
801.829983	7037.362549
802.150984	6884.325721
802.471940	6840.941551
802.792851	6824.174673
803.113717	6794.048738
803.434538	6757.714622
803.755314	6701.006682
804.076045	6699.443924
804.396731	6639.000490
804.717372	6675.228742
805.037967	6674.061715
805.358518	6718.993519
805.679024	6800.370345
805.999485	6804.748587
806.319901	6845.576892
806.640272	6866.699327
806.960598	6946.006759
807.280879	6942.878723
807.601115	7026.677823
807.921306	6977.476162
808.241453	6990.593244
808.561554	7014.543766
808.881611	6983.250804
809.201623	6989.499314
809.521590	6939.155831
809.841513	6920.569097
810.161390	6958.798687
810.481223	6826.990158
810.801011	6807.465769
811.120755	6796.334901
811.440453	6707.356015
811.760107	6680.181676
812.079716	6650.431306
812.399281	6588.041986
812.718801	6572.348874
813.038276	6527.180136
813.357707	6469.327854
813.677093	6508.918556
813.996434	6408.284522
814.315731	6455.482325
814.634983	6453.289423
814.954191	6469.905066
815.273354	6570.029943
815.592473	6634.007227
815.911547	6755.945177
816.230577	6834.685479
816.549562	6990.026114
816.868502	7090.700477
817.187399	7189.360899
817.506250	7347.154056
817.825058	7370.792026
818.143821	7644.846793
818.462539	7916.711179
818.781213	8282.519987
819.099843	8823.846649
819.418429	9821.932096
819.736970	10787.320619
820.055466	11973.693163
820.373919	13510.796423
820.692327	15867.130033
821.010691	19987.741461
821.329011	28968.499064
821.647286	41959.171919
821.965517	55453.234232
822.283704	60891.520096
822.601847	62928.766311
822.919945	60310.015438
823.237999	56210.967546
823.556010	50132.613940
823.873976	43412.846604
824.191897	36859.913733
824.509775	31981.148056
824.827609	27401.221978
825.145398	24772.625731
825.463144	23357.841027
825.780845	23636.911742
826.098502	25368.749735
826.416116	29121.145203
826.733685	32734.185535
827.051210	33911.945267
827.368692	32157.590961
827.686129	28205.941366
828.003522	24107.074956
828.320872	20396.929398
828.638177	17538.741361
828.955439	15365.252921
829.272656	13554.775449
829.589830	12067.405692
829.906960	10787.663418
830.224046	9831.215381
830.541088	9070.855626
830.858086	8609.345553
831.175041	8228.408242
831.491952	8107.687731
831.808819	8141.143348
832.125642	8538.940798
832.442421	9415.226927
832.759157	11199.603825
833.075849	14111.684318
833.392497	17318.258935
833.709101	19523.443630
834.025662	19388.975892
834.342179	17724.154999
834.658653	15545.968204
834.975083	13609.212349
835.291469	11983.944349
835.607811	10653.412450
835.924110	9737.258356
836.240366	8870.079071
836.556578	8062.942449
836.872746	7415.018069
837.188871	6905.894298
837.504952	6488.002809
837.820990	6170.447925
838.136984	5954.215193
838.452935	5855.753896
838.768842	5880.218616
839.084706	6296.252440
839.400526	7492.919019
839.716303	9076.100946
840.032037	10185.989103
840.347727	10130.208736
840.663373	9165.757867
840.978977	8113.490099
841.294537	7305.400699
841.610054	6702.788730
841.925527	6266.824704
842.240957	5898.558333
842.556344	5565.559875
842.871687	5278.425834
843.186987	4994.608873
843.502244	4770.890027
843.817458	4600.705714
844.132629	4465.282678
844.447756	4367.179303
844.762840	4288.988487
845.077881	4215.407805
845.392879	4151.422960
845.707833	4099.637707
846.022745	4057.922159
846.337613	4025.300852
846.652438	3982.871981
846.967221	3966.987305
847.281960	3932.694856
847.596656	3911.980755
847.911309	3897.129516
848.225919	3870.509703
848.540485	3853.067311
848.855009	3841.550795
849.169490	3817.577588
849.483928	3805.632573
849.798323	3801.856749
850.112675	3775.209210
850.426984	3785.707413
850.741251	3770.709980
851.055474	3766.291409
851.369654	3771.443468
851.683792	3768.133951
851.997887	3773.505300
852.311938	3773.742234
852.625947	3781.061990
852.939914	3767.118158
853.253837	3774.289199
853.567718	3778.065024
853.881555	3767.171090
854.195350	3779.705919
854.509103	3776.552678
854.822812	3774.339611
855.136479	3763.092797
855.450103	3774.208541
855.763685	3762.197992
856.077224	3763.735544
856.390720	3781.508132
856.704173	3800.520843
857.017584	3812.798574
857.330953	3824.226869
857.644278	3845.772761
857.957561	3852.212835
858.270802	3852.699306
858.584000	3856.679297
858.897155	3849.909028
859.210268	3832.557376
859.523339	3809.310095
859.836367	3809.297492
860.149352	3797.735606
860.462295	3795.094041
860.775195	3783.655663
861.088054	3779.007719
861.400869	3775.209210
861.713642	3775.189045
862.026373	3791.585398
862.339062	3792.213022
862.651708	3810.842606
862.964312	3845.369469
863.276873	3859.608208
863.589392	3912.973862
863.901869	3963.428251
864.214303	4006.038603
864.526696	4038.460784
864.839045	4087.128084
865.151353	4111.701188
865.463619	4124.543528
865.775842	4128.654588
866.088023	4148.448679
866.400162	4139.848471
866.712258	4148.289883
867.024313	4150.172754
867.336325	4147.115294
867.648296	4153.686438
867.960224	4153.426818
868.272110	4162.876461
868.583954	4168.819982
868.895755	4182.030325
869.207515	4176.681661
869.519233	4219.796129
869.830909	4233.878593
870.142542	4255.237962
870.454134	4271.472998
870.765684	4302.221515
871.077191	4342.263400
871.388657	4363.640413
871.700081	4401.219695
872.011463	4441.009522
872.322803	4475.470850
872.634101	4510.297661
872.945357	4549.200245
873.256571	4602.512968
873.567744	4635.683760
873.878874	4651.507942
874.189963	4693.835990
874.501010	4699.300601
874.812015	4699.643399
875.122979	4745.401953
875.433900	4740.156632
875.744780	4755.864868
876.055618	4781.078199
876.366415	4786.021050
876.677169	4808.287827
876.987882	4850.683930
877.298554	4905.945059
877.609183	4985.837265
877.919771	5092.059418
878.230317	5241.922839
878.540822	5456.212207
878.851285	5781.890910
879.161707	6244.993987
879.472087	7002.245871
879.782425	8233.784632
880.092722	10423.200598
880.402977	13744.895005
880.713191	17520.578083
881.023363	21262.712283
881.333494	23523.805894
881.643583	24767.035091
881.953631	24780.527739
882.263637	23953.216420
882.573602	22480.639929
882.883526	20922.789800
883.193408	19247.029603
883.503248	17535.905712
883.813048	15988.097561
884.122806	14534.614440
884.432522	13053.921691
884.742197	11769.234045
885.051831	10667.767135
885.361424	9648.546651
885.670975	8815.889188
885.980485	8112.479348
886.289954	7529.943774
886.599382	7051.054323
886.908768	6662.628378
887.218113	6299.451052
887.527417	6008.863821
887.836680	5734.980453
888.145901	5508.685577
888.455082	5343.935628
888.764221	5194.014234
889.073319	5055.858892
889.382376	4984.012367
889.691392	4923.447945
890.000366	4895.038522
890.309300	4881.775247
890.618193	4882.748189
890.927044	4869.018607
891.235855	4889.067276
891.544625	4918.590793
891.853353	4982.711750
892.162041	5098.370942
892.470687	5286.521927
892.779293	5534.347571
893.087858	5907.826495
893.396381	6494.435321
893.704864	7292.094573
894.013306	8446.188609
894.321707	9624.921283
894.630068	10443.854205
894.938387	10652.552933
895.246665	10423.230845
895.554903	9829.302263
895.863100	9129.524574
896.171256	8569.522958
896.479371	8060.948673
896.787446	7559.444606
897.095480	7128.551981
897.403473	6811.181099
897.711425	6493.835424
898.019336	6218.371654
898.327207	5944.936949
898.635038	5715.267021
898.942827	5465.044308
899.250576	5268.824957
899.558284	5077.124999
899.865952	4951.938026
900.173579	4803.153411
900.481165	4693.120146
900.788711	4601.353502
901.096216	4527.137635
901.403681	4466.250579
901.711105	4440.412145
902.018489	4422.949588
902.325832	4489.696986
902.633135	4616.023260
902.940397	4957.395075
903.247619	5742.663171
903.554800	7187.654469
903.861941	9108.656718
904.169041	10649.926492
904.476101	11307.096348
904.783121	10965.250665
905.090100	10221.098219
905.397039	9386.706599
905.703938	8626.757698
906.010796	7928.376409
906.317614	7368.757921
906.624391	6825.845816
906.931129	6401.720940
907.237826	5993.231203
907.544483	5612.309015
907.851099	5234.146859
908.157675	4876.204772
908.464211	4551.226789
908.770707	4315.245336
909.077163	4110.057772
909.383578	3962.586378
909.689954	3844.663707
909.996289	3768.859877
910.302584	3708.290413
910.608839	3674.827234
910.915054	3640.199548
911.221229	3624.919811
911.527363	3639.529075
911.833458	3653.906446
912.139513	3676.657173
912.445527	3708.759241
912.751502	3789.757980
913.057436	3895.995256
913.363331	4027.075338
913.669186	4237.601485
913.975000	4495.012882
914.280775	4920.927368
914.586510	5501.857334
914.892205	6304.202339
915.197859	7339.839342
915.503475	8568.121517
915.809050	9627.628383
916.114585	10281.468557
916.420081	10539.353823
916.725536	10518.304486
917.030952	10078.400798
917.336328	9672.235033
917.641665	9251.545703
917.946961	8778.740925
918.252218	8359.493365
918.557435	7847.352464
918.862612	7408.358705
919.167750	7036.044287
919.472848	6607.578978
919.777906	6230.137707
920.082925	5867.809816
920.387904	5501.736347
920.692843	5229.952619
920.997743	4981.174198
921.302603	4743.574535
921.607423	4577.755861
921.912204	4412.436262
922.216946	4292.156852
922.521647	4173.425076
922.826310	4069.552101
923.130932	3972.318325
923.435516	3870.723952
923.740059	3801.483704
924.044564	3721.687280
924.349028	3659.739061
924.653454	3598.254628
924.957840	3527.391128
925.262186	3484.667349
925.566493	3417.332657
925.870761	3362.207640
926.174989	3324.527536
926.479178	3289.471352
926.783328	3245.492326
927.087438	3217.133315
927.391509	3181.850279
927.695541	3152.029333
927.999533	3125.593522
928.303486	3104.904627
928.607400	3088.689756
928.911275	3074.209041
929.215110	3053.648695
929.518906	3049.131822
929.822663	3045.938251
930.126381	3044.821635
930.430060	3050.407233
930.733699	3051.833880
931.037299	3060.446691
931.340861	3059.612380
931.644383	3068.510017
931.947866	3067.428689
932.251309	3061.976682
932.554714	3061.593554
932.858080	3055.808830
933.161407	3047.022099
933.464694	3036.395346
933.767943	3031.555839
934.071153	3027.442257
934.374323	3017.044877
934.677455	3010.730832
934.980548	3002.649863
935.283602	2997.129799
935.586617	2995.115858
935.889593	3005.336798
936.192530	3009.442817
936.495428	3023.200126
936.798287	3042.401881
937.101108	3076.187694
937.403890	3128.139305
937.706632	3186.566278
938.009336	3264.515120
938.312002	3339.436748
938.614628	3402.244484
938.917216	3455.806743
939.219765	3487.152638
939.522275	3522.531456
939.824747	3525.835932
940.127179	3524.358874
940.429573	3518.029705
940.731929	3517.565919
941.034246	3500.247035
941.336524	3495.087414
941.638763	3473.869198
941.940964	3462.085501
942.243126	3418.807195
942.545250	3398.735841
942.847335	3365.128989
943.149381	3325.739933
943.451389	3295.006539
943.753359	3258.415323
944.055290	3233.675861
944.357182	3208.586038
944.659036	3195.935263
944.960851	3183.924714
945.262628	3165.993329
945.564367	3169.812003
945.866067	3164.836385
946.167729	3162.577948
946.469352	3158.320693
946.770937	3154.570075
947.072484	3140.875780
947.373992	3144.941471
947.675462	3136.505100
947.976893	3118.533387
948.278286	3107.301696
948.579641	3100.460850
948.880958	3097.826847
949.182236	3101.348093
949.483476	3092.566403
949.784678	3090.088676
950.085841	3095.694439
950.386967	3103.881273
950.688054	3118.843417
950.989103	3140.865698
951.290114	3164.543998
951.591087	3189.396886
951.892021	3216.871175
952.192917	3246.684558
952.493776	3268.177518
952.794596	3277.725463
953.095378	3285.463634
953.396122	3278.395937
953.696828	3273.140534
953.997496	3260.940942
954.298126	3237.265163
954.598718	3218.222204
954.899272	3191.577185
955.199788	3165.834533
955.500266	3134.239101
955.800706	3094.749223
956.101108	3060.892833
956.401472	3028.074922
956.701798	2998.455623
957.002087	2954.527008
957.302337	2928.002977
957.602550	2895.918553
957.902724	2868.882845
958.202861	2844.458455
958.502960	2823.076401
958.803022	2802.851292
959.103045	2781.378497
959.403031	2763.109355
959.702979	2750.819022
960.002889	2737.185222
960.302762	2723.097717
960.602596	2714.447097
960.902393	2701.423276
961.202153	2695.111752
961.501875	2687.396266
961.801559	2680.338650
962.101205	2675.226920
962.400814	2669.822803
962.700385	2662.863490
962.999918	2655.732778
963.299414	2650.343785
963.598873	2647.777837
963.898293	2637.894655
964.197677	2639.795170
964.497022	2638.171919
964.796331	2636.727628
965.095601	2632.402318
965.394835	2631.005919
965.694030	2630.826958
965.993189	2626.645321
966.292309	2628.021556
966.591393	2625.868983
966.890439	2623.381173
967.189447	2623.875207
967.488419	2625.634569
967.787353	2626.115999
968.086249	2627.454426
968.385108	2627.890486
968.683930	2631.207565
968.982714	2636.175622
969.281462	2640.175777
969.580172	2643.873464
969.878844	2648.425626
970.177480	2659.503561
970.476078	2666.732576
970.774639	2676.335974
971.073162	2679.330419
971.371649	2685.974660
971.670098	2693.133099
971.968510	2699.797504
972.266885	2702.212217
972.565223	2706.938298
972.863524	2708.490974
973.161788	2713.267467
973.460014	2713.605224
973.758204	2716.695452
974.056356	2720.153683
974.354471	2720.919939
974.652550	2721.718962
974.950591	2720.204095
975.248595	2721.971019
975.546563	2716.884495
975.844493	2715.281408
976.142386	2707.182794
976.440243	2704.972248
976.738062	2698.892617
977.035845	2692.991946
977.333590	2688.283509
977.631299	2677.906293
977.928971	2676.283042
978.226606	2668.565035
978.524204	2668.383554
978.821765	2663.362565
979.119290	2663.914571
979.416777	2663.707884
979.714228	2665.903306
980.011642	2668.814572
980.309020	2676.759431
980.606360	2690.398273
980.903664	2715.755277
981.200931	2751.292891
981.498162	2801.152423
981.795356	2876.237889
982.092513	2965.544450
982.389633	3070.045048
982.686717	3165.947959
982.983764	3239.541243
983.280775	3291.762556
983.577749	3300.156077
983.874686	3284.571350
984.171587	3256.459356
984.468451	3214.635423
984.765279	3173.464319
985.062070	3127.466311
985.358824	3080.744897
985.655543	3020.893798
985.952224	2966.923205
986.248869	2903.906262
986.545478	2845.186902
986.842050	2791.654889
987.138586	2742.095305
987.435086	2703.205324
987.731549	2674.432938
988.027975	2649.252375
988.324366	2628.646659
988.620719	2615.796757
988.917037	2604.091198
989.213318	2597.721700
989.509563	2586.989084
989.805772	2583.306521
990.101944	2579.021540
990.398080	2575.971642
990.694180	2574.507187
990.990244	2574.877712
991.286271	2573.624985
991.582262	2574.930644
991.878217	2580.155800
992.174136	2582.482292
992.470019	2583.946747
992.765865	2588.556883
993.061676	2591.997470
993.357450	2599.286979
993.653188	2607.945160
993.948890	2627.719086
994.244556	2647.004020
994.540186	2668.469253
994.835780	2699.346321
995.131337	2736.905437
995.426859	2779.961932
995.722345	2828.291474
996.017795	2878.561861
996.313208	2915.894125
996.608586	2946.743466
996.903928	2956.624128
997.199234	2959.149746
997.494504	2954.882409
997.789738	2941.435131
998.084936	2917.497212
998.380099	2884.059239
998.675225	2855.208715
998.970316	2826.345589
999.265371	2788.683129
999.560390	2751.434043
999.855373	2721.043447
1000.150320	2692.565969
1000.445232	2666.790549
1000.740108	2647.994607
1001.034948	2626.763788
1001.329752	2612.983794
1001.624521	2598.510641
1001.919254	2585.630493
1002.213951	2578.028433
1002.508613	2566.597617
1002.803239	2563.963614
1003.097829	2558.395659
1003.392384	2552.215205
1003.686903	2548.880481
1003.981386	2545.397044
1004.275834	2541.185160
1004.570246	2542.427804
1004.864623	2540.282793
1005.158964	2533.641073
1005.453270	2529.643438
1005.747540	2531.387678
1006.041775	2526.845598
1006.335974	2526.780063
1006.630138	2526.749816
1006.924266	2526.180166
1007.218359	2525.585309
1007.512416	2521.272602
1007.806438	2519.031809
1008.100425	2521.227232
1008.394376	2515.462673
1008.688292	2521.055833
1008.982172	2519.964423
1009.276017	2519.886285
1009.569827	2518.457118
1009.863602	2519.084742
1010.157341	2517.486696
1010.451045	2514.061232
1010.744714	2515.550893
1011.038347	2512.551406
1011.331945	2515.487878
1011.625508	2512.362363
1011.919036	2516.327230
1012.212528	2510.688700
1012.505986	2510.781961
1012.799408	2511.094513
1013.092795	2510.343381
1013.386147	2510.161899
1013.679464	2508.624347
1013.972745	2508.737773
1014.265992	2508.815911
1014.559204	2508.626868
1014.852380	2507.648884
1015.145521	2510.340860
1015.438628	2510.340860
1015.731699	2511.061745
1016.024736	2506.897752
1016.317737	2512.251458
1016.610703	2510.237517
1016.903635	2514.361180
1017.196531	2512.632065
1017.489393	2514.436798
1017.782219	2514.401510
1018.075011	2517.489216
1018.367768	2518.928466
1018.660490	2518.797396
1018.953177	2518.797396
1019.245829	2518.797396
