Dividing Wavelength (nm)	Counts (n)	Blue Motor Position (mm): 20.200000	Red Motor Position (mm): 0.000000	
326.493990	2132.960083
326.888308	2132.960083
327.282561	2132.960083
327.676750	2101.881370
328.070874	2098.763416
328.464933	2100.827769
328.858929	2110.700868
329.252859	2120.087497
329.646726	2128.579321
330.040528	2143.375107
330.434265	2158.874135
330.827938	2176.906342
331.221547	2196.395443
331.615091	2215.239276
332.008571	2235.537482
332.401986	2253.751171
332.795338	2270.956629
333.188625	2291.476645
333.581847	2312.226035
333.975006	2329.670948
334.368100	2349.225583
334.761129	2364.512882
335.154095	2378.849924
335.546996	2399.369941
335.939833	2422.793662
336.332606	2438.244798
336.725315	2450.124277
337.117960	2461.214816
337.510540	2468.020374
337.903056	2480.535038
338.295508	2484.522591
338.687896	2495.338386
339.080220	2501.511279
339.472480	2508.636950
339.864676	2516.264216
340.256807	2515.984432
340.648875	2519.268744
341.040879	2522.152284
341.432818	2525.469363
341.824694	2527.969775
342.216506	2530.001360
342.608253	2527.765608
342.999937	2525.852491
343.391557	2525.668488
343.783113	2525.650844
344.174605	2523.994825
344.566033	2524.256965
344.957397	2522.311080
345.348697	2520.032478
345.739934	2519.752694
346.131106	2514.469565
346.522215	2515.084586
346.913260	2514.333454
347.304241	2510.605521
347.695159	2509.128463
348.086012	2507.563184
348.476802	2505.125787
348.867528	2504.243585
349.258191	2501.808707
349.648789	2502.171670
350.039324	2500.016577
350.429796	2500.588748
350.820203	2496.273520
351.210548	2497.027173
351.600828	2496.772595
351.991045	2494.309991
352.381198	2494.713283
352.771288	2495.610609
353.161314	2497.392657
353.551276	2495.227481
353.941175	2493.924343
354.331010	2493.931904
354.720782	2492.974085
355.110490	2492.485093
355.500135	2493.737820
355.889717	2493.478201
356.279235	2492.091883
356.668689	2495.189672
357.058080	2494.403252
357.447408	2491.247490
357.836672	2492.056595
358.225873	2491.892758
358.615010	2493.820999
359.004084	2496.853253
359.393095	2493.838643
359.782043	2499.792246
360.170927	2499.197390
360.559748	2497.390136
360.948505	2501.420538
361.337199	2500.485404
361.725830	2500.893738
362.114398	2499.882987
362.502903	2498.171515
362.891344	2501.256701
363.279722	2503.235354
363.668037	2503.681496
364.056289	2503.938595
364.444478	2501.717967
364.832603	2504.586383
365.220665	2503.270642
365.608665	2505.702999
365.996601	2506.176867
366.384474	2505.813904
366.772284	2505.604696
367.160031	2503.474809
367.547715	2503.726866
367.935336	2507.117042
368.322893	2505.733246
368.710388	2505.836589
369.097820	2508.415139
369.485189	2508.059738
369.872495	2510.275325
370.259738	2509.204080
370.646918	2504.974552
371.034035	2507.364059
371.421090	2508.941940
371.808081	2511.386900
372.195010	2509.723319
372.581875	2509.007475
372.968678	2510.141735
373.355418	2509.035201
373.742096	2507.679131
374.128710	2509.060407
374.515262	2510.703823
374.901751	2511.187774
375.288177	2510.734070
375.674540	2511.759945
376.060841	2510.378669
376.447079	2512.112826
376.833254	2512.485871
377.219367	2508.712567
377.605417	2509.665346
377.991404	2511.011334
378.377329	2510.784482
378.763191	2508.989831
379.148991	2513.700789
379.534727	2513.627693
379.920402	2514.104082
380.306013	2513.337826
380.691563	2512.833711
381.077049	2513.922600
381.462474	2514.819925
381.847835	2514.882940
382.233134	2514.162055
382.618371	2517.237159
383.003545	2512.138032
383.388657	2512.107785
383.773706	2516.791017
384.158693	2515.805471
384.543618	2516.637261
384.928480	2515.588701
385.313280	2514.698938
385.698017	2518.547859
386.082692	2517.363187
386.467305	2516.828825
386.851856	2520.224042
387.236344	2517.345543
387.620770	2520.760925
388.005133	2517.234638
388.389435	2520.171110
388.773674	2517.562313
389.157851	2517.000224
389.541965	2517.511902
389.926018	2521.020545
390.310008	2518.260513
390.693936	2520.473579
391.077802	2516.632220
391.461606	2520.433250
391.845348	2518.169772
392.229027	2521.249917
392.612645	2522.469876
392.996200	2518.961233
393.379694	2521.527181
393.763125	2519.495596
394.146494	2520.259330
394.529801	2522.452232
394.913047	2520.120699
395.296230	2523.694877
395.679351	2521.799403
396.062410	2523.410052
396.445408	2523.173117
396.828343	2524.027593
397.211217	2516.007117
397.594028	2521.098682
397.976778	2520.191275
398.359466	2520.592047
398.742092	2518.555420
399.124656	2524.330062
399.507158	2524.163704
399.889598	2522.220339
400.271977	2522.210257
400.654294	2525.073632
401.036549	2525.809641
401.418742	2524.231760
401.800874	2523.778056
402.182944	2526.984230
402.564952	2525.192099
402.946898	2526.225536
403.328783	2526.152439
403.710606	2526.250742
404.092367	2525.585309
404.474067	2526.109589
404.855705	2526.628828
405.237282	2525.184538
405.618797	2526.568334
406.000250	2527.309384
406.381642	2525.431554
406.762972	2527.077491
407.144240	2525.655886
407.525447	2529.908099
407.906593	2527.652182
408.287677	2525.875176
408.668700	2527.425331
409.049661	2529.119158
409.430560	2526.948942
409.811399	2528.778880
410.192176	2529.313243
410.572891	2528.214271
410.953545	2525.721421
411.334138	2530.071936
411.714669	2530.029087
412.095139	2526.530526
412.475547	2528.804086
412.855894	2528.685619
413.236180	2531.052441
413.616405	2530.097142
413.996568	2530.392050
414.376670	2530.291227
414.756711	2529.766947
415.136691	2533.210055
415.516609	2532.862215
415.896466	2531.485980
416.276262	2530.392050
416.655997	2528.846936
417.035670	2529.376257
417.415283	2532.050589
417.794834	2525.779394
418.174324	2533.212575
418.553753	2531.574200
418.933121	2530.598737
419.312428	2531.473377
419.691674	2533.983872
420.070859	2531.405322
420.449983	2529.623274
420.829045	2530.197965
421.208047	2532.350538
421.586988	2533.401618
421.965867	2532.763912
422.344686	2534.377082
422.723444	2532.106042
423.102141	2534.210724
423.480777	2533.699047
423.859352	2534.364479
424.237866	2535.322298
424.616319	2532.927750
424.994712	2534.472864
425.373044	2533.696526
425.751314	2532.801721
426.129524	2534.377082
426.507673	2534.334232
426.885762	2533.510003
427.263789	2533.930940
427.641756	2534.893800
428.019662	2536.033101
428.397508	2533.734335
428.775292	2535.720549
429.153016	2534.243491
429.530679	2536.857329
429.908282	2536.998482
430.285824	2538.215920
430.663305	2537.056455
431.040726	2539.375386
431.418086	2536.184335
431.795385	2538.974614
432.172624	2536.612833
432.549802	2536.822041
432.926920	2537.535365
433.303977	2536.564942
433.680974	2537.139634
434.057910	2535.246681
434.434786	2538.336908
434.811601	2537.593338
435.188355	2536.176774
435.565050	2539.952598
435.941683	2536.522093
436.318257	2534.896321
436.694770	2533.668800
437.071222	2535.281969
437.447614	2531.128058
437.823946	2532.970600
438.200218	2536.600231
438.576429	2541.643905
438.952580	2540.058462
439.328670	2540.083668
439.704700	2541.013761
440.080670	2537.472350
440.456580	2538.407484
440.832429	2539.292207
441.208218	2540.113915
441.583947	2541.636343
441.959616	2539.506456
442.335224	2540.862526
442.710773	2537.185004
443.086261	2539.889583
443.461689	2540.345808
443.837057	2541.444779
444.212365	2540.698689
444.587612	2539.395550
444.962800	2541.565767
445.337927	2538.800694
445.712995	2540.340767
446.088002	2543.627599
446.462949	2541.787578
446.837837	2542.395037
447.212664	2542.379913
447.587431	2542.037115
447.962139	2540.131559
448.336786	2542.082485
448.711374	2542.911755
449.085901	2543.148689
449.460369	2540.786909
449.834776	2541.948895
450.209124	2542.175747
450.583412	2543.032743
450.957640	2545.434853
451.331808	2544.149358
451.705917	2543.809081
452.079965	2540.242464
452.453954	2544.403937
452.827883	2544.192208
453.201752	2544.749256
453.575562	2544.408978
453.949311	2543.683052
454.323001	2544.719009
454.696632	2542.165664
455.070202	2547.005172
455.443713	2544.449307
455.817164	2545.376879
456.190556	2543.584749
456.563888	2542.006868
456.937160	2540.492001
457.310373	2546.753114
457.683526	2546.493495
458.056619	2547.370656
458.429653	2543.998124
458.802628	2545.578526
459.175542	2545.371838
459.548398	2544.635830
459.921194	2545.762528
460.293930	2547.461397
460.666607	2547.529452
461.039224	2545.742363
461.411782	2548.509957
461.784280	2545.565923
462.156719	2546.725388
462.529099	2546.624565
462.901419	2547.370656
463.273680	2547.521890
463.645882	2547.131201
464.018024	2548.842673
464.390106	2549.288815
464.762130	2548.608259
465.134094	2550.652447
465.505999	2549.147663
465.877845	2548.726726
466.249631	2551.537169
466.621358	2549.611449
466.993026	2551.098589
467.364634	2555.570093
467.736184	2548.366284
468.107674	2550.382745
468.479105	2551.930379
468.850477	2550.486089
469.221790	2549.377035
469.593043	2552.986501
469.964238	2550.901984
470.335373	2549.427447
470.706449	2550.022303
471.077467	2551.403579
471.448425	2553.909032
471.819324	2555.706204
472.190164	2556.258210
472.560945	2553.024310
472.931667	2552.880637
473.302330	2553.495658
473.672934	2550.077755
474.043479	2552.666388
474.413965	2552.132026
474.784393	2550.662529
475.154761	2550.165976
475.525070	2554.161090
475.895321	2550.586912
476.265513	2551.035575
476.635645	2555.048333
477.005719	2554.425751
477.375734	2559.456822
477.745691	2555.524722
478.115588	2559.512275
478.485427	2552.164793
478.855207	2558.743499
479.224928	2560.858263
479.594591	2559.161915
479.964194	2562.607543
480.333739	2561.974878
480.703226	2561.725341
481.072653	2562.894889
481.442022	2563.724159
481.811333	2567.315981
482.180584	2564.503017
482.549777	2567.557956
482.918912	2567.636094
483.287988	2571.169943
483.657005	2569.004767
484.025964	2572.289079
484.394864	2575.341498
484.763706	2575.651529
485.132489	2578.950964
485.501213	2577.509194
485.869879	2582.383990
486.238487	2581.917683
486.607036	2588.796337
486.975527	2588.942531
487.343959	2593.678695
487.712333	2595.584251
488.080648	2599.322267
488.448905	2606.203442
488.817104	2606.818463
489.185244	2611.332816
489.553326	2620.774897
489.921350	2632.183028
490.289315	2649.625420
490.657222	2658.086997
491.025070	2664.796773
491.392861	2668.900272
491.760593	2671.856909
492.128267	2673.253308
492.495883	2679.547189
492.863440	2680.121881
493.230939	2681.977025
493.598380	2691.794672
493.965763	2695.976309
494.333088	2701.864377
494.700354	2714.595811
495.067563	2724.456308
495.434713	2730.888820
495.801805	2749.467993
496.168839	2756.659199
496.535815	2771.366765
496.902733	2778.505039
497.269593	2792.116154
497.636395	2806.296920
498.003139	2820.921307
498.369825	2829.771053
498.736453	2852.645289
499.103023	2864.481918
499.469535	2883.577809
499.835989	2895.782442
500.202385	2913.970925
500.568723	2926.001639
500.935003	2948.951492
501.301226	2969.358083
501.667390	2994.105107
502.033497	3025.453522
502.399546	3034.729245
502.765537	3052.700958
503.131470	3080.283632
503.497345	3115.642285
503.863163	3113.010802
504.228923	3158.655930
504.594625	3188.945703
504.960269	3197.750078
505.325856	3239.901686
505.691385	3254.009355
506.056856	3294.434368
506.422270	3330.435768
506.787625	3348.934282
507.152924	3389.646640
507.518164	3417.708223
507.883347	3445.094292
508.248472	3469.291830
508.613540	3530.483876
508.978550	3559.921694
509.343503	3587.416147
509.708398	3638.667038
510.073236	3690.560675
510.438016	3727.850090
510.802738	3764.388373
511.167403	3811.301351
511.532010	3851.156713
511.896561	3911.378337
512.261053	3972.517451
512.625488	3997.720700
512.989866	4040.603275
513.354186	4084.042897
513.718449	4118.383238
514.082655	4196.574054
514.446803	4231.544538
514.810894	4302.776042
515.174927	4336.153522
515.538904	4384.341912
515.902822	4472.914985
516.266684	4499.048326
516.630488	4547.609761
516.994235	4602.386939
517.357925	4687.209393
517.721558	4755.204477
518.085133	4825.521011
518.448651	4874.763002
518.812112	4904.830964
519.175516	4975.144978
519.538863	5061.983894
519.902152	5091.308286
520.265385	5210.743303
520.628560	5226.877516
520.991678	5300.642199
521.354739	5365.042940
521.717743	5404.956275
522.080690	5461.820491
522.443580	5581.023614
522.806413	5623.873422
523.169189	5696.997879
523.531908	5777.318583
523.894569	5783.448627
524.257174	5850.208627
524.619722	5963.362366
524.982213	5989.349514
525.344647	6093.605617
525.707025	6123.988651
526.069345	6234.876392
526.431608	6274.656137
526.793815	6380.245625
527.155964	6360.345670
527.518057	6437.203101
527.880093	6489.215206
528.242072	6580.671819
528.603995	6610.442353
528.965860	6635.398585
529.327669	6722.802111
529.689421	6761.553460
530.051117	6804.390665
530.412755	6935.632064
530.774337	6930.416991
531.135862	6995.999882
531.497331	7059.291568
531.858743	7054.557925
532.220098	7204.484361
532.581396	7193.797115
532.942638	7242.106492
533.303824	7288.041486
533.664953	7365.166098
534.026025	7375.432408
534.387040	7497.766089
534.747999	7548.825415
535.108902	7650.928945
535.469748	7557.894451
535.830537	7678.650250
536.191270	7728.066161
536.551947	7802.889487
536.912567	7856.658434
537.273131	7858.513578
537.633638	7907.405209
537.994089	7958.451933
538.354483	7979.619738
538.714821	8121.646686
539.075103	8186.854011
539.435328	8221.718631
539.795497	8152.506109
540.155609	8319.398548
540.515665	8423.437881
540.875665	8294.167573
541.235609	8398.395950
541.595496	8440.287938
541.955328	8609.365718
542.315102	8569.873318
542.674821	8581.904032
543.034483	8632.681054
543.394090	8677.436418
543.753640	8669.277310
544.113134	8894.947083
544.472571	8821.227770
544.831953	8972.164957
545.191278	8873.870019
545.550548	8938.260677
545.909761	9089.187782
546.268918	9111.353735
546.628019	9213.729488
546.987064	9153.160024
547.346053	9122.005693
547.704986	9253.216846
548.063863	9282.279098
548.422684	9301.874063
548.781449	9280.754148
549.140158	9406.074712
549.498811	9341.875618
549.857408	9252.256506
550.215949	9478.914344
550.574434	9390.137105
550.932864	9512.228810
551.291237	9588.960212
551.649555	9583.929141
552.007817	9617.659501
552.366022	9617.253688
552.724173	9641.690682
553.082267	9660.731120
553.440305	9806.957349
553.798288	9658.661726
554.156215	9827.215225
554.514086	9830.083642
554.871902	9727.964988
555.229661	9781.118915
555.587365	9775.729921
555.945014	9706.595537
556.302606	9851.004430
556.660143	9777.784191
557.017625	9944.941291
557.375050	9872.278100
557.732421	10015.734215
558.089735	9958.955699
558.446994	9979.551333
558.804197	10035.223315
559.161345	10056.202077
559.518437	9940.459705
559.875474	10042.094408
560.232455	10089.992931
560.589381	10054.288959
560.946251	10074.559439
561.303065	10185.661428
561.659825	10144.825562
562.016528	10092.752963
562.373177	9997.432306
562.729770	10122.977201
563.086307	10054.505729
563.442789	10147.812445
563.799216	10059.471265
564.155587	10114.782805
564.511904	10078.478936
564.868164	10086.446480
565.224370	10110.976734
565.580520	10053.414319
565.936615	10065.112317
566.292654	9956.815729
566.648638	10087.711809
567.004567	10056.549917
567.360441	10053.242920
567.716260	9974.724428
568.072023	10077.770654
568.427732	10039.684737
568.783385	9954.237179
569.138982	10035.346824
569.494525	10059.438498
569.850013	9946.191497
570.205445	10032.816164
570.560823	9936.618346
570.916145	9862.689825
571.271412	9940.129510
571.626625	9895.359022
571.981782	9868.134271
572.336884	9856.844607
572.691931	9868.834992
573.046923	9813.357093
573.401860	9773.320250
573.756743	9717.877640
574.111570	9766.154249
574.466342	9757.559082
574.821059	9788.264750
575.175722	9685.533597
575.530330	9698.721255
575.884882	9692.029123
576.239380	9625.748032
576.593823	9608.056103
576.948211	9625.057394
577.302544	9508.984827
577.656823	9534.510710
578.011047	9526.485193
578.365216	9510.376186
578.719330	9441.284652
579.073389	9454.507598
579.427394	9402.656810
579.781344	9385.237103
580.135239	9335.359927
580.489080	9343.554323
580.842866	9247.442204
581.196597	9257.153987
581.550273	9294.541704
581.903895	9265.487014
582.257463	9332.458743
582.610975	9211.324857
582.964434	9236.006346
583.317837	9165.793156
583.671186	9145.681472
584.024481	9145.593252
584.377721	9064.498731
584.730906	9047.368890
585.084037	9078.891225
585.437113	9013.688941
585.790135	9038.882107
586.143103	8935.016694
586.496016	8913.087675
586.848874	8966.458371
587.201679	8954.485630
587.554428	8839.093619
587.907124	8892.550014
588.259765	8864.813586
588.612352	8872.289617
588.964884	8740.536541
589.317362	8759.153522
589.669786	8757.121937
590.022155	8807.964494
590.374470	8825.439654
590.726731	8765.376826
591.078937	8612.140873
591.431090	8729.617401
591.783188	8602.718956
592.135232	8592.301412
592.487222	8588.729754
592.839157	8650.173858
593.191038	8576.278104
593.542866	8526.852111
593.894639	8428.537008
594.246358	8483.198240
594.598022	8503.980396
594.949633	8392.104590
595.301190	8374.354687
595.652692	8400.866115
596.004141	8510.722940
596.355535	8289.093652
596.706876	8266.007688
597.058162	8204.460241
597.409395	8284.831356
597.760573	8343.424688
598.111698	8252.525122
598.462768	8238.125066
598.813785	8204.795477
599.164748	8177.467382
599.515657	8164.088160
599.866511	8081.123371
600.217312	8203.280611
600.568060	8062.012356
600.918753	8167.427924
601.269392	8138.451372
601.619978	8048.154224
601.970510	8114.286601
602.320988	8106.987010
602.671412	8164.567070
603.021783	8101.744210
603.372100	8075.240344
603.722363	8078.484327
604.072572	8052.255203
604.422728	8060.217706
604.772830	7999.456678
605.122878	8004.099581
605.472872	7997.417532
605.822813	8028.065226
606.172701	7971.148079
606.522534	8046.470479
606.872314	8041.265488
607.222041	8016.793206
607.571714	8069.337153
607.921333	8029.965741
608.270899	8036.211731
608.620411	8122.402859
608.969870	8027.311574
609.319276	8019.679267
609.668627	8038.767596
610.017926	8071.706495
610.367171	8122.410421
610.716362	8099.717667
611.065500	8088.982529
611.414585	8118.072508
611.763616	8098.260773
612.112594	8083.354081
612.461518	8098.041483
612.810389	8156.140781
613.159207	8095.752799
613.507971	8048.267650
613.856682	8167.952204
614.205340	8119.103424
614.553945	8201.974952
614.902496	8099.362265
615.250994	8151.455028
615.599439	8140.719891
615.947830	8150.683732
616.296169	8120.262889
616.644454	8134.761247
616.992686	8132.008778
617.340864	8193.551184
617.688990	8094.991585
618.037063	8186.145729
618.385082	8131.227399
618.733048	8213.940130
619.080961	8156.483579
619.428821	8180.476951
619.776628	8177.908483
620.124382	8131.363510
620.472083	8115.413299
620.819731	8142.998493
621.167326	8037.315744
621.514868	8045.984008
621.862357	7932.547964
622.209793	7952.861293
622.557176	7881.602063
622.904506	7858.667334
623.251783	7789.081767
623.599007	7745.634582
623.946179	7751.557938
624.293297	7704.949950
624.640363	7621.637321
624.987376	7605.104857
625.334336	7555.600726
625.681243	7508.586925
626.028097	7487.373750
626.374899	7473.261040
626.721647	7464.370965
627.068343	7398.667086
627.414987	7369.176336
627.761577	7319.195817
628.108115	7360.394646
628.454600	7252.768532
628.801032	7303.613610
629.147412	7265.414267
629.493739	7257.736589
629.840014	7191.387443
630.186236	7246.194868
630.532405	7131.864019
630.878521	7185.849736
631.224585	7138.967005
631.570597	7065.529996
631.916556	7099.446879
632.262462	7090.861794
632.608316	7053.151443
632.954117	7033.720315
633.299866	7022.647421
633.645562	7012.194588
633.991206	6934.941426
634.336797	6879.823971
634.682336	6833.064748
635.027823	6798.222813
635.373257	6793.126207
635.718639	6726.260342
636.063968	6738.265850
636.409245	6637.687269
636.754470	6631.537062
637.099642	6592.389981
637.444762	6529.236927
637.789829	6547.417848
638.134845	6486.508107
638.479808	6471.704758
638.824719	6473.822043
639.169577	6407.954327
639.514383	6429.071720
639.859137	6355.869125
640.203839	6363.229210
640.548489	6347.815882
640.893086	6324.235885
641.237632	6297.512728
641.582125	6321.619526
641.926566	6287.682478
642.270955	6294.588859
642.615292	6292.204393
642.959576	6314.075439
643.303809	6301.706968
643.647990	6306.440612
643.992118	6298.926772
644.336195	6241.250931
644.680219	6268.584067
645.024192	6260.079640
645.368112	6358.112439
645.711981	6373.336723
646.055797	6451.777077
646.399562	6404.906949
646.743274	6535.470313
647.086935	6587.805052
647.430544	6583.389001
647.774101	6604.128308
648.117606	6608.279698
648.461059	6601.184274
648.804460	6560.068623
649.147810	6472.097968
649.491108	6441.374656
649.834354	6416.143681
650.177548	6337.229459
650.520690	6247.237301
650.863781	6226.681996
651.206820	6249.286530
651.549807	6169.898439
651.892742	6110.097752
652.235626	6116.953721
652.578458	6107.781342
652.921238	6011.170149
653.263967	6055.260080
653.606644	5991.988558
653.949269	5993.732798
654.291843	5939.416885
654.634365	5979.214274
654.976836	5945.239418
655.319255	5938.345640
655.661622	5913.442340
656.003938	5913.102062
656.346203	5875.812647
656.688416	5907.541670
657.030577	5861.067272
657.372687	5829.948230
657.714746	5818.905582
658.056753	5860.212797
658.398708	5795.945647
658.740612	5790.123114
659.082465	5845.366599
659.424266	5827.107539
659.766016	5829.053425
660.107715	5805.770856
660.449362	5817.315098
660.790958	5814.708822
661.132503	5803.036030
661.473996	5836.668088
661.815438	5826.038815
662.156829	5826.384134
662.498168	5820.110418
662.839456	5790.261746
663.180693	5828.072920
663.521879	5825.718702
663.863013	5812.609181
664.204097	5835.773283
664.545129	5875.550507
664.886110	5872.913984
665.227040	5903.435650
665.567918	5870.219487
665.908746	5898.356687
666.249522	5897.618158
666.590248	5889.383433
666.930922	5913.628863
667.271545	5927.098826
667.612118	5933.072593
667.952639	5900.778962
668.293109	5929.952119
668.633528	5883.860849
668.973896	5887.740017
669.314213	5875.684098
669.654480	5861.367221
669.994695	5854.596951
670.334859	5844.169325
670.674973	5833.724054
671.015035	5840.733778
671.355047	5837.883006
671.695008	5821.113608
672.034918	5799.076203
672.374777	5813.259490
672.714585	5794.599659
673.054342	5799.905473
673.394049	5793.162930
673.733705	5821.640408
674.073310	5813.078008
674.412864	5768.317603
674.752368	5762.003558
675.091820	5763.341984
675.431223	5700.733374
675.770574	5701.832346
676.109875	5656.078833
676.449125	5656.192259
676.788324	5619.843020
677.127473	5569.764197
677.466571	5556.639553
677.805619	5553.962701
678.144616	5538.592222
678.483562	5514.598851
678.822458	5484.140199
679.161303	5478.794056
679.500098	5471.368436
679.838842	5457.676662
680.177535	5460.308144
680.516179	5474.740968
680.854771	5487.963914
681.193314	5563.598866
681.531805	5668.974105
681.870247	5821.491694
682.208638	5922.050110
682.546978	5930.877171
682.885268	5911.521661
683.223508	5824.977652
683.561697	5777.190034
683.899836	5747.175004
684.237925	5701.736564
684.575963	5666.932438
684.913951	5625.887363
685.251889	5687.487742
685.589776	5655.178987
685.927614	5625.421056
686.265401	5699.914187
686.603137	5681.163615
686.940824	5757.312764
687.278460	5779.680364
687.616046	5790.168485
687.953582	5856.106777
688.291068	5835.211194
688.628504	5901.625876
688.965889	5864.921234
689.303224	5809.597092
689.640510	5760.430718
689.977745	5681.642525
690.314930	5587.171302
690.652065	5531.849679
690.989150	5437.673364
691.326185	5364.765676
691.663170	5312.378005
692.000105	5238.210029
692.336990	5159.084079
692.673825	5133.510305
693.010610	5064.809461
693.347345	5001.331251
693.684030	4982.454651
694.020665	4943.090801
694.357251	4854.873129
694.693786	4863.397720
695.030272	4833.100386
695.366707	4798.853307
695.703093	4761.720168
696.039429	4784.652377
696.375716	4768.127474
696.711952	4744.013115
697.048139	4733.464501
697.384276	4713.572107
697.720363	4721.680803
698.056400	4732.272268
698.392388	4679.559442
698.728326	4660.551772
699.064214	4640.558556
699.400053	4627.774190
699.735842	4601.698821
700.071581	4579.149740
700.407270	4549.580852
700.742910	4534.144839
701.078501	4480.378413
701.414042	4477.633505
701.749533	4448.714926
702.084974	4383.253022
702.420366	4439.187145
702.755709	4382.489287
703.091002	4326.729085
703.426246	4377.846385
703.761440	4330.441895
704.096584	4292.393786
704.431679	4317.697858
704.766725	4301.238490
705.101721	4287.672745
705.436668	4315.315913
705.771565	4264.700207
706.106413	4293.691883
706.441212	4324.533662
706.775961	4333.635466
707.110661	4316.722394
707.445311	4339.412628
707.779913	4366.304663
708.114465	4376.218092
708.448967	4399.692225
708.783421	4458.582984
709.117825	4499.323069
709.452180	4504.555787
709.786485	4548.958270
710.120742	4632.371722
710.454949	4621.349239
710.789107	4686.468344
711.123216	4757.415022
711.457275	4749.104680
711.791286	4821.820804
712.125247	4839.674050
712.459159	4740.214606
712.793023	4819.264939
713.126837	4775.979072
713.460602	4766.642855
713.794318	4688.557902
714.127985	4698.312535
714.461602	4610.258701
714.795171	4585.118466
715.128691	4515.605996
715.462162	4461.612718
715.795584	4418.296603
716.128957	4396.203747
716.462281	4347.228937
716.795556	4318.562416
717.128782	4283.596973
717.461960	4213.464440
717.795088	4222.394844
718.128167	4182.375644
718.461198	4126.151656
718.794180	4117.294348
719.127113	4099.907409
719.459997	4082.258329
719.792833	4039.756361
720.125619	4028.290257
720.458357	3993.995287
720.791046	3993.639886
721.123686	3970.362358
721.456278	3929.864248
721.788821	3946.207669
722.121315	3919.446704
722.453761	3893.545255
722.786158	3907.355496
723.118506	3929.755863
723.450805	3881.655694
723.783056	3900.426430
724.115259	3917.687341
724.447412	3925.654885
724.779518	3918.400664
725.111574	3920.543155
725.443582	3951.357208
725.775542	3939.197945
726.107453	3988.139987
726.439315	3988.127384
726.771129	4000.503417
727.102895	4038.135630
727.434612	4085.257816
727.766281	4094.488168
728.097901	4096.507150
728.429473	4098.871452
728.760996	4109.490642
729.092471	4101.341617
729.423897	4086.550872
729.755276	4098.208540
730.086606	4090.906428
730.417887	4131.936380
730.749120	4196.344682
731.080305	4256.475565
731.411442	4285.273156
731.742530	4250.897528
732.073570	4256.939351
732.404562	4311.086384
732.735506	4302.274448
733.066401	4265.075773
733.397249	4202.719221
733.728048	4124.026809
734.058798	4040.021022
734.389501	3973.843274
734.720156	3914.498811
735.050762	3868.210937
735.381320	3862.743805
735.711831	3810.242709
736.042293	3781.505611
736.372707	3804.493273
736.703073	3776.590486
737.033391	3765.746964
737.363661	3784.782361
737.693883	3809.307575
738.024056	3820.897187
738.354182	3812.622133
738.684260	3875.639077
739.014290	3895.382756
739.344272	3890.565933
739.674207	3935.016307
740.004093	3936.064867
740.333931	3930.401131
740.663722	3937.128551
740.993464	3931.306018
741.323159	3907.536978
741.652806	3877.269890
741.982405	3852.537989
742.311956	3820.355263
742.641460	3811.800425
742.970915	3786.708082
743.300323	3748.770879
743.629683	3712.835013
743.958996	3703.854198
744.288260	3679.669262
744.617477	3647.093326
744.946647	3633.572952
745.275768	3608.185701
745.604842	3604.407356
745.933869	3557.259965
746.262847	3545.829148
746.591778	3585.981939
746.920662	3559.863721
747.249498	3526.781148
747.578286	3576.002975
747.907027	3590.632403
748.235720	3587.406065
748.564365	3614.741721
748.892963	3618.938482
749.221514	3595.885285
749.550017	3573.926019
749.878473	3571.148343
750.206881	3540.238509
750.535242	3540.518293
750.863555	3540.077192
751.191821	3533.211140
751.520039	3517.523069
751.848210	3493.297805
752.176334	3526.259389
752.504411	3533.742982
752.832440	3492.700428
753.160421	3477.090495
753.488356	3486.761949
753.816243	3496.937518
754.144082	3454.599387
754.471875	3436.204217
754.799620	3460.462249
755.127318	3449.588480
755.454969	3450.226186
755.782572	3457.845890
756.110129	3434.921243
756.437638	3422.913215
756.765100	3437.025925
757.092515	3448.683593
757.419882	3454.634675
757.747203	3428.055192
758.074477	3429.292795
758.401703	3445.139662
758.728882	3464.585913
759.056014	3470.695791
759.383099	3473.168477
759.710138	3471.467088
760.037129	3487.659274
760.364073	3520.341074
760.690970	3505.328518
761.017820	3480.788181
761.344623	3499.571521
761.671379	3546.285373
761.998088	3596.482662
762.324751	3721.662074
762.651366	3969.800269
762.977935	4432.348820
763.304456	4868.784193
763.630931	4957.994972
763.957359	4599.367288
764.283740	4266.262965
764.610074	4077.655756
764.936362	3884.423287
765.262602	3725.662229
765.588796	3614.852627
765.914943	3528.114534
766.241044	3443.471040
766.567097	3412.967018
766.893104	3367.878938
767.219064	3335.071109
767.544978	3312.297696
767.870845	3254.276536
768.196665	3236.687950
768.522438	3247.032398
768.848165	3240.486460
769.173846	3207.333312
769.499479	3189.222966
769.825066	3171.266376
770.150607	3153.934889
770.476101	3168.861746
770.801548	3166.114317
771.126949	3119.985239
771.452303	3106.951336
771.777611	3113.530041
772.102872	3118.203191
772.428087	3094.575303
772.753256	3082.100968
773.078378	3076.091912
773.403453	3040.105636
773.728482	3030.850077
774.053465	3049.295659
774.378401	3037.421221
774.703291	3007.786798
775.028135	3008.989113
775.352932	3007.048269
775.677683	2993.742144
776.002388	2989.799961
776.327046	2987.201247
776.651658	2979.490802
776.976224	2968.649800
777.300743	2969.655511
777.625216	2959.066567
777.949643	2956.969447
778.274024	2957.476083
778.598359	2944.069134
778.922647	2950.128601
779.246889	2950.504167
779.571086	2934.304419
779.895236	2928.963317
780.219339	2939.700974
780.543397	2951.227573
780.867409	2955.101699
781.191374	2946.783796
781.515294	2944.706840
781.839167	2947.502160
782.162995	2936.605706
782.486776	2946.282201
782.810511	2942.425718
783.134201	2930.233688
783.457844	2939.073351
783.781441	2928.794438
784.104993	2906.157137
784.428498	2909.070924
784.751958	2921.154569
785.075372	2914.165010
785.398739	2900.190931
785.722061	2916.120977
786.045337	2928.970878
786.368568	2911.644433
786.691752	2906.865419
787.014891	2949.763118
787.337983	2983.208653
787.661030	3009.548682
787.984031	3075.376068
788.306987	3120.943058
788.629897	3112.098354
788.952760	3096.067484
789.275579	3080.407140
789.598351	3022.169210
789.921078	2979.498363
790.243759	2970.958649
790.566395	2951.847635
790.888984	2929.469953
791.211529	2915.576533
791.534027	2905.290058
791.856480	2894.179355
792.178888	2877.881305
792.501249	2871.433669
792.823566	2869.780171
793.145836	2863.274562
793.468062	2859.811289
793.790241	2860.174252
794.112375	2867.189017
794.434464	2878.695451
794.756507	2882.370452
795.078505	2886.950341
795.400457	2902.656055
795.722364	2936.812393
796.044226	2964.725262
796.366042	2965.756178
796.687812	2953.203705
797.009538	2972.599544
797.331218	2959.661423
797.652852	2949.783282
797.974442	2930.886517
798.295986	2924.978285
798.617484	2916.980494
798.938938	2904.160840
799.260346	2889.975033
799.581709	2885.712737
799.903026	2878.549258
800.224299	2874.216386
800.545526	2862.263810
800.866708	2848.476254
801.187845	2841.408557
801.508936	2838.477126
801.829983	2846.190091
802.150984	2836.879080
802.471940	2820.318890
802.792851	2822.105979
803.113717	2821.841318
803.434538	2827.658810
803.755314	2816.278405
804.076045	2815.423929
804.396731	2814.178764
804.717372	2813.213383
805.037967	2810.450831
805.358518	2815.313024
805.679024	2826.247287
805.999485	2820.664209
806.319901	2825.644869
806.640272	2818.269661
806.960598	2825.009683
807.280879	2832.866322
807.601115	2837.254646
807.921306	2823.789724
808.241453	2821.705207
808.561554	2829.123265
808.881611	2830.791887
809.201623	2825.801144
809.521590	2827.119406
809.841513	2819.938282
810.161390	2827.426917
810.481223	2820.444918
810.801011	2807.983186
811.120755	2804.676189
811.440453	2806.899338
811.760107	2807.342960
812.079716	2807.315233
812.399281	2797.381640
812.718801	2789.545166
813.038276	2783.765483
813.357707	2792.101031
813.677093	2798.019346
813.996434	2792.879889
814.315731	2788.229425
814.634983	2782.641306
814.954191	2784.758590
815.273354	2799.403142
815.592473	2807.116108
815.911547	2810.367652
816.230577	2817.352171
816.549562	2825.100424
816.868502	2823.993891
817.187399	2834.033349
817.506250	2850.086903
817.825058	2844.771006
818.143821	2855.687625
818.462539	2871.486601
818.781213	2896.546177
819.099843	2933.636466
819.418429	2988.320383
819.736970	3049.446894
820.055466	3116.842079
820.373919	3221.985425
820.692327	3362.399204
821.010691	3520.071373
821.329011	3957.194864
821.647286	4840.558773
821.965517	6185.490728
822.283704	6904.437404
822.601847	6881.054012
822.919945	6261.193735
823.237999	5775.491165
823.556010	5204.988826
823.873976	4663.889016
824.191897	4263.782717
824.509775	3976.726814
824.827609	3714.405333
825.145398	3594.244390
825.463144	3583.993203
825.780845	3669.534022
826.098502	3776.739200
826.416116	4050.925037
826.733685	4360.630844
827.051210	4417.603445
827.368692	4306.856856
827.686129	4044.076630
828.003522	3724.371694
828.320872	3475.071513
828.638177	3284.697379
828.955439	3155.908501
829.272656	3072.116963
829.589830	3005.951818
829.906960	2958.320476
830.224046	2915.107705
830.541088	2884.011348
830.858086	2866.188348
831.175041	2850.951461
831.491952	2849.789475
831.808819	2861.527802
832.125642	2886.002604
832.442421	2931.372988
832.759157	3010.193949
833.075849	3186.810774
833.392497	3457.818164
833.709101	3659.746622
834.025662	3603.449537
834.342179	3450.143007
834.658653	3275.852675
834.975083	3133.765233
835.291469	3037.022970
835.607811	2957.171093
835.924110	2898.323184
836.240366	2849.103878
836.556578	2807.393371
836.872746	2784.728343
837.188871	2765.382916
837.504952	2747.171747
837.820990	2740.441807
838.136984	2725.809858
838.452935	2721.988663
838.768842	2717.456666
839.084706	2736.625653
839.400526	2812.905873
839.716303	2940.719288
840.032037	3018.524456
840.347727	3004.787312
840.663373	2946.025102
840.978977	2870.818648
841.294537	2801.916157
841.610054	2755.887902
841.925527	2734.442834
842.240957	2715.016747
842.556344	2693.100331
842.871687	2677.583660
843.186987	2666.407422
843.502244	2664.128820
843.817458	2661.121772
844.132629	2645.988228
844.447756	2639.260808
844.762840	2632.001547
845.077881	2636.528503
845.392879	2635.663945
845.707833	2629.639766
846.022745	2621.165586
846.337613	2624.601133
846.652438	2622.836729
846.967221	2623.842439
847.281960	2624.177676
847.596656	2620.853035
847.911309	2620.689197
848.225919	2617.165431
848.540485	2614.770883
848.855009	2612.847682
849.169490	2613.903804
849.483928	2614.090327
849.798323	2608.232506
850.112675	2610.861468
850.426984	2612.643516
850.741251	2611.330295
851.055474	2611.683176
851.369654	2615.063270
851.683792	2618.322376
851.997887	2612.610748
852.311938	2610.957250
852.625947	2613.109823
852.939914	2614.067642
853.253837	2617.248610
853.567718	2612.716612
853.881555	2612.028495
854.195350	2613.359360
854.509103	2612.343567
854.822812	2611.032867
855.136479	2609.281066
855.450103	2611.295007
855.763685	2613.538321
856.077224	2609.795264
856.390720	2608.217383
856.704173	2611.587394
857.017584	2617.571244
857.330953	2615.864813
857.644278	2615.751387
857.957561	2617.498147
858.270802	2614.402878
858.584000	2615.673249
858.897155	2619.544855
859.210268	2618.387911
859.523339	2615.017899
859.836367	2609.366766
860.149352	2612.194853
860.462295	2613.026643
860.775195	2608.774430
861.088054	2608.108998
861.400869	2605.802670
861.713642	2606.142948
862.026373	2604.098760
862.339062	2611.847013
862.651708	2616.152159
862.964312	2616.560492
863.276873	2610.876591
863.589392	2616.353805
863.901869	2621.629372
864.214303	2622.498972
864.526696	2628.830661
864.839045	2628.318984
865.151353	2631.779736
865.463619	2630.184211
865.775842	2630.998357
866.088023	2631.268059
866.400162	2631.608337
866.712258	2631.436937
867.024313	2626.630197
867.336325	2625.569034
867.648296	2625.410238
867.960224	2634.171763
868.272110	2632.848460
868.583954	2625.992491
868.895755	2626.468880
869.207515	2633.377782
869.519233	2639.026394
869.830909	2636.755355
870.142542	2628.324025
870.454134	2632.828296
870.765684	2637.917341
871.077191	2638.461785
871.388657	2645.143835
871.700081	2640.889101
872.011463	2640.016981
872.322803	2643.170223
872.634101	2644.586787
872.945357	2650.374032
873.256571	2656.010042
873.567744	2654.162459
873.878874	2652.629948
874.189963	2650.946203
874.501010	2659.871566
874.812015	2663.518840
875.122979	2662.248470
875.433900	2653.192037
875.744780	2652.211532
876.055618	2659.430465
876.366415	2663.652431
876.677169	2661.323418
876.987882	2659.311997
877.298554	2656.373005
877.609183	2669.999244
877.919771	2671.640139
878.230317	2679.211952
878.540822	2688.948941
878.851285	2703.250694
879.161707	2727.549056
879.472087	2762.086001
879.782425	2807.259781
880.092722	2919.836308
880.402977	3100.629729
880.713191	3350.418902
881.023363	3631.427941
881.333494	3814.048780
881.643583	3984.669152
881.953631	3983.706292
882.263637	3808.122903
882.573602	3593.183227
882.883526	3468.898620
883.193408	3357.781507
883.503248	3260.444388
883.813048	3149.186122
884.122806	3042.235523
884.432522	2959.999180
884.742197	2897.753533
885.051831	2861.235415
885.361424	2827.815085
885.670975	2792.670681
885.980485	2763.694129
886.289954	2749.677201
886.599382	2732.522154
886.908768	2724.156359
887.218113	2704.528627
887.527417	2692.686957
887.836680	2683.539783
888.145901	2678.622137
888.455082	2670.871363
888.764221	2661.399035
889.073319	2652.516522
889.382376	2652.609783
889.691392	2656.078097
890.000366	2653.300422
890.309300	2651.039464
890.618193	2653.746564
890.927044	2655.276554
891.235855	2658.076915
891.544625	2656.970382
891.853353	2656.050371
892.162041	2663.357523
892.470687	2682.544155
892.779293	2693.775846
893.087858	2702.739017
893.396381	2724.645351
893.704864	2764.074736
894.013306	2832.422700
894.321707	2920.889909
894.630068	2968.281796
894.938387	2988.229642
895.246665	2980.609938
895.554903	2939.063268
895.863100	2893.443347
896.171256	2840.002075
896.479371	2779.029319
896.787446	2745.354411
897.095480	2725.376319
897.403473	2722.946482
897.711425	2708.133052
898.019336	2688.875844
898.327207	2680.424350
898.635038	2677.732374
898.942827	2672.701302
899.250576	2666.321722
899.558284	2654.164979
899.865952	2648.874288
900.173579	2648.634834
900.481165	2644.760707
900.788711	2638.066055
901.096216	2630.365692
901.403681	2629.334776
901.711105	2629.420476
902.018489	2625.289250
902.325832	2627.645990
902.633135	2630.587503
902.940397	2644.317085
903.247619	2679.012827
903.554800	2747.343147
903.861941	2867.604913
904.169041	2990.457832
904.476101	3044.471275
904.783121	3039.541026
905.090100	2983.415340
905.397039	2915.654671
905.703938	2846.006089
906.010796	2785.517284
906.317614	2735.975345
906.624391	2701.728266
906.931129	2677.974349
907.237826	2655.304280
907.544483	2640.314409
907.851099	2623.779425
908.157675	2615.794237
908.464211	2606.972218
908.770707	2598.240939
909.077163	2591.571493
909.383578	2590.495206
909.689954	2591.064857
909.996289	2590.822881
910.302584	2588.997984
910.608839	2585.254927
910.915054	2586.013621
911.221229	2589.134095
911.527363	2592.168869
911.833458	2587.457911
912.139513	2589.993612
912.445527	2589.313056
912.751502	2594.417224
913.057436	2599.755806
913.363331	2608.197218
913.669186	2616.086624
913.975000	2629.932153
914.280775	2645.847076
914.586510	2661.378871
914.892205	2697.105528
915.197859	2760.162801
915.503475	2839.102229
915.809050	2906.658732
916.114585	2917.187181
916.420081	2925.076587
916.725536	2938.037394
917.030952	2914.437232
917.336328	2869.402084
917.641665	2821.468273
917.946961	2773.335336
918.252218	2742.269225
918.557435	2719.689897
918.862612	2699.036290
919.167750	2685.773014
919.472848	2665.033707
919.777906	2649.426295
920.082925	2639.759882
920.387904	2626.831843
920.692843	2625.659775
920.997743	2621.513426
921.302603	2615.519494
921.607423	2606.941971
921.912204	2605.996754
922.216946	2599.216403
922.521647	2598.233377
922.826310	2592.315063
923.130932	2589.512181
923.435516	2587.218456
923.740059	2583.356932
924.044564	2580.168403
924.349028	2579.616396
924.653454	2571.588359
924.957840	2568.775395
925.262186	2568.525858
925.566493	2571.041394
925.870761	2565.281875
926.174989	2566.164077
926.479178	2562.791545
926.783328	2561.498489
927.087438	2564.762637
927.391509	2560.248283
927.695541	2559.270299
927.999533	2558.798952
928.303486	2553.288970
928.607400	2558.037737
928.911275	2557.422717
929.215110	2557.339537
929.518906	2556.364074
929.822663	2556.868190
930.126381	2556.091852
930.430060	2555.895247
930.733699	2554.697973
931.037299	2558.355330
931.340861	2559.693756
931.644383	2559.277861
931.947866	2556.172510
932.251309	2556.290978
932.554714	2556.016235
932.858080	2557.818447
933.161407	2555.539846
933.464694	2555.610422
933.767943	2556.848025
934.071153	2555.907850
934.374323	2553.667057
934.677455	2555.814588
934.980548	2554.884496
935.283602	2553.770401
935.586617	2552.245452
935.889593	2553.558672
936.192530	2554.050185
936.495428	2549.785368
936.798287	2555.025648
937.101108	2556.439692
937.403890	2557.868859
937.706632	2561.541339
938.009336	2565.778429
938.312002	2568.107442
938.614628	2572.273956
938.917216	2576.543813
939.219765	2575.691858
939.522275	2574.398802
939.824747	2573.458627
940.127179	2570.154151
940.429573	2565.405384
940.731929	2567.384037
941.034246	2561.932029
941.336524	2569.037535
941.638763	2565.438151
941.940964	2566.065775
942.243126	2564.419838
942.545250	2565.448233
942.847335	2560.550753
943.149381	2559.701318
943.451389	2562.554611
943.753359	2557.815927
944.055290	2558.050340
944.357182	2556.729558
944.659036	2556.800134
944.960851	2557.306770
945.262628	2556.031358
945.564367	2555.348282
945.866067	2556.064126
946.167729	2555.312994
946.469352	2556.384239
946.770937	2554.733261
947.072484	2554.725699
947.373992	2558.239383
947.675462	2554.887016
947.976893	2554.103117
948.278286	2555.002963
948.579641	2554.861810
948.880958	2552.956254
949.182236	2553.772921
949.483476	2553.082283
949.784678	2552.578168
950.085841	2553.183106
950.386967	2554.692932
950.688054	2553.533466
950.989103	2553.422561
951.290114	2554.501368
951.591087	2557.551266
951.892021	2559.900444
952.192917	2555.930535
952.493776	2559.431616
952.794596	2558.453632
953.095378	2563.590568
953.396122	2562.534447
953.696828	2563.222564
953.997496	2558.289795
954.298126	2556.215360
954.598718	2558.740978
954.899272	2554.287119
955.199788	2554.695452
955.500266	2553.740154
955.800706	2549.059442
956.101108	2546.100285
956.401472	2547.441232
956.701798	2542.485778
957.002087	2544.792106
957.302337	2548.709082
957.602550	2545.795295
957.902724	2544.819832
958.202861	2543.695655
958.502960	2543.907383
958.803022	2542.654656
959.103045	2541.119625
959.403031	2542.470654
959.702979	2542.740356
960.002889	2541.777496
960.302762	2544.134235
960.602596	2543.652805
960.902393	2541.228010
961.202153	2540.257588
961.501875	2541.104502
961.801559	2538.475540
962.101205	2541.906045
962.400814	2541.780016
962.700385	2541.371683
962.999918	2540.870088
963.299414	2540.529810
963.598873	2540.371014
963.898293	2540.436549
964.197677	2539.393030
964.497022	2540.023174
964.796331	2537.532844
965.095601	2540.265149
965.394835	2541.187681
965.694030	2539.864378
965.993189	2540.454193
966.292309	2539.249357
966.591393	2540.285314
966.890439	2540.479398
967.189447	2537.021167
967.488419	2539.430838
967.787353	2539.617361
968.086249	2537.230375
968.385108	2539.975283
968.683930	2540.116435
968.982714	2540.650798
969.281462	2539.624923
969.580172	2543.562064
969.878844	2540.035777
970.177480	2540.804553
970.476078	2538.674665
970.774639	2542.185829
971.073162	2539.304810
971.371649	2537.333718
971.670098	2537.933616
971.968510	2540.020653
972.266885	2537.371527
972.565223	2543.688093
972.863524	2536.786753
973.161788	2540.083668
973.460014	2541.638864
973.758204	2539.622402
974.056356	2539.720705
974.354471	2538.931764
974.652550	2542.629451
974.950591	2541.114584
975.248595	2542.354708
975.546563	2541.238092
975.844493	2540.008051
976.142386	2541.288504
976.440243	2540.802032
976.738062	2537.852957
977.035845	2537.961342
977.333590	2538.546116
977.631299	2535.541588
977.928971	2539.829090
978.226606	2538.475540
978.524204	2539.652649
978.821765	2536.685930
979.119290	2538.283976
979.416777	2539.019984
979.714228	2538.578883
980.011642	2539.055273
980.309020	2541.026364
980.606360	2537.878163
980.903664	2540.282793
981.200931	2540.759182
981.498162	2540.083668
981.795356	2544.633309
982.092513	2546.548948
982.389633	2546.904349
982.686717	2550.927190
982.983764	2552.857952
983.280775	2553.402396
983.577749	2552.583209
983.874686	2552.041285
984.171587	2550.271840
984.468451	2548.240255
984.765279	2543.614996
985.062070	2544.711447
985.358824	2541.464944
985.655543	2543.463762
985.952224	2541.777496
986.248869	2541.293545
986.545478	2534.656866
986.842050	2538.326826
987.138586	2535.791125
987.435086	2536.368337
987.731549	2533.305837
988.027975	2539.967721
988.324366	2534.127545
988.620719	2538.162988
988.917037	2537.026208
989.213318	2537.704243
989.509563	2535.541588
989.805772	2537.459747
990.101944	2536.378420
990.398080	2537.550488
990.694180	2535.095446
990.990244	2535.168543
991.286271	2534.775333
991.582262	2535.407998
991.878217	2535.130734
992.174136	2535.377751
992.470019	2534.863553
992.765865	2535.841537
993.061676	2536.869932
993.357450	2536.282638
993.653188	2537.053934
993.948890	2538.742721
994.244556	2534.712318
994.540186	2537.169881
994.835780	2538.384799
995.131337	2540.517207
995.426859	2538.767927
995.722345	2534.916485
996.017795	2539.829090
996.313208	2539.153575
996.608586	2542.137938
996.903928	2539.574511
997.199234	2542.647095
997.494504	2538.800694
997.789738	2539.836651
998.084936	2538.180632
998.380099	2538.480581
998.675225	2539.211548
998.970316	2536.017977
999.265371	2539.451003
999.560390	2536.970755
999.855373	2537.200128
1000.150320	2536.333049
1000.445232	2534.765251
1000.740108	2535.032432
1001.034948	2537.172402
1001.329752	2537.883204
1001.624521	2535.602082
1001.919254	2530.417255
1002.213951	2531.969931
1002.508613	2529.910619
1002.803239	2532.395908
1003.097829	2532.214427
1003.392384	2537.638708
1003.686903	2534.687113
1003.981386	2535.765920
1004.275834	2534.001516
1004.570246	2533.769623
1004.864623	2535.546629
1005.158964	2535.528985
1005.453270	2533.734335
1005.747540	2531.291896
1006.041775	2536.151568
1006.335974	2532.562266
1006.630138	2535.173584
1006.924266	2535.344983
1007.218359	2533.416742
1007.512416	2534.659386
1007.806438	2535.561753
1008.100425	2535.473533
1008.394376	2535.634850
1008.688292	2536.522093
1008.982172	2534.399767
1009.276017	2532.597554
1009.569827	2533.187369
1009.863602	2533.467153
1010.157341	2533.560415
1010.451045	2533.550332
1010.744714	2537.043852
1011.038347	2534.369520
1011.331945	2533.096629
1011.625508	2536.254912
1011.919036	2534.515713
1012.212528	2534.621578
1012.505986	2537.174922
1012.799408	2533.978831
1013.092795	2533.754499
1013.386147	2535.256763
1013.679464	2534.099818
1013.972745	2533.774664
1014.265992	2536.385982
1014.559204	2538.679707
1014.852380	2531.629653
1015.145521	2536.943029
1015.438628	2533.139478
1015.731699	2532.174098
1016.024736	2532.093439
1016.317737	2536.411187
1016.610703	2536.058307
1016.903635	2531.773326
1017.196531	2528.231915
1017.489393	2532.905065
1017.782219	2529.948428
1018.075011	2532.920188
1018.367768	2533.951104
1018.660490	2533.953625
1018.953177	2533.953625
1019.245829	2533.953625
