Dividing Wavelength (nm)	Counts (n)	Blue Motor Position (mm): 8.000000	Red Motor Position (mm): 0.000000	
326.493990	2165.175577
326.888308	2165.175577
327.282561	2165.175577
327.676750	2172.737308
328.070874	2197.943077
328.464933	2145.010962
328.858929	2167.696154
329.252859	2225.669423
329.646726	2225.669423
330.040528	2223.148846
330.434265	2195.422500
330.827938	2238.272308
331.221547	2220.628269
331.615091	2306.327885
332.008571	2240.792885
332.401986	2346.657115
332.795338	2374.383462
333.188625	2384.465769
333.581847	2356.739423
333.975006	2389.506923
334.368100	2392.027500
334.761129	2351.698269
335.154095	2467.644808
335.546996	2427.315577
335.939833	2409.671538
336.332606	2424.795000
336.725315	2495.371154
337.117960	2507.974038
337.510540	2513.015192
337.903056	2550.823846
338.295508	2598.714808
338.687896	2603.755962
339.080220	2548.303269
339.472480	2560.906154
339.864676	2540.741538
340.256807	2538.220962
340.648875	2555.865000
341.040879	2553.344423
341.432818	2545.782692
341.824694	2500.412308
342.216506	2578.550192
342.608253	2502.932885
342.999937	2611.317692
343.391557	2533.179808
343.783113	2621.400000
344.174605	2492.850577
344.566033	2555.865000
344.957397	2515.535769
345.348697	2525.618077
345.739934	2591.153077
346.131106	2530.659231
346.522215	2593.673654
346.913260	2548.303269
347.304241	2628.961731
347.695159	2530.659231
348.086012	2601.235385
348.476802	2565.947308
348.867528	2548.303269
349.258191	2482.768269
349.648789	2545.782692
350.039324	2525.618077
350.429796	2613.838269
350.820203	2593.673654
351.210548	2500.412308
351.600828	2518.056346
351.991045	2634.002885
352.381198	2545.782692
352.771288	2555.865000
353.161314	2560.906154
353.551276	2644.085192
353.941175	2611.317692
354.331010	2472.685962
354.720782	2533.179808
355.110490	2591.153077
355.500135	2530.659231
355.889717	2500.412308
356.279235	2565.947308
356.668689	2480.247692
357.058080	2616.358846
357.447408	2510.494615
357.836672	2535.700385
358.225873	2568.467885
358.615010	2555.865000
359.004084	2588.632500
359.393095	2560.906154
359.782043	2563.426731
360.170927	2593.673654
360.559748	2548.303269
360.948505	2573.509038
361.337199	2505.453462
361.725830	2596.194231
362.114398	2490.330000
362.502903	2583.591346
362.891344	2465.124231
363.279722	2548.303269
363.668037	2588.632500
364.056289	2505.453462
364.444478	2555.865000
364.832603	2603.755962
365.220665	2578.550192
365.608665	2573.509038
365.996601	2553.344423
366.384474	2583.591346
366.772284	2666.770385
367.160031	2553.344423
367.547715	2606.276538
367.935336	2540.741538
368.322893	2570.988462
368.710388	2613.838269
369.097820	2550.823846
369.485189	2558.385577
369.872495	2601.235385
370.259738	2545.782692
370.646918	2616.358846
371.034035	2570.988462
371.421090	2588.632500
371.808081	2611.317692
372.195010	2502.932885
372.581875	2538.220962
372.968678	2586.111923
373.355418	2593.673654
373.742096	2606.276538
374.128710	2651.646923
374.515262	2558.385577
374.901751	2593.673654
375.288177	2500.412308
375.674540	2538.220962
376.060841	2550.823846
376.447079	2603.755962
376.833254	2525.618077
377.219367	2540.741538
377.605417	2618.879423
377.991404	2520.576923
378.377329	2606.276538
378.763191	2452.521346
379.148991	2636.523462
379.534727	2669.290962
379.920402	2455.041923
380.306013	2533.179808
380.691563	2646.605769
381.077049	2618.879423
381.462474	2533.179808
381.847835	2588.632500
382.233134	2525.618077
382.618371	2563.426731
383.003545	2623.920577
383.388657	2631.482308
383.773706	2618.879423
384.158693	2558.385577
384.543618	2616.358846
384.928480	2586.111923
385.313280	2515.535769
385.698017	2608.797115
386.082692	2623.920577
386.467305	2583.591346
386.851856	2613.838269
387.236344	2523.097500
387.620770	2583.591346
388.005133	2555.865000
388.389435	2581.070769
388.773674	2601.235385
389.157851	2606.276538
389.541965	2586.111923
389.926018	2598.714808
390.310008	2626.441154
390.693936	2495.371154
391.077802	2538.220962
391.461606	2543.262115
391.845348	2613.838269
392.229027	2492.850577
392.612645	2593.673654
392.996200	2573.509038
393.379694	2606.276538
393.763125	2495.371154
394.146494	2666.770385
394.529801	2581.070769
394.913047	2631.482308
395.296230	2664.249808
395.679351	2518.056346
396.062410	2639.044038
396.445408	2671.811538
396.828343	2495.371154
397.211217	2525.618077
397.594028	2618.879423
397.976778	2623.920577
398.359466	2570.988462
398.742092	2649.126346
399.124656	2669.290962
399.507158	2679.373269
399.889598	2530.659231
400.271977	2560.906154
400.654294	2603.755962
401.036549	2578.550192
401.418742	2507.974038
401.800874	2560.906154
402.182944	2550.823846
402.564952	2560.906154
402.946898	2634.002885
403.328783	2644.085192
403.710606	2570.988462
404.092367	2651.646923
404.474067	2560.906154
404.855705	2596.194231
405.237282	2576.029615
405.618797	2586.111923
406.000250	2601.235385
406.381642	2611.317692
406.762972	2613.838269
407.144240	2558.385577
407.525447	2492.850577
407.906593	2490.330000
408.287677	2560.906154
408.668700	2671.811538
409.049661	2613.838269
409.430560	2621.400000
409.811399	2601.235385
410.192176	2545.782692
410.572891	2601.235385
410.953545	2591.153077
411.334138	2666.770385
411.714669	2596.194231
412.095139	2608.797115
412.475547	2606.276538
412.855894	2586.111923
413.236180	2563.426731
413.616405	2654.167500
413.996568	2573.509038
414.376670	2543.262115
414.756711	2613.838269
415.136691	2631.482308
415.516609	2671.811538
415.896466	2616.358846
416.276262	2656.688077
416.655997	2601.235385
417.035670	2697.017308
417.415283	2616.358846
417.794834	2548.303269
418.174324	2659.208654
418.553753	2570.988462
418.933121	2538.220962
419.312428	2608.797115
419.691674	2558.385577
420.070859	2613.838269
420.449983	2581.070769
420.829045	2588.632500
421.208047	2598.714808
421.586988	2603.755962
421.965867	2591.153077
422.344686	2560.906154
422.723444	2618.879423
423.102141	2578.550192
423.480777	2697.017308
423.859352	2565.947308
424.237866	2591.153077
424.616319	2644.085192
424.994712	2528.138654
425.373044	2598.714808
425.751314	2639.044038
426.129524	2591.153077
426.507673	2646.605769
426.885762	2664.249808
427.263789	2598.714808
427.641756	2568.467885
428.019662	2591.153077
428.397508	2674.332115
428.775292	2550.823846
429.153016	2588.632500
429.530679	2613.838269
429.908282	2616.358846
430.285824	2611.317692
430.663305	2540.741538
431.040726	2714.661346
431.418086	2601.235385
431.795385	2583.591346
432.172624	2565.947308
432.549802	2581.070769
432.926920	2530.659231
433.303977	2616.358846
433.680974	2631.482308
434.057910	2613.838269
434.434786	2560.906154
434.811601	2515.535769
435.188355	2654.167500
435.565050	2641.564615
435.941683	2515.535769
436.318257	2576.029615
436.694770	2714.661346
437.071222	2681.893846
437.447614	2621.400000
437.823946	2649.126346
438.200218	2603.755962
438.576429	2601.235385
438.952580	2666.770385
439.328670	2702.058462
439.704700	2659.208654
440.080670	2717.181923
440.456580	2762.552308
440.832429	2760.031731
441.208218	2697.017308
441.583947	2729.784808
441.959616	2760.031731
442.335224	2747.428846
442.710773	2825.566731
443.086261	2805.402115
443.461689	2739.867115
443.837057	2739.867115
444.212365	2850.772500
444.587612	2923.869231
444.962800	2918.828077
445.337927	2936.472115
445.712995	2996.965962
446.088002	2956.636731
446.462949	2928.910385
446.837837	3022.171731
447.212664	3120.474231
447.587431	3201.132692
447.962139	3256.585385
448.336786	3455.710962
448.711374	3617.027885
449.085901	3395.217115
449.460369	3405.299423
449.834776	3528.807692
450.209124	3778.344808
450.583412	3838.838654
450.957640	4075.772885
451.331808	4025.361346
451.705917	3927.058846
452.079965	3833.797500
452.453954	4106.019808
452.827883	4214.404615
453.201752	4300.104231
453.575562	4347.995192
453.949311	4411.009615
454.323001	4496.709231
454.696632	4728.602308
455.070202	4821.863654
455.443713	5041.153846
455.817164	5290.690962
456.190556	5454.528462
456.563888	5590.639615
456.937160	5772.121154
457.310373	5746.915385
457.683526	5935.958654
458.056619	5837.656154
458.429653	6198.098654
458.802628	6077.110962
459.175542	6256.071923
459.548398	6747.584423
459.921194	7294.549615
460.293930	7468.469423
460.666607	8022.996346
461.039224	8774.128269
461.411782	9104.323846
461.784280	9313.531731
462.156719	9247.996731
462.529099	9419.395962
462.901419	9038.788846
463.273680	9134.570769
463.645882	9353.860962
464.018024	9326.134615
464.390106	9754.632692
464.762130	10478.038269
465.134094	11266.978846
465.505999	12933.080192
465.877845	14977.268077
466.249631	17132.361346
466.621358	16837.453846
466.993026	15998.101731
467.364634	15801.496731
467.736184	15246.969808
468.107674	14644.551923
468.479105	15430.971923
468.850477	15045.323654
469.221790	15073.050000
469.593043	14700.004615
469.964238	14606.743269
470.335373	14374.850192
470.706449	15380.560385
471.077467	15420.889615
471.448425	17991.878077
471.819324	21225.778269
472.190164	21810.552115
472.560945	18725.365962
472.931667	17152.525962
473.302330	17051.702885
473.672934	17427.268846
474.043479	17301.240000
474.413965	17442.392308
474.784393	17170.170000
475.154761	18425.417308
475.525070	17873.410962
475.895321	18284.265000
476.265513	19070.685000
476.635645	19912.557692
477.005719	19809.214038
477.375734	20015.901346
477.745691	20116.724423
478.115588	21003.967500
478.485427	21918.936923
478.855207	23443.885962
479.224928	25241.057308
479.594591	26965.131923
479.964194	26647.539231
480.333739	27212.148462
480.703226	27091.160769
481.072653	26463.537115
481.442022	27633.084808
481.811333	28744.659231
482.180584	28074.185769
482.549777	27388.588846
482.918912	27204.586731
483.287988	27325.574423
483.657005	26788.691538
484.025964	26942.446731
484.394864	26745.841731
484.763706	25911.530769
485.132489	25664.514231
485.501213	25377.168462
485.869879	25926.654231
486.238487	25561.170577
486.607036	25543.526538
486.975527	25334.318654
487.343959	25346.921538
487.712333	25288.948269
488.080648	24747.024231
488.448905	25157.878269
488.817104	24673.927500
489.185244	25649.390769
489.553326	25175.522308
489.921350	26423.207885
490.289315	28921.099615
490.657222	29919.248077
491.025070	29959.577308
491.392861	29107.622308
491.760593	28192.652885
492.128267	26937.405577
492.495883	25994.709808
492.863440	25122.590192
493.230939	24177.373846
493.598380	23481.694615
493.965763	23010.346731
494.333088	22362.558462
494.700354	22415.490577
495.067563	21913.895769
495.434713	21238.381154
495.801805	21213.175385
496.168839	20885.500385
496.535815	20683.854231
496.902733	20383.905577
497.269593	19955.407500
497.636395	20149.491923
498.003139	19723.514423
498.369825	19027.835192
498.736453	19572.279808
499.103023	19282.413462
499.469535	18644.707500
499.835989	18672.433846
500.202385	18264.100385
500.568723	17739.820385
500.935003	17908.699038
501.301226	17029.017692
501.667390	17326.445769
502.033497	17031.538269
502.399546	16824.850962
502.765537	16106.486538
503.131470	16101.445385
503.497345	16214.871346
503.863163	15632.618077
504.228923	15352.834038
504.594625	15241.928654
504.960269	14820.992308
505.325856	15052.885385
505.691385	14052.216346
506.056856	14198.409808
506.422270	14243.780192
506.787625	13359.057692
507.152924	13399.386923
507.518164	13316.207885
507.883347	12890.230385
508.248472	12469.294038
508.613540	12623.049231
508.978550	12386.115000
509.343503	12222.277500
509.708398	11844.190962
510.073236	11743.367885
510.438016	11715.641538
510.802738	11219.087885
511.167403	11055.250385
511.532010	10992.235962
511.896561	10835.960192
512.261053	10273.871538
512.625488	10175.569038
512.989866	9973.922885
513.354186	9961.320000
513.718449	9575.671731
514.082655	9462.245769
514.446803	9114.406154
514.810894	9174.900000
515.174927	8776.648846
515.538904	8476.700192
515.902822	8350.671346
516.266684	8317.903846
516.630488	8146.504615
516.994235	7791.103269
517.357925	7755.815192
517.721558	7712.965385
518.085133	7486.113462
518.448651	7314.714231
518.812112	7216.411731
519.175516	7092.903462
519.538863	6881.175000
519.902152	6803.037115
520.265385	6707.255192
520.628560	6450.156346
520.991678	6203.139808
521.354739	6087.193269
521.717743	6132.563654
522.080690	6019.137692
522.443580	5885.547115
522.806413	5625.927692
523.169189	5603.242500
523.531908	5444.446154
523.894569	5378.911154
524.257174	5094.085962
524.619722	5162.141538
524.982213	5073.921346
525.344647	4965.536538
525.707025	4857.151731
526.069345	4733.643462
526.431608	4617.696923
526.793815	4516.873846
527.155964	4504.270962
527.518057	4403.447885
527.880093	4403.447885
528.242072	4274.898462
528.603995	4290.021923
528.965860	4267.336731
529.327669	4106.019808
529.689421	3964.867500
530.051117	3947.223462
530.412755	3848.920962
530.774337	3735.495000
531.135862	3790.947692
531.497331	3720.371538
531.858743	3611.986731
532.220098	3672.480577
532.581396	3596.863269
532.942638	3609.466154
533.303824	3518.725385
533.664953	3498.560769
534.026025	3337.243846
534.387040	3269.188269
534.747999	3317.079231
535.108902	3322.120385
535.469748	3216.256154
535.830537	3216.256154
536.191270	3216.256154
536.551947	3201.132692
536.912567	3117.953654
537.273131	3180.968077
537.633638	3085.186154
537.994089	3095.268462
538.354483	3027.212885
538.714821	3034.774615
539.075103	3007.048269
539.435328	2994.445385
539.795497	3065.021538
540.155609	2969.239615
540.515665	2964.198462
540.875665	2979.321923
541.235609	2908.745769
541.595496	2883.540000
541.955328	2881.019423
542.315102	2868.416538
542.674821	2820.525577
543.034483	2845.731346
543.394090	2828.087308
543.753640	2790.278654
544.113134	2775.155192
544.472571	2815.484423
544.831953	2787.758077
545.191278	2805.402115
545.550548	2845.731346
545.909761	2777.675769
546.268918	2843.210769
546.628019	2830.607885
546.987064	2797.840385
547.346053	2797.840385
547.704986	2800.360962
548.063863	2833.128462
548.422684	2820.525577
548.781449	2795.319808
549.140158	2719.702500
549.498811	2810.443269
549.857408	2757.511154
550.215949	2709.620192
550.574434	2762.552308
550.932864	2684.414423
551.291237	2719.702500
551.649555	2709.620192
552.007817	2679.373269
552.366022	2742.387692
552.724173	2727.264231
553.082267	2739.867115
553.440305	2699.537885
553.798288	2719.702500
554.156215	2697.017308
554.514086	2634.002885
554.871902	2689.455577
555.229661	2644.085192
555.587365	2699.537885
555.945014	2714.661346
556.302606	2636.523462
556.660143	2623.920577
557.017625	2702.058462
557.375050	2729.784808
557.732421	2681.893846
558.089735	2709.620192
558.446994	2681.893846
558.804197	2651.646923
559.161345	2679.373269
559.518437	2712.140769
559.875474	2674.332115
560.232455	2752.470000
560.589381	2707.099615
560.946251	2628.961731
561.303065	2722.223077
561.659825	2656.688077
562.016528	2697.017308
562.373177	2654.167500
562.729770	2659.208654
563.086307	2691.976154
563.442789	2634.002885
563.799216	2623.920577
564.155587	2641.564615
564.511904	2674.332115
564.868164	2676.852692
565.224370	2686.935000
565.580520	2626.441154
565.936615	2671.811538
566.292654	2671.811538
566.648638	2649.126346
567.004567	2689.455577
567.360441	2659.208654
567.716260	2616.358846
568.072023	2641.564615
568.427732	2674.332115
568.783385	2644.085192
569.138982	2628.961731
569.494525	2649.126346
569.850013	2666.770385
570.205445	2777.675769
570.560823	2606.276538
570.916145	2664.249808
571.271412	2679.373269
571.626625	2634.002885
571.981782	2699.537885
572.336884	2568.467885
572.691931	2661.729231
573.046923	2664.249808
573.401860	2671.811538
573.756743	2634.002885
574.111570	2613.838269
574.466342	2596.194231
574.821059	2611.317692
575.175722	2702.058462
575.530330	2707.099615
575.884882	2611.317692
576.239380	2603.755962
576.593823	2581.070769
576.948211	2601.235385
577.302544	2674.332115
577.656823	2591.153077
578.011047	2626.441154
578.365216	2646.605769
578.719330	2641.564615
579.073389	2636.523462
579.427394	2611.317692
579.781344	2634.002885
580.135239	2639.044038
580.489080	2646.605769
580.842866	2684.414423
581.196597	2681.893846
581.550273	2707.099615
581.903895	2568.467885
582.257463	2684.414423
582.610975	2737.346538
582.964434	2656.688077
583.317837	2558.385577
583.671186	2689.455577
584.024481	2586.111923
584.377721	2654.167500
584.730906	2548.303269
585.084037	2669.290962
585.437113	2689.455577
585.790135	2714.661346
586.143103	2671.811538
586.496016	2618.879423
586.848874	2608.797115
587.201679	2654.167500
587.554428	2626.441154
587.907124	2656.688077
588.259765	2654.167500
588.612352	2659.208654
588.964884	2651.646923
589.317362	2679.373269
589.669786	2573.509038
590.022155	2636.523462
590.374470	2679.373269
590.726731	2626.441154
591.078937	2664.249808
591.431090	2676.852692
591.783188	2699.537885
592.135232	2664.249808
592.487222	2578.550192
592.839157	2596.194231
593.191038	2583.591346
593.542866	2684.414423
593.894639	2671.811538
594.246358	2649.126346
594.598022	2674.332115
594.949633	2565.947308
595.301190	2555.865000
595.652692	2555.865000
596.004141	2699.537885
596.355535	2616.358846
596.706876	2664.249808
597.058162	2644.085192
597.409395	2674.332115
597.760573	2684.414423
598.111698	2628.961731
598.462768	2601.235385
598.813785	2641.564615
599.164748	2656.688077
599.515657	2636.523462
599.866511	2628.961731
600.217312	2646.605769
600.568060	2586.111923
600.918753	2639.044038
601.269392	2623.920577
601.619978	2674.332115
601.970510	2644.085192
602.320988	2659.208654
602.671412	2603.755962
603.021783	2586.111923
603.372100	2661.729231
603.722363	2586.111923
604.072572	2628.961731
604.422728	2651.646923
604.772830	2694.496731
605.122878	2631.482308
605.472872	2598.714808
605.822813	2644.085192
606.172701	2596.194231
606.522534	2656.688077
606.872314	2666.770385
607.222041	2613.838269
607.571714	2651.646923
607.921333	2729.784808
608.270899	2639.044038
608.620411	2689.455577
608.969870	2621.400000
609.319276	2691.976154
609.668627	2644.085192
610.017926	2654.167500
610.367171	2669.290962
610.716362	2691.976154
611.065500	2671.811538
611.414585	2661.729231
611.763616	2636.523462
612.112594	2618.879423
612.461518	2702.058462
612.810389	2591.153077
613.159207	2681.893846
613.507971	2628.961731
613.856682	2684.414423
614.205340	2686.935000
614.553945	2651.646923
614.902496	2540.741538
615.250994	2654.167500
615.599439	2586.111923
615.947830	2583.591346
616.296169	2611.317692
616.644454	2671.811538
616.992686	2550.823846
617.340864	2664.249808
617.688990	2606.276538
618.037063	2641.564615
618.385082	2525.618077
618.733048	2727.264231
619.080961	2641.564615
619.428821	2573.509038
619.776628	2641.564615
620.124382	2639.044038
620.472083	2664.249808
620.819731	2581.070769
621.167326	2601.235385
621.514868	2636.523462
621.862357	2613.838269
622.209793	2611.317692
622.557176	2686.935000
622.904506	2591.153077
623.251783	2694.496731
623.599007	2525.618077
623.946179	2636.523462
624.293297	2654.167500
624.640363	2636.523462
624.987376	2606.276538
625.334336	2654.167500
625.681243	2649.126346
626.028097	2631.482308
626.374899	2679.373269
626.721647	2659.208654
627.068343	2631.482308
627.414987	2694.496731
627.761577	2702.058462
628.108115	2639.044038
628.454600	2618.879423
628.801032	2661.729231
629.147412	2631.482308
629.493739	2626.441154
629.840014	2628.961731
630.186236	2578.550192
630.532405	2616.358846
630.878521	2606.276538
631.224585	2639.044038
631.570597	2694.496731
631.916556	2669.290962
632.262462	2659.208654
632.608316	2699.537885
632.954117	2669.290962
633.299866	2555.865000
633.645562	2593.673654
633.991206	2623.920577
634.336797	2669.290962
634.682336	2628.961731
635.027823	2644.085192
635.373257	2621.400000
635.718639	2671.811538
636.063968	2674.332115
636.409245	2578.550192
636.754470	2591.153077
637.099642	2606.276538
637.444762	2651.646923
637.789829	2651.646923
638.134845	2649.126346
638.479808	2626.441154
638.824719	2659.208654
639.169577	2661.729231
639.514383	2626.441154
639.859137	2649.126346
640.203839	2644.085192
640.548489	2548.303269
640.893086	2545.782692
641.237632	2623.920577
641.582125	2523.097500
641.926566	2636.523462
642.270955	2593.673654
642.615292	2639.044038
642.959576	2581.070769
643.303809	2570.988462
643.647990	2689.455577
643.992118	2651.646923
644.336195	2507.974038
644.680219	2581.070769
645.024192	2631.482308
645.368112	2709.620192
645.711981	2576.029615
646.055797	2704.579038
646.399562	2641.564615
646.743274	2611.317692
647.086935	2558.385577
647.430544	2608.797115
647.774101	2697.017308
648.117606	2596.194231
648.461059	2586.111923
648.804460	2588.632500
649.147810	2583.591346
649.491108	2699.537885
649.834354	2649.126346
650.177548	2684.414423
650.520690	2674.332115
650.863781	2636.523462
651.206820	2608.797115
651.549807	2659.208654
651.892742	2550.823846
652.235626	2621.400000
652.578458	2659.208654
652.921238	2628.961731
653.263967	2664.249808
653.606644	2555.865000
653.949269	2570.988462
654.291843	2654.167500
654.634365	2623.920577
654.976836	2661.729231
655.319255	2664.249808
655.661622	2616.358846
656.003938	2697.017308
656.346203	2646.605769
656.688416	2611.317692
657.030577	2646.605769
657.372687	2639.044038
657.714746	2669.290962
658.056753	2603.755962
658.398708	2586.111923
658.740612	2623.920577
659.082465	2533.179808
659.424266	2674.332115
659.766016	2601.235385
660.107715	2639.044038
660.449362	2540.741538
660.790958	2646.605769
661.132503	2626.441154
661.473996	2581.070769
661.815438	2699.537885
662.156829	2581.070769
662.498168	2628.961731
662.839456	2649.126346
663.180693	2560.906154
663.521879	2563.426731
663.863013	2681.893846
664.204097	2603.755962
664.545129	2588.632500
664.886110	2626.441154
665.227040	2611.317692
665.567918	2601.235385
665.908746	2656.688077
666.249522	2684.414423
666.590248	2669.290962
666.930922	2570.988462
667.271545	2586.111923
667.612118	2634.002885
667.952639	2606.276538
668.293109	2674.332115
668.633528	2636.523462
668.973896	2578.550192
669.314213	2636.523462
669.654480	2654.167500
669.994695	2581.070769
670.334859	2578.550192
670.674973	2588.632500
671.015035	2593.673654
671.355047	2661.729231
671.695008	2636.523462
672.034918	2714.661346
672.374777	2634.002885
672.714585	2636.523462
673.054342	2581.070769
673.394049	2588.632500
673.733705	2686.935000
674.073310	2661.729231
674.412864	2603.755962
674.752368	2641.564615
675.091820	2664.249808
675.431223	2694.496731
675.770574	2611.317692
676.109875	2661.729231
676.449125	2676.852692
676.788324	2651.646923
677.127473	2631.482308
677.466571	2681.893846
677.805619	2666.770385
678.144616	2684.414423
678.483562	2596.194231
678.822458	2601.235385
679.161303	2626.441154
679.500098	2659.208654
679.838842	2616.358846
680.177535	2608.797115
680.516179	2636.523462
680.854771	2704.579038
681.193314	2669.290962
681.531805	2578.550192
681.870247	2664.249808
682.208638	2724.743654
682.546978	2707.099615
682.885268	2699.537885
683.223508	2669.290962
683.561697	2565.947308
683.899836	2611.317692
684.237925	2699.537885
684.575963	2689.455577
684.913951	2644.085192
685.251889	2613.838269
685.589776	2626.441154
685.927614	2583.591346
686.265401	2684.414423
686.603137	2621.400000
686.940824	2596.194231
687.278460	2644.085192
687.616046	2646.605769
687.953582	2636.523462
688.291068	2601.235385
688.628504	2639.044038
688.965889	2576.029615
689.303224	2649.126346
689.640510	2613.838269
689.977745	2596.194231
690.314930	2644.085192
690.652065	2513.015192
690.989150	2578.550192
691.326185	2641.564615
691.663170	2618.879423
692.000105	2565.947308
692.336990	2545.782692
692.673825	2623.920577
693.010610	2626.441154
693.347345	2618.879423
693.684030	2618.879423
694.020665	2603.755962
694.357251	2540.741538
694.693786	2618.879423
695.030272	2593.673654
695.366707	2649.126346
695.703093	2666.770385
696.039429	2626.441154
696.375716	2649.126346
696.711952	2651.646923
697.048139	2613.838269
697.384276	2608.797115
697.720363	2593.673654
698.056400	2618.879423
698.392388	2656.688077
698.728326	2656.688077
699.064214	2533.179808
699.400053	2535.700385
699.735842	2644.085192
700.071581	2623.920577
700.407270	2588.632500
700.742910	2606.276538
701.078501	2603.755962
701.414042	2560.906154
701.749533	2581.070769
702.084974	2679.373269
702.420366	2628.961731
702.755709	2641.564615
703.091002	2636.523462
703.426246	2570.988462
703.761440	2689.455577
704.096584	2634.002885
704.431679	2651.646923
704.766725	2608.797115
705.101721	2636.523462
705.436668	2553.344423
705.771565	2636.523462
706.106413	2671.811538
706.441212	2583.591346
706.775961	2649.126346
707.110661	2621.400000
707.445311	2538.220962
707.779913	2676.852692
708.114465	2722.223077
708.448967	2699.537885
708.783421	2671.811538
709.117825	2583.591346
709.452180	2593.673654
709.786485	2550.823846
710.120742	2578.550192
710.454949	2616.358846
710.789107	2550.823846
711.123216	2631.482308
711.457275	2550.823846
711.791286	2659.208654
712.125247	2649.126346
712.459159	2651.646923
712.793023	2626.441154
713.126837	2505.453462
713.460602	2634.002885
713.794318	2659.208654
714.127985	2656.688077
714.461602	2689.455577
714.795171	2563.426731
715.128691	2596.194231
715.462162	2628.961731
715.795584	2649.126346
716.128957	2593.673654
716.462281	2636.523462
716.795556	2573.509038
717.128782	2578.550192
717.461960	2603.755962
717.795088	2611.317692
718.128167	2608.797115
718.461198	2621.400000
718.794180	2563.426731
719.127113	2540.741538
719.459997	2611.317692
719.792833	2689.455577
720.125619	2646.605769
720.458357	2697.017308
720.791046	2656.688077
721.123686	2626.441154
721.456278	2588.632500
721.788821	2704.579038
722.121315	2553.344423
722.453761	2639.044038
722.786158	2558.385577
723.118506	2583.591346
723.450805	2631.482308
723.783056	2596.194231
724.115259	2623.920577
724.447412	2502.932885
724.779518	2560.906154
725.111574	2636.523462
725.443582	2588.632500
725.775542	2707.099615
726.107453	2535.700385
726.439315	2540.741538
726.771129	2649.126346
727.102895	2634.002885
727.434612	2654.167500
727.766281	2603.755962
728.097901	2646.605769
728.429473	2628.961731
728.760996	2636.523462
729.092471	2621.400000
729.423897	2611.317692
729.755276	2669.290962
730.086606	2754.990577
730.417887	2598.714808
730.749120	2641.564615
731.080305	2636.523462
731.411442	2588.632500
731.742530	2636.523462
732.073570	2613.838269
732.404562	2621.400000
732.735506	2634.002885
733.066401	2603.755962
733.397249	2598.714808
733.728048	2631.482308
734.058798	2626.441154
734.389501	2581.070769
734.720156	2646.605769
735.050762	2613.838269
735.381320	2691.976154
735.711831	2603.755962
736.042293	2611.317692
736.372707	2613.838269
736.703073	2591.153077
737.033391	2565.947308
737.363661	2606.276538
737.693883	2581.070769
738.024056	2641.564615
738.354182	2661.729231
738.684260	2518.056346
739.014290	2583.591346
739.344272	2621.400000
739.674207	2631.482308
740.004093	2621.400000
740.333931	2669.290962
740.663722	2601.235385
740.993464	2666.770385
741.323159	2611.317692
741.652806	2661.729231
741.982405	2613.838269
742.311956	2641.564615
742.641460	2628.961731
742.970915	2591.153077
743.300323	2565.947308
743.629683	2646.605769
743.958996	2596.194231
744.288260	2563.426731
744.617477	2651.646923
744.946647	2639.044038
745.275768	2573.509038
745.604842	2603.755962
745.933869	2681.893846
746.262847	2707.099615
746.591778	2598.714808
746.920662	2641.564615
747.249498	2606.276538
747.578286	2651.646923
747.907027	2628.961731
748.235720	2664.249808
748.564365	2570.988462
748.892963	2548.303269
749.221514	2581.070769
749.550017	2649.126346
749.878473	2601.235385
750.206881	2616.358846
750.535242	2684.414423
750.863555	2646.605769
751.191821	2654.167500
751.520039	2601.235385
751.848210	2593.673654
752.176334	2676.852692
752.504411	2679.373269
752.832440	2606.276538
753.160421	2510.494615
753.488356	2651.646923
753.816243	2553.344423
754.144082	2628.961731
754.471875	2608.797115
754.799620	2631.482308
755.127318	2601.235385
755.454969	2651.646923
755.782572	2709.620192
756.110129	2578.550192
756.437638	2576.029615
756.765100	2661.729231
757.092515	2621.400000
757.419882	2593.673654
757.747203	2593.673654
758.074477	2593.673654
758.401703	2621.400000
758.728882	2646.605769
759.056014	2651.646923
759.383099	2641.564615
759.710138	2641.564615
760.037129	2661.729231
760.364073	2634.002885
760.690970	2661.729231
761.017820	2651.646923
761.344623	2601.235385
761.671379	2581.070769
761.998088	2565.947308
762.324751	2661.729231
762.651366	2591.153077
762.977935	2631.482308
763.304456	2651.646923
763.630931	2734.825962
763.957359	2621.400000
764.283740	2621.400000
764.610074	2601.235385
764.936362	2666.770385
765.262602	2626.441154
765.588796	2676.852692
765.914943	2570.988462
766.241044	2616.358846
766.567097	2699.537885
766.893104	2634.002885
767.219064	2679.373269
767.544978	2676.852692
767.870845	2578.550192
768.196665	2659.208654
768.522438	2616.358846
768.848165	2639.044038
769.173846	2674.332115
769.499479	2598.714808
769.825066	2588.632500
770.150607	2613.838269
770.476101	2568.467885
770.801548	2576.029615
771.126949	2558.385577
771.452303	2639.044038
771.777611	2616.358846
772.102872	2623.920577
772.428087	2634.002885
772.753256	2553.344423
773.078378	2553.344423
773.403453	2487.809423
773.728482	2525.618077
774.053465	2676.852692
774.378401	2636.523462
774.703291	2636.523462
775.028135	2613.838269
775.352932	2598.714808
775.677683	2689.455577
776.002388	2628.961731
776.327046	2613.838269
776.651658	2555.865000
776.976224	2598.714808
777.300743	2538.220962
777.625216	2679.373269
777.949643	2626.441154
778.274024	2563.426731
778.598359	2628.961731
778.922647	2639.044038
779.246889	2634.002885
779.571086	2543.262115
779.895236	2611.317692
780.219339	2649.126346
780.543397	2623.920577
780.867409	2661.729231
781.191374	2621.400000
781.515294	2596.194231
781.839167	2639.044038
782.162995	2691.976154
782.486776	2535.700385
782.810511	2626.441154
783.134201	2644.085192
783.457844	2603.755962
783.781441	2555.865000
784.104993	2679.373269
784.428498	2654.167500
784.751958	2697.017308
785.075372	2686.935000
785.398739	2593.673654
785.722061	2679.373269
786.045337	2586.111923
786.368568	2568.467885
786.691752	2603.755962
787.014891	2570.988462
787.337983	2603.755962
787.661030	2598.714808
787.984031	2608.797115
788.306987	2621.400000
788.629897	2631.482308
788.952760	2591.153077
789.275579	2669.290962
789.598351	2588.632500
789.921078	2596.194231
790.243759	2596.194231
790.566395	2631.482308
790.888984	2679.373269
791.211529	2502.932885
791.534027	2548.303269
791.856480	2679.373269
792.178888	2596.194231
792.501249	2548.303269
792.823566	2676.852692
793.145836	2639.044038
793.468062	2603.755962
793.790241	2664.249808
794.112375	2523.097500
794.434464	2603.755962
794.756507	2523.097500
795.078505	2611.317692
795.400457	2565.947308
795.722364	2611.317692
796.044226	2621.400000
796.366042	2550.823846
796.687812	2661.729231
797.009538	2623.920577
797.331218	2636.523462
797.652852	2611.317692
797.974442	2545.782692
798.295986	2671.811538
798.617484	2631.482308
798.938938	2628.961731
799.260346	2591.153077
799.581709	2659.208654
799.903026	2586.111923
800.224299	2596.194231
800.545526	2573.509038
800.866708	2661.729231
801.187845	2593.673654
801.508936	2639.044038
801.829983	2578.550192
802.150984	2555.865000
802.471940	2570.988462
802.792851	2636.523462
803.113717	2699.537885
803.434538	2603.755962
803.755314	2649.126346
804.076045	2525.618077
804.396731	2613.838269
804.717372	2568.467885
805.037967	2671.811538
805.358518	2684.414423
805.679024	2608.797115
805.999485	2555.865000
806.319901	2649.126346
806.640272	2591.153077
806.960598	2616.358846
807.280879	2613.838269
807.601115	2563.426731
807.921306	2613.838269
808.241453	2641.564615
808.561554	2603.755962
808.881611	2641.564615
809.201623	2621.400000
809.521590	2591.153077
809.841513	2586.111923
810.161390	2646.605769
810.481223	2586.111923
810.801011	2676.852692
811.120755	2586.111923
811.440453	2578.550192
811.760107	2628.961731
812.079716	2613.838269
812.399281	2639.044038
812.718801	2639.044038
813.038276	2694.496731
813.357707	2593.673654
813.677093	2601.235385
813.996434	2598.714808
814.315731	2573.509038
814.634983	2606.276538
814.954191	2581.070769
815.273354	2646.605769
815.592473	2639.044038
815.911547	2586.111923
816.230577	2588.632500
816.549562	2555.865000
816.868502	2553.344423
817.187399	2523.097500
817.506250	2704.579038
817.825058	2649.126346
818.143821	2639.044038
818.462539	2616.358846
818.781213	2586.111923
819.099843	2570.988462
819.418429	2639.044038
819.736970	2659.208654
820.055466	2618.879423
820.373919	2603.755962
820.692327	2560.906154
821.010691	2623.920577
821.329011	2669.290962
821.647286	2694.496731
821.965517	2732.305385
822.283704	2742.387692
822.601847	2686.935000
822.919945	2623.920577
823.237999	2676.852692
823.556010	2616.358846
823.873976	2651.646923
824.191897	2664.249808
824.509775	2732.305385
824.827609	2593.673654
825.145398	2674.332115
825.463144	2732.305385
825.780845	2697.017308
826.098502	2601.235385
826.416116	2636.523462
826.733685	2596.194231
827.051210	2742.387692
827.368692	2674.332115
827.686129	2681.893846
828.003522	2664.249808
828.320872	2674.332115
828.638177	2686.935000
828.955439	2596.194231
829.272656	2581.070769
829.589830	2641.564615
829.906960	2565.947308
830.224046	2644.085192
830.541088	2679.373269
830.858086	2686.935000
831.175041	2651.646923
831.491952	2664.249808
831.808819	2586.111923
832.125642	2639.044038
832.442421	2538.220962
832.759157	2591.153077
833.075849	2576.029615
833.392497	2634.002885
833.709101	2709.620192
834.025662	2669.290962
834.342179	2560.906154
834.658653	2654.167500
834.975083	2576.029615
835.291469	2608.797115
835.607811	2634.002885
835.924110	2570.988462
836.240366	2616.358846
836.556578	2664.249808
836.872746	2608.797115
837.188871	2535.700385
837.504952	2641.564615
837.820990	2659.208654
838.136984	2636.523462
838.452935	2583.591346
838.768842	2649.126346
839.084706	2611.317692
839.400526	2583.591346
839.716303	2583.591346
840.032037	2646.605769
840.347727	2684.414423
840.663373	2641.564615
840.978977	2596.194231
841.294537	2606.276538
841.610054	2523.097500
841.925527	2545.782692
842.240957	2631.482308
842.556344	2628.961731
842.871687	2593.673654
843.186987	2666.770385
843.502244	2618.879423
843.817458	2671.811538
844.132629	2608.797115
844.447756	2616.358846
844.762840	2578.550192
845.077881	2618.879423
845.392879	2717.181923
845.707833	2689.455577
846.022745	2523.097500
846.337613	2598.714808
846.652438	2634.002885
846.967221	2634.002885
847.281960	2578.550192
847.596656	2606.276538
847.911309	2628.961731
848.225919	2581.070769
848.540485	2646.605769
848.855009	2578.550192
849.169490	2593.673654
849.483928	2684.414423
849.798323	2641.564615
850.112675	2603.755962
850.426984	2588.632500
850.741251	2586.111923
851.055474	2555.865000
851.369654	2616.358846
851.683792	2611.317692
851.997887	2578.550192
852.311938	2649.126346
852.625947	2578.550192
852.939914	2603.755962
853.253837	2576.029615
853.567718	2573.509038
853.881555	2528.138654
854.195350	2598.714808
854.509103	2601.235385
854.822812	2613.838269
855.136479	2651.646923
855.450103	2628.961731
855.763685	2679.373269
856.077224	2586.111923
856.390720	2641.564615
856.704173	2510.494615
857.017584	2598.714808
857.330953	2613.838269
857.644278	2634.002885
857.957561	2560.906154
858.270802	2596.194231
858.584000	2613.838269
858.897155	2606.276538
859.210268	2676.852692
859.523339	2671.811538
859.836367	2654.167500
860.149352	2676.852692
860.462295	2613.838269
860.775195	2684.414423
861.088054	2515.535769
861.400869	2646.605769
861.713642	2573.509038
862.026373	2611.317692
862.339062	2631.482308
862.651708	2664.249808
862.964312	2553.344423
863.276873	2550.823846
863.589392	2621.400000
863.901869	2636.523462
864.214303	2535.700385
864.526696	2596.194231
864.839045	2581.070769
865.151353	2641.564615
865.463619	2628.961731
865.775842	2603.755962
866.088023	2739.867115
866.400162	2555.865000
866.712258	2611.317692
867.024313	2588.632500
867.336325	2656.688077
867.648296	2628.961731
867.960224	2568.467885
868.272110	2611.317692
868.583954	2628.961731
868.895755	2583.591346
869.207515	2684.414423
869.519233	2608.797115
869.830909	2606.276538
870.142542	2608.797115
870.454134	2606.276538
870.765684	2550.823846
871.077191	2603.755962
871.388657	2684.414423
871.700081	2613.838269
872.011463	2613.838269
872.322803	2646.605769
872.634101	2626.441154
872.945357	2621.400000
873.256571	2636.523462
873.567744	2525.618077
873.878874	2618.879423
874.189963	2659.208654
874.501010	2520.576923
874.812015	2608.797115
875.122979	2593.673654
875.433900	2588.632500
875.744780	2543.262115
876.055618	2586.111923
876.366415	2568.467885
876.677169	2581.070769
876.987882	2623.920577
877.298554	2606.276538
877.609183	2623.920577
877.919771	2573.509038
878.230317	2591.153077
878.540822	2576.029615
878.851285	2598.714808
879.161707	2611.317692
879.472087	2601.235385
879.782425	2636.523462
880.092722	2628.961731
880.402977	2628.961731
880.713191	2621.400000
881.023363	2646.605769
881.333494	2694.496731
881.643583	2709.620192
881.953631	2603.755962
882.263637	2661.729231
882.573602	2634.002885
882.883526	2631.482308
883.193408	2538.220962
883.503248	2576.029615
883.813048	2550.823846
884.122806	2576.029615
884.432522	2636.523462
884.742197	2538.220962
885.051831	2603.755962
885.361424	2480.247692
885.670975	2654.167500
885.980485	2548.303269
886.289954	2583.591346
886.599382	2596.194231
886.908768	2601.235385
887.218113	2671.811538
887.527417	2553.344423
887.836680	2616.358846
888.145901	2694.496731
888.455082	2570.988462
888.764221	2510.494615
889.073319	2636.523462
889.382376	2563.426731
889.691392	2576.029615
890.000366	2591.153077
890.309300	2591.153077
890.618193	2659.208654
890.927044	2586.111923
891.235855	2598.714808
891.544625	2611.317692
891.853353	2661.729231
892.162041	2623.920577
892.470687	2603.755962
892.779293	2623.920577
893.087858	2576.029615
893.396381	2621.400000
893.704864	2691.976154
894.013306	2646.605769
894.321707	2621.400000
894.630068	2664.249808
894.938387	2666.770385
895.246665	2676.852692
895.554903	2613.838269
895.863100	2570.988462
896.171256	2606.276538
896.479371	2654.167500
896.787446	2573.509038
897.095480	2586.111923
897.403473	2545.782692
897.711425	2573.509038
898.019336	2601.235385
898.327207	2550.823846
898.635038	2674.332115
898.942827	2674.332115
899.250576	2586.111923
899.558284	2525.618077
899.865952	2570.988462
900.173579	2636.523462
900.481165	2697.017308
900.788711	2618.879423
901.096216	2639.044038
901.403681	2606.276538
901.711105	2558.385577
902.018489	2583.591346
902.325832	2588.632500
902.633135	2623.920577
902.940397	2588.632500
903.247619	2659.208654
903.554800	2616.358846
903.861941	2628.961731
904.169041	2581.070769
904.476101	2628.961731
904.783121	2684.414423
905.090100	2593.673654
905.397039	2578.550192
905.703938	2646.605769
906.010796	2603.755962
906.317614	2601.235385
906.624391	2656.688077
906.931129	2598.714808
907.237826	2588.632500
907.544483	2712.140769
907.851099	2697.017308
908.157675	2568.467885
908.464211	2598.714808
908.770707	2674.332115
909.077163	2626.441154
909.383578	2573.509038
909.689954	2603.755962
909.996289	2548.303269
910.302584	2581.070769
910.608839	2679.373269
910.915054	2581.070769
911.221229	2596.194231
911.527363	2664.249808
911.833458	2586.111923
912.139513	2578.550192
912.445527	2601.235385
912.751502	2578.550192
913.057436	2621.400000
913.363331	2659.208654
913.669186	2472.685962
913.975000	2500.412308
914.280775	2634.002885
914.586510	2606.276538
914.892205	2558.385577
915.197859	2591.153077
915.503475	2621.400000
915.809050	2666.770385
916.114585	2593.673654
916.420081	2518.056346
916.725536	2656.688077
917.030952	2636.523462
917.336328	2543.262115
917.641665	2581.070769
917.946961	2583.591346
918.252218	2583.591346
918.557435	2563.426731
918.862612	2616.358846
919.167750	2545.782692
919.472848	2626.441154
919.777906	2611.317692
920.082925	2671.811538
920.387904	2593.673654
920.692843	2558.385577
920.997743	2603.755962
921.302603	2621.400000
921.607423	2500.412308
921.912204	2545.782692
922.216946	2623.920577
922.521647	2636.523462
922.826310	2697.017308
923.130932	2611.317692
923.435516	2598.714808
923.740059	2641.564615
924.044564	2613.838269
924.349028	2563.426731
924.653454	2570.988462
924.957840	2628.961731
925.262186	2596.194231
925.566493	2671.811538
925.870761	2520.576923
926.174989	2560.906154
926.479178	2583.591346
926.783328	2634.002885
927.087438	2591.153077
927.391509	2530.659231
927.695541	2586.111923
927.999533	2596.194231
928.303486	2581.070769
928.607400	2641.564615
928.911275	2606.276538
929.215110	2502.932885
929.518906	2608.797115
929.822663	2586.111923
930.126381	2586.111923
930.430060	2533.179808
930.733699	2565.947308
931.037299	2593.673654
931.340861	2558.385577
931.644383	2573.509038
931.947866	2570.988462
932.251309	2548.303269
932.554714	2470.165385
932.858080	2613.838269
933.161407	2616.358846
933.464694	2606.276538
933.767943	2628.961731
934.071153	2545.782692
934.374323	2601.235385
934.677455	2583.591346
934.980548	2548.303269
935.283602	2583.591346
935.586617	2568.467885
935.889593	2535.700385
936.192530	2581.070769
936.495428	2538.220962
936.798287	2581.070769
937.101108	2623.920577
937.403890	2507.974038
937.706632	2530.659231
938.009336	2593.673654
938.312002	2540.741538
938.614628	2586.111923
938.917216	2598.714808
939.219765	2636.523462
939.522275	2565.947308
939.824747	2656.688077
940.127179	2623.920577
940.429573	2634.002885
940.731929	2608.797115
941.034246	2573.509038
941.336524	2533.179808
941.638763	2626.441154
941.940964	2656.688077
942.243126	2664.249808
942.545250	2555.865000
942.847335	2596.194231
943.149381	2608.797115
943.451389	2644.085192
943.753359	2606.276538
944.055290	2628.961731
944.357182	2518.056346
944.659036	2568.467885
944.960851	2570.988462
945.262628	2553.344423
945.564367	2533.179808
945.866067	2623.920577
946.167729	2669.290962
946.469352	2606.276538
946.770937	2611.317692
947.072484	2621.400000
947.373992	2616.358846
947.675462	2588.632500
947.976893	2578.550192
948.278286	2636.523462
948.579641	2661.729231
948.880958	2528.138654
949.182236	2528.138654
949.483476	2639.044038
949.784678	2593.673654
950.085841	2611.317692
950.386967	2568.467885
950.688054	2568.467885
950.989103	2543.262115
951.290114	2626.441154
951.591087	2611.317692
951.892021	2623.920577
952.192917	2583.591346
952.493776	2646.605769
952.794596	2543.262115
953.095378	2570.988462
953.396122	2636.523462
953.696828	2621.400000
953.997496	2538.220962
954.298126	2530.659231
954.598718	2581.070769
954.899272	2649.126346
955.199788	2611.317692
955.500266	2649.126346
955.800706	2515.535769
956.101108	2591.153077
956.401472	2533.179808
956.701798	2631.482308
957.002087	2558.385577
957.302337	2613.838269
957.602550	2596.194231
957.902724	2545.782692
958.202861	2641.564615
958.502960	2669.290962
958.803022	2570.988462
959.103045	2553.344423
959.403031	2578.550192
959.702979	2576.029615
960.002889	2518.056346
960.302762	2596.194231
960.602596	2611.317692
960.902393	2553.344423
961.202153	2588.632500
961.501875	2578.550192
961.801559	2669.290962
962.101205	2591.153077
962.400814	2505.453462
962.700385	2588.632500
962.999918	2583.591346
963.299414	2634.002885
963.598873	2601.235385
963.898293	2669.290962
964.197677	2583.591346
964.497022	2555.865000
964.796331	2616.358846
965.095601	2646.605769
965.394835	2593.673654
965.694030	2586.111923
965.993189	2618.879423
966.292309	2543.262115
966.591393	2613.838269
966.890439	2636.523462
967.189447	2593.673654
967.488419	2513.015192
967.787353	2606.276538
968.086249	2520.576923
968.385108	2603.755962
968.683930	2641.564615
968.982714	2596.194231
969.281462	2578.550192
969.580172	2586.111923
969.878844	2601.235385
970.177480	2591.153077
970.476078	2583.591346
970.774639	2598.714808
971.073162	2654.167500
971.371649	2636.523462
971.670098	2550.823846
971.968510	2702.058462
972.266885	2507.974038
972.565223	2596.194231
972.863524	2598.714808
973.161788	2611.317692
973.460014	2596.194231
973.758204	2518.056346
974.056356	2608.797115
974.354471	2598.714808
974.652550	2626.441154
974.950591	2578.550192
975.248595	2523.097500
975.546563	2603.755962
975.844493	2583.591346
976.142386	2654.167500
976.440243	2583.591346
976.738062	2601.235385
977.035845	2651.646923
977.333590	2581.070769
977.631299	2576.029615
977.928971	2601.235385
978.226606	2570.988462
978.524204	2586.111923
978.821765	2596.194231
979.119290	2573.509038
979.416777	2681.893846
979.714228	2601.235385
980.011642	2548.303269
980.309020	2628.961731
980.606360	2591.153077
980.903664	2515.535769
981.200931	2626.441154
981.498162	2558.385577
981.795356	2603.755962
982.092513	2601.235385
982.389633	2613.838269
982.686717	2598.714808
982.983764	2538.220962
983.280775	2495.371154
983.577749	2626.441154
983.874686	2565.947308
984.171587	2593.673654
984.468451	2669.290962
984.765279	2548.303269
985.062070	2538.220962
985.358824	2573.509038
985.655543	2606.276538
985.952224	2654.167500
986.248869	2664.249808
986.545478	2613.838269
986.842050	2631.482308
987.138586	2709.620192
987.435086	2646.605769
987.731549	2656.688077
988.027975	2611.317692
988.324366	2581.070769
988.620719	2623.920577
988.917037	2573.509038
989.213318	2654.167500
989.509563	2560.906154
989.805772	2540.741538
990.101944	2596.194231
990.398080	2636.523462
990.694180	2570.988462
990.990244	2596.194231
991.286271	2576.029615
991.582262	2634.002885
991.878217	2573.509038
992.174136	2626.441154
992.470019	2563.426731
992.765865	2639.044038
993.061676	2712.140769
993.357450	2576.029615
993.653188	2573.509038
993.948890	2621.400000
994.244556	2613.838269
994.540186	2611.317692
994.835780	2573.509038
995.131337	2540.741538
995.426859	2616.358846
995.722345	2586.111923
996.017795	2596.194231
996.313208	2576.029615
996.608586	2510.494615
996.903928	2583.591346
997.199234	2528.138654
997.494504	2669.290962
997.789738	2699.537885
998.084936	2666.770385
998.380099	2570.988462
998.675225	2608.797115
998.970316	2588.632500
999.265371	2583.591346
999.560390	2623.920577
999.855373	2591.153077
1000.150320	2623.920577
1000.445232	2598.714808
1000.740108	2520.576923
1001.034948	2636.523462
1001.329752	2555.865000
1001.624521	2606.276538
1001.919254	2543.262115
1002.213951	2671.811538
1002.508613	2533.179808
1002.803239	2538.220962
1003.097829	2573.509038
1003.392384	2681.893846
1003.686903	2596.194231
1003.981386	2530.659231
1004.275834	2634.002885
1004.570246	2586.111923
1004.864623	2641.564615
1005.158964	2568.467885
1005.453270	2525.618077
1005.747540	2555.865000
1006.041775	2623.920577
1006.335974	2560.906154
1006.630138	2669.290962
1006.924266	2613.838269
1007.218359	2618.879423
1007.512416	2641.564615
1007.806438	2606.276538
1008.100425	2603.755962
1008.394376	2570.988462
1008.688292	2603.755962
1008.982172	2591.153077
1009.276017	2603.755962
1009.569827	2596.194231
1009.863602	2616.358846
1010.157341	2616.358846
1010.451045	2616.358846
1010.744714	2626.441154
1011.038347	2467.644808
1011.331945	2639.044038
1011.625508	2623.920577
1011.919036	2487.809423
1012.212528	2452.521346
1012.505986	2573.509038
1012.799408	2593.673654
1013.092795	2626.441154
1013.386147	2598.714808
1013.679464	2702.058462
1013.972745	2581.070769
1014.265992	2570.988462
1014.559204	2513.015192
1014.852380	2578.550192
1015.145521	2651.646923
1015.438628	2576.029615
1015.731699	2525.618077
1016.024736	2611.317692
1016.317737	2603.755962
1016.610703	2591.153077
1016.903635	2598.714808
1017.196531	2618.879423
1017.489393	2646.605769
1017.782219	2555.865000
1018.075011	2581.070769
1018.367768	2598.714808
1018.660490	2543.262115
1018.953177	2543.262115
1019.245829	2543.262115
