Dividing Wavelength (nm)	Counts (n)	Blue Motor Position (mm): 14.800000	Red Motor Position (mm): 0.000000	
326.493990	2063.341749
326.888308	2063.341749
327.282561	2063.341749
327.676750	2036.845444
328.070874	2038.130938
328.464933	2043.298121
328.858929	2050.842208
329.252859	2064.876780
329.646726	2078.331620
330.040528	2092.532550
330.434265	2107.484612
330.827938	2131.309105
331.221547	2151.282157
331.615091	2171.182112
332.008571	2193.514423
332.401986	2213.560572
332.795338	2231.325598
333.188625	2251.961561
333.581847	2272.862185
333.975006	2287.562189
334.368100	2309.264357
334.761129	2323.498055
335.154095	2337.101608
335.546996	2381.670449
335.939833	2463.727831
336.332606	2471.652525
336.725315	2486.544093
337.117960	2494.005001
337.510540	2508.092506
337.903056	2514.656088
338.295508	2520.569361
338.687896	2526.202851
339.080220	2531.364992
339.472480	2536.779192
339.864676	2538.483102
340.256807	2543.264636
340.648875	2543.456200
341.040879	2547.683207
341.432818	2549.152704
341.824694	2547.355532
342.216506	2548.023485
342.608253	2545.386962
342.999937	2545.923845
343.391557	2545.699513
343.783113	2544.502239
344.174605	2541.533000
344.566033	2537.590817
344.957397	2539.287166
345.348697	2535.682741
345.739934	2537.994110
346.131106	2533.167205
346.522215	2532.622760
346.913260	2533.323481
347.304241	2526.981709
347.695159	2527.011956
348.086012	2525.197141
348.476802	2527.942049
348.867528	2521.527181
349.258191	2515.508043
349.648789	2518.278157
350.039324	2513.121057
350.429796	2519.934176
350.820203	2516.062570
351.210548	2515.162724
351.600828	2515.313958
351.991045	2516.342354
352.381198	2512.417816
352.771288	2514.078876
353.161314	2514.842611
353.551276	2512.231293
353.941175	2513.315141
354.331010	2514.194822
354.720782	2514.134328
355.110490	2518.353774
355.500135	2512.886643
355.889717	2515.797909
356.279235	2515.077024
356.668689	2513.116015
357.058080	2517.993332
357.447408	2514.315810
357.836672	2517.400996
358.225873	2516.876716
358.615010	2517.272447
359.004084	2516.922087
359.393095	2520.150946
359.782043	2518.076511
360.170927	2521.068436
360.559748	2518.487365
360.948505	2521.229753
361.337199	2522.658920
361.725830	2521.592716
362.114398	2521.307890
362.502903	2521.517098
362.891344	2525.262676
363.279722	2520.347551
363.668037	2521.960720
364.056289	2525.459281
364.444478	2523.092459
364.832603	2528.269724
365.220665	2521.355781
365.608665	2522.686646
365.996601	2524.241842
366.384474	2525.335772
366.772284	2527.077491
367.160031	2528.685619
367.547715	2528.652852
367.935336	2524.254445
368.322893	2524.284692
368.710388	2524.204033
369.097820	2526.827954
369.485189	2521.441481
369.872495	2530.248377
370.259738	2528.315094
370.646918	2529.688809
371.034035	2528.574714
371.421090	2530.024045
371.808081	2528.252080
372.195010	2530.210568
372.581875	2530.104704
372.968678	2528.791483
373.355418	2528.332738
373.742096	2532.529499
374.128710	2531.458254
374.515262	2529.353572
374.901751	2533.454551
375.288177	2531.974972
375.674540	2530.863398
376.060841	2531.959848
376.447079	2533.618388
376.833254	2535.781043
377.219367	2534.498069
377.605417	2533.746937
377.991404	2533.189890
378.377329	2530.830630
378.763191	2532.277441
379.148991	2533.295754
379.534727	2533.446989
379.920402	2534.757689
380.306013	2536.280117
380.691563	2534.170394
381.077049	2534.772812
381.462474	2533.089067
381.847835	2533.459592
382.233134	2536.098636
382.618371	2538.478060
383.003545	2534.240971
383.388657	2534.855991
383.773706	2533.061341
384.158693	2537.089222
384.543618	2538.576363
384.928480	2536.123842
385.313280	2537.800025
385.698017	2537.623585
386.082692	2537.946219
386.467305	2537.994110
386.851856	2541.127187
387.236344	2538.677186
387.620770	2537.313554
388.005133	2536.199459
388.389435	2537.469830
388.773674	2533.951104
389.157851	2539.871939
389.541965	2541.190201
389.926018	2539.919830
390.310008	2542.016950
390.693936	2541.341436
391.077802	2541.724563
391.461606	2541.628782
391.845348	2541.132228
392.229027	2540.678524
392.612645	2540.978473
392.996200	2541.417053
393.379694	2542.770603
393.763125	2542.747918
394.146494	2541.296065
394.529801	2542.881508
394.913047	2543.577188
395.296230	2544.598021
395.679351	2544.169523
396.062410	2540.640715
396.445408	2546.596839
396.828343	2545.114739
397.211217	2544.315717
397.594028	2543.884698
397.976778	2546.014585
398.359466	2542.934440
398.742092	2542.432846
399.124656	2543.065510
399.507158	2544.416540
399.889598	2545.702034
400.271977	2544.812270
400.654294	2545.971736
401.036549	2546.947199
401.418742	2544.368649
401.800874	2546.745553
402.182944	2545.722198
402.564952	2547.355532
402.946898	2546.745553
403.328783	2548.235214
403.710606	2546.992569
404.092367	2550.811243
404.474067	2545.780172
404.855705	2549.152704
405.237282	2549.581202
405.618797	2548.162117
406.000250	2548.520039
406.381642	2547.005172
406.762972	2548.278063
407.144240	2542.737835
407.525447	2546.211190
407.906593	2542.299255
408.287677	2548.154555
408.668700	2547.347971
409.049661	2554.526574
409.430560	2551.373332
409.811399	2551.075904
410.192176	2550.907025
410.572891	2549.321582
410.953545	2550.256716
411.334138	2551.050698
411.714669	2551.350647
412.095139	2550.642365
412.475547	2550.150852
412.855894	2550.818805
413.236180	2550.927190
413.616405	2552.028682
413.996568	2551.254865
414.376670	2552.353836
414.756711	2552.401727
415.136691	2553.213353
415.516609	2551.983312
415.896466	2551.249824
416.276262	2552.547921
416.655997	2550.342416
417.035670	2550.392828
417.415283	2553.165462
417.794834	2552.303425
418.174324	2554.612273
418.553753	2549.437529
418.933121	2551.433826
419.312428	2554.450956
419.691674	2554.148487
420.070859	2553.230997
420.449983	2551.244782
420.829045	2556.381718
421.208047	2553.704866
421.586988	2552.056408
421.965867	2555.106306
422.344686	2553.851059
422.723444	2552.926007
423.102141	2551.842159
423.480777	2553.483055
423.859352	2554.773590
424.237866	2554.990360
424.616319	2551.973229
424.994712	2550.292004
425.373044	2553.682180
425.751314	2548.966181
426.129524	2551.247303
426.507673	2550.118085
426.885762	2546.158258
427.263789	2552.253013
427.641756	2553.369629
428.019662	2553.286450
428.397508	2553.659495
428.775292	2556.142263
429.153016	2553.929197
429.530679	2555.023127
429.908282	2556.066646
430.285824	2553.954403
430.663305	2552.966337
431.040726	2555.625545
431.418086	2553.165462
431.795385	2555.759136
432.172624	2556.462377
432.549802	2556.119578
432.926920	2553.896429
433.303977	2554.922304
433.680974	2556.260731
434.057910	2553.921635
434.434786	2551.975750
434.811601	2556.394321
435.188355	2554.156049
435.565050	2554.208981
435.941683	2554.055226
436.318257	2555.113868
436.694770	2554.967675
437.071222	2555.179403
437.447614	2558.539332
437.823946	2554.844166
438.200218	2553.828374
438.576429	2553.036913
438.952580	2554.075390
439.328670	2557.238714
439.704700	2554.758467
440.080670	2553.893909
440.456580	2554.473642
440.832429	2553.843497
441.208218	2555.686039
441.583947	2556.527912
441.959616	2553.546069
442.335224	2552.270657
442.710773	2553.467931
443.086261	2555.791903
443.461689	2553.901471
443.837057	2553.888868
444.212365	2555.542366
444.587612	2554.156049
444.962800	2550.095399
445.337927	2549.230842
445.712995	2550.140770
446.088002	2556.326266
446.462949	2553.581357
446.837837	2553.457849
447.212664	2555.615463
447.587431	2556.931204
447.962139	2555.922973
448.336786	2557.538663
448.711374	2560.555794
449.085901	2556.185113
449.460369	2556.527912
449.834776	2558.488921
450.209124	2555.779300
450.583412	2557.097562
450.957640	2556.485062
451.331808	2554.939948
451.705917	2556.583364
452.079965	2557.047151
452.453954	2558.010011
452.827883	2558.246945
453.201752	2554.133364
453.575562	2559.106462
453.949311	2556.578323
454.323001	2553.813250
454.696632	2556.389280
455.070202	2553.525905
455.443713	2556.903478
455.817164	2556.537994
456.190556	2555.744012
456.563888	2559.895402
456.937160	2556.641338
457.310373	2557.306770
457.683526	2556.396842
458.056619	2557.175700
458.429653	2558.322563
458.802628	2557.301729
459.175542	2558.085628
459.548398	2559.421534
459.921194	2556.963972
460.293930	2557.672254
460.666607	2562.005125
461.039224	2557.266441
461.411782	2557.831050
461.784280	2557.253838
462.156719	2557.624363
462.529099	2557.006821
462.901419	2556.515309
463.273680	2557.929352
463.645882	2553.430123
464.018024	2556.543035
464.390106	2556.943807
464.762130	2559.219888
465.134094	2558.302398
465.505999	2563.305743
465.877845	2563.643500
466.249631	2559.862635
466.621358	2562.945301
466.993026	2562.002605
467.364634	2565.284396
467.736184	2561.742985
468.107674	2558.577141
468.479105	2562.121072
468.850477	2560.530588
469.221790	2562.594940
469.593043	2560.197872
469.964238	2561.382543
470.335373	2564.334138
470.706449	2561.034703
471.077467	2561.085115
471.448425	2563.595609
471.819324	2565.783470
472.190164	2564.871021
472.560945	2561.291802
472.931667	2564.261042
473.302330	2563.487225
473.672934	2561.697615
474.043479	2560.863304
474.413965	2562.481514
474.784393	2563.066288
475.154761	2563.121741
475.525070	2563.328428
475.895321	2563.177194
476.265513	2564.235836
476.635645	2562.647873
477.005719	2565.279355
477.375734	2562.736093
477.745691	2565.934705
478.115588	2566.053172
478.485427	2564.576114
478.855207	2565.579303
479.224928	2565.806155
479.594591	2569.362689
479.964194	2565.806155
480.333739	2570.539799
480.703226	2568.871177
481.072653	2570.398647
481.442022	2569.776064
481.811333	2568.893862
482.180584	2565.644838
482.549777	2567.502504
482.918912	2563.247770
483.287988	2571.759758
483.657005	2566.471588
484.025964	2567.494942
484.394864	2570.010478
484.763706	2570.812021
485.132489	2568.084757
485.501213	2569.650035
485.869879	2570.353276
486.238487	2572.311764
486.607036	2569.894531
486.975527	2568.435117
487.343959	2574.058524
487.712333	2571.021229
488.080648	2572.314285
488.448905	2572.178174
488.817104	2569.831517
489.185244	2574.381158
489.553326	2573.859399
489.921350	2576.500963
490.289315	2576.437949
490.657222	2578.721592
491.025070	2579.366859
491.392861	2577.738567
491.760593	2581.330389
492.128267	2582.893146
492.495883	2579.013978
492.863440	2577.466344
493.230939	2579.311407
493.598380	2580.579257
493.965763	2577.703278
494.333088	2580.483475
494.700354	2577.342836
495.067563	2579.964236
495.434713	2578.547672
495.801805	2579.853331
496.168839	2579.571026
496.535815	2582.880543
496.902733	2584.105544
497.269593	2581.610173
497.636395	2584.269381
498.003139	2586.001018
498.369825	2587.064701
498.736453	2584.990266
499.103023	2584.793661
499.469535	2586.021182
499.835989	2585.605287
500.202385	2586.401789
500.568723	2583.908939
500.935003	2588.312387
501.301226	2584.138311
501.667390	2589.310535
502.033497	2594.465115
502.399546	2590.565782
502.765537	2595.014601
503.131470	2590.389342
503.497345	2596.083325
503.863163	2594.767584
504.228923	2595.992585
504.594625	2597.381423
504.960269	2600.012905
505.325856	2601.429469
505.691385	2599.765888
506.056856	2604.426435
506.422270	2601.880652
506.787625	2603.554315
507.152924	2606.515993
507.518164	2609.437342
507.883347	2608.590428
508.248472	2606.180757
508.613540	2610.798453
508.978550	2611.882302
509.343503	2611.312651
509.708398	2611.158896
510.073236	2616.532766
510.438016	2613.868516
510.802738	2617.994701
511.167403	2621.987294
511.532010	2622.098200
511.896561	2624.787655
512.261053	2629.044910
512.625488	2625.576596
512.989866	2626.786473
513.354186	2628.379477
513.718449	2627.908130
514.082655	2633.556742
514.446803	2632.155302
514.810894	2637.483801
515.174927	2639.994296
515.538904	2637.506487
515.902822	2642.028402
516.266684	2639.293576
516.630488	2641.554533
516.994235	2643.429842
517.357925	2646.998979
517.721558	2650.111892
518.085133	2653.595329
518.448651	2651.677170
518.812112	2650.946203
519.175516	2653.648261
519.538863	2650.797489
519.902152	2659.982471
520.265385	2664.627894
520.628560	2667.087977
520.991678	2668.728873
521.354739	2668.882628
521.717743	2672.686179
522.080690	2674.306910
522.443580	2678.536438
522.806413	2678.876716
523.169189	2680.704134
523.531908	2684.946265
523.894569	2684.190092
524.257174	2688.674198
524.619722	2691.018335
524.982213	2694.446319
525.344647	2697.100487
525.707025	2701.692978
526.069345	2705.907382
526.431608	2707.392002
526.793815	2710.671273
527.155964	2715.858620
527.518057	2717.128991
527.880093	2721.373642
528.242072	2722.515464
528.603995	2726.828171
528.965860	2729.331104
529.327669	2734.866291
529.689421	2740.086406
530.051117	2739.899883
530.412755	2745.109915
530.774337	2749.651995
531.135862	2753.387490
531.497331	2758.153901
531.858743	2762.995929
532.220098	2769.977927
532.581396	2772.309461
532.942638	2775.656787
533.303824	2781.806995
533.664953	2787.811009
534.026025	2789.832512
534.387040	2801.154943
534.747999	2805.109728
535.108902	2810.050059
535.469748	2813.697334
535.830537	2822.708397
536.191270	2829.395487
536.551947	2833.970334
536.912567	2840.753207
537.273131	2849.421471
537.633638	2851.226204
537.994089	2868.716487
538.354483	2871.421066
538.714821	2889.314642
539.075103	2898.590365
539.435328	2905.506828
539.795497	2911.493198
540.155609	2925.885692
540.515665	2939.758948
540.875665	2943.159206
541.235609	2954.395938
541.595496	2970.293217
541.955328	2985.648571
542.315102	2989.757112
542.674821	3001.581138
543.034483	3013.538755
543.394090	3023.825229
543.753640	3040.113197
544.113134	3063.461301
544.472571	3072.873136
544.831953	3097.569748
545.191278	3108.357817
545.550548	3117.817543
545.909761	3143.144300
546.268918	3160.516116
546.628019	3186.682225
546.987064	3197.291333
547.346053	3205.268959
547.704986	3236.231726
548.063863	3252.378542
548.422684	3277.967439
548.781449	3294.547794
549.140158	3320.802123
549.498811	3343.121832
549.857408	3353.977956
550.215949	3397.599061
550.574434	3419.538162
550.932864	3445.812656
551.291237	3486.532576
551.649555	3513.354035
552.007817	3542.302861
552.366022	3565.928229
552.724173	3599.552725
553.082267	3641.306082
553.440305	3682.807381
553.798288	3701.268086
554.156215	3741.829210
554.514086	3783.766569
554.871902	3807.931340
555.229661	3852.114532
555.587365	3886.870768
555.945014	3932.495731
556.302606	3970.332111
556.660143	4017.199718
557.017625	4070.882965
557.375050	4110.866877
557.732421	4167.410979
558.089735	4215.901838
558.446994	4258.441615
558.804197	4328.425433
559.161345	4376.283627
559.518437	4396.072677
559.875474	4458.862768
560.232455	4529.696021
560.589381	4582.126542
560.946251	4630.239314
561.303065	4717.970514
561.659825	4759.580198
562.016528	4810.362261
562.373177	4851.747614
562.729770	4941.351603
563.086307	4981.587572
563.442789	5071.499072
563.799216	5133.122136
564.155587	5192.123801
564.511904	5252.917596
564.868164	5334.198640
565.224370	5420.926651
565.580520	5474.592254
565.936615	5556.430345
566.292654	5612.911433
566.648638	5710.498089
567.004567	5781.454850
567.360441	5866.257140
567.716260	5921.644297
568.072023	6036.524632
568.427732	6110.755622
568.783385	6154.051572
569.138982	6270.421568
569.494525	6367.405806
569.850013	6419.266676
570.205445	6511.960892
570.560823	6581.788435
570.916145	6651.426934
571.271412	6767.590242
571.626625	6829.019222
571.981782	6920.952224
572.336884	6977.145966
572.691931	7093.468071
573.046923	7159.698750
573.401860	7234.741366
573.756743	7337.084351
574.111570	7446.633665
574.466342	7534.775720
574.821059	7656.910274
575.175722	7694.723969
575.530330	7808.825446
575.884882	7862.851491
576.239380	7951.212836
576.593823	8063.844816
576.948211	8162.079260
577.302544	8204.820683
577.656823	8309.691807
578.011047	8452.122047
578.365216	8535.094398
578.719330	8599.003626
579.073389	8712.023774
579.427394	8822.742636
579.781344	8918.234693
580.135239	8998.348710
580.489080	9123.540725
580.842866	9154.657247
581.196597	9347.093213
581.550273	9473.873191
581.903895	9570.693591
582.257463	9770.018294
582.610975	9790.828177
582.964434	9968.105393
583.317837	10005.286423
583.671186	10121.321182
584.024481	10284.861254
584.377721	10334.015024
584.730906	10479.364093
585.084037	10627.450508
585.437113	10696.234531
585.790135	10848.744558
586.143103	10889.277956
586.496016	11039.874865
586.848874	11196.684997
587.201679	11331.329175
587.554428	11352.774243
587.907124	11546.150384
588.259765	11621.818104
588.612352	11792.844289
588.964884	11799.801081
589.317362	12005.021413
589.669786	12136.809778
590.022155	12234.091444
590.374470	12486.123931
590.726731	12512.060667
591.078937	12485.826502
591.431090	12708.053167
591.783188	12725.772823
592.135232	12813.781287
592.487222	13023.589068
592.839157	13204.901728
593.191038	13250.413265
593.542866	13329.713136
593.894639	13305.142552
594.246358	13519.205068
594.598022	13657.650276
594.949633	13669.862471
595.301190	13800.904745
595.652692	13911.424481
596.004141	14196.279920
596.355535	14009.989121
596.706876	14150.559175
597.058162	14195.763202
597.409395	14486.846987
597.760573	14684.109857
598.111698	14706.779926
598.462768	14816.276308
598.813785	14963.903978
599.164748	14959.349296
599.515657	15188.449573
599.866511	15171.627243
600.217312	15539.981834
600.568060	15309.381813
600.918753	15735.213119
601.269392	15836.946125
601.619978	15875.881476
601.970510	16092.610763
602.320988	16286.516225
602.671412	16516.944846
603.021783	16606.407683
603.372100	16577.504227
603.722363	16771.712159
604.072572	16913.658448
604.422728	17060.396354
604.772830	17110.016432
605.122878	17313.676527
605.472872	17403.701452
605.822813	17659.141758
606.172701	17692.136110
606.522534	17975.761508
606.872314	18202.988997
607.222041	18272.952651
607.571714	18548.716369
607.921333	18479.345051
608.270899	18714.093942
608.620411	19023.177166
608.969870	19047.092400
609.319276	19200.575370
609.668627	19350.887454
610.017926	19677.755870
610.367171	19877.320027
610.716362	20036.749038
611.065500	20117.311717
611.414585	20359.897082
611.763616	20594.033472
612.112594	20687.892195
612.461518	20878.490660
612.810389	21205.883356
613.159207	21258.205491
613.507971	21387.979915
613.856682	21768.029983
614.205340	21821.556954
614.553945	22296.340385
614.902496	22110.772992
615.250994	22458.988173
615.599439	22634.130460
615.947830	22829.087003
616.296169	22972.046564
616.644454	23142.094766
616.992686	23350.407846
617.340864	23743.632969
617.688990	23614.201344
618.037063	24117.605926
618.385082	24169.890253
618.733048	24490.089222
619.080961	24555.624222
619.428821	24702.581418
619.776628	24858.970614
620.124382	24895.390430
620.472083	25089.232877
620.819731	25292.716532
621.167326	25173.052142
621.514868	25308.344109
621.862357	25143.090044
622.209793	25340.060528
622.557176	25227.118517
622.904506	25225.795214
623.251783	25144.627596
623.599007	25090.704894
623.946179	25183.441960
624.293297	25168.996534
624.640363	24970.296935
624.987376	24997.778785
625.334336	25000.793395
625.681243	24878.038778
626.028097	24949.383708
626.374899	24965.051614
626.721647	25066.953498
627.068343	25055.379009
627.414987	24999.404557
627.761577	24961.048938
628.108115	25274.091989
628.454600	24920.520582
628.801032	25166.276832
629.147412	25223.395625
629.493739	25289.154957
629.840014	25100.273004
630.186236	25486.301881
630.532405	25226.831172
630.878521	25480.529759
631.224585	25451.535563
631.570597	25326.406563
631.916556	25534.775095
632.262462	25560.157305
632.608316	25623.920339
632.954117	25632.084488
633.299866	25710.953340
633.645562	25767.101712
633.991206	25510.824573
634.336797	25343.606980
634.682336	25382.194492
635.027823	25323.160060
635.373257	25346.956827
635.718639	25209.396341
636.063968	25231.751338
636.409245	24883.324428
636.754470	24952.317659
637.099642	24907.635392
637.444762	24589.498255
637.789829	24781.742657
638.134845	24612.254024
638.479808	24649.208202
638.824719	24695.349883
639.169577	24417.209261
639.514383	24566.205604
639.859137	24391.340580
640.203839	24589.115128
640.548489	24463.156858
640.893086	24539.726943
641.237632	24427.427680
641.582125	24577.298663
641.926566	24509.502706
642.270955	24611.029023
642.615292	24643.148735
642.959576	24633.772189
643.303809	24719.547422
643.647990	24855.492217
643.992118	24898.478136
644.336195	24867.664083
644.680219	25002.368755
645.024192	25226.097684
645.368112	25675.072927
645.711981	25753.435143
646.055797	26380.163992
646.399562	26305.988455
646.743274	27011.790323
647.086935	27382.342857
647.430544	27415.380058
647.774101	27515.517538
648.117606	27831.260127
648.461059	28004.108690
648.804460	27759.010310
649.147810	27448.351725
649.491108	27249.894101
649.834354	27215.407567
650.177548	26657.009038
650.520690	26341.339546
650.863781	26397.964307
651.206820	26334.024832
651.549807	26070.226292
651.892742	25692.974065
652.235626	25676.242475
652.578458	25625.420083
652.921238	25142.560723
653.263967	25458.068898
653.606644	25278.916373
653.949269	25259.865853
654.291843	25003.762634
654.634365	25344.595046
654.976836	25029.651480
655.319255	25150.739995
655.661622	25101.828200
656.003938	25057.566869
656.346203	24939.581184
656.688416	25209.981115
657.030577	25076.713172
657.372687	24998.769372
657.714746	25156.393649
658.056753	25397.098663
658.398708	24929.171202
658.740612	25033.092067
659.082465	25253.584575
659.424266	25208.168820
659.766016	25261.668065
660.107715	25195.898652
660.449362	25325.839433
660.790958	25354.324473
661.132503	25339.032133
661.473996	25445.246724
661.815438	25558.355092
662.156829	25714.590533
662.498168	25581.985501
662.839456	25623.915298
663.180693	25785.874968
663.521879	25909.083289
663.863013	25909.559678
664.204097	25940.456910
664.545129	26335.622878
664.886110	26322.697359
665.227040	26438.669103
665.567918	26488.979819
665.908746	26584.686125
666.249522	26694.739554
666.590248	26755.119974
666.930922	26884.962453
667.271545	26932.072036
667.612118	26998.025452
667.952639	26891.415130
668.293109	26970.026883
668.633528	26887.321713
668.973896	26886.961271
669.314213	26910.752997
669.654480	26782.044777
669.994695	26822.777300
670.334859	26797.473228
670.674973	26677.768510
671.015035	26887.667033
671.355047	26869.851595
671.695008	26833.441861
672.034918	26784.968646
672.374777	26923.088700
672.714585	26833.835071
673.054342	26975.531823
673.394049	26877.420887
673.733705	27104.091329
674.073310	26866.776491
674.412864	26964.688302
674.752368	26722.833905
675.091820	26980.772103
675.431223	26652.091393
675.770574	26504.466243
676.109875	26391.846867
676.449125	26249.028458
676.788324	26200.353597
677.127473	25781.345492
677.466571	25731.112914
677.805619	25508.087227
678.144616	25484.640820
678.483562	25469.013243
678.822458	25201.774116
679.161303	25178.423492
679.500098	25130.550174
679.838842	25085.499903
680.177535	25184.389697
680.516179	25447.086745
680.854771	25589.970689
681.193314	26316.738715
681.531805	27257.692766
681.870247	27978.948291
682.208638	28662.831222
682.546978	28936.202912
682.885268	29097.459342
683.223508	28694.892960
683.561697	28472.535226
683.899836	28352.641464
684.237925	27977.244381
684.575963	27852.261574
684.913951	27544.236992
685.251889	27719.601090
685.589776	27766.768646
685.927614	27786.971070
686.265401	27969.952352
686.603137	28092.457431
686.940824	28583.886752
687.278460	28897.638085
687.616046	29066.947758
687.953582	29703.675736
688.291068	29633.674273
688.628504	29954.329467
688.965889	29978.642952
689.303224	29748.731048
689.640510	29501.573357
689.977745	28936.079404
690.314930	28263.077804
690.652065	27887.829435
690.989150	27274.797401
691.326185	26532.890789
691.663170	25957.778315
692.000105	25275.493430
692.336990	24735.187602
692.673825	24360.372772
693.010610	23919.544033
693.347345	23441.418317
693.684030	22879.909396
694.020665	22698.873999
694.357251	22087.145103
694.693786	22091.588881
695.030272	21887.414588
695.366707	21444.410591
695.703093	21192.211746
696.039429	21259.087693
696.375716	21034.791635
696.711952	21049.637833
697.048139	20931.979823
697.384276	20783.505239
697.720363	20904.787839
698.056400	20805.910648
698.392388	20661.345479
698.728326	20678.079589
699.064214	20527.366733
699.400053	20548.859692
699.735842	20191.275527
700.071581	20014.746922
700.407270	19788.903230
700.742910	19644.325458
701.078501	19400.404188
701.414042	19216.923832
701.749533	18935.256923
702.084974	18644.289084
702.420366	18873.948930
702.755709	18491.252256
703.091002	18201.761476
703.426246	18270.157331
703.761440	18224.350887
704.096584	17987.870360
704.431679	17935.696938
704.766725	17895.118170
705.101721	17838.775714
705.436668	17956.579918
705.771565	17700.370835
706.106413	18008.702928
706.441212	18092.993541
706.775961	18197.085806
707.110661	18279.657385
707.445311	18643.714393
707.779913	18537.716571
708.114465	18829.798505
708.448967	19140.598242
708.783421	19773.936044
709.117825	20132.281424
709.452180	20345.534834
709.786485	20786.093872
710.120742	21524.164165
710.454949	21644.219244
710.789107	22125.707410
711.123216	22805.345689
711.457275	23017.732021
711.791286	23551.317991
712.125247	23691.245298
712.459159	23448.390232
712.793023	24174.729761
713.126837	23182.489532
713.460602	23454.104380
713.794318	23141.870435
714.127985	22897.455132
714.461602	22032.345241
714.795171	22033.063605
715.128691	21093.795820
715.462162	20583.363870
715.795584	20189.410300
716.128957	19922.365257
716.462281	19565.529703
716.795556	19293.312436
717.128782	18824.545622
717.461960	18244.379391
717.795088	18207.127784
718.128167	17871.134881
718.461198	17430.795133
718.794180	17317.406980
719.127113	17007.963313
719.459997	16812.416956
719.792833	16455.336905
720.125619	16497.707803
720.458357	16165.440312
720.791046	16036.633790
721.123686	15882.515635
721.456278	15673.781619
721.788821	15667.152501
722.121315	15414.270580
722.453761	15517.785633
722.786158	15400.314146
723.118506	15487.294214
723.450805	15378.435538
723.783056	15548.425767
724.115259	15460.117354
724.447412	15446.395333
724.779518	15662.265103
725.111574	15717.175871
725.443582	15986.302910
725.775542	15932.412976
726.107453	16451.288859
726.439315	16368.208123
726.771129	16774.641069
727.102895	17190.382506
727.434612	17456.164740
727.766281	17624.493908
728.097901	17941.567362
728.429473	18026.561215
728.760996	18039.501857
729.092471	18171.333072
729.423897	18079.843691
729.755276	17943.309080
730.086606	18060.412563
730.417887	18651.661772
730.749120	19196.892807
731.080305	19408.525487
731.411442	19812.284101
731.742530	19924.868190
732.073570	20090.676781
732.404562	20417.741802
732.735506	20253.894219
733.066401	20055.502130
733.397249	19566.845444
733.728048	18959.651066
734.058798	18102.024768
734.389501	17364.093106
734.720156	16853.368769
735.050762	16286.269208
735.381320	15912.404636
735.711831	15639.721063
736.042293	15287.430108
736.372707	15318.009748
736.703073	15103.022180
737.033391	15300.897551
737.363661	15296.967972
737.693883	15423.218628
738.024056	15617.252640
738.354182	15839.862432
738.684260	16196.680343
739.014290	16463.594315
739.344272	16691.938420
739.674207	17034.583126
740.004093	17202.720730
740.333931	17256.310716
740.663722	17337.264085
740.993464	17382.536168
741.323159	17228.486068
741.652806	16944.921164
741.982405	16783.354704
742.311956	16427.096361
742.641460	16330.749829
742.970915	16000.859242
743.300323	15660.409958
743.629683	15445.553461
743.958996	15137.629701
744.288260	14825.778883
744.617477	14524.128840
744.946647	14488.807996
745.275768	14183.828270
745.604842	13984.077590
745.933869	13803.614365
746.262847	13775.958595
746.591778	13699.577552
746.920662	13577.367380
747.249498	13591.795162
747.578286	13748.582609
747.907027	13916.886571
748.235720	14183.112426
748.564365	14256.340227
748.892963	14177.292414
749.221514	14280.464669
749.550017	14145.409637
749.878473	14118.681439
750.206881	13896.190114
750.535242	13824.958610
750.863555	13746.404830
751.191821	13636.333757
751.520039	13660.586748
751.848210	13588.936828
752.176334	13635.534734
752.504411	13566.299527
752.832440	13393.395512
753.160421	13507.363397
753.488356	13391.552970
753.816243	13299.705668
754.144082	13136.924289
754.471875	13093.701436
754.799620	13056.114593
755.127318	13031.097867
755.454969	13014.721679
755.782572	12995.779543
756.110129	13011.076925
756.437638	12913.734764
756.765100	12913.696956
757.092515	12948.589302
757.419882	12990.526661
757.747203	12998.050583
758.074477	13094.001385
758.401703	13071.011203
758.728882	13262.862395
759.056014	13302.594249
759.383099	13476.307369
759.710138	13598.268004
760.037129	13713.970047
760.364073	13780.830870
760.690970	13803.692503
761.017820	13824.290657
761.344623	14057.534763
761.671379	14437.158854
761.998088	15140.402336
762.324751	16929.391889
762.651366	20326.053295
762.977935	24782.193841
763.304456	27715.006078
763.630931	28746.360620
763.957359	27540.320015
764.283740	25302.975280
764.610074	23053.186456
764.936362	20429.633883
765.262602	18561.488132
765.588796	16640.498486
765.914943	15363.818713
766.241044	14259.906843
766.567097	13474.764776
766.893104	12755.961772
767.219064	12303.845890
767.544978	11825.737818
767.870845	11431.706110
768.196665	11220.822042
768.522438	10989.579273
768.848165	10790.539396
769.173846	10581.636501
769.499479	10447.052817
769.825066	10278.247260
770.150607	10051.521366
770.476101	9978.656528
770.801548	9845.975879
771.126949	9691.356129
771.452303	9584.004758
771.777611	9381.020178
772.102872	9371.845278
772.428087	9234.867046
772.753256	9079.604548
773.078378	8985.665167
773.403453	8802.273031
773.728482	8696.867545
774.053465	8620.642779
774.378401	8515.817026
774.703291	8391.252635
775.028135	8266.973069
775.352932	8245.021364
775.677683	8131.539950
776.002388	8030.212758
776.327046	8044.867392
776.651658	7941.322092
776.976224	7840.788882
777.300743	7844.168975
777.625216	7748.492916
777.949643	7709.192081
778.274024	7722.049544
778.598359	7637.287583
778.922647	7657.008577
779.246889	7604.154599
779.571086	7604.855320
779.895236	7619.164635
780.219339	7623.850388
780.543397	7628.941953
780.867409	7709.025723
781.191374	7717.288174
781.515294	7683.119233
781.839167	7782.245962
782.162995	7752.248576
782.486776	7699.157664
782.810511	7650.044223
783.134201	7559.091725
783.457844	7557.249183
783.781441	7504.417891
784.104993	7437.342819
784.428498	7414.776093
784.751958	7398.231027
785.075372	7372.926955
785.398739	7313.249776
785.722061	7365.466047
786.045337	7368.601645
786.368568	7528.290275
786.691752	7553.722896
787.014891	7894.159577
787.337983	8252.998990
787.661030	8843.292900
787.984031	9469.905802
788.306987	9870.332214
788.629897	10072.769829
788.952760	10024.155462
789.275579	9805.709663
789.598351	9406.659486
789.921078	9054.403820
790.243759	8642.927199
790.566395	8355.042027
790.888984	8101.308151
791.211529	7898.278200
791.534027	7667.761358
791.856480	7465.802653
792.178888	7394.409832
792.501249	7294.451313
792.823566	7139.582026
793.145836	7140.991028
793.468062	7117.171576
793.790241	7065.676190
794.112375	7136.874926
794.434464	7287.696167
794.756507	7326.689492
795.078505	7490.451374
795.400457	7797.732387
795.722364	8151.243300
796.044226	8437.414480
796.366042	8711.113846
796.687812	8658.582503
797.009538	8738.895645
797.331218	8634.165674
797.652852	8551.946975
797.974442	8395.240187
798.295986	8304.106208
798.617484	8118.329607
798.938938	7973.046073
799.260346	7870.435907
799.581709	7673.843510
799.903026	7599.451203
800.224299	7485.821075
800.545526	7313.849673
800.866708	7218.057667
801.187845	7153.803121
801.508936	7049.305042
801.829983	7006.772827
802.150984	6857.083326
802.471940	6812.859804
802.792851	6797.116280
803.113717	6766.899604
803.434538	6728.715384
803.755314	6675.977353
804.076045	6675.420306
804.396731	6615.627180
804.717372	6656.717625
805.037967	6651.459702
805.358518	6696.194901
805.679024	6776.679442
805.999485	6781.352592
806.319901	6825.056875
806.640272	6849.211564
806.960598	6932.998062
807.280879	6929.580159
807.601115	7009.734505
807.921306	6957.523275
808.241453	6969.644729
808.561554	6994.243040
808.881611	6955.244673
809.201623	6964.044008
809.521590	6907.071407
809.841513	6895.300313
810.161390	6934.860768
810.481223	6801.451673
810.801011	6784.147912
811.120755	6763.552278
811.440453	6681.535225
811.760107	6652.626729
812.079716	6627.826772
812.399281	6559.196504
812.718801	6546.838115
813.038276	6505.742629
813.357707	6443.325583
813.677093	6486.235884
813.996434	6390.431276
814.315731	6433.878460
814.634983	6422.044352
814.954191	6439.045643
815.273354	6545.219905
815.592473	6611.937055
815.911547	6737.507157
816.230577	6814.767880
816.549562	6958.380271
816.868502	7066.593680
817.187399	7163.318298
817.506250	7319.808317
817.825058	7346.907039
818.143821	7620.122454
818.462539	7896.047489
818.781213	8262.423428
819.099843	8812.025143
819.418429	9812.127052
819.736970	10780.079002
820.055466	11964.051956
820.373919	13501.883663
820.692327	15866.600712
821.010691	20040.950840
821.329011	29024.508804
821.647286	41908.989753
821.965517	55245.281594
822.283704	60625.891617
822.601847	62618.044712
822.919945	59926.297930
823.237999	55744.320537
823.556010	49600.976376
823.873976	42931.504632
824.191897	36421.328308
824.509775	31606.706271
824.827609	27104.847502
825.145398	24534.030440
825.463144	23167.192150
825.780845	23473.086845
826.098502	25266.477326
826.416116	29039.796103
826.733685	32649.282422
827.051210	33787.542193
827.368692	31978.624958
827.686129	28034.569862
828.003522	23931.857051
828.320872	20244.648743
828.638177	17394.077889
828.955439	15248.751856
829.272656	13436.497377
829.589830	11961.004578
829.906960	10692.345281
830.224046	9762.743909
830.541088	9005.761727
830.858086	8548.576964
831.175041	8173.744490
831.491952	8060.605874
831.808819	8105.162113
832.125642	8513.404833
832.442421	9405.948684
832.759157	11205.010462
833.075849	14121.781749
833.392497	17327.436356
833.709101	19479.547783
834.025662	19317.900664
834.342179	17624.440976
834.658653	15435.458550
834.975083	13521.032486
835.291469	11901.397975
835.607811	10588.300907
835.924110	9681.732567
836.240366	8813.073703
836.556578	8006.663008
836.872746	7362.065789
837.188871	6865.610437
837.504952	6442.143432
837.820990	6133.377800
838.136984	5917.878556
838.452935	5818.509852
838.768842	5856.363876
839.084706	6276.607063
839.400526	7492.520768
839.716303	9064.188700
840.032037	10150.315378
840.347727	10074.478780
840.663373	9106.378116
840.978977	8059.912716
841.294537	7251.719972
841.610054	6650.149002
841.925527	6220.360389
842.240957	5861.624320
842.556344	5526.120408
842.871687	5241.496862
843.186987	4960.669304
843.502244	4737.406683
843.817458	4577.085388
844.132629	4435.020631
844.447756	4346.203062
844.762840	4265.353037
845.077881	4193.942572
845.392879	4123.777272
845.707833	4080.504007
846.022745	4036.930794
846.337613	4009.048172
846.652438	3962.616625
846.967221	3946.779840
847.281960	3914.612237
847.596656	3894.508116
847.911309	3874.804766
848.225919	3850.322402
848.540485	3833.043847
848.855009	3821.144204
849.169490	3803.941266
849.483928	3789.140439
849.798323	3782.521404
850.112675	3761.709000
850.426984	3770.369702
850.741251	3753.449069
851.055474	3747.142586
851.369654	3751.677104
851.683792	3749.113677
851.997887	3758.069287
852.311938	3758.381838
852.625947	3765.550359
852.939914	3748.445724
853.253837	3759.584154
853.567718	3760.630193
853.881555	3746.086464
854.195350	3762.409720
854.509103	3758.681787
854.822812	3758.848145
855.136479	3746.489757
855.450103	3761.025924
855.763685	3747.656784
856.077224	3748.906990
856.390720	3767.400463
856.704173	3784.507618
857.017584	3799.978919
857.330953	3806.804642
857.644278	3828.252231
857.957561	3836.345803
858.270802	3833.061492
858.584000	3837.860670
858.897155	3830.699711
859.210268	3811.757575
859.523339	3787.411323
859.836367	3792.858290
860.149352	3787.048360
860.462295	3778.879170
860.775195	3766.482973
861.088054	3761.499792
861.400869	3758.822939
861.713642	3759.725306
862.026373	3770.793159
862.339062	3775.047893
862.651708	3794.627735
862.964312	3826.056808
863.276873	3839.904858
863.589392	3899.498858
863.901869	3943.855971
864.214303	3985.327023
864.526696	4021.900594
864.839045	4067.006318
865.151353	4096.585288
865.463619	4101.654168
865.775842	4108.973924
866.088023	4129.874548
866.400162	4115.650932
866.712258	4127.028816
867.024313	4126.469248
867.336325	4129.130978
867.648296	4133.781442
867.960224	4133.196668
868.272110	4144.677896
868.583954	4146.654028
868.895755	4165.296215
869.207515	4158.253723
869.519233	4198.950958
869.830909	4210.676682
870.142542	4237.682143
870.454134	4250.383330
870.765684	4282.210655
871.077191	4317.823887
871.388657	4343.304399
871.700081	4379.245305
872.011463	4419.892128
872.322803	4454.083754
872.634101	4481.570646
872.945357	4524.453221
873.256571	4579.351386
873.567744	4603.861476
873.878874	4626.118171
874.189963	4663.198378
874.501010	4675.687836
874.812015	4673.288247
875.122979	4717.945308
875.433900	4715.331470
875.744780	4734.704624
876.055618	4756.646247
876.366415	4759.192029
876.677169	4775.696767
876.987882	4823.340712
877.298554	4874.858784
877.609183	4955.963387
877.919771	5066.946910
878.230317	5210.619794
878.540822	5422.272639
878.851285	5746.451598
879.161707	6208.216250
879.472087	6966.627599
879.782425	8204.157771
880.092722	10374.649245
880.402977	13671.032019
880.713191	17367.384980
881.023363	21028.288547
881.333494	23203.090207
881.643583	24401.327106
881.953631	24419.409725
882.263637	23597.368932
882.573602	22136.750057
882.883526	20602.263156
883.193408	18949.241083
883.503248	17265.717509
883.813048	15729.640124
884.122806	14307.613803
884.432522	12848.832429
884.742197	11588.722929
885.051831	10509.358958
885.361424	9513.053038
885.670975	8706.372641
885.980485	8014.862444
886.289954	7443.099816
886.599382	6967.865202
886.908768	6597.705878
887.218113	6232.431432
887.527417	5947.938956
887.836680	5680.183111
888.145901	5461.170182
888.455082	5299.568433
888.764221	5150.937574
889.073319	5016.623592
889.382376	4948.048776
889.691392	4882.634763
890.000366	4862.039129
890.309300	4844.269062
890.618193	4844.604299
890.927044	4834.895037
891.235855	4856.387996
891.544625	4883.645515
891.853353	4947.416111
892.162041	5065.127053
892.470687	5251.082616
892.779293	5501.363301
893.087858	5871.310897
893.396381	6448.008815
893.704864	7249.368274
894.013306	8403.235457
894.321707	9552.658863
894.630068	10363.767914
894.938387	10561.272760
895.246665	10327.844652
895.554903	9733.338858
895.863100	9037.863794
896.171256	8484.524063
896.479371	7977.744429
896.787446	7482.577092
897.095480	7058.696712
897.403473	6738.903556
897.711425	6426.475526
898.019336	6153.978475
898.327207	5889.128855
898.635038	5658.899359
898.942827	5417.627215
899.250576	5225.571857
899.558284	5035.911046
899.865952	4911.225668
900.173579	4762.589767
900.481165	4652.062469
900.788711	4565.198347
901.096216	4496.048840
901.403681	4430.443263
901.711105	4400.655085
902.018489	4386.658322
902.325832	4459.104744
902.633135	4584.624433
902.940397	4927.548924
903.247619	5716.776846
903.554800	7149.676936
903.861941	9059.107217
904.169041	10555.785464
904.476101	11171.706080
904.783121	10815.984620
905.090100	10074.778729
905.397039	9261.582640
905.703938	8506.957198
906.010796	7821.047723
906.317614	7268.655729
906.624391	6740.110913
906.931129	6320.681871
907.237826	5920.139513
907.544483	5549.440786
907.851099	5175.303991
908.157675	4824.127132
908.464211	4503.847505
908.770707	4265.917646
909.077163	4071.006474
909.383578	3927.131943
909.689954	3812.634736
909.996289	3741.020105
910.302584	3676.037111
910.608839	3646.740445
910.915054	3612.505970
911.221229	3599.545163
911.527363	3610.882718
911.833458	3624.161117
912.139513	3652.860406
912.445527	3687.188143
912.751502	3766.021707
913.057436	3865.065257
913.363331	4004.790918
913.669186	4208.609809
913.975000	4464.710507
914.280775	4886.077872
914.586510	5463.347960
914.892205	6254.458754
915.197859	7279.398427
915.503475	8490.213005
915.809050	9522.827836
916.114585	10169.013018
916.420081	10426.464745
916.725536	10389.679445
917.030952	9950.345408
917.336328	9542.793325
917.641665	9136.804000
917.946961	8663.709356
918.252218	8254.965040
918.557435	7740.444714
918.862612	7314.779766
919.167750	6948.411389
919.472848	6524.102511
919.777906	6154.984186
920.082925	5797.019413
920.387904	5435.946768
920.692843	5170.333413
920.997743	4927.110343
921.302603	4696.026372
921.607423	4534.424623
921.912204	4369.604098
922.216946	4253.226541
922.521647	4133.042913
922.826310	4031.047768
923.130932	3937.983027
923.435516	3839.221782
923.740059	3770.508334
924.044564	3695.616953
924.349028	3634.129999
924.653454	3570.036769
924.957840	3502.744927
925.262186	3456.653657
925.566493	3392.789800
925.870761	3336.802745
926.174989	3298.994091
926.479178	3264.205089
926.783328	3222.882751
927.087438	3195.534491
927.391509	3158.245076
927.695541	3130.927063
927.999533	3106.938733
928.303486	3084.215732
928.607400	3068.071437
928.911275	3056.381001
929.215110	3036.725542
929.518906	3031.389481
929.822663	3031.704553
930.126381	3025.652648
930.430060	3034.207486
930.733699	3035.644214
931.037299	3047.143086
931.340861	3044.463713
931.644383	3053.550393
931.947866	3048.650391
932.251309	3042.482540
932.554714	3044.143600
932.858080	3038.527754
933.161407	3032.470808
933.464694	3022.660723
933.767943	3018.128725
934.071153	3011.277797
934.374323	3001.452588
934.677455	2996.771877
934.980548	2985.850217
935.283602	2984.184116
935.586617	2980.068014
935.889593	2989.321052
936.192530	2992.799448
936.495428	3006.760923
936.798287	3027.774973
937.101108	3059.385528
937.403890	3114.452572
937.706632	3175.594207
938.009336	3251.566916
938.312002	3325.946620
938.614628	3387.388203
938.917216	3435.556428
939.219765	3468.268476
939.522275	3501.252745
939.824747	3507.231554
940.127179	3506.397243
940.429573	3498.830471
940.731929	3497.965913
941.034246	3485.075683
941.336524	3469.112869
941.638763	3456.623410
941.940964	3443.508849
942.243126	3399.948238
942.545250	3373.376316
942.847335	3339.174608
943.149381	3306.976758
943.451389	3273.639608
943.753359	3237.744072
944.055290	3214.257336
944.357182	3189.107020
944.659036	3175.405164
944.960851	3165.721107
945.262628	3150.383397
945.564367	3153.960095
945.866067	3148.780310
946.167729	3142.877118
946.469352	3143.260246
946.770937	3137.329329
947.072484	3122.765435
947.373992	3125.152422
947.675462	3118.409878
947.976893	3101.413628
948.278286	3093.040272
948.579641	3088.843511
948.880958	3078.093250
949.182236	3084.009044
949.483476	3073.800708
949.784678	3076.215421
950.085841	3079.109043
950.386967	3087.648758
950.688054	3103.251129
950.989103	3122.473048
951.290114	3146.073210
951.591087	3171.097498
951.892021	3200.570604
952.192917	3224.069942
952.493776	3253.049015
952.794596	3259.347937
953.095378	3264.981426
953.396122	3262.571755
953.696828	3253.296032
953.997496	3244.295052
954.298126	3221.438460
954.598718	3198.347455
954.899272	3176.552026
955.199788	3148.639157
955.500266	3115.932151
955.800706	3081.372521
956.101108	3041.242416
956.401472	3013.291738
956.701798	2978.475009
957.002087	2940.802467
957.302337	2911.407498
957.602550	2882.118395
957.902724	2854.298787
958.202861	2829.425734
958.502960	2810.065183
958.803022	2790.530712
959.103045	2770.227464
959.403031	2748.979001
959.702979	2738.730335
960.002889	2725.686350
960.302762	2710.701520
960.602596	2703.986703
960.902393	2692.215609
961.202153	2685.725123
961.501875	2676.953515
961.801559	2671.347752
962.101205	2664.932884
962.400814	2658.873417
962.700385	2651.324289
962.999918	2646.583084
963.299414	2639.364152
963.598873	2639.996817
963.898293	2630.753861
964.197677	2634.522123
964.497022	2632.220837
964.796331	2627.270424
965.095601	2627.136833
965.394835	2624.165073
965.694030	2619.736419
965.993189	2620.606018
966.292309	2619.673405
966.591393	2617.878754
966.890439	2617.901439
967.189447	2616.424381
967.488419	2618.408075
967.787353	2617.626696
968.086249	2618.992849
968.385108	2621.427726
968.683930	2621.911677
968.982714	2630.043058
969.281462	2631.250415
969.580172	2637.657721
969.878844	2643.601242
970.177480	2652.332520
970.476078	2658.588592
970.774639	2668.375992
971.073162	2673.764986
971.371649	2682.251768
971.670098	2685.281502
971.968510	2692.571010
972.266885	2694.837009
972.565223	2699.409335
972.863524	2700.863708
973.161788	2706.129193
973.460014	2709.572301
973.758204	2711.397199
974.056356	2711.586242
974.354471	2714.341233
974.652550	2715.808209
974.950591	2714.681511
975.248595	2712.886860
975.546563	2710.875440
975.844493	2707.581046
976.142386	2702.802032
976.440243	2694.852132
976.738062	2692.853315
977.035845	2687.197140
977.333590	2677.485357
977.631299	2674.138031
977.928971	2667.536640
978.226606	2660.461381
978.524204	2661.207471
978.821765	2654.825371
979.119290	2657.048519
979.416777	2657.106493
979.714228	2661.613284
980.011642	2664.375837
980.309020	2669.979079
980.606360	2686.897191
980.903664	2708.637167
981.200931	2745.462796
981.498162	2791.896864
981.795356	2866.700026
982.092513	2953.614559
982.389633	3056.660785
982.686717	3150.799292
982.983764	3222.958368
983.280775	3271.943260
983.577749	3279.615896
983.874686	3267.015532
984.171587	3230.504975
984.468451	3191.821681
984.765279	3153.045126
985.062070	3105.743979
985.358824	3058.929304
985.655543	3005.162878
985.952224	2951.855196
986.248869	2891.144581
986.545478	2833.700632
986.842050	2778.429422
987.138586	2733.174984
987.435086	2697.929757
987.731549	2667.771054
988.027975	2644.249030
988.324366	2624.054167
988.620719	2613.780296
988.917037	2602.200766
989.213318	2591.223653
989.509563	2584.705441
989.805772	2578.444328
990.101944	2577.063052
990.398080	2572.392423
990.694180	2571.447207
990.990244	2570.900241
991.286271	2573.856878
991.582262	2574.222362
991.878217	2576.228741
992.174136	2579.331571
992.470019	2584.944896
992.765865	2584.700400
993.061676	2590.565782
993.357450	2599.838985
993.653188	2605.585900
993.948890	2623.877727
994.244556	2642.875315
994.540186	2663.796104
994.835780	2695.709128
995.131337	2732.007957
995.426859	2773.032867
995.722345	2820.719661
996.017795	2870.768237
996.313208	2904.806108
996.608586	2936.033535
996.903928	2946.990483
997.199234	2946.004937
997.494504	2941.102415
997.789738	2926.961979
998.084936	2902.371230
998.380099	2872.983824
998.675225	2843.835872
998.970316	2812.565595
999.265371	2776.780964
999.560390	2742.153279
999.855373	2713.363249
1000.150320	2686.723272
1000.445232	2660.242090
1000.740108	2641.504122
1001.034948	2623.829836
1001.329752	2608.434152
1001.624521	2597.898141
1001.919254	2583.298959
1002.213951	2580.854000
1002.508613	2570.411249
1002.803239	2562.985630
1003.097829	2556.628735
1003.392384	2553.702345
1003.686903	2546.309493
1003.981386	2546.959802
1004.275834	2543.015099
1004.570246	2535.970086
1004.864623	2535.450847
1005.158964	2532.975641
1005.453270	2533.560415
1005.747540	2531.695188
1006.041775	2529.421627
1006.335974	2527.062367
1006.630138	2527.042203
1006.924266	2526.432223
1007.218359	2524.299815
1007.512416	2521.081038
1007.806438	2518.928466
1008.100425	2524.458612
1008.394376	2519.634227
1008.688292	2523.132788
1008.982172	2521.416275
1009.276017	2525.615556
1009.569827	2521.638086
1009.863602	2521.733868
1010.157341	2518.731861
1010.451045	2517.406037
1010.744714	2517.511902
1011.038347	2516.175996
1011.331945	2514.386386
1011.625508	2515.276150
1011.919036	2512.495953
1012.212528	2512.939575
1012.505986	2514.063752
1012.799408	2513.156345
1013.092795	2510.802126
1013.386147	2513.610048
1013.679464	2510.580315
1013.972745	2512.589215
1014.265992	2510.214831
1014.559204	2510.628206
1014.852380	2511.533093
1015.145521	2510.766838
1015.438628	2511.041581
1015.731699	2512.710202
1016.024736	2512.594256
1016.317737	2513.937723
1016.610703	2512.886643
1016.903635	2516.460821
1017.196531	2515.497961
1017.489393	2517.456449
1017.782219	2519.387211
1018.075011	2524.536749
1018.367768	2520.793693
1018.660490	2521.161697
1018.953177	2521.161697
1019.245829	2521.161697
