Dividing Wavelength (nm)	Counts (n)	Blue Motor Position (mm): 17.700000	Red Motor Position (mm): 0.000000	
326.493990	2178.640499
326.888308	2178.640499
327.282561	2178.640499
327.676750	2140.073151
328.070874	2136.438479
328.464933	2134.054014
328.858929	2138.570888
329.252859	2144.542134
329.646726	2149.903401
330.040528	2164.699188
330.434265	2177.183605
330.827938	2197.975844
331.221547	2214.420088
331.615091	2228.658827
332.008571	2247.976529
332.401986	2268.103336
332.795338	2284.640841
333.188625	2304.805456
333.581847	2323.109886
333.975006	2343.587053
334.368100	2360.558097
334.761129	2375.517721
335.154095	2397.000598
335.546996	2417.134967
335.939833	2446.482044
336.332606	2462.883438
336.725315	2477.517907
337.117960	2486.942345
337.510540	2501.647390
337.903056	2508.949502
338.295508	2520.400483
338.687896	2528.133613
339.080220	2535.493697
339.472480	2542.016950
339.864676	2547.007693
340.256807	2552.295863
340.648875	2555.428940
341.040879	2558.194013
341.432818	2564.324056
341.824694	2566.950497
342.216506	2565.859088
342.608253	2567.409242
342.999937	2564.971844
343.391557	2567.479818
343.783113	2568.470405
344.174605	2569.511403
344.566033	2565.009653
344.957397	2564.445044
345.348697	2563.522513
345.739934	2560.180228
346.131106	2559.194682
346.522215	2556.611091
346.913260	2556.112017
347.304241	2555.048333
347.695159	2552.147149
348.086012	2552.512633
348.476802	2547.547096
348.867528	2543.746066
349.258191	2539.161137
349.648789	2540.731456
350.039324	2537.832793
350.429796	2537.936136
350.820203	2536.222144
351.210548	2537.273225
351.600828	2535.793646
351.991045	2536.620395
352.381198	2535.576876
352.771288	2535.234078
353.161314	2531.092770
353.551276	2529.003212
353.941175	2531.168387
354.331010	2532.403470
354.720782	2533.268028
355.110490	2534.470343
355.500135	2528.315094
355.889717	2531.241484
356.279235	2533.051258
356.668689	2530.719725
357.058080	2532.741227
357.447408	2531.523789
357.836672	2530.455064
358.225873	2534.934129
358.615010	2535.039993
359.004084	2533.210055
359.393095	2534.714839
359.782043	2532.741227
360.170927	2533.331042
360.559748	2536.572504
360.948505	2536.328008
361.337199	2538.679707
361.725830	2536.524613
362.114398	2536.920344
362.502903	2536.817000
362.891344	2537.978986
363.279722	2540.050900
363.668037	2540.746580
364.056289	2539.324974
364.444478	2540.544933
364.832603	2539.040149
365.220665	2542.964687
365.608665	2543.985521
365.996601	2542.989893
366.384474	2541.747249
366.772284	2544.179605
367.160031	2543.612476
367.547715	2544.353525
367.935336	2543.325130
368.322893	2542.732794
368.710388	2541.124666
369.097820	2541.671631
369.485189	2540.799512
369.872495	2547.350491
370.259738	2545.316386
370.646918	2546.304452
371.034035	2544.701365
371.421090	2546.198588
371.808081	2545.031560
372.195010	2547.176571
372.581875	2546.906870
372.968678	2548.600697
373.355418	2546.974925
373.742096	2550.339895
374.128710	2548.930893
374.515262	2546.405275
374.901751	2549.293856
375.288177	2550.685214
375.674540	2547.549617
376.060841	2550.143290
376.447079	2552.590771
376.833254	2549.147663
377.219367	2550.266799
377.605417	2551.847200
377.991404	2550.891902
378.377329	2550.939793
378.763191	2554.332489
379.148991	2551.408620
379.534727	2551.476676
379.920402	2552.673950
380.306013	2552.182437
380.691563	2552.517674
381.077049	2550.281922
381.462474	2553.309135
381.847835	2553.717468
382.233134	2552.860472
382.618371	2552.898281
383.003545	2552.895760
383.388657	2554.249310
383.773706	2552.976419
384.158693	2555.396173
384.543618	2556.422048
384.928480	2553.626728
385.313280	2554.750905
385.698017	2554.708055
386.082692	2555.862479
386.467305	2554.902140
386.851856	2558.277192
387.236344	2554.952551
387.620770	2551.995914
388.005133	2553.830894
388.389435	2555.446584
388.773674	2552.187478
389.157851	2558.352809
389.541965	2556.376677
389.926018	2560.444888
390.310008	2558.067984
390.693936	2559.981102
391.077802	2559.577810
391.461606	2560.704508
391.845348	2558.569579
392.229027	2559.532439
392.612645	2558.551935
392.996200	2558.456153
393.379694	2558.410783
393.763125	2561.052347
394.146494	2559.943293
394.529801	2562.854560
394.913047	2562.312636
395.296230	2560.276010
395.679351	2559.628221
396.062410	2562.748696
396.445408	2561.218705
396.828343	2560.996895
397.211217	2563.507389
397.594028	2561.334652
397.976778	2562.310115
398.359466	2563.915723
398.742092	2561.034703
399.124656	2562.857080
399.507158	2560.850701
399.889598	2565.992678
400.271977	2565.952349
400.654294	2562.085784
401.036549	2564.525702
401.418742	2564.891186
401.800874	2564.583676
402.182944	2564.434962
402.564952	2562.554611
402.946898	2566.947977
403.328783	2564.369427
403.710606	2566.562328
404.092367	2565.307081
404.474067	2565.486042
404.855705	2566.567370
405.237282	2562.456309
405.618797	2565.793552
406.000250	2566.481670
406.381642	2566.121227
406.762972	2561.894220
407.144240	2563.600651
407.525447	2563.923284
407.906593	2560.507903
408.287677	2566.968141
408.668700	2565.619633
409.049661	2568.074675
409.430560	2568.941753
409.811399	2566.474108
410.192176	2566.625343
410.572891	2567.948646
410.953545	2570.517114
411.334138	2569.466033
411.714669	2569.219017
412.095139	2568.115004
412.475547	2569.730694
412.855894	2567.799932
413.236180	2569.299675
413.616405	2568.258677
413.996568	2570.252453
414.376670	2571.694223
414.756711	2570.766651
415.136691	2568.893862
415.516609	2569.765982
415.896466	2572.183215
416.276262	2571.941240
416.655997	2573.055335
417.035670	2572.210941
417.415283	2574.003072
417.794834	2572.044583
418.174324	2571.812690
418.553753	2570.012998
418.933121	2572.359655
419.312428	2569.773543
419.691674	2573.511559
420.070859	2572.823442
420.449983	2573.541806
420.829045	2572.205900
421.208047	2572.951991
421.586988	2571.699264
421.965867	2572.077351
422.344686	2572.962073
422.723444	2573.604820
423.102141	2572.115159
423.480777	2573.899728
423.859352	2575.840572
424.237866	2576.095150
424.616319	2572.730180
424.994712	2575.321333
425.373044	2573.808987
425.751314	2572.384861
426.129524	2572.669686
426.507673	2574.214800
426.885762	2571.298492
427.263789	2574.202197
427.641756	2574.847465
428.019662	2577.688155
428.397508	2577.426015
428.775292	2573.829152
429.153016	2571.477453
429.530679	2576.480799
429.908282	2577.317630
430.285824	2575.361662
430.663305	2578.726633
431.040726	2578.373752
431.418086	2577.831828
431.795385	2577.572208
432.172624	2577.070614
432.549802	2577.710840
432.926920	2576.049780
433.303977	2578.782085
433.680974	2578.053639
434.057910	2576.001889
434.434786	2576.831159
434.811601	2581.385841
435.188355	2579.369380
435.565050	2576.926941
435.941683	2576.934502
436.318257	2578.971129
436.694770	2578.230079
437.071222	2576.881570
437.447614	2580.405337
437.823946	2579.071952
438.200218	2575.636405
438.576429	2580.186047
438.952580	2579.268557
439.328670	2578.346026
439.704700	2579.951633
440.080670	2580.002045
440.456580	2579.596232
440.832429	2578.651015
441.208218	2578.020871
441.583947	2578.436766
441.959616	2580.329720
442.335224	2580.216294
442.710773	2578.877867
443.086261	2581.075810
443.461689	2581.816860
443.837057	2582.678897
444.212365	2580.511201
444.587612	2578.378793
444.962800	2576.374934
445.337927	2580.337281
445.712995	2576.596745
446.088002	2582.537745
446.462949	2580.722930
446.837837	2581.098496
447.212664	2582.215111
447.587431	2580.957343
447.962139	2582.646130
448.336786	2584.586974
448.711374	2580.425502
449.085901	2585.799372
449.460369	2583.661922
449.834776	2583.561099
450.209124	2584.745770
450.583412	2584.677715
450.957640	2585.796851
451.331808	2583.465317
451.705917	2582.071438
452.079965	2584.443301
452.453954	2585.330544
452.827883	2584.392890
453.201752	2584.097982
453.575562	2587.314238
453.949311	2583.724937
454.323001	2586.860534
454.696632	2585.827098
455.070202	2586.787438
455.443713	2588.844228
455.817164	2585.499423
456.190556	2586.550503
456.563888	2589.053436
456.937160	2587.122674
457.310373	2585.670822
457.683526	2587.011769
458.056619	2585.633013
458.429653	2589.822212
458.802628	2587.848601
459.175542	2586.875658
459.548398	2587.709969
459.921194	2592.761205
460.293930	2590.268354
460.666607	2590.714497
461.039224	2590.359095
461.411782	2592.678026
461.784280	2588.831626
462.156719	2592.546956
462.529099	2591.662233
462.901419	2591.944538
463.273680	2589.880186
463.645882	2587.344485
464.018024	2590.754826
464.390106	2588.934969
464.762130	2593.610639
465.134094	2594.666761
465.505999	2595.707759
465.877845	2594.782708
466.249631	2598.969386
466.621358	2601.177411
466.993026	2598.830754
467.364634	2602.795622
467.736184	2596.930239
468.107674	2595.359920
468.479105	2596.254725
468.850477	2597.293202
469.221790	2596.519385
469.593043	2596.259766
469.964238	2597.910744
470.335373	2596.889910
470.706449	2597.124324
471.077467	2597.129365
471.448425	2597.797318
471.819324	2602.185642
472.190164	2606.160592
472.560945	2601.389140
472.931667	2600.973245
473.302330	2600.983327
473.672934	2599.433172
474.043479	2600.295209
474.413965	2599.297061
474.784393	2598.069540
475.154761	2604.038266
475.525070	2600.171701
475.895321	2597.240270
476.265513	2599.806217
476.635645	2600.668255
477.005719	2601.462237
477.375734	2599.637339
477.745691	2600.670775
478.115588	2604.494491
478.485427	2604.368462
478.855207	2606.631940
479.224928	2604.456682
479.594591	2609.669235
479.964194	2611.005141
480.333739	2611.204266
480.703226	2609.601179
481.072653	2610.367435
481.442022	2610.939606
481.811333	2610.324585
482.180584	2610.286776
482.549777	2610.372476
482.918912	2607.791405
483.287988	2612.031016
483.657005	2613.634102
484.025964	2613.326592
484.394864	2613.135028
484.763706	2615.700976
485.132489	2612.046139
485.501213	2614.496140
485.869879	2614.415481
486.238487	2613.830707
486.607036	2615.821963
486.975527	2615.650564
487.343959	2613.634102
487.712333	2612.615789
488.080648	2614.687704
488.448905	2616.996552
488.817104	2616.346243
489.185244	2616.820112
489.553326	2617.798096
489.921350	2616.265585
490.289315	2622.579630
490.657222	2627.214971
491.025070	2628.036679
491.392861	2628.876031
491.760593	2627.222533
492.128267	2628.286216
492.495883	2624.722120
492.863440	2626.123561
493.230939	2623.764301
493.598380	2624.147429
493.965763	2621.168107
494.333088	2625.851339
494.700354	2623.340844
495.067563	2627.792183
495.434713	2628.145064
495.801805	2625.916874
496.168839	2627.721607
496.535815	2629.047430
496.902733	2632.041876
497.269593	2630.216978
497.636395	2633.332411
498.003139	2632.646814
498.369825	2633.299644
498.736453	2634.789305
499.103023	2635.298461
499.469535	2639.412043
499.835989	2639.389357
500.202385	2638.088740
500.568723	2637.471198
500.935003	2641.766262
501.301226	2642.754328
501.667390	2652.670277
502.033497	2655.145484
502.399546	2655.861328
502.765537	2654.303611
503.131470	2659.990033
503.497345	2662.606392
503.863163	2665.953718
504.228923	2665.207627
504.594625	2674.639626
504.960269	2676.056190
505.325856	2679.549710
505.691385	2680.351253
506.056856	2686.355267
506.422270	2693.259127
506.787625	2693.846422
507.152924	2697.944880
507.518164	2704.581559
507.883347	2706.910572
508.248472	2715.828373
508.613540	2727.475959
508.978550	2726.833212
509.343503	2735.821589
509.708398	2745.493043
510.073236	2757.506113
510.438016	2762.885024
510.802738	2770.129162
511.167403	2781.628034
511.532010	2789.855197
511.896561	2809.908907
512.261053	2818.564568
512.625488	2826.670743
512.989866	2839.379492
513.354186	2850.757377
513.718449	2870.150695
514.082655	2887.159548
514.446803	2896.861249
514.810894	2922.286308
515.174927	2931.299892
515.538904	2951.651030
515.902822	2977.222283
516.266684	2995.617453
516.630488	3009.495749
516.994235	3032.465767
517.357925	3059.284705
517.721558	3090.570106
518.085133	3112.904938
518.448651	3142.995586
518.812112	3157.809016
519.175516	3195.350489
519.538863	3225.617577
519.902152	3255.330137
520.265385	3298.411838
520.628560	3324.086435
520.991678	3367.969679
521.354739	3406.595000
521.717743	3445.255608
522.080690	3478.587718
522.443580	3538.796739
522.806413	3573.487439
523.169189	3626.888382
523.531908	3669.150895
523.894569	3706.944425
524.257174	3763.445677
524.619722	3824.640244
524.982213	3852.074203
525.344647	3913.999737
525.707025	3971.499138
526.069345	4035.410886
526.431608	4093.056481
526.793815	4171.373326
527.155964	4184.941592
527.518057	4263.785238
527.880093	4323.122139
528.242072	4384.654463
528.603995	4435.575158
528.965860	4493.785362
529.327669	4584.359773
529.689421	4640.125017
530.051117	4698.536866
530.412755	4800.471517
530.774337	4846.172098
531.135862	4912.695164
531.497331	5007.030276
531.858743	5040.495976
532.220098	5186.739849
532.581396	5205.545873
532.942638	5313.945804
533.303824	5391.009923
533.664953	5484.109952
534.026025	5548.712339
534.387040	5644.917719
534.747999	5767.994969
535.108902	5864.767479
535.469748	5898.114712
535.830537	6022.903434
536.191270	6117.427589
536.551947	6238.183389
536.912567	6244.568010
537.273131	6396.609210
537.633638	6437.800478
537.994089	6607.465552
538.354483	6604.539162
538.714821	6803.727753
539.075103	6945.575740
539.435328	6997.320664
539.795497	7019.899992
540.155609	7217.422482
540.515665	7373.897377
540.875665	7329.537744
541.235609	7490.421128
541.595496	7624.190665
541.955328	7807.950805
542.315102	7900.960094
542.674821	7933.594003
543.034483	8011.749532
543.394090	8139.164695
543.753640	8209.970222
544.113134	8473.728432
544.472571	8526.670630
544.831953	8744.269515
545.191278	8727.933656
545.550548	8857.652627
545.909761	8977.327098
546.268918	9200.446047
546.628019	9289.414851
546.987064	9391.488134
547.346053	9438.975803
547.704986	9565.833919
548.063863	9753.692517
548.422684	9826.012910
548.781449	9862.830977
549.140158	10103.656979
549.498811	10148.498042
549.857408	10129.666812
550.215949	10423.707234
550.574434	10429.176886
550.932864	10631.133070
551.291237	10793.322113
551.649555	10910.110524
552.007817	11056.835828
552.366022	11141.194496
552.724173	11254.181877
553.082267	11370.821574
553.440305	11679.753564
553.798288	11536.211750
554.156215	11864.209383
554.514086	12029.218952
554.871902	11898.196843
555.229661	12132.008079
555.587365	12227.321174
555.945014	12259.690423
556.302606	12550.892675
556.660143	12609.889299
557.017625	12902.588773
557.375050	12817.156339
557.732421	13111.000156
558.089735	13187.096373
558.446994	13310.539107
558.804197	13464.506028
559.161345	13593.216768
559.518437	13538.454714
559.875474	13832.757275
560.232455	13998.938912
560.589381	14092.376698
560.946251	14163.819931
561.303065	14490.486700
561.659825	14657.076670
562.016528	14575.286469
562.373177	14571.185491
562.729770	14845.220093
563.086307	14964.294668
563.442789	15174.961966
563.799216	15198.133630
564.155587	15296.095852
564.511904	15443.423573
564.868164	15485.209697
565.224370	15649.405119
565.580520	15660.082283
565.936615	15901.614046
566.292654	15796.939528
566.648638	16156.696431
567.004567	16125.017820
567.360441	16219.484002
567.716260	16155.819270
568.072023	16515.777819
568.427732	16454.825228
568.783385	16423.005465
569.138982	16674.281778
569.494525	16838.900657
569.850013	16794.263761
570.205445	16938.241635
570.560823	16893.624903
570.916145	16868.827467
571.271412	17054.291517
571.626625	17027.840583
571.981782	17173.993715
572.336884	17114.732431
572.691931	17327.411150
573.046923	17203.350875
573.401860	17256.766941
573.756743	17343.797421
574.111570	17365.847428
574.466342	17406.963078
574.821059	17584.941015
575.175722	17433.479548
575.530330	17542.282771
575.884882	17639.259448
576.239380	17668.175506
576.593823	17660.044125
576.948211	17709.694449
577.302544	17674.174479
577.656823	17662.400864
578.011047	17833.192636
578.365216	17808.987536
578.719330	17791.512376
579.073389	17766.097399
579.427394	17991.232809
579.781344	17855.066203
580.135239	17851.101335
580.489080	17883.765492
580.842866	17735.608501
581.196597	17983.348445
581.550273	18004.796034
581.903895	18024.721194
582.257463	18343.362447
582.610975	18004.213780
582.964434	18323.732193
583.317837	18131.754973
583.671186	18277.131767
584.024481	18310.821798
584.377721	18156.144075
584.730906	18253.665196
585.084037	18354.826030
585.437113	18325.010126
585.790135	18551.294919
586.143103	18140.660171
586.496016	18180.510492
586.848874	18485.066761
587.201679	18471.798444
587.554428	18201.574953
587.907124	18552.116627
588.259765	18395.830776
588.612352	18525.098563
588.964884	18166.339809
589.317362	18367.900263
589.669786	18457.794118
590.022155	18553.790290
590.374470	18736.489268
590.726731	18617.409652
591.078937	18416.534795
591.431090	18549.827943
591.783188	18341.013269
592.135232	18356.857615
592.487222	18497.208380
592.839157	18556.245332
593.191038	18483.640114
593.542866	18399.969563
593.894639	18188.656997
594.246358	18416.534795
594.598022	18354.163119
594.949633	18159.229261
595.301190	18140.982805
595.652692	18324.440476
596.004141	18587.835723
596.355535	17972.038616
596.706876	17996.130290
597.058162	17926.345597
597.409395	18160.847472
597.760573	18288.532337
598.111698	18097.893542
598.462768	18051.119196
598.813785	18027.665228
599.164748	17879.533443
599.515657	17925.884332
599.866511	17740.868945
600.217312	18114.075646
600.568060	17679.618925
600.918753	17991.164754
601.269392	17927.951205
601.619978	17704.544911
601.970510	17945.895192
602.320988	17904.063697
602.671412	18120.777860
603.021783	18034.871557
603.372100	17795.646122
603.722363	17936.846321
604.072572	17892.159013
604.422728	18023.627264
604.772830	17816.990368
605.122878	17771.441022
605.472872	17776.232639
605.822813	17785.374771
606.172701	17742.434223
606.522534	17957.953632
606.872314	17991.119383
607.222041	17828.411102
607.571714	18063.049087
607.921333	17882.543012
608.270899	17967.796485
608.620411	18183.908230
608.969870	17925.259229
609.319276	17941.312783
609.668627	17987.577973
610.017926	18132.090209
610.367171	18255.560670
610.716362	18292.073747
611.065500	18124.286503
611.414585	18253.367768
611.763616	18243.691273
612.112594	18202.931024
612.461518	18168.663781
612.810389	18378.915184
613.159207	18228.862719
613.507971	18129.413357
613.856682	18430.826466
614.205340	18372.512919
614.553945	18511.742026
614.902496	18258.383716
615.250994	18517.234363
615.599439	18448.500751
615.947830	18440.815512
616.296169	18473.391448
616.644454	18452.934446
616.992686	18421.245753
617.340864	18634.562178
617.688990	18408.501716
618.037063	18582.260207
618.385082	18427.181712
618.733048	18704.661943
619.080961	18570.305110
619.428821	18622.886866
619.776628	18524.055044
620.124382	18429.649356
620.472083	18470.263412
620.819731	18503.187188
621.167326	18186.678344
621.514868	18245.571624
621.862357	17998.560126
622.209793	18021.033590
622.557176	17853.493363
622.904506	17689.015636
623.251783	17587.264987
623.599007	17368.244496
623.946179	17323.365624
624.293297	17269.160618
624.640363	17028.402672
624.987376	17046.137451
625.334336	16833.274730
625.681243	16678.828899
626.028097	16677.803024
626.374899	16621.185826
626.721647	16491.844941
627.068343	16321.705999
627.414987	16249.869557
627.761577	16227.895167
628.108115	16287.400947
628.454600	15999.636762
628.801032	16084.111377
629.147412	16012.632857
629.493739	16045.652414
629.840014	15863.424785
630.186236	15957.936338
630.532405	15724.409927
630.878521	15922.189516
631.224585	15806.217771
631.570597	15630.667150
631.916556	15668.584189
632.262462	15647.219779
632.608316	15559.213836
632.954117	15505.906154
633.299866	15511.847154
633.645562	15426.739874
633.991206	15183.821794
634.336797	15047.866916
634.682336	15015.711916
635.027823	14917.787503
635.373257	14803.645697
635.718639	14690.844839
636.063968	14642.419515
636.409245	14404.345983
636.754470	14427.590744
637.099642	14269.671558
637.444762	14047.149987
637.789829	14096.795270
638.134845	13937.449438
638.479808	13962.488849
638.824719	13920.541408
639.169577	13759.136264
639.514383	13817.515347
639.859137	13626.233805
640.203839	13699.869939
640.548489	13550.067012
640.893086	13536.987738
641.237632	13403.528231
641.582125	13546.240776
641.926566	13392.548598
642.270955	13395.119586
642.615292	13362.830996
642.959576	13382.617525
643.303809	13406.636102
643.647990	13350.502854
643.992118	13400.037232
644.336195	13179.093541
644.680219	13371.302655
645.024192	13305.132470
645.368112	13530.401470
645.711981	13597.625257
646.055797	13773.193522
646.399562	13736.584663
646.743274	14013.280994
647.086935	14281.064566
647.430544	14250.258075
647.774101	14270.808339
648.117606	14433.428400
648.461059	14388.307552
648.804460	14394.356937
649.147810	14122.822747
649.491108	14017.986912
649.834354	14046.807188
650.177548	13744.043050
650.520690	13552.789235
650.863781	13475.702431
651.206820	13514.252134
651.549807	13337.983149
651.892742	13153.912978
652.235626	13088.433430
652.578458	13097.199997
652.921238	12779.335082
653.263967	12978.601812
653.606644	12800.477682
653.949269	12760.597113
654.291843	12581.981471
654.634365	12733.107702
654.976836	12586.984816
655.319255	12609.261675
655.661622	12545.778425
656.003938	12479.333496
656.346203	12406.072928
656.688416	12471.547434
657.030577	12427.979262
657.372687	12356.233561
657.714746	12324.272645
658.056753	12505.671005
658.398708	12337.258657
658.740612	12342.932476
659.082465	12430.278028
659.424266	12401.190571
659.766016	12417.806214
660.107715	12325.537975
660.449362	12392.683623
660.790958	12355.605937
661.132503	12310.628762
661.473996	12371.384748
661.815438	12391.002399
662.156829	12399.509346
662.498168	12381.804813
662.839456	12378.379349
663.180693	12395.431052
663.521879	12483.976399
663.863013	12466.017288
664.204097	12445.550204
664.545129	12557.181515
664.886110	12530.667566
665.227040	12618.262655
665.567918	12621.675516
665.908746	12653.689364
666.249522	12628.521403
666.590248	12682.325638
666.930922	12800.659163
667.271545	12782.730299
667.612118	12866.224410
667.952639	12776.106223
668.293109	12773.560441
668.633528	12733.417732
668.973896	12705.830018
669.314213	12804.825677
669.654480	12537.188298
669.994695	12599.391096
670.334859	12618.688633
670.674973	12566.119480
671.015035	12605.306890
671.355047	12540.855738
671.695008	12513.293229
672.034918	12520.928057
672.374777	12555.979199
672.714585	12480.624032
673.054342	12507.195954
673.394049	12460.938326
673.733705	12542.970502
674.073310	12469.026857
674.412864	12489.322543
674.752368	12365.184129
675.091820	12357.826565
675.431223	12357.488808
675.770574	12238.837690
676.109875	12155.988848
676.449125	12117.378650
676.788324	12058.424877
677.127473	11889.715101
677.466571	11880.744368
677.805619	11781.511775
678.144616	11703.764580
678.483562	11665.610607
678.822458	11535.019517
679.161303	11519.086950
679.500098	11506.216884
679.838842	11461.093516
680.177535	11486.221148
680.516179	11538.439940
680.854771	11495.166675
681.193314	11699.683766
681.531805	11844.425375
681.870247	12249.290523
682.208638	12648.728868
682.546978	12980.625835
682.885268	13047.658058
683.223508	12733.097619
683.561697	12565.801888
683.899836	12466.486116
684.237925	12275.905295
684.575963	12192.312882
684.913951	12121.537602
685.251889	12061.336143
685.589776	12158.559836
685.927614	12092.550967
686.265401	12046.028679
686.603137	12096.127666
686.940824	12244.299781
687.278460	12364.954757
687.616046	12414.121130
687.953582	12592.595620
688.291068	12508.509174
688.628504	12733.541241
688.965889	12742.597674
689.303224	12717.785114
689.640510	12611.941048
689.977745	12315.846357
690.314930	12087.023342
690.652065	11996.030515
690.989150	11720.130686
691.326185	11489.598721
691.663170	11285.495004
692.000105	11030.694924
692.336990	10937.829309
692.673825	10683.704743
693.010610	10565.333410
693.347345	10356.914466
693.684030	10153.133383
694.020665	10096.445608
694.357251	9897.882120
694.693786	9863.806441
695.030272	9687.769348
695.366707	9571.374147
695.703093	9499.552828
696.039429	9492.827929
696.375716	9425.110109
696.711952	9297.997415
697.048139	9326.802568
697.384276	9281.265826
697.720363	9299.353486
698.056400	9240.971883
698.392388	9194.845325
698.728326	9150.861258
699.064214	9085.822812
699.400053	9138.918764
699.735842	8948.249723
700.071581	8906.934947
700.407270	8841.883897
700.742910	8757.126978
701.078501	8668.566508
701.414042	8543.470275
701.749533	8476.029719
702.084974	8341.486364
702.420366	8448.736912
702.755709	8335.661311
703.091002	8204.518214
703.426246	8233.167091
703.761440	8181.969133
704.096584	8138.237123
704.431679	8072.087102
704.766725	8058.612098
705.101721	8005.029674
705.436668	8050.858803
705.771565	7947.449615
706.106413	8031.304168
706.441212	8075.008451
706.775961	8021.272272
707.110661	8051.778814
707.445311	8202.973100
707.779913	8102.223120
708.114465	8233.935867
708.448967	8273.836600
708.783421	8403.101867
709.117825	8587.018283
709.452180	8623.745609
709.786485	8710.372797
710.120742	8991.011311
710.454949	8987.701793
710.789107	9083.892050
711.123216	9293.677146
711.457275	9451.679511
711.791286	9623.361046
712.125247	9610.420404
712.459159	9604.441596
712.793023	9861.202685
713.126837	9433.753168
713.460602	9575.913706
713.794318	9406.936750
714.127985	9436.183004
714.461602	9135.687385
714.795171	9076.869722
715.128691	8834.854008
715.462162	8578.516377
715.795584	8525.876648
716.128957	8392.989312
716.462281	8220.539001
716.795556	8267.383923
717.128782	8066.453613
717.461960	7797.737428
717.795088	7869.291565
718.128167	7775.697503
718.461198	7605.649302
718.794180	7547.156793
719.127113	7541.455248
719.459997	7402.024495
719.792833	7164.936509
720.125619	7223.701239
720.458357	7089.162925
720.791046	7073.348826
721.123686	7076.285298
721.456278	6921.811741
721.788821	6933.630726
722.121315	6831.209604
722.453761	6886.377471
722.786158	6838.806623
723.118506	6852.213571
723.450805	6819.075546
723.783056	6888.993830
724.115259	6784.972141
724.447412	6786.890300
724.779518	6826.624674
725.111574	6835.953329
725.443582	6914.247490
725.775542	6892.169757
726.107453	7074.387303
726.439315	6996.577094
726.771129	7041.052674
727.102895	7210.624486
727.434612	7324.670510
727.766281	7352.172524
728.097901	7441.716020
728.429473	7423.283041
728.760996	7399.486274
729.092471	7377.590022
729.423897	7330.155285
729.755276	7346.312183
730.086606	7281.155270
730.417887	7365.314812
730.749120	7550.254583
731.080305	7746.940241
731.411442	7877.304479
731.742530	7875.736681
732.073570	7969.912996
732.404562	8059.388436
732.735506	7903.382368
733.066401	8050.450470
733.397249	7991.471491
733.728048	7749.617094
734.058798	7420.827999
734.389501	7200.748866
734.720156	7024.101794
735.050762	6785.771163
735.381320	6687.388005
735.711831	6641.939483
736.042293	6538.253030
736.372707	6555.977727
736.703073	6419.579227
737.033391	6457.113138
737.363661	6466.003213
737.693883	6481.756819
738.024056	6570.536579
738.354182	6621.699250
738.684260	6658.063613
739.014290	6766.861795
739.344272	6873.358691
739.674207	6900.228041
740.004093	6963.618030
740.333931	6985.925136
740.663722	6989.234653
740.993464	7066.008906
741.323159	7068.779020
741.652806	6815.834084
741.982405	6810.329144
742.311956	6876.595112
742.641460	6729.325364
742.970915	6531.462596
743.300323	6525.377923
743.629683	6471.286342
743.958996	6336.614438
744.288260	6248.845429
744.617477	6197.191246
744.946647	6205.247010
745.275768	6040.106372
745.604842	5997.385113
745.933869	5975.604808
746.262847	5934.524446
746.591778	5922.836530
746.920662	5882.318256
747.249498	5874.688470
747.578286	5920.999030
747.907027	5990.519062
748.235720	6054.632457
748.564365	6019.785481
748.892963	6039.181320
749.221514	6200.949426
749.550017	6050.690274
749.878473	5915.287403
750.206881	5965.484692
750.535242	5911.529222
750.863555	5843.738306
751.191821	5865.354774
751.520039	5865.861410
751.848210	5778.354541
752.176334	5788.998937
752.504411	5845.444737
752.832440	5767.533704
753.160421	5695.992169
753.488356	5744.288943
753.816243	5783.514162
754.144082	5635.072345
754.471875	5598.995328
754.799620	5650.334439
755.127318	5657.286190
755.454969	5607.598057
755.782572	5572.194033
756.110129	5615.270693
756.437638	5615.348831
756.765100	5547.827616
757.092515	5539.565165
757.419882	5585.485036
757.747203	5570.812757
758.074477	5636.564527
758.401703	5630.109329
758.728882	5576.705866
759.056014	5621.385613
759.383099	5763.745277
759.710138	5769.625783
760.037129	5752.957208
760.364073	5758.270584
760.690970	5836.053067
761.017820	5822.678886
761.344623	5771.422954
761.671379	5873.949941
761.998088	5983.761395
762.324751	6209.468976
762.651366	6781.423168
762.977935	8050.694966
763.304456	9654.149893
763.630931	10576.786911
763.957359	10231.820754
764.283740	9304.394639
764.610074	8502.319336
764.936362	7516.514140
765.262602	6922.948521
765.588796	6383.169494
765.914943	6038.203336
766.241044	5884.493514
766.567097	5693.786664
766.893104	5435.573723
767.219064	5253.681331
767.544978	5190.462741
767.870845	5119.513542
768.196665	5013.117469
768.522438	4943.526861
768.848165	4910.802211
769.173846	4846.139330
769.499479	4804.476714
769.825066	4749.074433
770.150607	4685.838200
770.476101	4664.277185
770.801548	4662.406917
771.126949	4586.991255
771.452303	4536.897309
771.777611	4490.949712
772.102872	4510.340511
772.428087	4469.134119
772.753256	4431.794293
773.078378	4394.381369
773.403453	4327.898633
773.728482	4308.275941
774.053465	4263.409672
774.378401	4246.720932
774.703291	4255.323661
775.028135	4183.129297
775.352932	4135.913850
775.677683	4121.455821
776.002388	4138.694046
776.327046	4151.032270
776.651658	4076.211465
776.976224	4015.573946
777.300743	4020.700799
777.625216	4044.134603
777.949643	4043.973286
778.274024	3997.428313
778.598359	3945.050724
778.922647	3966.982264
779.246889	3965.815237
779.571086	3961.192499
779.895236	3947.790591
780.219339	3932.475566
780.543397	3921.586674
780.867409	3971.577276
781.191374	3988.820542
781.515294	3931.459773
781.839167	3919.915531
782.162995	3941.678192
782.486776	3925.775872
782.810511	3934.358437
783.134201	3937.254580
783.457844	3894.619021
783.781441	3836.812110
784.104993	3839.554498
784.428498	3857.508567
784.751958	3862.138867
785.075372	3836.875124
785.398739	3799.132006
785.722061	3806.156853
786.045337	3850.355170
786.368568	3888.433525
786.691752	3802.139054
787.014891	3843.355528
787.337983	3962.999752
787.661030	4119.774596
787.984031	4277.784522
788.306987	4452.014361
788.629897	4534.404459
788.952760	4490.049867
789.275579	4419.587139
789.598351	4359.602449
789.921078	4231.468921
790.243759	4031.372922
790.566395	4004.715301
790.888984	4004.768233
791.211529	3900.822161
791.534027	3836.819672
791.856480	3834.614167
792.178888	3769.363992
792.501249	3719.353225
792.823566	3730.988208
793.145836	3761.199843
793.468062	3713.029098
793.790241	3662.816685
794.112375	3690.979091
794.434464	3752.254316
794.756507	3777.394550
795.078505	3762.850821
795.400457	3787.184471
795.722364	3921.064914
796.044226	4028.796892
796.366042	4098.858849
796.687812	4085.940892
797.009538	4091.556737
797.331218	4053.415367
797.652852	4020.844472
797.974442	4001.642717
798.295986	4003.518027
798.617484	3926.746295
798.938938	3833.792459
799.260346	3874.212430
799.581709	3878.515055
799.903026	3803.303560
800.224299	3765.799896
800.545526	3760.199174
800.866708	3719.943040
801.187845	3658.483813
801.508936	3691.374822
801.829983	3699.342365
802.150984	3617.743728
802.471940	3601.561625
802.792851	3619.772793
803.113717	3615.560909
803.434538	3619.896301
803.755314	3562.805234
804.076045	3538.196841
804.396731	3551.444994
804.717372	3582.455652
805.037967	3571.642377
805.358518	3560.768608
805.679024	3583.957915
805.999485	3596.767487
806.319901	3599.353599
806.640272	3615.507977
806.960598	3629.383753
807.280879	3604.180504
807.601115	3615.283645
807.921306	3630.936428
808.241453	3670.403622
808.561554	3649.102226
808.881611	3582.916917
809.201623	3619.051908
809.521590	3628.975419
809.841513	3602.116152
810.161390	3631.521202
810.481223	3614.255250
810.801011	3558.724420
811.120755	3545.440979
811.440453	3580.169488
811.760107	3588.938575
812.079716	3547.981721
812.399281	3513.021319
812.718801	3532.810368
813.038276	3510.694827
813.357707	3509.379085
813.677093	3524.852907
813.996434	3477.413129
814.315731	3480.480671
814.634983	3485.269767
814.954191	3493.680932
815.273354	3528.996736
815.592473	3526.385418
815.911547	3527.953217
816.230577	3565.595513
816.549562	3615.568471
816.868502	3657.490706
817.187399	3682.328471
817.506250	3679.603727
817.825058	3644.368582
818.143821	3739.323756
818.462539	3841.770085
818.781213	3886.611148
819.099843	3938.456895
819.418429	4167.889889
819.736970	4406.275972
820.055466	4643.772291
820.373919	4999.818905
820.692327	5400.479731
821.010691	5804.687008
821.329011	7102.917714
821.647286	9709.680723
821.965517	14110.043422
822.283704	18105.122557
822.601847	20379.449197
822.919945	18652.226381
823.237999	16160.124415
823.556010	13725.428589
823.873976	11689.477950
824.191897	9623.149318
824.509775	8272.541023
824.827609	7151.224570
825.145398	6605.373473
825.463144	6486.208158
825.780845	6603.165448
826.098502	6767.071003
826.416116	7582.013852
826.733685	8862.103966
827.051210	9979.672321
827.368692	10092.790772
827.686129	8907.454186
828.003522	7395.657518
828.320872	6392.223406
828.638177	5703.528694
828.955439	5158.290097
829.272656	4665.308101
829.589830	4375.600551
829.906960	4208.493863
830.224046	4024.418650
830.541088	3904.066143
830.858086	3854.650233
831.175041	3783.703554
831.491952	3762.649175
831.808819	3772.149230
832.125642	3837.326308
832.442421	3975.408553
832.759157	4236.232812
833.075849	4764.371815
833.392497	5598.402992
833.709101	6357.356266
834.025662	6712.558486
834.342179	6396.120218
834.658653	5747.162401
834.975083	5110.615905
835.291469	4544.244791
835.607811	4132.364878
835.924110	3999.981657
836.240366	3803.835402
836.556578	3600.097169
836.872746	3492.181189
837.188871	3455.557206
837.504952	3395.791807
837.820990	3312.421205
838.136984	3261.712238
838.452935	3286.486989
838.768842	3286.582771
839.084706	3304.541881
839.400526	3451.494036
839.716303	3771.055299
840.032037	4270.762195
840.347727	4553.281059
840.663373	4299.395949
840.978977	3926.476593
841.294537	3626.152373
841.610054	3396.898340
841.925527	3289.625107
842.240957	3226.295612
842.556344	3172.776202
842.871687	3113.741770
843.186987	3063.554563
843.502244	3030.134233
843.817458	2996.618122
844.132629	2962.418934
844.447756	2976.496356
844.762840	2960.929273
845.077881	2928.761671
845.392879	2909.413722
845.707833	2907.447672
846.022745	2905.721077
846.337613	2904.329718
846.652438	2894.098697
846.967221	2892.672050
847.281960	2878.410626
847.596656	2872.754451
847.911309	2872.540202
848.225919	2867.146168
848.540485	2860.305322
848.855009	2863.473687
849.169490	2850.608662
849.483928	2845.925431
849.798323	2842.497446
850.112675	2838.348576
850.426984	2850.477592
850.741251	2848.108250
851.055474	2840.957373
851.369654	2831.832885
851.683792	2837.365551
851.997887	2846.394258
852.311938	2848.352746
852.625947	2837.373113
852.939914	2841.862261
853.253837	2844.523990
853.567718	2829.624860
853.881555	2828.558656
854.195350	2842.895697
854.509103	2840.629698
854.822812	2833.791373
855.136479	2830.514623
855.450103	2833.136023
855.763685	2823.467090
856.077224	2821.228818
856.390720	2832.601661
856.704173	2844.561798
857.017584	2835.492763
857.330953	2830.915395
857.644278	2843.472909
857.957561	2849.978518
858.270802	2853.028416
858.584000	2851.160669
858.897155	2841.887466
859.210268	2840.564163
859.523339	2836.049810
859.836367	2837.473936
860.149352	2831.754747
860.462295	2828.626711
860.775195	2836.415294
861.088054	2834.202227
861.400869	2819.512305
861.713642	2812.363949
862.026373	2830.471773
862.339062	2832.127792
862.651708	2837.116014
862.964312	2840.503670
863.276873	2836.702640
863.589392	2844.019874
863.901869	2852.816688
864.214303	2875.290152
864.526696	2893.224057
864.839045	2887.030999
865.151353	2886.542007
865.463619	2883.333313
865.775842	2886.358005
866.088023	2904.957342
866.400162	2912.050246
866.712258	2886.083262
867.024313	2874.705378
867.336325	2880.437170
867.648296	2904.183525
867.960224	2893.019890
868.272110	2881.558827
868.583954	2882.864485
868.895755	2900.841240
869.207515	2889.838922
869.519233	2892.851011
869.830909	2900.342166
870.142542	2914.903539
870.454134	2910.764751
870.765684	2913.365987
871.077191	2913.456728
871.388657	2922.147677
871.700081	2932.625715
872.011463	2941.281376
872.322803	2945.682303
872.634101	2945.664659
872.945357	2962.494552
873.256571	2985.898108
873.567744	2980.478868
873.878874	2971.447641
874.189963	2992.504540
874.501010	2998.279182
874.812015	2984.070690
875.122979	2985.116729
875.433900	2982.089517
875.744780	2985.600680
876.055618	2996.358503
876.366415	2988.975733
876.677169	3002.425531
876.987882	3003.096005
877.298554	2991.050168
877.609183	3008.195132
877.919771	3036.896941
878.230317	3064.129254
878.540822	3109.950822
878.851285	3150.516987
879.161707	3188.033254
879.472087	3278.789147
879.782425	3490.111795
880.092722	3900.600350
880.402977	4411.428031
880.713191	5010.060009
881.023363	6109.770077
881.333494	7358.698298
881.643583	7925.581089
881.953631	7640.113150
882.263637	7054.941052
882.573602	6503.832032
882.883526	5936.810609
883.193408	5371.576275
883.503248	4910.897992
883.813048	4619.247078
884.122806	4332.370136
884.432522	4029.109444
884.742197	3800.934218
885.051831	3608.793160
885.361424	3475.164774
885.670975	3405.216244
885.980485	3325.127433
886.289954	3251.342585
886.599382	3212.160216
886.908768	3172.781243
887.218113	3127.080663
887.527417	3072.522775
887.836680	3024.631814
888.145901	3020.235928
888.455082	3012.543127
888.764221	2962.444140
889.073319	2934.261569
889.382376	2930.591609
889.691392	2934.438010
890.000366	2934.906837
890.309300	2921.565423
890.618193	2933.404573
890.927044	2950.942748
891.235855	2949.155658
891.544625	2937.886159
891.853353	2945.868826
892.162041	2966.091415
892.470687	3002.629698
892.779293	3051.818757
893.087858	3096.901795
893.396381	3163.187927
893.704864	3275.003240
894.013306	3499.526150
894.321707	3794.544556
894.630068	3999.061647
894.938387	4001.136081
895.246665	3955.022127
895.554903	3841.394519
895.863100	3651.068276
896.171256	3487.124912
896.479371	3356.826208
896.787446	3238.759865
897.095480	3137.258752
897.403473	3072.487487
897.711425	3034.351158
898.019336	3027.253214
898.327207	3000.978720
898.635038	2966.872794
898.942827	2955.711679
899.250576	2942.813887
899.558284	2912.531676
899.865952	2890.111144
900.173579	2874.544061
900.481165	2866.095087
900.788711	2854.752491
901.096216	2830.338183
901.403681	2818.995587
901.711105	2823.237718
902.018489	2826.209478
902.325832	2822.758808
902.633135	2831.590910
902.940397	2862.586444
903.247619	2936.393978
903.554800	3116.479116
903.861941	3437.401491
904.169041	3848.263091
904.476101	4146.656549
904.783121	4123.968836
905.090100	3892.385790
905.397039	3622.404275
905.703938	3385.747308
906.010796	3201.999771
906.317614	3095.996908
906.624391	3004.053824
906.931129	2936.812393
907.237826	2874.896942
907.544483	2828.964468
907.851099	2796.781742
908.157675	2780.599638
908.464211	2762.721186
908.770707	2748.205184
909.077163	2735.564491
909.383578	2719.858776
909.689954	2710.552806
909.996289	2708.710264
910.302584	2710.424256
910.608839	2711.971891
910.915054	2705.904862
911.221229	2696.445137
911.527363	2699.878162
911.833458	2704.833617
912.139513	2711.472816
912.445527	2712.952395
912.751502	2722.354147
913.057436	2732.174315
913.363331	2745.011613
913.669186	2761.012235
913.975000	2793.706638
914.280775	2848.075483
914.586510	2917.353539
914.892205	2992.663337
915.197859	3110.651542
915.503475	3294.706590
915.809050	3495.563803
916.114585	3637.477325
916.420081	3661.818537
916.725536	3615.555868
917.030952	3501.623270
917.336328	3377.610886
917.641665	3250.089858
917.946961	3154.038233
918.252218	3085.695310
918.557435	3015.237624
918.862612	2957.241669
919.167750	2907.916499
919.472848	2872.149513
919.777906	2843.087261
920.082925	2820.860814
920.387904	2790.699590
920.692843	2775.523197
920.997743	2763.522730
921.302603	2751.920514
921.607423	2742.097826
921.912204	2726.903788
922.216946	2723.243911
922.521647	2713.471634
922.826310	2704.337063
923.130932	2696.377081
923.435516	2688.701924
923.740059	2681.833352
924.044564	2676.099040
924.349028	2667.110662
924.653454	2663.506238
924.957840	2656.151194
925.262186	2652.594660
925.566493	2647.664412
925.870761	2646.300779
926.174989	2643.379431
926.479178	2633.627319
926.783328	2630.831999
927.087438	2630.070785
927.391509	2628.465177
927.695541	2623.860083
927.999533	2626.317646
928.303486	2617.727519
928.607400	2617.709875
928.911275	2618.448404
929.215110	2616.386572
929.518906	2615.106119
929.822663	2615.645523
930.126381	2618.050153
930.430060	2616.721809
930.733699	2615.035543
931.037299	2618.718106
931.340861	2617.893877
931.644383	2621.999897
931.947866	2617.228445
932.251309	2620.459825
932.554714	2615.708537
932.858080	2614.448249
933.161407	2613.215687
933.464694	2613.079576
933.767943	2610.692589
934.071153	2608.918103
934.374323	2610.556478
934.677455	2611.073196
934.980548	2610.813577
935.283602	2608.429111
935.586617	2606.972218
935.889593	2609.870881
936.192530	2607.922475
936.495428	2608.020778
936.798287	2611.781478
937.101108	2613.775255
937.403890	2618.612242
937.706632	2620.686677
938.009336	2628.288737
938.312002	2635.729480
938.614628	2643.840696
938.917216	2651.954433
939.219765	2653.865031
939.522275	2650.217756
939.824747	2647.830770
940.127179	2643.608803
940.429573	2643.248361
940.731929	2639.439769
941.034246	2637.488842
941.336524	2635.028759
941.638763	2632.571197
941.940964	2630.978192
942.243126	2630.723614
942.545250	2627.010804
942.847335	2626.473921
943.149381	2621.329424
943.451389	2617.845987
943.753359	2615.522015
944.055290	2615.587550
944.357182	2614.027312
944.659036	2611.070676
944.960851	2611.466406
945.262628	2609.089502
945.564367	2608.845006
945.866067	2607.882146
946.167729	2612.043618
946.469352	2611.388268
946.770937	2613.024123
947.072484	2610.543875
947.373992	2608.703854
947.675462	2605.903493
947.976893	2601.857967
948.278286	2600.784201
948.579641	2602.427618
948.880958	2600.262442
949.182236	2605.202773
949.483476	2600.527102
949.784678	2602.659511
950.085841	2601.195055
950.386967	2603.945005
950.688054	2605.061620
950.989103	2606.011878
951.290114	2604.955756
951.591087	2609.586056
951.892021	2608.608072
952.192917	2609.979266
952.493776	2612.890532
952.794596	2614.680142
953.095378	2613.805502
953.396122	2612.426746
953.696828	2613.467744
953.997496	2609.943978
954.298126	2606.319388
954.598718	2606.110180
954.899272	2600.605240
955.199788	2603.082967
955.500266	2597.542739
955.800706	2600.118769
956.101108	2595.367482
956.401472	2592.037799
956.701798	2591.334558
957.002087	2589.499578
957.302337	2588.519074
957.602550	2585.363312
957.902724	2586.300966
958.202861	2585.040678
958.502960	2584.307190
958.803022	2581.083372
959.103045	2583.795513
959.403031	2581.688311
959.702979	2580.506160
960.002889	2578.257805
960.302762	2581.990780
960.602596	2580.566654
960.902393	2579.283680
961.202153	2578.441807
961.501875	2579.263516
961.801559	2577.012640
962.101205	2577.947774
962.400814	2580.745615
962.700385	2575.336457
962.999918	2572.929306
963.299414	2575.089440
963.598873	2572.883935
963.898293	2572.107598
964.197677	2577.045408
964.497022	2576.657239
964.796331	2576.442990
965.095601	2575.281004
965.394835	2576.362332
965.694030	2573.796384
965.993189	2574.161868
966.292309	2575.906107
966.591393	2574.287897
966.890439	2576.049780
967.189447	2577.521797
967.488419	2573.834193
967.787353	2574.169430
968.086249	2574.550037
968.385108	2572.402505
968.683930	2574.814697
968.982714	2573.584656
969.281462	2574.807136
969.580172	2572.568863
969.878844	2573.161199
970.177480	2576.596745
970.476078	2573.030129
970.774639	2575.732187
971.073162	2578.608166
971.371649	2574.844944
971.670098	2576.528690
971.968510	2572.841086
972.266885	2578.192270
972.565223	2574.497105
972.863524	2575.386868
973.161788	2577.741087
973.460014	2575.316292
973.758204	2576.450552
974.056356	2573.473750
974.354471	2574.950808
974.652550	2575.250757
974.950591	2576.649677
975.248595	2578.751838
975.546563	2577.882239
975.844493	2574.981055
976.142386	2574.106415
976.440243	2574.451734
976.738062	2575.404512
977.035845	2574.620613
977.333590	2574.794533
977.631299	2573.942578
977.928971	2569.395457
978.226606	2570.685992
978.524204	2570.141548
978.821765	2569.143399
979.119290	2572.949470
979.416777	2574.159347
979.714228	2569.680282
980.011642	2575.054152
980.309020	2572.213462
980.606360	2574.040880
980.903664	2572.069789
981.200931	2575.843093
981.498162	2572.914182
981.795356	2576.891653
982.092513	2577.088258
982.389633	2576.886612
982.686717	2583.558579
982.983764	2585.867427
983.280775	2588.728282
983.577749	2589.600402
983.874686	2587.825915
984.171587	2586.787438
984.468451	2587.193251
984.765279	2581.186716
985.062070	2580.491037
985.358824	2579.926427
985.655543	2577.526838
985.952224	2574.965932
986.248869	2573.945098
986.545478	2572.074830
986.842050	2573.398133
987.138586	2571.119532
987.435086	2576.069945
987.731549	2570.993503
988.027975	2572.266394
988.324366	2569.569377
988.620719	2570.343194
988.917037	2571.180025
989.213318	2571.555591
989.509563	2570.728842
989.805772	2572.561302
990.101944	2569.534089
990.398080	2571.106929
990.694180	2568.815724
990.990244	2571.091805
991.286271	2568.251115
991.582262	2568.629202
991.878217	2572.987279
992.174136	2568.145251
992.470019	2569.576938
992.765865	2567.890672
993.061676	2567.890673
993.357450	2569.173646
993.653188	2566.826989
993.948890	2571.323698
994.244556	2568.659448
994.540186	2568.984603
994.835780	2571.500139
995.131337	2571.845458
995.426859	2571.439645
995.722345	2572.379820
996.017795	2573.249419
996.313208	2575.021385
996.608586	2573.937537
996.903928	2572.394943
997.199234	2575.016343
997.494504	2573.171281
997.789738	2571.812690
998.084936	2574.522310
998.380099	2571.971487
998.675225	2572.999882
998.970316	2572.147927
999.265371	2569.864284
999.560390	2572.518452
999.855373	2569.884449
1000.150320	2569.541650
1000.445232	2568.911506
1000.740108	2569.647515
1001.034948	2569.632391
1001.329752	2570.005437
1001.624521	2571.996692
1001.919254	2568.039387
1002.213951	2569.639953
1002.508613	2568.742627
1002.803239	2570.239850
1003.097829	2567.313460
1003.392384	2565.607030
1003.686903	2565.816238
1003.981386	2568.286403
1004.275834	2568.591393
1004.570246	2568.220868
1004.864623	2568.598955
1005.158964	2567.870508
1005.453270	2567.878070
1005.747540	2565.493604
1006.041775	2567.023594
1006.335974	2567.973852
1006.630138	2565.942267
1006.924266	2570.098698
1007.218359	2565.554098
1007.512416	2563.658624
1007.806438	2564.203068
1008.100425	2566.441341
1008.394376	2563.270455
1008.688292	2568.883780
1008.982172	2567.981413
1009.276017	2567.169787
1009.569827	2569.211455
1009.863602	2567.615930
1010.157341	2568.651887
1010.451045	2565.609550
1010.744714	2568.286403
1011.038347	2568.518296
1011.331945	2566.380847
1011.625508	2566.153995
1011.919036	2566.879921
1012.212528	2566.738769
1012.505986	2568.271280
1012.799408	2567.096691
1013.092795	2566.723645
1013.386147	2565.675085
1013.679464	2566.854715
1013.972745	2567.772205
1014.265992	2568.606516
1014.559204	2567.414283
1014.852380	2568.795560
1015.145521	2567.139541
1015.438628	2565.244067
1015.731699	2569.639953
1016.024736	2567.555436
1016.317737	2567.885631
1016.610703	2567.137020
1016.903635	2566.690878
1017.196531	2566.905127
1017.489393	2567.588203
1017.782219	2566.597617
1018.075011	2566.668193
1018.367768	2564.480332
1018.660490	2566.537123
1018.953177	2566.537123
1019.245829	2566.537123
