Dividing Wavelength (nm)	Counts (n)	Blue Motor Position (mm): 0.600000	Red Motor Position (mm): 0.000000	
326.493990	2162.528971
326.888308	2162.528971
327.282561	2162.528971
327.676750	2127.119907
328.070874	2122.328290
328.464933	2121.362909
328.858929	2123.152518
329.252859	2130.502521
329.646726	2138.308748
330.040528	2151.582106
330.434265	2164.162305
330.827938	2182.373473
331.221547	2199.152954
331.615091	2218.626931
332.008571	2237.185939
332.401986	2255.190420
332.795338	2272.158944
333.188625	2292.532767
333.581847	2308.999696
333.975006	2326.028714
334.368100	2345.885819
334.761129	2362.382995
335.154095	2380.382435
335.546996	2399.619478
335.939833	2413.679256
336.332606	2429.558890
336.725315	2441.791250
337.117960	2455.382201
337.510540	2465.456947
337.903056	2479.262147
338.295508	2487.398569
338.687896	2495.862666
339.080220	2503.144613
339.472480	2506.562515
339.864676	2515.523166
340.256807	2521.020545
340.648875	2521.665812
341.040879	2525.305525
341.432818	2529.277955
341.824694	2532.292565
342.216506	2534.001516
342.608253	2534.329191
342.999937	2535.103008
343.391557	2533.141999
343.783113	2532.544622
344.174605	2533.134437
344.566033	2530.510517
344.957397	2530.906247
345.348697	2529.472039
345.739934	2529.104035
346.131106	2525.794517
346.522215	2525.229908
346.913260	2522.336286
347.304241	2520.952489
347.695159	2519.566172
348.086012	2516.274298
348.476802	2513.973012
348.867528	2511.018895
349.258191	2508.019409
349.648789	2508.299193
350.039324	2506.058400
350.429796	2509.400685
350.820203	2506.285252
351.210548	2503.603358
351.600828	2505.203924
351.991045	2503.247957
352.381198	2501.208810
352.771288	2502.955570
353.161314	2498.582369
353.551276	2503.522700
353.941175	2498.468943
354.331010	2498.804180
354.720782	2497.438027
355.110490	2498.141268
355.500135	2498.741165
355.889717	2501.251660
356.279235	2498.524396
356.668689	2498.524396
357.058080	2497.289313
357.447408	2500.273676
357.836672	2500.581186
358.225873	2501.029849
358.615010	2501.859119
359.004084	2503.270642
359.393095	2502.920282
359.782043	2503.724346
360.170927	2503.999089
360.559748	2502.925323
360.948505	2502.620333
361.337199	2504.994717
361.725830	2501.327277
362.114398	2503.018584
362.502903	2505.196363
362.891344	2507.106960
363.279722	2509.204080
363.668037	2509.531755
364.056289	2507.558143
364.444478	2507.704337
364.832603	2509.940088
365.220665	2507.016219
365.608665	2506.249964
365.996601	2508.629388
366.384474	2508.417660
366.772284	2508.004285
367.160031	2510.890346
367.547715	2511.560819
367.935336	2510.459327
368.322893	2511.497805
368.710388	2509.060407
369.097820	2509.577125
369.485189	2504.384737
369.872495	2512.937054
370.259738	2513.831859
370.646918	2515.687004
371.034035	2512.148114
371.421090	2516.012158
371.808081	2512.203567
372.195010	2513.751201
372.581875	2516.607014
372.968678	2516.823784
373.355418	2512.390089
373.742096	2516.728002
374.128710	2515.659277
374.515262	2514.179699
374.901751	2516.594412
375.288177	2516.533918
375.674540	2515.205574
376.060841	2517.287570
376.447079	2515.374452
376.833254	2516.773373
377.219367	2517.108609
377.605417	2520.067767
377.991404	2515.616428
378.377329	2518.157169
378.763191	2521.297808
379.148991	2521.237314
379.534727	2517.040554
379.920402	2519.520801
380.306013	2519.195647
380.691563	2519.382170
381.077049	2516.493588
381.462474	2518.860410
381.847835	2517.915194
382.233134	2520.355112
382.618371	2519.457787
383.003545	2517.733712
383.388657	2521.547345
383.773706	2524.032634
384.158693	2520.070287
384.543618	2521.784279
384.928480	2521.655730
385.313280	2521.055833
385.698017	2520.957530
386.082692	2520.622293
386.467305	2524.733354
386.851856	2523.672192
387.236344	2522.910977
387.620770	2518.252951
388.005133	2518.840246
388.389435	2520.145904
388.773674	2520.571882
389.157851	2523.352078
389.541965	2524.340144
389.926018	2525.252593
390.310008	2523.379805
390.693936	2524.388035
391.077802	2524.793848
391.461606	2525.764270
391.845348	2522.116996
392.229027	2525.928108
392.612645	2526.749816
392.996200	2528.325177
393.379694	2524.778725
393.763125	2526.623787
394.146494	2525.406348
394.529801	2527.871473
394.913047	2524.693025
395.296230	2525.837367
395.679351	2525.855011
396.062410	2528.478932
396.445408	2524.476256
396.828343	2528.448685
397.211217	2525.718900
397.594028	2527.750485
397.976778	2528.118489
398.359466	2529.285516
398.742092	2526.805269
399.124656	2529.431710
399.507158	2530.069416
399.889598	2531.990095
400.271977	2532.511855
400.654294	2529.751823
401.036549	2529.779549
401.418742	2529.028418
401.800874	2529.444313
402.182944	2531.884231
402.564952	2528.355423
402.946898	2529.890455
403.328783	2530.921371
403.710606	2530.439941
404.092367	2529.494724
404.474067	2529.656041
404.855705	2531.627132
405.237282	2533.086546
405.618797	2531.085208
406.000250	2531.317101
406.381642	2529.184693
406.762972	2528.282327
407.144240	2526.991791
407.525447	2531.428007
407.906593	2528.877183
408.287677	2531.448171
408.668700	2534.253573
409.049661	2532.433717
409.430560	2530.540764
409.811399	2533.255425
410.192176	2533.396577
410.572891	2534.840868
410.953545	2534.094777
411.334138	2532.078316
411.714669	2533.941022
412.095139	2535.506300
412.475547	2534.014119
412.855894	2532.771474
413.236180	2535.193749
413.616405	2536.983358
413.996568	2537.089223
414.376670	2533.948584
414.756711	2534.752648
415.136691	2536.259953
415.516609	2535.402957
415.896466	2537.469830
416.276262	2537.081661
416.655997	2532.690816
417.035670	2535.465971
417.415283	2536.136444
417.794834	2534.853471
418.174324	2536.733821
418.553753	2534.601413
418.933121	2539.788760
419.312428	2539.070396
419.691674	2538.505787
420.070859	2534.397246
420.449983	2537.071578
420.829045	2535.559232
421.208047	2536.174253
421.586988	2538.266332
421.965867	2537.137113
422.344686	2537.311033
422.723444	2536.970755
423.102141	2536.847247
423.480777	2539.221631
423.859352	2538.142824
424.237866	2538.699871
424.616319	2538.306661
424.994712	2538.049562
425.373044	2538.591486
425.751314	2538.621733
426.129524	2536.703574
426.507673	2535.269366
426.885762	2536.121321
427.263789	2539.198945
427.641756	2540.849923
428.019662	2540.018133
428.397508	2537.830272
428.775292	2541.026364
429.153016	2539.579553
429.530679	2541.832948
429.908282	2540.555016
430.285824	2541.417053
430.663305	2541.187681
431.040726	2540.590304
431.418086	2539.040149
431.795385	2540.086188
432.172624	2538.319264
432.549802	2542.074924
432.926920	2539.312371
433.303977	2540.759182
433.680974	2540.678524
434.057910	2539.907227
434.434786	2540.953267
434.811601	2542.828576
435.188355	2541.442259
435.565050	2542.687424
435.941683	2541.417053
436.318257	2542.243802
436.694770	2542.160623
437.071222	2541.780016
437.447614	2542.102650
437.823946	2542.637012
438.200218	2541.248174
438.576429	2544.116591
438.952580	2540.171888
439.328670	2541.356559
439.704700	2539.640046
440.080670	2544.267826
440.456580	2538.611651
440.832429	2540.378575
441.208218	2545.734801
441.583947	2543.952753
441.959616	2542.677342
442.335224	2541.986703
442.710773	2542.805891
443.086261	2544.570295
443.461689	2544.696324
443.837057	2542.344625
444.212365	2544.713968
444.587612	2544.345963
444.962800	2539.604758
445.337927	2544.003165
445.712995	2538.664583
446.088002	2543.189019
446.462949	2546.077600
446.837837	2543.083154
447.212664	2542.949564
447.587431	2544.298073
447.962139	2546.301931
448.336786	2545.230686
448.711374	2545.402085
449.085901	2545.603731
449.460369	2547.229503
449.834776	2545.265974
450.209124	2544.451828
450.583412	2543.582229
450.957640	2544.287990
451.331808	2546.294369
451.705917	2547.710934
452.079965	2545.175233
452.453954	2548.804864
452.827883	2548.149514
453.201752	2545.023999
453.575562	2547.310162
453.949311	2546.523742
454.323001	2548.620862
454.696632	2546.067518
455.070202	2548.189843
455.443713	2547.292518
455.817164	2547.385779
456.190556	2544.368649
456.563888	2547.242106
456.937160	2545.727240
457.310373	2547.151366
457.683526	2547.055584
458.056619	2544.915614
458.429653	2547.605069
458.802628	2546.349822
459.175542	2546.004503
459.548398	2547.761345
459.921194	2546.745553
460.293930	2548.111705
460.666607	2547.486602
461.039224	2548.928372
461.411782	2549.624052
461.784280	2547.796633
462.156719	2546.622044
462.529099	2549.586243
462.901419	2546.445604
463.273680	2544.681200
463.645882	2542.760521
464.018024	2546.042312
464.390106	2542.057280
464.762130	2550.042467
465.134094	2549.795451
465.505999	2550.027344
465.877845	2549.513146
466.249631	2547.118598
466.621358	2547.884853
466.993026	2552.245452
467.364634	2552.563044
467.736184	2549.165307
468.107674	2549.329144
468.479105	2549.835780
468.850477	2547.685728
469.221790	2548.560368
469.593043	2551.232180
469.964238	2550.624721
470.335373	2546.349822
470.706449	2547.287477
471.077467	2546.357384
471.448425	2548.913249
471.819324	2550.501212
472.190164	2548.731767
472.560945	2549.384597
472.931667	2549.082127
473.302330	2550.952396
473.672934	2551.363250
474.043479	2549.896274
474.413965	2548.711603
474.784393	2546.559030
475.154761	2550.571788
475.525070	2549.598846
475.895321	2547.022816
476.265513	2549.954247
476.635645	2551.343085
477.005719	2548.154555
477.375734	2551.910215
477.745691	2548.978784
478.115588	2549.987015
478.485427	2552.116902
478.855207	2551.325441
479.224928	2550.236552
479.594591	2553.422561
479.964194	2550.780996
480.333739	2553.813250
480.703226	2550.765873
481.072653	2549.208156
481.442022	2550.337375
481.811333	2551.784186
482.180584	2545.331509
482.549777	2549.384597
482.918912	2546.801005
483.287988	2553.692263
483.657005	2549.971891
484.025964	2550.748229
484.394864	2549.581202
484.763706	2551.615307
485.132489	2550.821326
485.501213	2553.788045
485.869879	2550.813764
486.238487	2552.832746
486.607036	2551.030533
486.975527	2555.635627
487.343959	2549.238403
487.712333	2551.650595
488.080648	2549.684545
488.448905	2552.494989
488.817104	2548.217570
489.185244	2550.637323
489.553326	2550.665050
489.921350	2550.980122
490.289315	2551.156562
490.657222	2553.631769
491.025070	2551.834598
491.392861	2551.895091
491.760593	2553.654454
492.128267	2553.646892
492.495883	2548.633465
492.863440	2551.489278
493.230939	2551.501881
493.598380	2551.663198
493.965763	2549.301418
494.333088	2550.879299
494.700354	2553.354505
495.067563	2553.246121
495.434713	2551.171686
495.801805	2554.145967
496.168839	2551.789227
496.535815	2551.665719
496.902733	2556.631255
497.269593	2552.618497
497.636395	2553.435164
498.003139	2552.119423
498.369825	2554.519012
498.736453	2553.846018
499.103023	2554.889537
499.469535	2554.471121
499.835989	2553.069680
500.202385	2549.949206
500.568723	2546.261602
500.935003	2552.913404
501.301226	2549.051881
501.667390	2553.944320
502.033497	2553.747715
502.399546	2553.830894
502.765537	2555.383570
503.131470	2552.948692
503.497345	2557.049671
503.863163	2555.174362
504.228923	2554.050185
504.594625	2554.433312
504.960269	2554.398024
505.325856	2549.903836
505.691385	2553.072201
506.056856	2554.080432
506.422270	2554.045143
506.787625	2552.031203
507.152924	2553.200750
507.518164	2554.077911
507.883347	2552.421892
508.248472	2553.414999
508.613540	2553.664536
508.978550	2555.164280
509.343503	2553.939279
509.708398	2554.130843
510.073236	2555.418858
510.438016	2555.859959
510.802738	2553.367108
511.167403	2552.913404
511.532010	2554.385421
511.896561	2556.124619
512.261053	2555.590257
512.625488	2554.534135
512.989866	2552.870555
513.354186	2555.988508
513.718449	2555.013045
514.082655	2556.550597
514.446803	2554.561862
514.810894	2555.731409
515.174927	2557.667212
515.538904	2553.447767
515.902822	2553.644372
516.266684	2555.237376
516.630488	2552.739485
516.994235	2555.985988
517.357925	2554.569423
517.721558	2555.323076
518.085133	2555.791903
518.448651	2553.651933
518.812112	2550.821326
519.175516	2553.046995
519.538863	2548.845193
519.902152	2555.189485
520.265385	2556.182593
520.628560	2555.156718
520.991678	2554.002294
521.354739	2553.767880
521.717743	2553.888868
522.080690	2555.249979
522.443580	2555.194527
522.806413	2556.316183
523.169189	2552.661347
523.531908	2554.982798
523.894569	2554.246790
524.257174	2554.922304
524.619722	2553.846018
524.982213	2554.985319
525.344647	2556.331307
525.707025	2555.928014
526.069345	2555.645710
526.431608	2556.928683
526.793815	2554.730740
527.155964	2555.766698
527.518057	2556.144784
527.880093	2556.573282
528.242072	2556.661502
528.603995	2554.035061
528.965860	2555.464228
529.327669	2552.981460
529.689421	2557.803324
530.051117	2554.738302
530.412755	2556.343910
530.774337	2555.655792
531.135862	2553.276368
531.497331	2556.243087
531.858743	2553.624207
532.220098	2557.052192
532.581396	2555.534804
532.942638	2557.168138
533.303824	2554.254351
533.664953	2554.750905
534.026025	2554.302242
534.387040	2555.398693
534.747999	2553.478014
535.108902	2557.694939
535.469748	2553.987170
535.830537	2552.923487
536.191270	2555.388611
536.551947	2552.651264
536.912567	2549.069525
537.273131	2555.154197
537.633638	2551.315359
537.994089	2557.765515
538.354483	2557.246276
538.714821	2554.392983
539.075103	2554.836605
539.435328	2555.360885
539.795497	2559.676112
540.155609	2554.796275
540.515665	2556.971533
540.875665	2556.928683
541.235609	2554.604712
541.595496	2555.398693
541.955328	2555.973385
542.315102	2557.185782
542.674821	2555.433981
543.034483	2555.350802
543.394090	2557.130330
543.753640	2558.526729
544.113134	2557.047151
544.472571	2553.571275
544.831953	2556.961451
545.191278	2556.502706
545.550548	2554.846687
545.909761	2556.117058
546.268918	2555.592778
546.628019	2557.616801
546.987064	2557.644527
547.346053	2555.955741
547.704986	2556.742161
548.063863	2558.390618
548.422684	2556.205278
548.781449	2557.689898
549.140158	2557.090000
549.498811	2558.093190
549.857408	2555.333158
550.215949	2555.965823
550.574434	2556.323745
550.932864	2555.691080
551.291237	2556.268292
551.649555	2557.294167
552.007817	2557.304249
552.366022	2556.626214
552.724173	2557.112686
553.082267	2556.399362
553.440305	2555.335679
553.798288	2555.267623
554.156215	2557.727706
554.514086	2556.502706
554.871902	2550.869217
555.229661	2553.949362
555.587365	2549.077086
555.945014	2559.262738
556.302606	2556.371636
556.660143	2557.382387
557.017625	2557.357182
557.375050	2556.729558
557.732421	2556.628735
558.089735	2557.936914
558.446994	2553.535987
558.804197	2559.141750
559.161345	2556.233004
559.518437	2557.848694
559.875474	2559.413972
560.232455	2553.888868
560.589381	2555.814588
560.946251	2555.675957
561.303065	2555.572613
561.659825	2559.444219
562.016528	2558.705690
562.373177	2554.788714
562.729770	2554.597150
563.086307	2559.779456
563.442789	2553.788045
563.799216	2557.584033
564.155587	2554.592109
564.511904	2554.566903
564.868164	2557.543704
565.224370	2556.747202
565.580520	2556.517829
565.936615	2561.364899
566.292654	2556.653941
566.648638	2558.282233
567.004567	2550.889381
567.360441	2555.459187
567.716260	2557.775597
568.072023	2558.002449
568.427732	2556.800134
568.783385	2558.040258
569.138982	2555.834753
569.494525	2557.599157
569.850013	2556.701832
570.205445	2558.282233
570.560823	2557.929352
570.916145	2553.939279
571.271412	2556.633776
571.626625	2556.628735
571.981782	2555.890206
572.336884	2554.652602
572.691931	2552.310987
573.046923	2554.335010
573.401860	2552.734443
573.756743	2557.145453
574.111570	2553.432643
574.466342	2556.601008
574.821059	2555.396173
575.175722	2555.270144
575.530330	2559.028324
575.884882	2556.041440
576.239380	2556.575803
576.593823	2560.268448
576.948211	2556.626214
577.302544	2555.076059
577.656823	2557.712583
578.011047	2559.361040
578.365216	2557.142932
578.719330	2557.135371
579.073389	2558.304918
579.427394	2558.390618
579.781344	2558.446071
580.135239	2558.178890
580.489080	2557.500854
580.842866	2557.178221
581.196597	2560.298695
581.550273	2557.014383
581.903895	2558.733417
582.257463	2557.967161
582.610975	2555.688560
582.964434	2558.357851
583.317837	2559.421534
583.671186	2558.909857
584.024481	2557.886503
584.377721	2561.299364
584.730906	2558.340207
585.084037	2558.483879
585.437113	2561.541339
585.790135	2559.164435
586.143103	2561.344734
586.496016	2560.848181
586.848874	2558.010011
587.201679	2557.284085
587.554428	2560.835578
587.907124	2557.084959
588.259765	2558.846843
588.612352	2555.953220
588.964884	2560.354147
589.317362	2558.004970
589.669786	2556.462377
590.022155	2554.627397
590.374470	2554.055226
590.726731	2557.894064
591.078937	2555.186965
591.431090	2559.655948
591.783188	2558.115875
592.135232	2557.647048
592.487222	2559.025803
592.839157	2560.293654
593.191038	2558.617470
593.542866	2558.302398
593.894639	2558.680484
594.246358	2558.705690
594.598022	2556.359033
594.949633	2560.081925
595.301190	2556.684188
595.652692	2557.289126
596.004141	2557.342058
596.355535	2557.581513
596.706876	2556.245607
597.058162	2557.705021
597.409395	2555.179403
597.760573	2558.688046
598.111698	2559.134188
598.462768	2557.795762
598.813785	2558.662840
599.164748	2558.859445
599.515657	2560.638973
599.866511	2558.496482
600.217312	2557.432799
600.568060	2555.774259
600.918753	2560.011349
601.269392	2558.136040
601.619978	2555.522202
601.970510	2555.565051
602.320988	2555.565051
602.671412	2557.568910
603.021783	2557.770556
603.372100	2557.657130
603.722363	2560.691905
604.072572	2557.059753
604.422728	2556.943807
604.772830	2560.144940
605.122878	2557.228632
605.472872	2558.100752
605.822813	2557.964641
606.172701	2557.946997
606.522534	2558.662840
606.872314	2558.302398
607.222041	2558.753581
607.571714	2557.553787
607.921333	2554.856769
608.270899	2554.690411
608.620411	2554.516491
608.969870	2560.137378
609.319276	2560.502862
609.668627	2567.217678
610.017926	2569.450910
610.367171	2570.615416
610.716362	2573.133472
611.065500	2570.580128
611.414585	2566.645507
611.763616	2565.488563
612.112594	2564.755075
612.461518	2561.614436
612.810389	2562.723490
613.159207	2562.405897
613.507971	2560.132337
613.856682	2560.102090
614.205340	2559.577810
614.553945	2560.245763
614.902496	2559.686195
615.250994	2560.497820
615.599439	2558.428427
615.947830	2560.175187
616.296169	2558.660320
616.644454	2556.805175
616.992686	2558.219219
617.340864	2559.184600
617.688990	2560.485217
618.037063	2558.108313
618.385082	2559.492110
618.733048	2561.586710
619.080961	2561.034703
619.428821	2556.905998
619.776628	2557.354661
620.124382	2557.210988
620.472083	2560.298695
620.819731	2558.410783
621.167326	2558.980433
621.514868	2558.279713
621.862357	2558.108313
622.209793	2557.773077
622.557176	2560.601164
622.904506	2554.955072
623.251783	2558.856925
623.599007	2555.754095
623.946179	2558.272151
624.293297	2559.736606
624.640363	2559.802141
624.987376	2554.907181
625.334336	2555.013045
625.681243	2554.332489
626.028097	2551.282591
626.374899	2557.032027
626.721647	2556.734599
627.068343	2557.185782
627.414987	2557.147974
627.761577	2557.505896
628.108115	2556.868190
628.454600	2558.367933
628.801032	2560.482697
629.147412	2558.322562
629.493739	2556.122099
629.840014	2556.759805
630.186236	2560.651576
630.532405	2557.783159
630.878521	2557.452963
631.224585	2560.258366
631.570597	2558.894733
631.916556	2559.189641
632.262462	2557.231153
632.608316	2559.829867
632.954117	2558.380536
633.299866	2557.609239
633.645562	2556.384239
633.991206	2556.623694
634.336797	2556.185113
634.682336	2557.362223
635.027823	2556.565720
635.373257	2556.732078
635.718639	2558.703170
636.063968	2559.550083
636.409245	2557.188303
636.754470	2556.296019
637.099642	2553.704866
637.444762	2559.355999
637.789829	2553.525905
638.134845	2558.201575
638.479808	2558.937583
638.824719	2557.730227
639.169577	2555.479352
639.514383	2555.474311
639.859137	2557.904147
640.203839	2559.910526
640.548489	2558.564538
640.893086	2554.982798
641.237632	2555.922973
641.582125	2556.472459
641.926566	2555.242417
642.270955	2555.255020
642.615292	2555.812068
642.959576	2553.523384
643.303809	2552.860472
643.647990	2554.866852
643.992118	2557.218550
644.336195	2558.766184
644.680219	2555.781821
645.024192	2554.856769
645.368112	2556.124619
645.711981	2555.824671
646.055797	2555.300391
646.399562	2558.093190
646.743274	2556.202757
647.086935	2557.125288
647.430544	2556.447253
647.774101	2557.543704
648.117606	2555.940617
648.461059	2557.052192
648.804460	2561.067471
649.147810	2556.873231
649.491108	2556.724517
649.834354	2556.991698
650.177548	2556.580844
650.520690	2559.887841
650.863781	2558.763663
651.206820	2558.141081
651.549807	2558.118396
651.892742	2558.408262
652.235626	2557.258879
652.578458	2557.868859
652.921238	2556.933725
653.263967	2558.705690
653.606644	2557.649568
653.949269	2554.188816
654.291843	2558.118396
654.634365	2557.014383
654.976836	2557.369784
655.319255	2556.500185
655.661622	2557.009342
656.003938	2555.713765
656.346203	2556.333827
656.688416	2558.153684
657.030577	2558.173848
657.372687	2554.647561
657.714746	2556.439692
658.056753	2556.588406
658.398708	2557.460525
658.740612	2556.613611
659.082465	2557.014383
659.424266	2552.227807
659.766016	2554.362736
660.107715	2555.650751
660.449362	2551.753939
660.790958	2556.333827
661.132503	2559.870197
661.473996	2557.889023
661.815438	2555.771739
662.156829	2557.679815
662.498168	2557.689898
662.839456	2556.459856
663.180693	2556.545556
663.521879	2558.549414
663.863013	2556.293498
664.204097	2556.454815
664.545129	2557.054712
664.886110	2555.756615
665.227040	2555.073539
665.567918	2557.193344
665.908746	2558.229301
666.249522	2557.042109
666.590248	2555.902809
666.930922	2556.666543
667.271545	2556.406924
667.612118	2558.690567
667.952639	2557.180741
668.293109	2557.916750
668.633528	2557.684857
668.973896	2555.476831
669.314213	2554.713096
669.654480	2557.914229
669.994695	2557.858776
670.334859	2558.352809
670.674973	2557.483210
671.015035	2555.126471
671.355047	2556.157387
671.695008	2557.543704
672.034918	2555.872562
672.374777	2557.203426
672.714585	2557.634445
673.054342	2557.339537
673.394049	2554.017417
673.733705	2556.059084
674.073310	2554.387942
674.412864	2556.101934
674.752368	2555.411296
675.091820	2554.665205
675.431223	2556.525391
675.770574	2556.361554
676.109875	2556.341389
676.449125	2555.431461
676.788324	2550.685214
677.127473	2554.713096
677.466571	2550.342416
677.805619	2556.974054
678.144616	2555.156718
678.483562	2557.286605
678.822458	2553.760318
679.161303	2554.519012
679.500098	2558.204095
679.838842	2555.035730
680.177535	2553.384752
680.516179	2558.511606
680.854771	2555.370967
681.193314	2559.018242
681.531805	2555.474311
681.870247	2557.420196
682.208638	2552.787376
682.546978	2556.752243
682.885268	2553.601522
683.223508	2556.235525
683.561697	2555.292829
683.899836	2554.483724
684.237925	2557.715103
684.575963	2554.554300
684.913951	2556.946328
685.251889	2555.262582
685.589776	2555.103786
685.927614	2555.605381
686.265401	2557.349620
686.603137	2557.712583
686.940824	2554.594629
687.278460	2556.928683
687.616046	2553.349464
687.953582	2557.619322
688.291068	2556.664023
688.628504	2560.328942
688.965889	2554.466080
689.303224	2555.484393
689.640510	2558.506565
689.977745	2555.625545
690.314930	2555.277706
690.652065	2557.977243
690.989150	2555.479352
691.326185	2555.416337
691.663170	2557.672254
692.000105	2555.247459
692.336990	2556.296019
692.673825	2558.932542
693.010610	2554.423230
693.347345	2553.067160
693.684030	2552.774773
694.020665	2554.355174
694.357251	2551.375852
694.693786	2554.985319
695.030272	2556.825340
695.366707	2557.175700
695.703093	2557.470607
696.039429	2553.972047
696.375716	2556.336348
696.711952	2554.892057
697.048139	2556.487583
697.384276	2557.659651
697.720363	2556.091852
698.056400	2554.760987
698.392388	2554.483724
698.728326	2556.643858
699.064214	2555.433981
699.400053	2559.439178
699.735842	2555.655792
700.071581	2551.811912
700.407270	2555.625545
700.742910	2557.284085
701.078501	2556.900957
701.414042	2554.214022
701.749533	2553.417520
702.084974	2555.423899
702.420366	2556.011193
702.755709	2556.134702
703.091002	2555.365926
703.426246	2556.137222
703.761440	2556.285936
704.096584	2555.418858
704.431679	2553.309135
704.766725	2555.807027
705.101721	2554.680329
705.436668	2557.127809
705.771565	2554.871893
706.106413	2556.825340
706.441212	2557.268961
706.775961	2553.667057
707.110661	2558.541853
707.445311	2559.940773
707.779913	2556.477500
708.114465	2556.086811
708.448967	2556.043961
708.783421	2554.766028
709.117825	2554.629917
709.452180	2554.519012
709.786485	2554.955072
710.120742	2553.656975
710.454949	2550.105482
710.789107	2550.707900
711.123216	2551.660678
711.457275	2557.284085
711.791286	2559.040927
712.125247	2558.466235
712.459159	2553.372149
712.793023	2554.103117
713.126837	2556.270813
713.460602	2555.897768
713.794318	2557.110165
714.127985	2555.093703
714.461602	2555.675957
714.795171	2554.942469
715.128691	2556.497665
715.462162	2555.698642
715.795584	2555.517160
716.128957	2557.576472
716.462281	2556.545556
716.795556	2554.455998
717.128782	2554.718138
717.461960	2557.331976
717.795088	2555.413817
718.128167	2557.601678
718.461198	2554.357695
718.794180	2556.454815
719.127113	2553.944320
719.459997	2553.843497
719.792833	2551.484237
720.125619	2554.471121
720.458357	2556.638817
720.791046	2557.720145
721.123686	2555.897768
721.456278	2555.454146
721.788821	2552.396686
722.121315	2556.782490
722.453761	2555.318035
722.786158	2552.489948
723.118506	2553.636810
723.450805	2555.900288
723.783056	2553.566234
724.115259	2555.973385
724.447412	2552.058929
724.779518	2556.212840
725.111574	2555.870041
725.443582	2554.564382
725.775542	2555.255020
726.107453	2556.553117
726.439315	2555.650751
726.771129	2556.359033
727.102895	2552.275698
727.434612	2553.840977
727.766281	2551.562375
728.097901	2556.747202
728.429473	2553.364588
728.760996	2553.248641
729.092471	2555.885165
729.423897	2555.076059
729.755276	2553.853580
730.086606	2556.593447
730.417887	2556.651420
730.749120	2554.793755
731.080305	2553.785524
731.411442	2556.684187
731.742530	2553.823333
732.073570	2554.760987
732.404562	2552.686552
732.735506	2555.799465
733.066401	2554.544218
733.397249	2554.405586
733.728048	2554.818961
734.058798	2553.934238
734.389501	2556.427089
734.720156	2554.962633
735.050762	2555.660833
735.381320	2553.833415
735.711831	2553.084804
736.042293	2553.367108
736.372707	2554.735782
736.703073	2558.105793
737.033391	2556.006152
737.363661	2557.233673
737.693883	2556.548076
738.024056	2556.366595
738.354182	2554.463559
738.684260	2554.249310
739.014290	2554.839125
739.344272	2551.648075
739.674207	2552.058929
740.004093	2556.086811
740.333931	2555.386090
740.663722	2557.296688
740.993464	2554.481203
741.323159	2552.573127
741.652806	2553.999773
741.982405	2554.647561
742.311956	2554.597150
742.641460	2555.892726
742.970915	2553.967006
743.300323	2550.072714
743.629683	2551.217056
743.958996	2552.915925
744.288260	2550.387786
744.617477	2556.134702
744.946647	2552.825184
745.275768	2553.246121
745.604842	2555.756615
745.933869	2552.205122
746.262847	2554.448436
746.591778	2553.019269
746.920662	2554.274516
747.249498	2556.452294
747.578286	2552.318548
747.907027	2555.053374
748.235720	2551.532128
748.564365	2556.595967
748.892963	2554.277037
749.221514	2555.759136
749.550017	2553.125133
749.878473	2551.582540
750.206881	2554.685370
750.535242	2553.558672
750.863555	2552.167314
751.191821	2551.955585
751.520039	2555.025648
751.848210	2555.655792
752.176334	2557.301729
752.504411	2552.860472
752.832440	2553.495658
753.160421	2554.614794
753.488356	2553.815771
753.816243	2556.041440
754.144082	2556.079249
754.471875	2554.304763
754.799620	2551.958106
755.127318	2556.064126
755.454969	2551.489278
755.782572	2555.670916
756.110129	2554.508930
756.437638	2551.688404
756.765100	2557.420196
757.092515	2552.328631
757.419882	2553.445246
757.747203	2552.220246
758.074477	2555.093703
758.401703	2554.017417
758.728882	2553.435164
759.056014	2553.414999
759.383099	2552.641182
759.710138	2551.360729
760.037129	2548.537683
760.364073	2551.701007
760.690970	2549.913918
761.017820	2556.979095
761.344623	2551.143959
761.671379	2552.114382
761.998088	2553.586398
762.324751	2552.063970
762.651366	2553.624207
762.977935	2553.044474
763.304456	2551.607746
763.630931	2555.580175
763.957359	2555.234856
764.283740	2555.348282
764.610074	2553.336861
764.936362	2553.921635
765.262602	2553.770401
765.588796	2552.071532
765.914943	2554.287119
766.241044	2553.646892
766.567097	2555.249979
766.893104	2555.474311
767.219064	2551.527087
767.544978	2555.126471
767.870845	2552.835267
768.196665	2555.065977
768.522438	2551.118754
768.848165	2556.331307
769.173846	2555.628066
769.499479	2554.113199
769.825066	2551.154042
770.150607	2553.029351
770.476101	2551.693445
770.801548	2553.510781
771.126949	2552.046326
771.452303	2554.403065
771.777611	2552.542880
772.102872	2552.797458
772.428087	2551.776624
772.753256	2554.322407
773.078378	2553.583878
773.403453	2553.467931
773.728482	2554.435833
774.053465	2554.637479
774.378401	2553.180586
774.703291	2554.118240
775.028135	2555.076059
775.352932	2553.818292
775.677683	2555.139074
776.002388	2548.638506
776.327046	2550.700338
776.651658	2552.709238
776.976224	2549.593805
777.300743	2554.773590
777.625216	2554.009855
777.949643	2553.215874
778.274024	2554.846687
778.598359	2553.256203
778.922647	2552.245452
779.246889	2555.854918
779.571086	2552.860472
779.895236	2552.109340
780.219339	2553.707386
780.543397	2552.852911
780.867409	2553.140256
781.191374	2554.957592
781.515294	2555.476831
781.839167	2553.989691
782.162995	2550.773435
782.486776	2553.876265
782.810511	2553.326779
783.134201	2552.552962
783.457844	2553.392314
783.781441	2553.520863
784.104993	2554.128323
784.428498	2551.494320
784.751958	2554.161090
785.075372	2554.904660
785.398739	2554.017417
785.722061	2552.878116
786.045337	2553.593960
786.368568	2551.766542
786.691752	2553.427602
787.014891	2552.381563
787.337983	2550.617159
787.661030	2551.995914
787.984031	2556.512788
788.306987	2554.589588
788.629897	2552.963816
788.952760	2554.108158
789.275579	2554.292160
789.598351	2553.669577
789.921078	2553.755277
790.243759	2551.756460
790.566395	2551.252344
790.888984	2554.012376
791.211529	2550.105482
791.534027	2553.351985
791.856480	2555.285267
792.178888	2551.660678
792.501249	2551.063301
792.823566	2548.391489
793.145836	2546.775800
793.468062	2554.400545
793.790241	2553.067160
794.112375	2550.846531
794.434464	2552.719320
794.756507	2553.495658
795.078505	2551.718651
795.400457	2555.441543
795.722364	2552.391645
796.044226	2552.482386
796.366042	2554.433312
796.687812	2553.011707
797.009538	2552.114382
797.331218	2551.892571
797.652852	2553.886347
797.974442	2549.891233
798.295986	2551.859803
798.617484	2552.520194
798.938938	2552.106820
799.260346	2553.674619
799.581709	2555.123950
799.903026	2552.348795
800.224299	2552.643703
800.545526	2552.532797
800.866708	2554.950031
801.187845	2552.615976
801.508936	2551.718651
801.829983	2552.900802
802.150984	2552.684032
802.471940	2551.620348
802.792851	2552.810061
803.113717	2551.572457
803.434538	2555.471790
803.755314	2552.316028
804.076045	2551.832077
804.396731	2552.678991
804.717372	2552.454659
805.037967	2551.811912
805.358518	2552.767211
805.679024	2550.108002
805.999485	2548.860317
806.319901	2550.531459
806.640272	2552.111861
806.960598	2554.166131
807.280879	2552.419371
807.601115	2554.448436
807.921306	2552.316028
808.241453	2548.482230
808.561554	2547.589946
808.881611	2551.058260
809.201623	2546.732950
809.521590	2552.893240
809.841513	2551.443908
810.161390	2553.604042
810.481223	2551.751418
810.801011	2551.983312
811.120755	2552.711758
811.440453	2553.818292
811.760107	2551.401058
812.079716	2552.588250
812.399281	2550.145811
812.718801	2552.903322
813.038276	2550.826367
813.357707	2554.587067
813.677093	2549.838301
813.996434	2551.038095
814.315731	2551.511964
814.634983	2553.306614
814.954191	2550.455842
815.273354	2553.374670
815.592473	2552.913404
815.911547	2551.537169
816.230577	2551.968188
816.549562	2551.685883
816.868502	2553.276367
817.187399	2551.569937
817.506250	2552.817622
817.825058	2553.490617
818.143821	2553.072201
818.462539	2552.003476
818.781213	2551.002807
819.099843	2550.760832
819.418429	2551.194371
819.736970	2552.492468
820.055466	2552.610935
820.373919	2556.293498
820.692327	2550.158414
821.010691	2552.200081
821.329011	2554.226625
821.647286	2553.273847
821.965517	2551.688404
822.283704	2551.179248
822.601847	2552.074052
822.919945	2551.602704
823.237999	2551.549772
823.556010	2554.002294
823.873976	2551.338044
824.191897	2551.821995
824.509775	2548.285625
824.827609	2548.946016
825.145398	2545.752445
825.463144	2552.615976
825.780845	2552.772252
826.098502	2554.551779
826.416116	2552.898281
826.733685	2551.118754
827.051210	2549.447611
827.368692	2551.390976
827.686129	2550.430636
828.003522	2552.560524
828.320872	2549.966850
828.638177	2552.966337
828.955439	2551.537169
829.272656	2549.808054
829.589830	2551.091027
829.906960	2554.342572
830.224046	2549.041798
830.541088	2552.106820
830.858086	2549.031716
831.175041	2552.099258
831.491952	2550.002138
831.808819	2551.910215
832.125642	2552.401727
832.442421	2553.636810
832.759157	2551.953065
833.075849	2552.747046
833.392497	2553.092365
833.709101	2551.615307
834.025662	2550.947354
834.342179	2552.633620
834.658653	2552.459701
834.975083	2553.074721
835.291469	2556.840463
835.607811	2549.124977
835.924110	2550.415513
836.240366	2552.822664
836.556578	2552.754608
836.872746	2550.297046
837.188871	2552.043805
837.504952	2553.246121
837.820990	2552.227807
838.136984	2554.133364
838.452935	2551.002807
838.768842	2553.480534
839.084706	2551.448949
839.400526	2551.852242
839.716303	2551.219577
840.032037	2549.142621
840.347727	2547.153886
840.663373	2546.806047
840.978977	2547.405944
841.294537	2550.970040
841.610054	2551.038095
841.925527	2552.547921
842.240957	2549.440049
842.556344	2550.327292
842.871687	2552.379042
843.186987	2553.031872
843.502244	2550.894422
843.817458	2552.908363
844.132629	2549.223280
844.447756	2550.236552
844.762840	2551.756460
845.077881	2553.150339
845.392879	2549.916438
845.707833	2550.639844
846.022745	2551.441388
846.337613	2551.900132
846.652438	2549.762683
846.967221	2549.107333
847.281960	2553.500699
847.596656	2552.530277
847.911309	2552.066491
848.225919	2553.288970
848.540485	2549.213198
848.855009	2551.786707
849.169490	2551.965668
849.483928	2548.298228
849.798323	2550.523898
850.112675	2549.334185
850.426984	2552.268137
850.741251	2549.659340
851.055474	2550.670091
851.369654	2552.424412
851.683792	2552.540359
851.997887	2551.171686
852.311938	2552.973898
852.625947	2550.609597
852.939914	2549.019113
853.253837	2551.219577
853.567718	2551.680842
853.881555	2551.070863
854.195350	2549.571119
854.509103	2551.338044
854.822812	2551.479196
855.136479	2550.062632
855.450103	2551.161603
855.763685	2546.899308
856.077224	2549.490461
856.390720	2549.384597
856.704173	2548.235214
857.017584	2550.486089
857.330953	2549.172868
857.644278	2552.570606
857.957561	2554.887016
858.270802	2548.837632
858.584000	2549.787889
858.897155	2548.981304
859.210268	2554.680329
859.523339	2549.583722
859.836367	2553.319217
860.149352	2548.676315
860.462295	2549.697148
860.775195	2550.012220
861.088054	2551.564896
861.400869	2549.437529
861.713642	2552.694114
862.026373	2551.577499
862.339062	2551.514484
862.651708	2554.430792
862.964312	2550.917108
863.276873	2550.483568
863.589392	2548.777138
863.901869	2549.480379
864.214303	2548.605738
864.526696	2547.809236
864.839045	2550.723023
865.151353	2553.891388
865.463619	2549.356870
865.775842	2552.046326
866.088023	2549.326623
866.400162	2551.824515
866.712258	2548.996428
867.024313	2551.509443
867.336325	2549.994576
867.648296	2548.867878
867.960224	2552.346275
868.272110	2548.915769
868.583954	2549.785368
868.895755	2549.127498
869.207515	2552.875596
869.519233	2552.409289
869.830909	2549.457693
870.142542	2549.172868
870.454134	2551.476676
870.765684	2550.334854
871.077191	2550.246634
871.388657	2548.998948
871.700081	2545.034081
872.011463	2547.060625
872.322803	2546.553989
872.634101	2548.179761
872.945357	2550.039947
873.256571	2550.579350
873.567744	2552.250493
873.878874	2552.245452
874.189963	2549.054401
874.501010	2553.351985
874.812015	2547.204298
875.122979	2548.273022
875.433900	2550.864175
875.744780	2549.616490
876.055618	2549.374514
876.366415	2551.925338
876.677169	2548.396531
876.987882	2551.325441
877.298554	2548.988866
877.609183	2551.101110
877.919771	2551.353167
878.230317	2548.230172
878.540822	2551.355688
878.851285	2553.843497
879.161707	2553.374670
879.472087	2550.672612
879.782425	2548.711603
880.092722	2550.518856
880.402977	2549.571119
880.713191	2549.823177
881.023363	2548.341078
881.333494	2550.871737
881.643583	2550.012220
881.953631	2548.741850
882.263637	2551.859803
882.573602	2550.826367
882.883526	2547.509288
883.193408	2549.631613
883.503248	2548.041129
883.813048	2550.864175
884.122806	2548.371325
884.432522	2551.239741
884.742197	2551.466593
885.051831	2551.522046
885.361424	2549.918959
885.670975	2552.870555
885.980485	2549.530790
886.289954	2549.142621
886.599382	2551.383414
886.908768	2548.215049
887.218113	2543.995603
887.527417	2546.934596
887.836680	2545.601211
888.145901	2550.118085
888.455082	2549.782848
888.764221	2548.517518
889.073319	2550.788558
889.382376	2549.475338
889.691392	2546.914431
890.000366	2548.444422
890.309300	2550.145811
890.618193	2550.594474
890.927044	2553.057077
891.235855	2549.787889
891.544625	2551.022972
891.853353	2550.990204
892.162041	2550.319731
892.470687	2549.959288
892.779293	2551.423743
893.087858	2550.687735
893.396381	2550.440718
893.704864	2551.993394
894.013306	2546.957281
894.321707	2548.835111
894.630068	2549.803013
894.938387	2549.949206
895.246665	2550.365101
895.554903	2548.441901
895.863100	2549.785368
896.171256	2550.964998
896.479371	2551.121274
896.787446	2550.682694
897.095480	2549.482899
897.403473	2548.162117
897.711425	2548.394010
898.019336	2551.242262
898.327207	2550.314690
898.635038	2549.820657
898.942827	2548.905687
899.250576	2552.764690
899.558284	2550.108002
899.865952	2549.366953
900.173579	2549.354350
900.481165	2550.919628
900.788711	2550.632282
901.096216	2552.358878
901.403681	2549.555996
901.711105	2550.891902
902.018489	2550.539021
902.325832	2551.862324
902.633135	2543.254554
902.940397	2548.726726
903.247619	2546.692621
903.554800	2550.153373
903.861941	2551.771583
904.169041	2550.717982
904.476101	2549.276212
904.783121	2550.813764
905.090100	2549.795451
905.397039	2549.104813
905.703938	2550.735626
906.010796	2549.785368
906.317614	2548.827549
906.624391	2551.355688
906.931129	2551.758980
907.237826	2548.015923
907.544483	2550.536500
907.851099	2549.014072
908.157675	2550.569268
908.464211	2550.468445
908.770707	2547.910059
909.077163	2549.712272
909.383578	2549.276212
909.689954	2549.596325
909.996289	2551.910215
910.302584	2552.147149
910.608839	2549.714792
910.915054	2550.055070
911.221229	2548.666232
911.527363	2550.929710
911.833458	2547.330327
912.139513	2551.514484
912.445527	2549.661860
912.751502	2548.928372
913.057436	2550.476007
913.363331	2548.383928
913.669186	2549.137580
913.975000	2550.566747
914.280775	2548.386448
914.586510	2550.352498
914.892205	2548.063814
915.197859	2551.794268
915.503475	2548.338557
915.809050	2550.138249
916.114585	2549.359391
916.420081	2548.522559
916.725536	2547.773948
917.030952	2549.661860
917.336328	2550.488609
917.641665	2548.046170
917.946961	2545.633978
918.252218	2545.823022
918.557435	2545.734801
918.862612	2549.094730
919.167750	2548.139432
919.472848	2550.944834
919.777906	2549.603887
920.082925	2549.828218
920.387904	2549.979453
920.692843	2549.921480
920.997743	2546.617003
921.302603	2550.788558
921.607423	2548.320913
921.912204	2547.622713
922.216946	2549.364432
922.521647	2549.193033
922.826310	2547.300080
923.130932	2549.263609
923.435516	2551.670760
923.740059	2551.206974
924.044564	2550.450801
924.349028	2548.162117
924.653454	2550.128167
924.957840	2548.991387
925.262186	2546.657333
925.566493	2548.794782
925.870761	2551.758980
926.174989	2548.199926
926.479178	2551.464073
926.783328	2549.891233
927.087438	2550.312169
927.391509	2550.012220
927.695541	2547.748742
927.999533	2548.996428
928.303486	2549.132539
928.607400	2550.337375
928.911275	2546.601880
929.215110	2550.566747
929.518906	2546.831252
929.822663	2548.368804
930.126381	2548.562889
930.430060	2549.296377
930.733699	2548.436860
931.037299	2549.276212
931.340861	2550.047508
931.644383	2550.372663
931.947866	2550.246634
932.251309	2549.031716
932.554714	2548.504915
932.858080	2544.971067
933.161407	2544.227496
933.464694	2547.075748
933.767943	2545.817980
934.071153	2549.987015
934.374323	2549.563558
934.677455	2547.899977
934.980548	2548.315872
935.283602	2549.858465
935.586617	2546.513660
935.889593	2549.056922
936.192530	2547.272353
936.495428	2549.137580
936.798287	2552.328631
937.101108	2550.682694
937.403890	2548.220090
937.706632	2546.823691
938.009336	2546.226314
938.312002	2549.296377
938.614628	2547.912580
938.917216	2550.881819
939.219765	2547.766386
939.522275	2546.919473
939.824747	2547.330327
940.127179	2548.129349
940.429573	2546.921993
940.731929	2547.428629
941.034246	2548.451983
941.336524	2549.326623
941.638763	2548.330996
941.940964	2550.065152
942.243126	2550.934752
942.545250	2549.876109
942.847335	2546.765717
943.149381	2548.189843
943.451389	2549.346788
943.753359	2548.935934
944.055290	2549.926521
944.357182	2548.993907
944.659036	2547.582384
944.960851	2549.550955
945.262628	2547.300080
945.564367	2546.596839
945.866067	2549.208156
946.167729	2548.146993
946.469352	2546.042312
946.770937	2547.148845
947.072484	2551.149001
947.373992	2550.614638
947.675462	2547.042981
947.976893	2543.670449
948.278286	2544.260264
948.579641	2547.466438
948.880958	2545.016437
949.182236	2547.519370
949.483476	2547.499205
949.784678	2548.094061
950.085841	2549.533311
950.386967	2548.522559
950.688054	2551.320400
950.989103	2545.923845
951.290114	2548.603218
951.591087	2550.806202
951.892021	2545.288659
952.192917	2550.952396
952.493776	2549.069525
952.794596	2547.128680
953.095378	2548.605738
953.396122	2550.150852
953.696828	2548.895605
953.997496	2549.800492
954.298126	2550.153373
954.598718	2547.458876
954.899272	2548.477189
955.199788	2550.057591
955.500266	2547.587425
955.800706	2547.630275
956.101108	2546.788403
956.401472	2548.194884
956.701798	2545.230686
957.002087	2548.777138
957.302337	2550.576830
957.602550	2551.953065
957.902724	2549.180430
958.202861	2546.982487
958.502960	2548.116747
958.803022	2546.916952
959.103045	2549.404761
959.403031	2546.362425
959.702979	2547.438711
960.002889	2547.645399
960.302762	2548.446942
960.602596	2548.318393
960.902393	2548.769576
961.202153	2545.076931
961.501875	2548.572971
961.801559	2547.461397
962.101205	2546.455686
962.400814	2547.169010
962.700385	2547.398382
962.999918	2545.961653
963.299414	2546.584236
963.598873	2545.316386
963.898293	2538.551157
964.197677	2548.179761
964.497022	2546.427960
964.796331	2545.712116
965.095601	2545.656663
965.394835	2550.254196
965.694030	2548.865358
965.993189	2545.923845
966.292309	2549.142621
966.591393	2546.876623
966.890439	2546.793444
967.189447	2548.446942
967.488419	2547.320244
967.787353	2548.391489
968.086249	2547.665563
968.385108	2549.011551
968.683930	2546.511139
968.982714	2547.610111
969.281462	2548.356201
969.580172	2546.695141
969.878844	2547.683207
970.177480	2549.261088
970.476078	2549.251006
970.774639	2546.611962
971.073162	2548.552806
971.371649	2548.008362
971.670098	2548.174720
971.968510	2550.269319
972.266885	2547.882333
972.565223	2548.429298
972.863524	2548.411654
973.161788	2549.157745
973.460014	2546.122970
973.758204	2546.029709
974.056356	2549.064483
974.354471	2550.556665
974.652550	2546.407795
974.950591	2548.608259
975.248595	2548.288146
975.546563	2550.012220
975.844493	2548.182282
976.142386	2545.739842
976.440243	2546.591797
976.738062	2544.963505
977.035845	2550.808723
977.333590	2550.140770
977.631299	2545.916283
977.928971	2544.625747
978.226606	2545.686910
978.524204	2542.110212
978.821765	2541.124666
979.119290	2547.539534
979.416777	2545.926365
979.714228	2550.712941
980.011642	2546.480892
980.309020	2549.339226
980.606360	2548.094061
980.903664	2548.174720
981.200931	2545.107178
981.498162	2549.263609
981.795356	2544.582898
982.092513	2544.411498
982.389633	2547.741181
982.686717	2546.364946
982.983764	2547.957950
983.280775	2547.539534
983.577749	2548.235214
983.874686	2549.931562
984.171587	2549.019113
984.468451	2547.584905
984.765279	2546.284287
985.062070	2547.879812
985.358824	2547.660522
985.655543	2547.126160
985.952224	2548.903167
986.248869	2546.836293
986.545478	2546.942158
986.842050	2548.192364
987.138586	2547.751263
987.435086	2546.342260
987.731549	2548.779658
988.027975	2546.438042
988.324366	2547.836962
988.620719	2549.049360
988.917037	2546.952240
989.213318	2548.199926
989.509563	2545.467620
989.805772	2549.921480
990.101944	2547.990718
990.398080	2547.025337
990.694180	2548.754453
990.990244	2544.134235
991.286271	2547.479041
991.582262	2549.770245
991.878217	2545.586087
992.174136	2548.273022
992.470019	2548.071376
992.765865	2547.196736
993.061676	2546.198588
993.357450	2545.858310
993.653188	2541.979142
993.948890	2549.160265
994.244556	2549.591284
994.540186	2548.119267
994.835780	2547.589946
995.131337	2547.211859
995.426859	2547.668084
995.722345	2547.864689
996.017795	2547.080789
996.313208	2547.249668
996.608586	2545.109698
996.903928	2547.300080
997.199234	2545.397044
997.494504	2546.690100
997.789738	2546.059956
998.084936	2546.707744
998.380099	2547.123639
998.675225	2549.545914
998.970316	2545.581046
999.265371	2546.985008
999.560390	2545.104657
999.855373	2548.222611
1000.150320	2548.852755
1000.445232	2546.828732
1000.740108	2546.712785
1001.034948	2545.182795
1001.329752	2546.914431
1001.624521	2546.831252
1001.919254	2546.117929
1002.213951	2546.803526
1002.508613	2544.542568
1002.803239	2547.133722
1003.097829	2546.828732
1003.392384	2548.336037
1003.686903	2547.756304
1003.981386	2547.000131
1004.275834	2544.371169
1004.570246	2547.542055
1004.864623	2546.836293
1005.158964	2547.615152
1005.453270	2546.526262
1005.747540	2547.650440
1006.041775	2548.459545
1006.335974	2546.286808
1006.630138	2546.546427
1006.924266	2547.612631
1007.218359	2547.484082
1007.512416	2547.602549
1007.806438	2543.166333
1008.100425	2544.847558
1008.394376	2545.139945
1008.688292	2547.849565
1008.982172	2544.769420
1009.276017	2548.174720
1009.569827	2548.162117
1009.863602	2545.543237
1010.157341	2545.911242
1010.451045	2548.399051
1010.744714	2546.269164
1011.038347	2548.275543
1011.331945	2545.563402
1011.625508	2545.674308
1011.919036	2547.957950
1012.212528	2547.650440
1012.505986	2547.902497
1012.799408	2547.226983
1013.092795	2545.797816
1013.386147	2548.383928
1013.679464	2546.632127
1013.972745	2547.731098
1014.265992	2547.330327
1014.559204	2546.629606
1014.852380	2548.008362
1015.145521	2545.717157
1015.438628	2548.426777
1015.731699	2549.034237
1016.024736	2545.646581
1016.317737	2544.726571
1016.610703	2547.466438
1016.903635	2547.345450
1017.196531	2547.642878
1017.489393	2545.606252
1017.782219	2544.403937
1018.075011	2547.617672
1018.367768	2545.248330
1018.660490	2545.666746
1018.953177	2545.666746
1019.245829	2545.666746
