Dividing Wavelength (nm)	Counts (n)	Blue Motor Position (mm): 21.500000	Red Motor Position (mm): 0.000000	
326.493990	2100.187542
326.888308	2100.187542
327.282561	2100.187542
327.676750	2074.780127
328.070874	2079.405385
328.464933	2083.808833
328.858929	2096.061358
329.252859	2107.272884
329.646726	2124.664865
330.040528	2137.083747
330.434265	2157.649134
330.827938	2177.907011
331.221547	2197.476770
331.615091	2215.869420
332.008571	2239.096536
332.401986	2259.369537
332.795338	2280.650768
333.188625	2298.998047
333.581847	2318.391366
333.975006	2335.548933
334.368100	2354.801099
334.761129	2370.589993
335.154095	2385.204298
335.546996	2426.947573
335.939833	2495.129178
336.332606	2508.604183
336.725315	2521.093641
337.117960	2530.644107
337.510540	2534.619057
337.903056	2547.466438
338.295508	2552.142108
338.687896	2559.325752
339.080220	2563.714077
339.472480	2568.127607
339.864676	2574.224882
340.256807	2578.610686
340.648875	2576.664801
341.040879	2579.843248
341.432818	2581.370718
341.824694	2580.997672
342.216506	2581.111098
342.608253	2579.074472
342.999937	2583.165369
343.391557	2582.202508
343.783113	2580.264185
344.174605	2575.210428
344.566033	2575.336457
344.957397	2574.408884
345.348697	2573.405695
345.739934	2569.158523
346.131106	2568.450241
346.522215	2567.971331
346.913260	2563.585527
347.304241	2566.501835
347.695159	2560.896072
348.086012	2560.563355
348.476802	2558.967830
348.867528	2558.375495
349.258191	2557.006821
349.648789	2555.670916
350.039324	2555.171841
350.429796	2554.319886
350.820203	2551.663198
351.210548	2551.113712
351.600828	2552.169834
351.991045	2551.612787
352.381198	2551.040616
352.771288	2549.992056
353.161314	2550.254196
353.551276	2549.838301
353.941175	2548.545245
354.331010	2546.919473
354.720782	2549.276212
355.110490	2553.712427
355.500135	2547.655481
355.889717	2550.327293
356.279235	2553.034392
356.668689	2550.997766
357.058080	2553.286450
357.447408	2547.789072
357.836672	2552.026161
358.225873	2549.296377
358.615010	2551.068342
359.004084	2556.782490
359.393095	2555.280226
359.782043	2552.704197
360.170927	2557.213509
360.559748	2557.266441
360.948505	2555.595298
361.337199	2556.137222
361.725830	2556.790052
362.114398	2557.258879
362.502903	2557.866338
362.891344	2559.976061
363.279722	2557.853735
363.668037	2560.880948
364.056289	2558.118396
364.444478	2559.033365
364.832603	2561.498489
365.220665	2563.870352
365.608665	2560.608726
365.996601	2564.578634
366.384474	2565.715415
366.772284	2563.328428
367.160031	2565.133161
367.547715	2564.407235
367.935336	2564.500497
368.322893	2565.092832
368.710388	2563.671227
369.097820	2565.831361
369.485189	2565.985116
369.872495	2568.334294
370.259738	2565.647359
370.646918	2566.093501
371.034035	2563.225085
371.421090	2569.854202
371.808081	2567.505024
372.195010	2568.084757
372.581875	2567.346228
372.968678	2570.640622
373.355418	2567.910837
373.742096	2568.009140
374.128710	2568.828327
374.515262	2569.385375
374.901751	2568.286403
375.288177	2566.378326
375.674540	2568.573749
376.060841	2570.653225
376.447079	2567.487380
376.833254	2571.326219
377.219367	2567.313460
377.605417	2572.425190
377.991404	2567.489901
378.377329	2570.585169
378.763191	2566.650549
379.148991	2573.516600
379.534727	2572.967114
379.920402	2572.014336
380.306013	2572.178174
380.691563	2574.602969
381.077049	2572.215982
381.462474	2575.107084
381.847835	2575.901066
382.233134	2573.163719
382.618371	2574.358473
383.003545	2574.318144
383.388657	2576.226220
383.773706	2577.143710
384.158693	2576.296797
384.543618	2579.364339
384.928480	2578.605645
385.313280	2578.277970
385.698017	2581.138825
386.082692	2578.673701
386.467305	2579.049267
386.851856	2580.864082
387.236344	2581.622776
387.620770	2581.789134
388.005133	2577.211766
388.389435	2581.942889
388.773674	2581.249730
389.157851	2581.703434
389.541965	2581.842066
389.926018	2578.711509
390.310008	2580.992631
390.693936	2582.104206
391.077802	2582.711665
391.461606	2583.304000
391.845348	2584.627303
392.229027	2582.484813
392.612645	2582.661253
392.996200	2587.919177
393.379694	2581.590008
393.763125	2585.330544
394.146494	2585.365832
394.529801	2582.928434
394.913047	2585.945565
395.296230	2586.744588
395.679351	2586.681573
396.062410	2584.415575
396.445408	2585.418764
396.828343	2588.009918
397.211217	2583.964392
397.594028	2582.915832
397.976778	2585.144022
398.359466	2587.440267
398.742092	2585.612849
399.124656	2590.084352
399.507158	2588.085535
399.889598	2587.813312
400.271977	2587.510843
400.654294	2591.944538
401.036549	2588.388004
401.418742	2589.857500
401.800874	2593.726586
402.182944	2591.432861
402.564952	2593.005701
402.946898	2590.843046
403.328783	2591.500917
403.710606	2591.926894
404.092367	2592.108376
404.474067	2594.820516
404.855705	2591.606781
405.237282	2591.629466
405.618797	2591.321956
406.000250	2594.891092
406.381642	2595.254056
406.762972	2596.010229
407.144240	2594.485280
407.525447	2596.113572
407.906593	2592.902357
408.287677	2595.637183
408.668700	2596.413521
409.049661	2597.441916
409.430560	2596.350507
409.811399	2596.514344
410.192176	2594.800352
410.572891	2595.206165
410.953545	2599.518872
411.334138	2597.963676
411.714669	2595.617019
412.095139	2600.166660
412.475547	2597.202462
412.855894	2598.964345
413.236180	2598.858481
413.616405	2596.698346
413.996568	2598.528285
414.376670	2602.412494
414.756711	2599.637339
415.136691	2601.008533
415.516609	2600.048193
415.896466	2601.495004
416.276262	2600.532144
416.655997	2598.747575
417.035670	2598.152719
417.415283	2603.461054
417.794834	2599.634818
418.174324	2604.260077
418.553753	2601.583224
418.933121	2603.055241
419.312428	2604.920468
419.691674	2605.341404
420.070859	2604.071034
420.449983	2605.734614
420.829045	2606.185798
421.208047	2604.799480
421.586988	2605.381734
421.965867	2607.345263
422.344686	2607.025150
422.723444	2607.022629
423.102141	2604.129007
423.480777	2608.620675
423.859352	2607.859461
424.237866	2611.663011
424.616319	2610.392641
424.994712	2610.682507
425.373044	2609.467589
425.751314	2609.971704
426.129524	2609.795264
426.507673	2609.994389
426.885762	2610.685027
427.263789	2614.687704
427.641756	2610.758124
428.019662	2611.461365
428.397508	2611.809205
428.775292	2615.237189
429.153016	2611.481530
429.530679	2615.307766
429.908282	2614.231479
430.285824	2615.995883
430.663305	2613.119905
431.040726	2613.881119
431.418086	2613.591253
431.795385	2616.643671
432.172624	2617.286418
432.549802	2615.464041
432.926920	2615.217025
433.303977	2616.560492
433.680974	2617.404886
434.057910	2615.837087
434.434786	2617.493106
434.811601	2618.070318
435.188355	2618.050153
435.565050	2618.277005
435.941683	2616.931017
436.318257	2617.256172
436.694770	2615.456480
437.071222	2619.007972
437.447614	2617.074690
437.823946	2618.254320
438.200218	2622.708179
438.576429	2624.351596
438.952580	2623.113992
439.328670	2622.597274
439.704700	2624.197840
440.080670	2621.405041
440.456580	2621.674743
440.832429	2623.746657
441.208218	2622.962758
441.583947	2621.001749
441.959616	2623.174486
442.335224	2623.179527
442.710773	2627.162039
443.086261	2625.654734
443.461689	2625.160701
443.837057	2626.453757
444.212365	2625.972327
444.587612	2627.159518
444.962800	2626.630197
445.337927	2627.232615
445.712995	2625.468211
446.088002	2631.285703
446.462949	2631.255456
446.837837	2630.713532
447.212664	2631.184880
447.587431	2639.104532
447.962139	2638.567649
448.336786	2643.470172
448.711374	2644.433032
449.085901	2641.330202
449.460369	2640.127887
449.834776	2636.994809
450.209124	2645.680717
450.583412	2644.609472
450.957640	2644.972435
451.331808	2646.116777
451.705917	2642.290542
452.079965	2644.748104
452.453954	2647.911428
452.827883	2647.611479
453.201752	2647.568630
453.575562	2650.578198
453.949311	2652.657674
454.323001	2654.966523
454.696632	2654.873262
455.070202	2660.451298
455.443713	2661.583037
455.817164	2660.917605
456.190556	2667.037566
456.563888	2666.382216
456.937160	2662.651762
457.310373	2668.005467
457.683526	2672.310613
458.056619	2671.970335
458.429653	2672.098884
458.802628	2675.819256
459.175542	2674.531241
459.548398	2683.857376
459.921194	2689.717717
460.293930	2692.553366
460.666607	2703.253215
461.039224	2708.841334
461.411782	2709.148844
461.784280	2710.537682
462.156719	2710.310830
462.529099	2711.281252
462.901419	2711.394678
463.273680	2708.924513
463.645882	2710.908207
464.018024	2716.329968
464.390106	2721.287943
464.762130	2734.372258
465.134094	2752.182654
465.505999	2772.937085
465.877845	2796.050775
466.249631	2801.941363
466.621358	2801.127217
466.993026	2798.001702
467.364634	2798.929274
467.736184	2795.055147
468.107674	2789.421658
468.479105	2789.986267
468.850477	2790.760084
469.221790	2792.297636
469.593043	2786.200360
469.964238	2791.987605
470.335373	2796.864921
470.706449	2813.145328
471.077467	2839.061900
471.448425	2868.754296
471.819324	2892.351937
472.190164	2895.769839
472.560945	2877.871223
472.931667	2868.555170
473.302330	2869.656662
473.672934	2873.848382
474.043479	2890.955537
474.413965	2894.633059
474.784393	2897.307391
475.154761	2919.906884
475.525070	2931.267124
475.895321	2942.080399
476.265513	2963.038996
476.635645	2992.282730
477.005719	3008.711850
477.375734	3033.138761
477.745691	3059.496434
478.115588	3101.007815
478.485427	3153.105620
478.855207	3235.271386
479.224928	3308.040442
479.594591	3362.442054
479.964194	3370.182745
480.333739	3407.053745
480.703226	3452.144345
481.072653	3518.662370
481.442022	3576.779312
481.811333	3629.570275
482.180584	3647.060559
482.549777	3690.056560
482.918912	3736.873756
483.287988	3782.513842
483.657005	3821.673525
484.025964	3857.785831
484.394864	3917.460489
484.763706	3971.947801
485.132489	4009.227133
485.501213	4074.167277
485.869879	4154.319103
486.238487	4221.086665
486.607036	4307.527330
486.975527	4369.823388
487.343959	4468.783759
487.712333	4559.786668
488.080648	4648.916789
488.448905	4773.897075
488.817104	4865.938462
489.185244	5042.094021
489.553326	5281.349703
489.921350	5597.664463
490.289315	5949.393329
490.657222	6141.005066
491.025070	6310.090407
491.392861	6377.737651
491.760593	6416.559576
492.128267	6423.775988
492.495883	6438.884326
492.863440	6473.207022
493.230939	6512.495255
493.598380	6574.110758
493.965763	6698.319747
494.333088	6783.966430
494.700354	6900.190232
495.067563	7035.031015
495.434713	7189.678492
495.801805	7376.236472
496.168839	7510.714292
496.535815	7649.162021
496.902733	7837.928027
497.269593	7969.204714
497.636395	8147.275912
498.003139	8389.939414
498.369825	8509.631530
498.736453	8758.321731
499.103023	8884.206905
499.469535	9067.662055
499.835989	9285.704562
500.202385	9440.480587
500.568723	9660.416047
500.935003	9912.808977
501.301226	10096.241442
501.667390	10437.404049
502.033497	10718.874353
502.399546	10839.075625
502.765537	10915.103787
503.131470	11226.359749
503.497345	11555.509287
503.863163	11486.168215
504.228923	11872.648275
504.594625	12222.844630
504.960269	12287.613374
505.325856	12731.078637
505.691385	12825.963235
506.056856	13123.963483
506.422270	13511.844983
506.787625	13651.658864
507.152924	13978.325634
507.518164	14280.782262
507.883347	14302.602896
508.248472	14648.184074
508.613540	15080.808336
508.978550	15453.062259
509.343503	15659.000956
509.708398	16014.213258
510.073236	16488.348901
510.438016	16763.595901
510.802738	16865.291098
511.167403	17397.457983
511.532010	17791.199825
511.896561	18219.745793
512.261053	18881.916474
512.625488	18993.628443
512.989866	19248.393235
513.354186	19490.600513
513.718449	19778.422671
514.082655	20390.748943
514.446803	20546.444980
514.810894	21106.484405
515.174927	21365.062829
515.538904	21625.183847
515.902822	22261.271598
516.266684	22296.242083
516.630488	22823.874450
516.994235	23033.906563
517.357925	23650.437158
517.721558	24055.413211
518.085133	24539.535380
518.448651	24908.716720
518.812112	25082.437402
519.175516	25444.455262
519.538863	25926.427379
519.902152	26214.340278
520.265385	26806.925392
520.628560	27118.713196
520.991678	27286.908773
521.354739	27722.182161
521.717743	28230.257372
522.080690	28452.262225
522.443580	29093.305431
522.806413	29418.928681
523.169189	29686.150164
523.531908	30089.339128
523.894569	30261.935633
524.257174	30660.401036
524.619722	31145.680149
524.982213	31415.495306
525.344647	31628.773922
525.707025	31944.687910
526.069345	32492.154698
526.431608	32696.170194
526.793815	33193.850545
527.155964	33130.349651
527.518057	33500.395549
527.880093	33594.801237
528.242072	34261.246817
528.603995	34260.767907
528.965860	34516.999675
529.327669	34841.823902
529.689421	34999.677553
530.051117	35205.805292
530.412755	35552.031738
530.774337	35839.435481
531.135862	35915.161173
531.497331	36278.051154
531.858743	36417.426455
532.220098	36910.050529
532.581396	36897.135093
532.942638	36829.694537
533.303824	37289.583879
533.664953	37475.171437
534.026025	37443.785213
534.387040	38031.858494
534.747999	38183.877009
535.108902	38519.174234
535.469748	38299.909247
535.830537	38574.931916
536.191270	38935.064385
536.551947	38816.662805
536.912567	39261.368191
537.273131	39540.524606
537.633638	39276.952918
537.994089	39727.798430
538.354483	39536.504286
538.714821	40214.688192
539.075103	40671.005877
539.435328	40617.557043
539.795497	40668.437409
540.155609	40814.056179
540.515665	41390.071020
540.875665	41030.654395
541.235609	41480.675678
541.595496	41604.025151
541.955328	42347.988553
542.315102	41916.049889
542.674821	41855.692154
543.034483	42022.403112
543.394090	42146.901968
543.753640	42216.953841
544.113134	43284.854228
544.472571	42477.755415
544.831953	43770.350111
545.191278	43153.968230
545.550548	43009.599666
545.909761	43567.196652
546.268918	43859.381929
546.628019	44271.065237
546.987064	43969.016943
547.346053	43389.904313
547.704986	44318.961240
548.063863	43987.885982
548.422684	44268.562304
548.781449	44210.586515
549.140158	44683.227455
549.498811	44640.654911
549.857408	44191.934245
550.215949	45105.870232
550.574434	45107.586745
550.932864	44960.818592
551.291237	45748.816473
551.649555	45462.433564
552.007817	45779.388550
552.366022	45510.062386
552.724173	45752.519200
553.082267	46208.872173
553.440305	46556.368990
553.798288	45955.536548
554.156215	46338.356730
554.514086	46614.785881
554.871902	46425.800585
555.229661	46504.024169
555.587365	46397.862510
555.945014	46576.142916
556.302606	46562.491471
556.660143	46844.644852
557.017625	46975.306518
557.375050	46835.812750
557.732421	47218.053200
558.089735	47263.325282
558.446994	47237.748988
558.804197	47744.024507
559.161345	47717.487873
559.518437	47029.322482
559.875474	47391.032832
560.232455	47606.474103
560.589381	47833.999021
560.946251	47579.955114
561.303065	48288.940470
561.659825	48126.050707
562.016528	47842.805916
562.373177	47599.038402
562.729770	48119.124162
563.086307	47685.015280
563.442789	48173.893778
563.799216	48230.604238
564.155587	48063.777333
564.511904	48117.011918
564.868164	48236.588087
565.224370	48498.959980
565.580520	48275.324313
565.936615	48525.852016
566.292654	48260.170605
566.648638	48538.802740
567.004567	48514.259882
567.360441	48587.709494
567.716260	48456.538671
568.072023	48772.213204
568.427732	48780.213515
568.783385	48337.330506
569.138982	48753.578579
569.494525	48721.307633
569.850013	48475.322010
570.205445	48488.313063
570.560823	48449.455850
570.916145	48357.003609
571.271412	48396.763189
571.626625	48146.366557
571.981782	48206.875527
572.336884	47918.196372
572.691931	48236.048684
573.046923	47863.688896
573.401860	47704.353147
573.756743	47692.216569
574.111570	47811.472625
574.466342	47661.601641
574.821059	47790.826579
575.175722	47305.098803
575.530330	47353.889611
575.884882	47064.971001
576.239380	47022.378293
576.593823	47010.498813
576.948211	46939.083308
577.302544	46454.051211
577.656823	46485.039183
578.011047	46718.454689
578.365216	46463.016903
578.719330	46226.551499
579.073389	46068.773466
579.427394	46154.657084
579.781344	46137.312994
580.135239	45781.762934
580.489080	45848.109560
580.842866	45336.180387
581.196597	45778.140865
581.550273	45722.148769
581.903895	45597.710407
582.257463	46001.847108
582.610975	45379.725873
582.964434	45665.463515
583.317837	45288.400330
583.671186	45139.600592
584.024481	45354.719230
584.377721	44863.030289
584.730906	45168.345252
585.084037	45217.403240
585.437113	44918.964412
585.790135	44947.348629
586.143103	44534.715063
586.496016	44650.686807
586.848874	44667.912430
587.201679	44681.997414
587.554428	44140.186801
587.907124	44343.988048
588.259765	44097.039565
588.612352	44332.831975
588.964884	43711.721492
589.317362	44002.182694
589.669786	43960.822547
590.022155	43696.761868
590.374470	44126.149708
590.726731	43641.893949
591.078937	43163.768233
591.431090	43248.023558
591.783188	42907.168461
592.135232	42572.738315
592.487222	42841.217566
592.839157	42904.705858
593.191038	42566.658684
593.542866	42319.183400
593.894639	41714.907850
594.246358	42007.312418
594.598022	41972.213384
594.949633	41591.021495
595.301190	41519.953828
595.652692	41374.539225
596.004141	41686.967255
596.355535	40701.875382
596.706876	40643.808852
597.058162	40472.971709
597.409395	40940.085025
597.760573	41010.656137
598.111698	40602.426020
598.462768	40614.635694
598.813785	40643.372792
599.164748	40092.969532
599.515657	40467.880144
599.866511	39952.772523
600.217312	40582.589079
600.568060	39536.884893
600.918753	40300.002159
601.269392	40240.851781
601.619978	39897.934852
601.970510	40101.698290
602.320988	40275.711359
602.671412	40590.871695
603.021783	40339.202172
603.372100	39983.488274
603.722363	40091.865520
604.072572	40159.575778
604.422728	40184.045538
604.772830	39988.373152
605.122878	40092.089851
605.472872	40017.589159
605.822813	40285.123194
606.172701	40120.337957
606.522534	40360.652281
606.872314	40622.003341
607.222041	40370.545546
607.571714	40749.065623
607.921333	40193.611128
608.270899	40494.701603
608.620411	40854.609741
608.969870	40621.257250
609.319276	40629.665894
609.668627	40673.390342
610.017926	41161.091730
610.367171	41304.099182
610.716362	41391.800136
611.065500	41324.508294
611.414585	41526.779551
611.763616	41825.732577
612.112594	41745.300967
612.461518	41963.938330
612.810389	42255.385078
613.159207	42135.554330
613.507971	42219.318143
613.856682	42679.484748
614.205340	42566.386461
614.553945	43276.914411
614.902496	42711.720406
615.250994	43185.924104
615.599439	43256.694343
615.947830	43448.149804
616.296169	43522.007749
616.644454	43627.824089
616.992686	43798.328515
617.340864	44314.298173
617.688990	44026.047516
618.037063	44644.098019
618.385082	44591.556593
618.733048	44883.260440
619.080961	44901.222071
619.428821	44904.471095
619.776628	45021.458631
620.124382	44865.266041
620.472083	44998.160939
620.819731	45110.429956
621.167326	44786.593794
621.514868	44767.969251
621.862357	44330.480277
622.209793	44363.189803
622.557176	44043.983942
622.904506	43761.152526
623.251783	43424.584930
623.599007	43208.952095
623.946179	42998.249508
624.293297	42942.897639
624.640363	42348.928728
624.987376	42338.853983
625.334336	42088.101949
625.681243	41739.135636
626.028097	41687.055475
626.374899	41546.099773
626.721647	41540.040306
627.068343	41430.087699
627.414987	41178.191324
627.761577	40955.309309
628.108115	41291.587038
628.454600	40721.493032
628.801032	40918.355131
629.147412	40888.292210
629.493739	40874.141691
629.840014	40525.248475
630.186236	40866.315300
630.532405	40447.844078
630.878521	40659.882571
631.224585	40539.230115
631.570597	40236.392880
631.916556	40409.077605
632.262462	40352.800684
632.608316	40364.642354
632.954117	40265.997056
633.299866	40249.646073
633.645562	40175.780567
633.991206	39686.894508
634.336797	39244.540820
634.682336	39237.110159
635.027823	39010.706898
635.373257	38818.051642
635.718639	38572.444107
636.063968	38439.675238
636.409245	37868.116776
636.754470	37897.052999
637.099642	37676.830194
637.444762	37177.176230
637.789829	37331.007040
638.134845	36995.654362
638.479808	36920.871366
638.824719	36830.130597
639.169577	36449.342000
639.514383	36518.736003
639.859137	36194.599893
640.203839	36456.341642
640.548489	36087.016629
640.893086	36146.940824
641.237632	35891.876084
641.582125	36008.891347
641.926566	35929.241116
642.270955	35900.045274
642.615292	35916.474394
642.959576	35897.136528
643.303809	35883.265793
643.647990	36041.200102
643.992118	36004.198033
644.336195	36010.164238
644.680219	36075.880720
645.024192	36388.167598
645.368112	36897.298930
645.711981	36885.064050
646.055797	37773.726212
646.399562	37679.239865
646.743274	38642.372472
647.086935	39076.955222
647.430544	38959.395514
647.774101	39066.318387
648.117606	39326.232718
648.461059	39616.381368
648.804460	39220.623065
649.147810	38618.663926
649.491108	38367.553970
649.834354	37999.464040
650.177548	37155.408528
650.520690	36717.523823
650.863781	36745.734119
651.206820	36586.292506
651.549807	36144.717676
651.892742	35650.190566
652.235626	35469.293801
652.578458	35338.579202
652.921238	34731.142849
653.263967	35043.467536
653.606644	34726.575564
653.949269	34670.991801
654.291843	34252.505456
654.634365	34655.971683
654.976836	34252.250878
655.319255	34262.807054
655.661622	34255.494860
656.003938	34042.334711
656.346203	33899.753236
656.688416	34115.355824
657.030577	33923.706279
657.372687	33764.851959
657.714746	34023.795868
658.056753	34127.809995
658.398708	33589.112295
658.740612	33646.858712
659.082465	33922.781227
659.424266	33742.741458
659.766016	33870.580079
660.107715	33733.589244
660.449362	33864.782752
660.790958	33819.326668
661.132503	33846.753065
661.473996	33881.922675
661.815438	34011.797922
662.156829	34194.723751
662.498168	33967.952486
662.839456	33975.478929
663.180693	34129.108092
663.521879	34300.285512
663.863013	34255.663739
664.204097	34240.293261
664.545129	34701.291657
664.886110	34661.763969
665.227040	34724.130604
665.567918	34856.092888
665.908746	34905.806227
666.249522	35063.276750
666.590248	35058.780040
666.930922	35181.895100
667.271545	35145.941590
667.612118	35197.404209
667.952639	34984.276828
668.293109	35057.832303
668.633528	34945.827947
668.973896	34863.657140
669.314213	34913.125982
669.654480	34647.920961
669.994695	34667.715051
670.334859	34544.015218
670.674973	34453.448369
671.015035	34606.775063
671.355047	34552.247423
671.695008	34498.201212
672.034918	34397.594905
672.374777	34481.497349
672.714585	34311.562573
673.054342	34536.216553
673.394049	34282.482677
673.733705	34578.300106
674.073310	34220.211824
674.412864	34292.413750
674.752368	33899.959923
675.091820	34216.683017
675.431223	33783.882315
675.770574	33490.386338
676.109875	33368.740775
676.449125	33074.859150
676.788324	33003.829292
677.127473	32462.968937
677.466571	32389.269789
677.805619	32032.608154
678.144616	32042.067879
678.483562	31956.078398
678.822458	31620.380401
679.161303	31558.371688
679.500098	31467.262915
679.838842	31355.465246
680.177535	31513.104647
680.516179	31789.783335
680.854771	32033.240819
681.193314	32892.535739
681.531805	34004.775594
681.870247	34761.180564
682.208638	35455.561698
682.546978	35676.230646
682.885268	35761.138800
683.223508	35238.154377
683.561697	34920.168474
683.899836	34736.277264
684.237925	34206.068867
684.575963	34050.687903
684.913951	33600.044037
685.251889	33746.812190
685.589776	33730.133533
685.927614	33728.656475
686.265401	33859.834859
686.603137	33943.069351
686.940824	34452.006599
687.278460	34829.752859
687.616046	34931.483344
687.953582	35533.805447
688.291068	35387.430504
688.628504	35671.340727
688.965889	35603.385973
689.303224	35225.339763
689.640510	34897.082510
689.977745	34169.500337
690.314930	33358.202243
690.652065	32858.167672
690.989150	32127.414614
691.326185	31212.314121
691.663170	30527.337260
692.000105	29786.572469
692.336990	29096.020092
692.673825	28630.398958
693.010610	28119.800650
693.347345	27529.894909
693.684030	26873.549281
694.020665	26580.252430
694.357251	25889.450515
694.693786	25852.191347
695.030272	25616.950944
695.366707	25069.131276
695.703093	24776.893067
696.039429	24760.153916
696.375716	24495.241281
696.711952	24461.823473
697.048139	24277.907057
697.384276	24110.780204
697.720363	24240.569751
698.056400	24039.362177
698.392388	23798.979797
698.728326	23781.784422
699.064214	23571.233069
699.400053	23516.440768
699.735842	23142.004025
700.071581	22872.009907
700.407270	22574.135688
700.742910	22387.330692
701.078501	22114.904217
701.414042	21828.836380
701.749533	21530.276564
702.084974	21175.149961
702.420366	21391.100389
702.755709	20944.595311
703.091002	20643.978704
703.426246	20670.492652
703.761440	20552.975795
704.096584	20278.875657
704.431679	20240.172198
704.766725	20141.484050
705.101721	20069.375386
705.436668	20164.517082
705.771565	19847.068063
706.106413	20189.155722
706.441212	20180.885709
706.775961	20303.995727
707.110661	20368.734224
707.445311	20730.217723
707.779913	20551.808767
708.114465	20789.655447
708.448967	21084.414233
708.783421	21776.761261
709.117825	22046.904093
709.452180	22254.796236
709.786485	22645.732676
710.120742	23434.126288
710.454949	23434.272481
710.789107	23902.898143
711.123216	24600.601397
711.457275	24719.708739
711.791286	25239.527317
712.125247	25323.931356
712.459159	25012.259499
712.793023	25690.846698
713.126837	24590.589665
713.460602	24865.831624
713.794318	24498.424770
714.127985	24116.297747
714.461602	23216.950859
714.795171	23180.397453
715.128691	22154.172285
715.462162	21627.396914
715.795584	21212.121783
716.128957	20941.071544
716.462281	20545.424146
716.795556	20314.511574
717.128782	19798.589807
717.461960	19250.117309
717.795088	19162.779319
718.128167	18762.204193
718.461198	18301.825859
718.794180	18158.243716
719.127113	17787.098846
719.459997	17586.902024
719.792833	17223.644039
720.125619	17200.517746
720.458357	16878.544291
720.791046	16707.878548
721.123686	16541.737241
721.456278	16302.123637
721.788821	16264.073008
722.121315	15990.734084
722.453761	16069.376084
722.786158	15988.026985
723.118506	16002.832854
723.450805	15857.360277
723.783056	16015.760893
724.115259	15915.797332
724.447412	15834.012173
724.779518	16087.231851
725.111574	16100.260713
725.443582	16300.500385
725.775542	16280.653363
726.107453	16746.324908
726.439315	16625.059952
726.771129	17033.970626
727.102895	17394.118218
727.434612	17583.854646
727.766281	17710.707721
728.097901	17977.485583
728.429473	18008.032454
728.760996	17998.759252
729.092471	18096.817256
729.423897	17969.384448
729.755276	17845.430037
730.086606	17961.477399
730.417887	18488.945928
730.749120	18991.841354
731.080305	19156.004008
731.411442	19494.136882
731.742530	19566.968952
732.073570	19659.736265
732.404562	19963.596854
732.735506	19764.221740
733.066401	19474.700713
733.397249	18938.798333
733.728048	18315.177355
734.058798	17483.021487
734.389501	16790.717309
734.720156	16337.368864
735.050762	15805.204499
735.381320	15456.202898
735.711831	15218.260437
736.042293	14861.054357
736.372707	14866.133320
736.703073	14651.969981
737.033391	14840.468806
737.363661	14807.219875
737.693883	14901.383588
738.024056	15065.642024
738.354182	15241.827831
738.684260	15513.762793
739.014290	15726.466718
739.344272	15899.426185
739.674207	16178.481777
740.004093	16293.183151
740.333931	16282.311902
740.663722	16340.423803
740.993464	16326.558110
741.323159	16148.081099
741.652806	15886.399844
741.982405	15675.561146
742.311956	15343.472616
742.641460	15229.245111
742.970915	14930.604636
743.300323	14592.544859
743.629683	14392.189241
743.958996	14099.318367
744.288260	13841.932175
744.617477	13542.714489
744.946647	13472.763438
745.275768	13197.035008
745.604842	13013.879806
745.933869	12837.278105
746.262847	12786.876648
746.591778	12714.601626
746.920662	12606.516767
747.249498	12602.914862
747.578286	12720.751833
747.907027	12864.152496
748.235720	13083.006628
748.564365	13095.238988
748.892963	12997.554029
749.221514	13053.097462
749.550017	12903.266808
749.878473	12865.594266
750.206881	12642.598825
750.535242	12552.127758
750.863555	12464.961167
751.191821	12356.820855
751.520039	12383.982592
751.848210	12291.033797
752.176334	12315.861480
752.504411	12228.767986
752.832440	12054.490256
753.160421	12115.866304
753.488356	12003.748522
753.816243	11917.060840
754.144082	11771.237904
754.471875	11713.645242
754.799620	11660.148517
755.127318	11624.918413
755.454969	11583.888462
755.782572	11536.423478
756.110129	11547.183821
756.437638	11462.903290
756.765100	11454.051024
757.092515	11452.117742
757.419882	11476.164046
757.747203	11469.277829
758.074477	11539.682584
758.401703	11491.169040
758.728882	11656.823876
759.056014	11699.340968
759.383099	11808.696197
759.710138	11913.378277
760.037129	11993.552788
760.364073	12002.586536
760.690970	11987.982313
761.017820	11994.243426
761.344623	12185.366172
761.671379	12523.809076
761.998088	13195.179863
762.324751	14806.866995
762.651366	17699.997790
762.977935	21284.361518
763.304456	23381.421024
763.630931	23769.501650
763.957359	22587.368717
764.283740	20701.044565
764.610074	18848.730558
764.936362	16739.128661
765.262602	15248.083903
765.588796	13792.599444
765.914943	12789.578707
766.241044	11932.385948
766.567097	11305.377315
766.893104	10753.426422
767.219064	10400.500282
767.544978	10024.820894
767.870845	9710.245333
768.196665	9523.768011
768.522438	9329.348351
768.848165	9158.695211
769.173846	8997.534564
769.499479	8873.807004
769.825066	8722.332934
770.150607	8538.635808
770.476101	8471.648956
770.801548	8359.790793
771.126949	8226.391780
771.452303	8132.389385
771.777611	7977.237793
772.102872	7954.872714
772.428087	7833.655649
772.753256	7709.970939
773.078378	7624.803166
773.403453	7474.498643
773.728482	7373.431070
774.053465	7301.461037
774.378401	7220.560600
774.703291	7120.360106
775.028135	7026.163626
775.352932	6991.828327
775.677683	6905.256592
776.002388	6818.606719
776.327046	6817.946328
776.651658	6731.460293
776.976224	6653.183776
777.300743	6641.964688
777.625216	6576.608649
777.949643	6530.303131
778.274024	6535.770262
778.598359	6463.303675
778.922647	6465.703265
779.246889	6432.298059
779.571086	6435.395848
779.895236	6438.133194
780.219339	6435.511794
780.543397	6431.952740
780.867409	6487.861656
781.191374	6477.754143
781.515294	6448.674247
781.839167	6500.714078
782.162995	6467.528162
782.486776	6421.925885
782.810511	6378.927363
783.134201	6306.551517
783.457844	6291.266739
783.781441	6250.771150
784.104993	6202.184509
784.428498	6177.707187
784.751958	6160.342932
785.075372	6135.374097
785.398739	6096.668118
785.722061	6122.314988
786.045337	6116.792404
786.368568	6233.691721
786.691752	6255.371203
787.014891	6512.081880
787.337983	6785.521626
787.661030	7211.577264
787.984031	7633.867160
788.306987	7877.914459
788.629897	7958.615770
788.952760	7871.834827
789.275579	7697.693209
789.598351	7400.585245
789.921078	7141.669063
790.243759	6862.610951
790.566395	6662.991341
790.888984	6476.778680
791.211529	6340.591908
791.534027	6178.289440
791.856480	6039.851793
792.178888	5983.360623
792.501249	5918.256642
792.823566	5809.997863
793.145836	5806.642975
793.468062	5789.487929
793.790241	5748.216002
794.112375	5785.639008
794.434464	5888.561725
794.756507	5913.061733
795.078505	6035.987749
795.400457	6245.001549
795.722364	6478.149873
796.044226	6669.340674
796.366042	6820.761812
796.687812	6765.173009
797.009538	6789.678058
797.331218	6706.519184
797.652852	6638.143494
797.974442	6518.779053
798.295986	6447.396314
798.617484	6323.482232
798.938938	6216.317384
799.260346	6154.346480
799.581709	6013.426065
799.903026	5962.245751
800.224299	5888.309668
800.545526	5776.469149
800.866708	5710.631680
801.187845	5663.638044
801.508936	5581.878090
801.829983	5557.443617
802.150984	5452.668276
802.471940	5423.495118
802.792851	5410.262090
803.113717	5385.255446
803.434538	5355.676476
803.755314	5323.589532
804.076045	5312.302388
804.396731	5278.113283
804.717372	5294.207166
805.037967	5292.956960
805.358518	5314.749868
805.679024	5370.898240
805.999485	5383.591865
806.319901	5400.147014
806.640272	5413.528757
806.960598	5458.372341
807.280879	5452.547288
807.601115	5485.851671
807.921306	5445.454385
808.241453	5444.942707
808.561554	5457.903514
808.881611	5425.710706
809.201623	5425.625006
809.521590	5376.551894
809.841513	5360.657136
810.161390	5374.608529
810.481223	5289.355056
810.801011	5280.507831
811.120755	5257.104274
811.440453	5205.192992
811.760107	5178.749620
812.079716	5148.457326
812.399281	5099.326241
812.718801	5096.278863
813.038276	5056.499118
813.357707	5023.282956
813.677093	5047.649373
813.996434	4986.921113
814.315731	5012.431872
814.634983	5007.254607
814.954191	5018.098129
815.273354	5073.369340
815.592473	5117.078664
815.911547	5189.512483
816.230577	5242.023662
816.549562	5326.919214
816.868502	5382.341659
817.187399	5435.543476
817.506250	5520.673441
817.825058	5548.798038
818.143821	5700.103230
818.462539	5872.601432
818.781213	6106.826043
819.099843	6466.988759
819.418429	7100.316478
819.736970	7713.487144
820.055466	8417.428826
820.373919	9353.288791
820.692327	10861.092865
821.010691	13677.623327
821.329011	20054.902233
821.647286	29488.930143
821.965517	39408.290099
822.283704	44335.380278
822.601847	45500.887486
822.919945	40952.181273
823.237999	36018.406525
823.556010	31003.910300
823.873976	26475.111605
824.191897	22395.114233
824.509775	19408.676721
824.827609	16727.050056
825.145398	15228.922477
825.463144	14530.445406
825.780845	14879.210073
826.098502	16181.710636
826.416116	18572.480368
826.733685	20673.393837
827.051210	21015.816732
827.368692	19528.215082
827.686129	17030.056170
828.003522	14656.290250
828.320872	12512.723579
828.638177	10920.195353
828.955439	9714.820180
829.272656	8681.736522
829.589830	7858.203547
829.906960	7140.479351
830.224046	6620.040710
830.541088	6218.762343
830.858086	5972.693542
831.175041	5773.681391
831.491952	5722.470830
831.808819	5763.079844
832.125642	6018.774729
832.442421	6594.376196
832.759157	7724.655820
833.075849	9476.144230
833.392497	11241.931873
833.709101	12260.300403
834.025662	11933.951226
834.342179	10884.221679
834.658653	9620.326272
834.975083	8552.937562
835.291469	7688.470418
835.607811	6969.498536
835.924110	6461.534230
836.240366	5979.728472
836.556578	5536.361512
836.872746	5191.712947
837.188871	4925.817287
837.504952	4706.237229
837.820990	4544.900141
838.136984	4430.634827
838.452935	4391.742325
838.768842	4430.148356
839.084706	4731.478286
839.400526	5485.791177
839.716303	6356.544640
840.032037	6872.322734
840.347727	6680.758888
840.663373	6093.426656
840.978977	5538.627511
841.294537	5115.546153
841.610054	4792.239313
841.925527	4555.819280
842.240957	4357.354094
842.556344	4170.715456
842.871687	4016.746014
843.186987	3867.570710
843.502244	3751.462855
843.817458	3665.589320
844.132629	3594.748505
844.447756	3548.430384
844.762840	3505.212572
845.077881	3464.507775
845.392879	3429.388577
845.707833	3405.858991
846.022745	3379.309754
846.337613	3364.297198
846.652438	3340.248374
846.967221	3333.495748
847.281960	3313.759631
847.596656	3304.320070
847.911309	3292.813637
848.225919	3280.742594
848.540485	3272.086933
848.855009	3264.353803
849.169490	3247.357553
849.483928	3244.410998
849.798323	3237.028228
850.112675	3229.166549
850.426984	3229.050602
850.741251	3223.767473
851.055474	3219.931155
851.369654	3219.931155
851.683792	3215.714230
851.997887	3217.922255
852.311938	3218.827142
852.625947	3219.404354
852.939914	3214.262377
853.253837	3218.862430
853.567718	3215.505022
853.881555	3208.926316
854.195350	3215.464693
854.509103	3211.754403
854.822812	3208.633929
855.136479	3206.993034
855.450103	3209.692572
855.763685	3201.220912
856.077224	3204.255687
856.390720	3208.205431
856.704173	3222.151783
857.017584	3226.668657
857.330953	3230.452043
857.644278	3238.545616
857.957561	3244.713467
858.270802	3240.408322
858.584000	3240.965369
858.897155	3234.164853
859.210268	3223.757391
859.523339	3214.310268
859.836367	3209.163250
860.149352	3205.659648
860.462295	3198.886858
860.775195	3190.599201
861.088054	3187.148532
861.400869	3191.539377
861.713642	3183.307172
862.026373	3197.329142
862.339062	3196.918288
862.651708	3207.603013
862.964312	3223.424675
863.276873	3230.643607
863.589392	3260.688884
863.901869	3288.153090
864.214303	3310.011533
864.526696	3324.091476
864.839045	3343.774661
865.151353	3354.267823
865.463619	3356.561548
865.775842	3356.306969
866.088023	3363.664533
866.400162	3352.737833
866.712258	3352.682380
867.024313	3352.947040
867.336325	3355.712113
867.648296	3354.018286
867.960224	3352.846217
868.272110	3354.376208
868.583954	3354.930734
868.895755	3364.655120
869.207515	3361.053216
869.519233	3378.281359
869.830909	3385.318810
870.142542	3395.111251
870.454134	3400.583424
870.765684	3416.117739
871.077191	3434.275975
871.388657	3447.700568
871.700081	3464.217909
872.011463	3486.769510
872.322803	3499.911798
872.634101	3521.866023
872.945357	3539.605844
873.256571	3568.267324
873.567744	3581.311310
873.878874	3587.663163
874.189963	3604.021708
874.501010	3604.616564
874.812015	3603.608333
875.122979	3616.307000
875.433900	3615.465127
875.744780	3619.288842
876.055618	3627.344606
876.366415	3627.669760
876.677169	3631.788383
876.987882	3650.768327
877.298554	3670.635515
877.609183	3708.033314
877.919771	3757.479472
878.230317	3824.468845
878.540822	3930.428858
878.851285	4086.339143
879.161707	4312.006395
879.472087	4696.396896
879.782425	5343.159291
880.092722	6546.545728
880.402977	8468.412535
880.713191	10769.850501
881.023363	13026.994368
881.333494	14217.152818
881.643583	14605.674545
881.953631	14182.005893
882.263637	13372.966236
882.573602	12394.692523
882.883526	11485.616209
883.193408	10569.918339
883.503248	9691.086427
883.813048	8889.361484
884.122806	8143.575705
884.432522	7397.563074
884.742197	6755.327635
885.051831	6212.085335
885.361424	5730.027519
885.670975	5346.557028
885.980485	5032.173031
886.289954	4766.032875
886.599382	4553.659146
886.908768	4379.938464
887.218113	4218.122466
887.527417	4087.433073
887.836680	3968.456802
888.145901	3869.282182
888.455082	3791.653454
888.764221	3723.146694
889.073319	3668.608971
889.382376	3631.478352
889.691392	3610.865074
890.000366	3605.352572
890.309300	3599.676233
890.618193	3600.407200
890.927044	3594.972837
891.235855	3603.134465
891.544625	3619.994604
891.853353	3652.817556
892.162041	3712.817369
892.470687	3804.135351
892.779293	3925.894340
893.087858	4099.768777
893.396381	4384.518352
893.704864	4800.837001
894.013306	5361.219224
894.321707	5893.507097
894.630068	6216.859308
894.938387	6225.061265
895.246665	6044.555190
895.554903	5740.571093
895.863100	5420.283903
896.171256	5159.981404
896.479371	4928.610087
896.787446	4713.559505
897.095480	4524.307028
897.403473	4380.785377
897.711425	4239.559973
898.019336	4120.271150
898.327207	3999.664064
898.635038	3900.247469
898.942827	3795.643527
899.250576	3714.773337
899.558284	3630.540697
899.865952	3577.885846
900.173579	3515.141124
900.481165	3470.965493
900.788711	3430.573248
901.096216	3397.515882
901.403681	3372.574773
901.711105	3365.988505
902.018489	3361.118751
902.325832	3397.410017
902.633135	3455.481589
902.940397	3636.887510
903.247619	4055.343609
903.554800	4809.714473
903.861941	5738.869703
904.169041	6387.330966
904.476101	6548.257200
904.783121	6273.693276
905.090100	5884.372527
905.397039	5490.706302
905.703938	5146.874404
906.010796	4838.469215
906.317614	4591.195577
906.624391	4361.389538
906.931129	4170.090353
907.237826	3997.052747
907.544483	3826.981860
907.851099	3656.041374
908.157675	3503.059999
908.464211	3363.722507
908.770707	3266.108124
909.077163	3191.138605
909.383578	3129.253400
909.689954	3089.418203
909.996289	3059.756053
910.302584	3041.340718
910.608839	3028.642052
910.915054	3016.359280
911.221229	3011.827283
911.527363	3016.487830
911.833458	3024.099972
912.139513	3034.484749
912.445527	3051.697769
912.751502	3083.305803
913.057436	3130.019656
913.363331	3186.470496
913.669186	3273.652211
913.975000	3396.086714
914.280775	3585.203080
914.586510	3859.207436
914.892205	4232.945979
915.197859	4716.380030
915.503475	5273.495586
915.809050	5738.027830
916.114585	5995.529969
916.420081	6038.276433
916.725536	5974.599098
917.030952	5742.116206
917.336328	5549.362648
917.641665	5349.291854
917.946961	5131.211539
918.252218	4938.999905
918.557435	4724.032502
918.862612	4528.783572
919.167750	4360.414075
919.472848	4176.169984
919.777906	4010.686547
920.082925	3862.453939
920.387904	3709.490208
920.692843	3604.379630
920.997743	3505.953621
921.302603	3415.008685
921.607423	3353.509129
921.912204	3289.415899
922.216946	3242.008888
922.521647	3193.046682
922.826310	3155.169972
923.130932	3115.682614
923.435516	3078.899835
923.740059	3049.383879
924.044564	3019.270547
924.349028	2996.721466
924.653454	2967.306333
924.957840	2940.368927
925.262186	2922.019127
925.566493	2903.316447
925.870761	2875.224617
926.174989	2863.088039
926.479178	2850.321317
926.783328	2830.733913
927.087438	2825.254179
927.391509	2813.079793
927.695541	2799.756023
927.999533	2792.695887
928.303486	2781.101233
928.607400	2776.163423
928.911275	2769.940119
929.215110	2764.510796
929.518906	2758.398397
929.822663	2758.766401
930.126381	2757.304467
930.430060	2761.949890
930.733699	2765.229160
931.037299	2764.757812
931.340861	2765.075405
931.644383	2768.377361
931.947866	2768.120262
932.251309	2764.808224
932.554714	2766.915426
932.858080	2765.375354
933.161407	2759.388984
933.464694	2754.226842
933.767943	2754.441091
934.071153	2749.528487
934.374323	2744.600759
934.677455	2745.258629
934.980548	2738.342166
935.283602	2737.482650
935.586617	2735.617423
935.889593	2741.702095
936.192530	2739.015160
936.495428	2745.203177
936.798287	2756.606267
937.101108	2768.468102
937.403890	2789.683798
937.706632	2812.336222
938.009336	2843.820749
938.312002	2874.281921
938.614628	2895.139695
938.917216	2913.323137
939.219765	2923.173552
939.522275	2933.061775
939.824747	2933.386929
940.127179	2929.101948
940.429573	2922.598860
940.731929	2919.664908
941.034246	2912.095616
941.336524	2910.442118
941.638763	2907.172929
941.940964	2898.179511
942.243126	2882.811553
942.545250	2871.242105
942.847335	2858.203161
943.149381	2843.666994
943.451389	2832.425221
943.753359	2821.803509
944.055290	2814.997952
944.357182	2802.891621
944.659036	2797.958852
944.960851	2797.248049
945.262628	2788.577264
945.564367	2791.609518
945.866067	2789.474590
946.167729	2789.081380
946.469352	2786.961575
946.770937	2785.665998
947.072484	2778.898249
947.373992	2776.687703
947.675462	2772.959770
947.976893	2768.488266
948.278286	2767.623708
948.579641	2764.909047
948.880958	2763.192534
949.182236	2759.993922
949.483476	2759.593150
949.784678	2757.294384
950.085841	2757.430495
950.386967	2762.171701
950.688054	2764.720004
950.989103	2775.535799
951.290114	2784.299845
951.591087	2790.505506
951.892021	2804.643422
952.192917	2820.694456
952.493776	2823.464570
952.794596	2832.089984
953.095378	2832.518482
953.396122	2829.501351
953.696828	2827.220229
953.997496	2821.513643
954.298126	2812.210194
954.598718	2803.708288
954.899272	2795.970117
955.199788	2783.851183
955.500266	2770.706374
955.800706	2758.123654
956.101108	2742.889287
956.401472	2730.127606
956.701798	2718.540514
957.002087	2705.806559
957.302337	2698.196938
957.602550	2686.367870
957.902724	2676.819925
958.202861	2669.618637
958.502960	2662.369457
958.803022	2654.381749
959.103045	2643.853299
959.403031	2642.484626
959.702979	2635.986579
960.002889	2631.842750
960.302762	2626.350413
960.602596	2622.745988
960.902393	2622.216667
961.202153	2617.452777
961.501875	2613.303907
961.801559	2612.283073
962.101205	2611.269801
962.400814	2607.902311
962.700385	2603.143461
962.999918	2602.120107
963.299414	2602.450303
963.598873	2601.467278
963.898293	2599.607092
964.197677	2599.954932
964.497022	2595.564087
964.796331	2596.103490
965.095601	2596.897472
965.394835	2594.520568
965.694030	2593.018304
965.993189	2594.402101
966.292309	2593.098962
966.591393	2592.420927
966.890439	2591.170721
967.189447	2594.099631
967.488419	2593.061154
967.787353	2593.603078
968.086249	2591.949579
968.385108	2593.882862
968.683930	2594.916298
968.982714	2596.040476
969.281462	2599.360075
969.580172	2599.823862
969.878844	2600.380909
970.177480	2602.367124
970.476078	2605.774944
970.774639	2609.926334
971.073162	2608.701333
971.371649	2608.378700
971.670098	2611.617641
971.968510	2612.598145
972.266885	2613.223248
972.565223	2616.636110
972.863524	2615.522015
973.161788	2620.656430
973.460014	2621.021913
973.758204	2624.896040
974.056356	2622.262037
974.354471	2624.497789
974.652550	2620.757253
974.950591	2621.324383
975.248595	2621.720113
975.546563	2620.061574
975.844493	2617.127622
976.142386	2617.883795
976.440243	2613.863475
976.738062	2613.563526
977.035845	2610.972373
977.333590	2609.152517
977.631299	2608.114039
977.928971	2602.518358
978.226606	2602.951897
978.524204	2601.215220
978.821765	2600.907710
979.119290	2602.407453
979.416777	2601.850405
979.714228	2601.636156
980.011642	2599.657503
980.309020	2606.823504
980.606360	2611.471447
980.903664	2617.767849
981.200931	2631.295785
981.498162	2648.692807
981.795356	2677.518125
982.092513	2714.661346
982.389633	2753.591657
982.686717	2794.966927
982.983764	2822.962975
983.280775	2839.066941
983.577749	2841.587518
983.874686	2830.262566
984.171587	2816.961481
984.468451	2801.217958
984.765279	2782.419495
985.062070	2763.663882
985.358824	2746.997827
985.655543	2728.020404
985.952224	2706.025850
986.248869	2682.062725
986.545478	2656.907367
986.842050	2636.984727
987.138586	2622.287243
987.435086	2606.198401
987.731549	2595.082656
988.027975	2592.733479
988.324366	2585.196954
988.620719	2581.640420
988.917037	2579.263516
989.213318	2575.454924
989.509563	2574.237485
989.805772	2572.468040
990.101944	2570.706157
990.398080	2572.788153
990.694180	2571.048955
990.990244	2572.904100
991.286271	2569.241702
991.582262	2570.985941
991.878217	2570.441496
992.174136	2574.673545
992.470019	2574.061045
992.765865	2574.043401
993.061676	2576.087589
993.357450	2580.070100
993.653188	2583.619072
993.948890	2587.795668
994.244556	2595.594333
994.540186	2603.546754
994.835780	2610.939606
995.131337	2627.265383
995.426859	2642.441776
995.722345	2659.347286
996.017795	2678.070131
996.313208	2689.153108
996.608586	2698.781712
996.903928	2703.291024
997.199234	2698.930426
997.494504	2696.800538
997.789738	2688.732171
998.084936	2681.467869
998.380099	2669.696774
998.675225	2658.560866
998.970316	2648.223980
999.265371	2633.092956
999.560390	2623.691204
999.855373	2613.147631
1000.150320	2601.091712
1000.445232	2594.760022
1000.740108	2588.922366
1001.034948	2583.712334
1001.329752	2578.625810
1001.624521	2575.457444
1001.919254	2566.665672
1002.213951	2564.528223
1002.508613	2560.528067
1002.803239	2561.364899
1003.097829	2557.823488
1003.392384	2561.092677
1003.686903	2557.127809
1003.981386	2558.541853
1004.275834	2554.579506
1004.570246	2558.188972
1004.864623	2553.624207
1005.158964	2552.260575
1005.453270	2553.523384
1005.747540	2552.633620
1006.041775	2551.877447
1006.335974	2550.097920
1006.630138	2550.566747
1006.924266	2551.474155
1007.218359	2552.192519
1007.512416	2550.448280
1007.806438	2550.589432
1008.100425	2550.365101
1008.394376	2549.046839
1008.688292	2552.106820
1008.982172	2546.848896
1009.276017	2550.841490
1009.569827	2549.911397
1009.863602	2550.768393
1010.157341	2549.762683
1010.451045	2545.422250
1010.744714	2547.804195
1011.038347	2544.953422
1011.331945	2545.850748
1011.625508	2549.296377
1011.919036	2546.460728
1012.212528	2545.659184
1012.505986	2544.119112
1012.799408	2546.808567
1013.092795	2544.245140
1013.386147	2544.285470
1013.679464	2544.847558
1013.972745	2546.758156
1014.265992	2544.499719
1014.559204	2545.749925
1014.852380	2543.786395
1015.145521	2545.016437
1015.438628	2542.226158
1015.731699	2542.616848
1016.024736	2544.373690
1016.317737	2545.507949
1016.610703	2544.265305
1016.903635	2543.783875
1017.196531	2540.746580
1017.489393	2544.799667
1017.782219	2543.675490
1018.075011	2543.473844
1018.367768	2546.785882
1018.660490	2547.884853
1018.953177	2547.884853
1019.245829	2547.884853
