Dividing Wavelength (nm)	Counts (n)	Blue Motor Position (mm): 21.200000	Red Motor Position (mm): 0.000000	
326.493990	2059.878476
326.888308	2059.878476
327.282561	2059.878476
327.676750	2035.554909
328.070874	2037.299148
328.464933	2042.292411
328.858929	2053.813968
329.252859	2062.676316
329.646726	2074.727195
330.040528	2091.710842
330.434265	2107.540065
330.827938	2129.547222
331.221547	2151.080511
331.615091	2171.386278
332.008571	2192.327232
332.401986	2212.023020
332.795338	2233.836092
333.188625	2252.836201
333.581847	2268.257091
333.975006	2290.624690
334.368100	2307.575570
334.761129	2323.389670
335.154095	2337.081444
335.546996	2386.552807
335.939833	2484.078969
336.332606	2491.454177
336.725315	2507.333812
337.117960	2514.494771
337.510540	2527.175793
337.903056	2536.385982
338.295508	2540.701209
338.687896	2545.397044
339.080220	2555.161759
339.472480	2556.507747
339.864676	2562.605023
340.256807	2565.705332
340.648875	2565.228943
341.040879	2566.022925
341.432818	2567.696588
341.824694	2570.801939
342.216506	2568.866136
342.608253	2567.721794
342.999937	2566.474108
343.391557	2567.653738
343.783113	2564.175342
344.174605	2559.300546
344.566033	2561.594271
344.957397	2561.780794
345.348697	2558.183931
345.739934	2557.813406
346.131106	2554.786193
346.522215	2553.636810
346.913260	2554.269475
347.304241	2545.911242
347.695159	2550.060111
348.086012	2551.471634
348.476802	2544.272867
348.867528	2542.987372
349.258191	2537.358924
349.648789	2539.445962
350.039324	2532.574869
350.429796	2540.068544
350.820203	2539.198945
351.210548	2538.891435
351.600828	2537.426980
351.991045	2539.902186
352.381198	2535.536547
352.771288	2535.171063
353.161314	2534.752648
353.551276	2535.922195
353.941175	2530.923891
354.331010	2534.399767
354.720782	2538.757844
355.110490	2535.614685
355.500135	2536.486805
355.889717	2536.459078
356.279235	2534.911444
356.668689	2535.423121
357.058080	2536.673327
357.447408	2535.488656
357.836672	2536.806918
358.225873	2536.882535
358.615010	2536.791794
359.004084	2538.657021
359.393095	2539.461085
359.782043	2538.518390
360.170927	2539.254398
360.559748	2540.129038
360.948505	2542.916796
361.337199	2542.468134
361.725830	2544.172044
362.114398	2543.572146
362.502903	2543.390665
362.891344	2545.928886
363.279722	2543.017619
363.668037	2544.383772
364.056289	2545.334030
364.444478	2543.907383
364.832603	2544.807229
365.220665	2543.791437
365.608665	2545.840666
365.996601	2546.304452
366.384474	2546.233876
366.772284	2547.186654
367.160031	2547.721016
367.547715	2547.325285
367.935336	2545.281098
368.322893	2546.732950
368.710388	2544.237579
369.097820	2548.325954
369.485189	2544.988711
369.872495	2549.046839
370.259738	2549.639175
370.646918	2550.591953
371.034035	2549.654298
371.421090	2552.807540
371.808081	2551.509443
372.195010	2552.346275
372.581875	2551.025492
372.968678	2551.350647
373.355418	2550.712941
373.742096	2551.615307
374.128710	2553.619166
374.515262	2555.587737
374.901751	2552.590771
375.288177	2554.876934
375.674540	2556.918601
376.060841	2554.874413
376.447079	2553.656975
376.833254	2553.304094
377.219367	2554.284598
377.605417	2553.273847
377.991404	2555.370967
378.377329	2558.183931
378.763191	2555.716286
379.148991	2558.297357
379.534727	2557.455484
379.920402	2554.365257
380.306013	2556.822819
380.691563	2557.503375
381.077049	2557.914229
381.462474	2558.564538
381.847835	2559.035886
382.233134	2558.945145
382.618371	2559.519837
383.003545	2560.265927
383.388657	2556.825340
383.773706	2558.065464
384.158693	2560.497820
384.543618	2561.183417
384.928480	2561.133006
385.313280	2561.344734
385.698017	2561.763150
386.082692	2561.037224
386.467305	2561.702656
386.851856	2562.360527
387.236344	2560.712069
387.620770	2560.802810
388.005133	2554.763508
388.389435	2561.062430
388.773674	2557.999929
389.157851	2562.582337
389.541965	2561.722821
389.926018	2562.244580
390.310008	2564.077040
390.693936	2563.363716
391.077802	2564.140054
391.461606	2564.732390
391.845348	2562.804148
392.229027	2565.319684
392.612645	2562.640311
392.996200	2568.062072
393.379694	2566.156516
393.763125	2564.934036
394.146494	2564.661813
394.529801	2565.725497
394.913047	2565.982596
395.296230	2565.551577
395.679351	2563.424210
396.062410	2566.080898
396.445408	2568.069633
396.828343	2567.658779
397.211217	2569.592062
397.594028	2565.856567
397.976778	2567.444530
398.359466	2572.344532
398.742092	2566.605178
399.124656	2568.732545
399.507158	2566.622822
399.889598	2567.999057
400.271977	2564.545867
400.654294	2566.814386
401.036549	2570.938050
401.418742	2568.064592
401.800874	2571.638770
402.182944	2566.824468
402.564952	2569.211455
402.946898	2572.533575
403.328783	2570.852350
403.710606	2570.461661
404.092367	2574.222362
404.474067	2573.148596
404.855705	2572.775551
405.237282	2571.916034
405.618797	2571.117011
406.000250	2571.149778
406.381642	2571.938719
406.762972	2569.995354
407.144240	2568.248594
407.525447	2573.894687
407.906593	2568.402350
408.287677	2572.720098
408.668700	2573.869481
409.049661	2577.299986
409.430560	2576.327043
409.811399	2575.928792
410.192176	2577.763772
410.572891	2576.150603
410.953545	2575.921231
411.334138	2577.156313
411.714669	2574.633216
412.095139	2576.306879
412.475547	2573.846796
412.855894	2576.974832
413.236180	2576.392578
413.616405	2577.534400
413.996568	2574.597928
414.376670	2577.887281
414.756711	2577.161354
415.136691	2577.957857
415.516609	2577.756211
415.896466	2576.352249
416.276262	2576.790830
416.655997	2579.734863
417.035670	2577.178998
417.415283	2579.306365
417.794834	2578.325861
418.174324	2576.969791
418.553753	2578.177147
418.933121	2577.889801
419.312428	2578.829976
419.691674	2577.917527
420.070859	2576.155644
420.449983	2579.949112
420.829045	2577.821746
421.208047	2577.841910
421.586988	2576.337126
421.965867	2581.829463
422.344686	2581.214442
422.723444	2581.784092
423.102141	2581.801737
423.480777	2579.243351
423.859352	2580.939699
424.237866	2579.102199
424.616319	2580.705286
424.994712	2583.044381
425.373044	2580.198650
425.751314	2579.150090
426.129524	2576.803432
426.507673	2577.176478
426.885762	2574.779409
427.263789	2581.048084
427.641756	2583.263671
428.019662	2581.663105
428.397508	2583.646799
428.775292	2584.846593
429.153016	2580.748135
429.530679	2580.836356
429.908282	2583.240986
430.285824	2582.149576
430.663305	2581.620255
431.040726	2581.663105
431.418086	2584.763414
431.795385	2584.382807
432.172624	2580.382652
432.549802	2585.126377
432.926920	2583.772828
433.303977	2583.402303
433.680974	2582.182344
434.057910	2584.430698
434.434786	2586.353898
434.811601	2586.048909
435.188355	2584.221490
435.565050	2586.510174
435.941683	2582.691500
436.318257	2588.206522
436.694770	2582.273084
437.071222	2586.192582
437.447614	2584.899526
437.823946	2586.694176
438.200218	2586.643765
438.576429	2587.437747
438.952580	2585.842221
439.328670	2584.700400
439.704700	2585.075966
440.080670	2586.076635
440.456580	2587.578899
440.832429	2588.365319
441.208218	2588.133426
441.583947	2587.956985
441.959616	2588.577047
442.335224	2585.186871
442.710773	2589.754157
443.086261	2588.718200
443.461689	2588.831626
443.837057	2590.381780
444.212365	2589.040833
444.587612	2588.362798
444.962800	2586.931111
445.337927	2587.389856
445.712995	2585.073445
446.088002	2591.032089
446.462949	2589.219794
446.837837	2588.851790
447.212664	2588.128385
447.587431	2591.720207
447.962139	2593.948397
448.336786	2592.330186
448.711374	2595.851432
449.085901	2592.249528
449.460369	2593.023345
449.834776	2594.162646
450.209124	2592.998139
450.583412	2595.606936
450.957640	2596.171546
451.331808	2596.451330
451.705917	2596.567276
452.079965	2597.396546
452.453954	2593.104003
452.827883	2596.799169
453.201752	2594.518047
453.575562	2598.354365
453.949311	2597.981320
454.323001	2595.213726
454.696632	2595.695157
455.070202	2598.349324
455.443713	2597.636001
455.817164	2601.048862
456.190556	2601.275714
456.563888	2602.210848
456.937160	2601.338728
457.310373	2602.631784
457.683526	2599.533995
458.056619	2605.439707
458.429653	2601.500045
458.802628	2605.114552
459.175542	2606.016919
459.548398	2603.241764
459.921194	2607.171343
460.293930	2607.990531
460.666607	2611.186622
461.039224	2609.139914
461.411782	2611.962960
461.784280	2612.036057
462.156719	2614.813732
462.529099	2613.641664
462.901419	2613.069493
463.273680	2611.100923
463.645882	2608.734101
464.018024	2614.176027
464.390106	2610.634616
464.762130	2618.297170
465.134094	2623.086266
465.505999	2627.640948
465.877845	2634.900210
466.249631	2636.399953
466.621358	2636.722587
466.993026	2635.636218
467.364634	2638.245016
467.736184	2636.319295
468.107674	2634.360807
468.479105	2633.914664
468.850477	2635.555560
469.221790	2635.351393
469.593043	2632.364510
469.964238	2635.623616
470.335373	2638.103863
470.706449	2639.689306
471.077467	2647.185502
471.448425	2656.156235
471.819324	2658.485248
472.190164	2662.104797
472.560945	2656.867038
472.931667	2656.088180
473.302330	2657.436688
473.672934	2656.297387
474.043479	2662.523212
474.413965	2663.160918
474.784393	2666.485559
475.154761	2674.241375
475.525070	2675.698268
475.895321	2678.158351
476.265513	2686.309897
476.635645	2693.246525
477.005719	2699.283306
477.375734	2707.117259
477.745691	2716.695452
478.115588	2725.068808
478.485427	2740.608165
478.855207	2761.090373
479.224928	2785.124074
479.594591	2802.488328
479.964194	2810.365131
480.333739	2821.183447
480.703226	2837.277331
481.072653	2860.932946
481.442022	2881.392468
481.811333	2899.883421
482.180584	2908.360121
482.549777	2925.782349
482.918912	2939.249791
483.287988	2965.652834
483.657005	2983.017089
484.025964	3003.673217
484.394864	3024.047040
484.763706	3050.956719
485.132489	3066.238977
485.501213	3096.183431
485.869879	3126.420272
486.238487	3160.253976
486.607036	3195.186651
486.975527	3224.889130
487.343959	3269.541150
487.712333	3314.392296
488.080648	3350.998634
488.448905	3406.968045
488.817104	3451.678038
489.185244	3526.271992
489.553326	3627.480717
489.921350	3764.895009
490.289315	3918.312444
490.657222	4011.248636
491.025070	4100.222481
491.392861	4151.491015
491.760593	4179.819779
492.128267	4203.306515
492.495883	4230.135536
492.863440	4261.615021
493.230939	4289.240544
493.598380	4338.601002
493.965763	4410.452568
494.333088	4466.132112
494.700354	4535.526115
495.067563	4621.684476
495.434713	4704.263617
495.801805	4816.457016
496.168839	4897.874172
496.535815	4984.904652
496.902733	5089.135548
497.269593	5177.534702
497.636395	5290.496877
498.003139	5417.758285
498.369825	5501.557386
498.736453	5654.092619
499.103023	5748.120220
499.469535	5875.182503
499.835989	6004.110013
500.202385	6104.280260
500.568723	6240.734213
500.935003	6409.496920
501.301226	6519.429362
501.667390	6739.180820
502.033497	6908.324134
502.399546	7015.362954
502.765537	7089.412463
503.131470	7305.128477
503.497345	7523.097887
503.863163	7505.988211
504.228923	7786.414996
504.594625	8009.959922
504.960269	8075.941064
505.325856	8353.466666
505.691385	8457.460629
506.056856	8679.813322
506.422270	8941.940719
506.787625	9023.743522
507.152924	9285.361763
507.518164	9498.103497
507.883347	9579.795395
508.248472	9799.269589
508.613540	10137.601588
508.978550	10381.951356
509.343503	10529.538697
509.708398	10806.915584
510.073236	11156.386013
510.438016	11379.991433
510.802738	11498.894608
511.167403	11852.342507
511.532010	12120.153805
511.896561	12469.001652
512.261053	12924.411928
512.625488	13075.772573
512.989866	13280.869396
513.354186	13512.175179
513.718449	13716.236045
514.082655	14225.488366
514.446803	14349.518394
514.810894	14779.226348
515.174927	15023.177865
515.538904	15254.614717
515.902822	15717.942126
516.266684	15836.142061
516.630488	16207.397836
516.994235	16441.887107
517.357925	16903.913898
517.721558	17250.803256
518.085133	17657.642015
518.448651	17992.533427
518.812112	18186.547274
519.175516	18504.165172
519.538863	18947.327965
519.902152	19223.363906
520.265385	19723.269927
520.628560	19983.217025
520.991678	20204.758093
521.354739	20568.159750
521.717743	20992.322435
522.080690	21201.910926
522.443580	21792.981174
522.806413	22052.620761
523.169189	22384.253067
523.531908	22754.172936
523.894569	22933.905194
524.257174	23292.522797
524.619722	23725.227717
524.982213	24056.799528
525.344647	24326.985210
525.707025	24653.962010
526.069345	25149.792258
526.431608	25346.656878
526.793815	25832.359448
527.155964	25805.331302
527.518057	26197.873349
527.880093	26356.576434
528.242072	26980.908214
528.603995	27066.567500
528.965860	27264.780628
529.327669	27641.591755
529.689421	27902.032886
530.051117	28114.774619
530.412755	28537.964361
530.774337	28828.551592
531.135862	29027.972077
531.497331	29350.409318
531.858743	29573.929038
532.220098	30076.365719
532.581396	30113.718148
532.942638	30191.634222
533.303824	30570.618086
533.664953	30829.501501
534.026025	30829.625009
534.387040	31445.343978
534.747999	31717.823384
535.108902	32153.948727
535.469748	31890.765208
535.830537	32287.342699
536.191270	32666.848322
536.551947	32676.973480
536.912567	33094.055864
537.273131	33417.113167
537.633638	33329.528160
537.994089	33658.967564
538.354483	33669.352341
538.714821	34343.263869
539.075103	34776.049448
539.435328	34864.511615
539.795497	34855.835789
540.155609	35138.894057
540.515665	35778.855935
540.875665	35425.249240
541.235609	35836.461200
541.595496	36114.271627
541.955328	36763.327746
542.315102	36483.576475
542.674821	36565.137303
543.034483	36635.428632
543.394090	36821.333783
543.753640	36973.385065
544.113134	38022.996146
544.472571	37443.462579
544.831953	38571.766071
545.191278	38099.649411
545.550548	37991.488934
545.909761	38698.321718
546.268918	38985.808640
546.628019	39499.129171
546.987064	39161.702059
547.346053	38690.646561
547.704986	39644.468157
548.063863	39470.210592
548.422684	39793.935848
548.781449	39583.694527
549.140158	40191.740860
549.498811	40123.574377
549.857408	39725.335827
550.215949	40619.754986
550.574434	40613.173760
550.932864	40670.779025
551.291237	41461.307565
551.649555	41355.478622
552.007817	41625.770168
552.366022	41475.563948
552.724173	41647.036276
553.082267	42159.015860
553.440305	42569.607759
553.798288	42001.625996
554.156215	42476.021258
554.514086	42765.123869
554.871902	42531.834393
555.229661	42798.985300
555.587365	42630.484733
555.945014	42847.715613
556.302606	42969.381341
556.660143	43159.846216
557.017625	43460.190600
557.375050	43288.698108
557.732421	43773.861275
558.089735	43920.735292
558.446994	43888.731527
558.804197	44446.275580
559.161345	44415.128811
559.518437	43854.081156
559.875474	44212.270260
560.232455	44530.936718
560.589381	44671.612637
560.946251	44568.576493
561.303065	45282.822294
561.659825	45053.396862
562.016528	44952.878774
562.373177	44625.866686
562.729770	45303.967413
563.086307	44924.421461
563.442789	45504.756571
563.799216	45436.038082
564.155587	45413.224341
564.511904	45439.171160
564.868164	45562.472742
565.224370	45924.593946
565.580520	45721.206073
565.936615	45987.971332
566.292654	45680.798705
566.648638	46106.388036
567.004567	46108.220495
567.360441	46250.824655
567.716260	46040.979065
568.072023	46448.664738
568.427732	46433.747964
568.783385	46041.369754
569.138982	46474.299005
569.494525	46639.779921
569.850013	46291.600028
570.205445	46457.617827
570.560823	46290.591797
570.916145	46230.239103
571.271412	46480.199676
571.626625	46184.074737
571.981782	46297.636810
572.336884	45926.252485
572.691931	46295.892571
573.046923	45998.376273
573.401860	45871.074536
573.756743	45923.247958
574.111570	46105.248735
574.466342	46049.657411
574.821059	46207.662296
575.175722	45747.364621
575.530330	45895.874492
575.884882	45552.087965
576.239380	45483.699672
576.593823	45597.723010
576.948211	45563.763277
577.302544	45132.275796
577.656823	45147.169885
578.011047	45425.383604
578.365216	45283.845648
578.719330	45020.468045
579.073389	45031.535898
579.427394	45092.231390
579.781344	45038.492690
580.135239	44816.558413
580.489080	44895.518005
580.842866	44409.134879
581.196597	44919.450883
581.550273	44920.655719
581.903895	44874.224172
582.257463	45326.521536
582.610975	44776.035097
582.964434	45127.973171
583.317837	44647.082382
583.671186	44600.567656
584.024481	44874.599737
584.377721	44446.782216
584.730906	44680.260736
585.084037	44811.013143
585.437113	44549.916662
585.790135	44676.928533
586.143103	44248.962298
586.496016	44402.132717
586.848874	44524.294998
587.201679	44551.187033
587.554428	44058.724276
587.907124	44361.687539
588.259765	44131.901665
588.612352	44299.225123
588.964884	43762.319553
589.317362	44081.979118
589.669786	44072.617696
590.022155	43928.914564
590.374470	44408.930713
590.726731	43977.869209
591.078937	43340.027136
591.431090	43676.350236
591.783188	43214.832601
592.135232	43014.305583
592.487222	43307.400789
592.839157	43443.643013
593.191038	43087.218312
593.542866	42910.120057
593.894639	42310.850373
594.246358	42614.524439
594.598022	42632.067655
594.949633	42207.012686
595.301190	42184.324973
595.652692	42147.993377
596.004141	42634.472285
596.355535	41531.523276
596.706876	41566.768503
597.058162	41274.396704
597.409395	41793.028091
597.760573	42014.387677
598.111698	41613.452109
598.462768	41536.869420
598.813785	41554.528582
599.164748	41152.446151
599.515657	41447.396501
599.866511	40957.799639
600.217312	41655.051710
600.568060	40586.795922
600.918753	41425.381782
601.269392	41341.819616
601.619978	41073.839439
601.970510	41265.383121
602.320988	41417.502459
602.671412	41666.169975
603.021783	41537.053422
603.372100	41106.241456
603.722363	41234.495971
604.072572	41258.852306
604.422728	41264.334561
604.772830	41042.773329
605.122878	41211.543598
605.472872	41063.671432
605.822813	41324.256236
606.172701	41103.942689
606.522534	41415.917016
606.872314	41625.172791
607.222041	41465.181692
607.571714	41789.897534
607.921333	41287.425566
608.270899	41498.450787
608.620411	41890.178687
608.969870	41626.173460
609.319276	41655.742348
609.668627	41682.611698
610.017926	42100.223403
610.367171	42215.317987
610.716362	42258.467743
611.065500	42154.965293
611.414585	42389.187383
611.763616	42574.258223
612.112594	42462.609268
612.461518	42590.871346
612.810389	42967.490908
613.159207	42754.282868
613.507971	42746.484203
613.856682	43238.634409
614.205340	43066.879777
614.553945	43752.547276
614.902496	43083.324021
615.250994	43492.764016
615.599439	43575.885081
615.947830	43685.845249
616.296169	43686.974467
616.644454	43732.430552
616.992686	43887.309921
617.340864	44336.809445
617.688990	43865.559863
618.037063	44548.507660
618.385082	44364.074526
618.733048	44713.794492
619.080961	44596.804434
619.428821	44604.988747
619.776628	44619.885357
620.124382	44424.858238
620.472083	44542.881732
620.819731	44630.749044
621.167326	44216.230086
621.514868	44193.396180
621.862357	43673.592725
622.209793	43753.414355
622.557176	43334.164274
622.904506	43070.068307
623.251783	42706.961557
623.599007	42395.400605
623.946179	42323.163391
624.293297	42061.635891
624.640363	41509.616942
624.987376	41360.570188
625.334336	41156.723570
625.681243	40755.349422
626.028097	40663.436584
626.374899	40475.177214
626.721647	40449.641249
627.068343	40234.701573
627.414987	39956.792844
627.761577	39699.804903
628.108115	40030.542404
628.454600	39274.339080
628.801032	39509.897076
629.147412	39413.679093
629.493739	39314.580091
629.840014	38855.048671
630.186236	39288.638313
630.532405	38746.356352
630.878521	38974.118204
631.224585	38747.241075
631.570597	38409.834128
631.916556	38564.249711
632.262462	38449.366856
632.608316	38392.883248
632.954117	38251.100796
633.299866	38217.340188
633.645562	38130.040007
633.991206	37594.462781
634.336797	37193.388581
634.682336	37094.619774
635.027823	36859.538168
635.373257	36723.142188
635.718639	36391.431745
636.063968	36290.528009
636.409245	35638.031302
636.754470	35589.787460
637.099642	35360.672059
637.444762	34801.729085
637.789829	34948.126713
638.134845	34575.998819
638.479808	34487.887011
638.824719	34440.036379
639.169577	33918.123201
639.514383	34015.238509
639.859137	33631.147956
640.203839	33788.830208
640.548489	33503.142978
640.893086	33517.369114
641.237632	33223.379104
641.582125	33316.731191
641.926566	33110.200159
642.270955	33141.561177
642.615292	33095.149794
642.959576	32971.886021
643.303809	32965.019969
643.647990	33053.333423
643.992118	33016.152393
644.336195	32855.826057
644.680219	32944.726805
645.024192	33144.411950
645.368112	33665.584078
645.711981	33696.133471
646.055797	34426.180768
646.399562	34218.790219
646.743274	35091.794557
647.086935	35491.769785
647.430544	35435.697031
647.774101	35481.347200
648.117606	35781.021111
648.461059	35917.822903
648.804460	35509.181931
649.147810	35006.886403
649.491108	34653.476312
649.834354	34512.192935
650.177548	33683.359187
650.520690	33191.385421
650.863781	33177.270190
651.206820	32996.902747
651.549807	32600.274845
651.892742	32013.149300
652.235626	31911.426377
652.578458	31781.155400
652.921238	31101.890166
653.263967	31404.903842
653.606644	31109.267895
653.949269	31014.983195
654.291843	30617.399994
654.634365	30986.183083
654.976836	30533.762210
655.319255	30601.469947
655.661622	30496.455151
656.003938	30345.170124
656.346203	30159.401084
656.688416	30399.564174
657.030577	30168.054225
657.372687	30004.836787
657.714746	30158.438224
658.056753	30349.606340
658.398708	29731.989376
658.740612	29797.753749
659.082465	29992.243985
659.424266	29896.227648
659.766016	29901.558668
660.107715	29754.178015
660.449362	29854.963283
660.790958	29841.092548
661.132503	29758.286555
661.473996	29854.713746
661.815438	29932.990262
662.156829	30051.492666
662.498168	29835.582567
662.839456	29832.565437
663.180693	29966.715582
663.521879	30049.060309
663.863013	30007.629586
664.204097	29997.285138
664.545129	30402.009134
664.886110	30343.080566
665.227040	30452.372781
665.567918	30431.429308
665.908746	30517.950631
666.249522	30581.766598
666.590248	30618.390580
666.930922	30715.485724
667.271545	30712.854242
667.612118	30770.726688
667.952639	30569.720761
668.293109	30618.393101
668.633528	30484.225312
668.973896	30446.262903
669.314213	30412.890464
669.654480	30232.961601
669.994695	30224.116897
670.334859	30144.880041
670.674973	29975.527518
671.015035	30154.493521
671.355047	30098.314903
671.695008	30020.459323
672.034918	29936.456056
672.374777	30033.019358
672.714585	29906.042774
673.054342	30022.445537
673.394049	29881.043693
673.733705	30113.405597
674.073310	29812.052982
674.412864	29870.845438
674.752368	29576.684029
675.091820	29802.346240
675.431223	29397.090403
675.770574	29200.848366
676.109875	29044.686022
676.449125	28838.757408
676.788324	28749.211393
677.127473	28260.342978
677.466571	28167.782352
677.805619	27896.139777
678.144616	27830.135950
678.483562	27762.390404
678.822458	27443.093802
679.161303	27383.930820
679.500098	27314.118401
679.838842	27227.319814
680.177535	27313.326940
680.516179	27565.757678
680.854771	27688.078755
681.193314	28456.617782
681.531805	29478.404214
681.870247	30228.563195
682.208638	30950.884923
682.546978	31225.927757
682.885268	31358.842819
683.223508	30913.678687
683.561697	30636.105195
683.899836	30477.550824
684.237925	30065.154193
684.575963	29925.438614
684.913951	29566.163141
685.251889	29733.287473
685.589776	29748.539484
685.927614	29747.201058
686.265401	29943.191037
686.603137	30051.515351
686.940824	30559.693906
687.278460	30879.494623
687.616046	31054.926777
687.953582	31717.987222
688.291068	31628.408439
688.628504	31960.081074
688.965889	31960.605354
689.303224	31689.882789
689.640510	31409.700500
689.977745	30774.517636
690.314930	30038.151252
690.652065	29612.738361
690.989150	28946.287741
691.326185	28102.978319
691.663170	27465.569786
692.000105	26729.563845
692.336990	26129.709387
692.673825	25692.298550
693.010610	25207.604211
693.347345	24699.496232
693.684030	24070.193874
694.020665	23876.404359
694.357251	23202.661709
694.693786	23201.870248
695.030272	22971.434064
695.366707	22483.558757
695.703093	22200.278678
696.039429	22261.337133
696.375716	22018.214886
696.711952	22029.774252
697.048139	21887.427191
697.384276	21728.028427
697.720363	21834.288388
698.056400	21719.455945
698.392388	21574.525292
698.728326	21576.788770
699.064214	21405.006412
699.400053	21417.536200
699.735842	21025.215963
700.071581	20827.456539
700.407270	20569.339380
700.742910	20404.002137
701.078501	20155.503499
701.414042	19944.753021
701.749533	19641.923348
702.084974	19330.127983
702.420366	19561.685823
702.755709	19158.509462
703.091002	18852.428244
703.426246	18921.739068
703.761440	18849.892544
704.096584	18598.916179
704.431679	18537.550213
704.766725	18483.433427
705.101721	18417.114527
705.436668	18536.967960
705.771565	18263.465199
706.106413	18571.900636
706.441212	18656.224016
706.775961	18753.714890
707.110661	18834.431325
707.445311	19198.468168
707.779913	19073.031657
708.114465	19370.711792
708.448967	19689.221974
708.783421	20312.495112
709.117825	20682.046977
709.452180	20906.211965
709.786485	21353.536231
710.120742	22134.317701
710.454949	22233.247824
710.789107	22745.003077
711.123216	23447.639101
711.457275	23657.179701
711.791286	24218.633170
712.125247	24364.690520
712.459159	24110.621408
712.793023	24861.597055
713.126837	23834.204860
713.460602	24093.179015
713.794318	23765.498974
714.127985	23496.205577
714.461602	22602.671140
714.795171	22573.765164
715.128691	21602.261721
715.462162	21085.102351
715.795584	20651.023716
716.128957	20373.535923
716.462281	20002.980869
716.795556	19712.333144
717.128782	19249.547659
717.461960	18641.632396
717.795088	18609.457232
718.128167	18253.345083
718.461198	17798.378428
718.794180	17669.564344
719.127113	17334.395669
719.459997	17142.705794
719.792833	16775.775329
720.125619	16814.264538
720.458357	16478.100235
720.791046	16332.058008
721.123686	16176.205696
721.456278	15959.360463
721.788821	15954.813343
722.121315	15691.634865
722.453761	15787.111798
722.786158	15670.789694
723.118506	15747.954636
723.450805	15638.067564
723.783056	15816.209338
724.115259	15713.253853
724.447412	15704.502410
724.779518	15916.636685
725.111574	15969.319263
725.443582	16236.316415
725.775542	16197.796958
726.107453	16706.151953
726.439315	16633.919780
726.771129	17051.642391
727.102895	17480.148029
727.434612	17735.293428
727.766281	17908.562927
728.097901	18237.856138
728.429473	18309.657292
728.760996	18330.663780
729.092471	18451.550649
729.423897	18346.911419
729.755276	18213.272951
730.086606	18338.165017
730.417887	18906.983611
730.749120	19471.509663
731.080305	19680.954482
731.411442	20082.174875
731.742530	20218.623786
732.073570	20367.988134
732.404562	20698.332425
732.735506	20540.330060
733.066401	20336.750624
733.397249	19839.115643
733.728048	19210.241783
734.058798	18353.580865
734.389501	17590.403105
734.720156	17069.757777
735.050762	16493.879047
735.381320	16102.672906
735.711831	15831.597460
736.042293	15458.113495
736.372707	15498.457850
736.703073	15282.711588
737.033391	15479.339274
737.363661	15471.654035
737.693883	15593.075266
738.024056	15800.100331
738.354182	16010.576066
738.684260	16368.528236
739.014290	16646.646173
739.344272	16875.650669
739.674207	17219.011219
740.004093	17404.734888
740.333931	17450.042259
740.663722	17538.418727
740.993464	17574.984736
741.323159	17431.377387
741.652806	17130.980070
741.982405	16964.803475
742.311956	16608.943383
742.641460	16493.823594
742.970915	16173.385171
743.300323	15828.411451
743.629683	15598.290340
743.958996	15289.305418
744.288260	14967.082426
744.617477	14657.482483
744.946647	14634.348628
745.275768	14315.150328
745.604842	14108.236168
745.933869	13935.737966
746.262847	13907.570519
746.591778	13825.966841
746.920662	13701.089898
747.249498	13711.288153
747.578286	13873.182288
747.907027	14052.125605
748.235720	14311.009020
748.564365	14380.105595
748.892963	14304.851251
749.221514	14407.491663
749.550017	14271.062917
749.878473	14240.458072
750.206881	14014.495912
750.535242	13939.385241
750.863555	13861.154095
751.191821	13755.809103
751.520039	13770.781330
751.848210	13707.595507
752.176334	13750.407507
752.504411	13668.589580
752.832440	13501.674455
753.160421	13609.686217
753.488356	13505.178057
753.816243	13414.656578
754.144082	13241.066966
754.471875	13191.398998
754.799620	13154.840550
755.127318	13138.658446
755.454969	13123.706384
755.782572	13090.293616
756.110129	13108.691307
756.437638	13015.593798
756.765100	13012.314528
757.092515	13041.447356
757.419882	13082.139550
757.747203	13094.755037
758.074477	13178.889374
758.401703	13161.978824
758.728882	13360.310419
759.056014	13405.088468
759.383099	13571.474271
759.710138	13699.963201
760.037129	13820.111541
760.364073	13870.747411
760.690970	13894.587027
761.017820	13927.823354
761.344623	14150.019772
761.671379	14528.900292
761.998088	15245.341515
762.324751	17019.779778
762.651366	20435.733680
762.977935	24911.179323
763.304456	27880.058496
763.630931	28945.765981
763.957359	27736.037772
764.283740	25478.369625
764.610074	23222.138207
764.936362	20585.024930
765.262602	18705.483651
765.588796	16762.000376
765.914943	15474.126721
766.241044	14368.092526
766.567097	13572.522831
766.893104	12849.870907
767.219064	12384.779094
767.544978	11905.032647
767.870845	11515.124603
768.196665	11283.954932
768.522438	11055.605786
768.848165	10851.618016
769.173846	10645.986830
769.499479	10515.446151
769.825066	10346.990954
770.150607	10114.061920
770.476101	10033.731134
770.801548	9905.418645
771.126949	9747.501980
771.452303	9638.446699
771.777611	9436.815669
772.102872	9431.489690
772.428087	9288.220097
772.753256	9138.003795
773.078378	9041.853868
773.403453	8857.466104
773.728482	8753.424250
774.053465	8669.405860
774.378401	8567.070437
774.703291	8440.663504
775.028135	8315.267323
775.352932	8287.508209
775.677683	8179.501488
776.002388	8076.049449
776.327046	8081.493895
776.651658	7987.804051
776.976224	7885.415696
777.300743	7881.554172
777.625216	7798.808673
777.949643	7750.413596
778.274024	7767.089733
778.598359	7679.449273
778.922647	7696.463167
779.246889	7645.401320
779.571086	7650.568503
779.895236	7659.491345
780.219339	7668.285638
780.543397	7669.866040
780.867409	7751.479800
781.191374	7764.821214
781.515294	7727.463743
781.839167	7823.343969
782.162995	7795.078219
782.486776	7740.500167
782.810511	7688.445212
783.134201	7602.251564
783.457844	7599.400791
783.781441	7541.901391
784.104993	7478.352605
784.428498	7452.521733
784.751958	7443.326668
785.075372	7412.845332
785.398739	7361.203752
785.722061	7408.126812
786.045337	7407.718478
786.368568	7567.160092
786.691752	7586.679440
787.014891	7932.900845
787.337983	8294.621277
787.661030	8882.210608
787.984031	9506.302933
788.306987	9914.444831
788.629897	10123.582139
788.952760	10069.641793
789.275579	9852.688176
789.598351	9452.647412
789.921078	9095.141384
790.243759	8689.091566
790.566395	8397.329746
790.888984	8145.201477
791.211529	7934.708098
791.534027	7708.488840
791.856480	7504.982500
792.178888	7431.732014
792.501249	7332.617889
792.823566	7174.068559
793.145836	7178.981163
793.468062	7150.750702
793.790241	7103.721778
794.112375	7171.616038
794.434464	7324.143709
794.756507	7366.411263
795.078505	7528.673403
795.400457	7835.883839
795.722364	8185.939041
796.044226	8477.521900
796.366042	8750.906194
796.687812	8699.420890
797.009538	8781.977346
797.331218	8670.348556
797.652852	8586.806554
797.974442	8434.011702
798.295986	8345.746139
798.617484	8156.221439
798.938938	8016.279009
799.260346	7911.460817
799.581709	7709.660908
799.903026	7628.926829
800.224299	7523.002105
800.545526	7351.123964
800.866708	7257.802124
801.187845	7188.372833
801.508936	7078.352171
801.829983	7043.883282
802.150984	6888.966103
802.471940	6844.528332
802.792851	6827.776578
803.113717	6800.236754
803.434538	6759.731083
803.755314	6703.877619
804.076045	6709.538835
804.396731	6650.330483
804.717372	6686.692326
805.037967	6690.478232
805.358518	6725.073151
805.679024	6806.268495
805.999485	6816.867521
806.319901	6857.617688
806.640272	6881.704321
806.960598	6961.898997
807.280879	6967.260264
807.601115	7044.911677
807.921306	6992.403018
808.241453	7002.634040
808.561554	7023.340580
808.881611	6988.246587
809.201623	6993.867474
809.521590	6941.542817
809.841513	6922.419200
810.161390	6967.136755
810.481223	6835.028278
810.801011	6813.646224
811.120755	6791.142513
811.440453	6716.553601
811.760107	6686.314239
812.079716	6654.852398
812.399281	6587.242963
812.718801	6576.492703
813.038276	6534.709099
813.357707	6472.002186
813.677093	6510.549369
813.996434	6421.046203
814.315731	6456.435103
814.634983	6457.299661
814.954191	6469.796682
815.273354	6576.391880
815.592473	6640.469986
815.911547	6764.711743
816.230577	6841.838877
816.549562	6993.108780
816.868502	7096.976714
817.187399	7195.201076
817.506250	7349.548604
817.825058	7379.931638
818.143821	7656.607805
818.462539	7921.908609
818.781213	8293.789487
819.099843	8839.887601
819.418429	9851.947126
819.736970	10823.836217
820.055466	12010.954851
820.373919	13548.186661
820.692327	15917.559216
821.010691	20076.879143
821.329011	29086.434338
821.647286	42028.492825
821.965517	55396.057465
822.283704	60773.481478
822.601847	62769.982568
822.919945	60105.579005
823.237999	55963.835061
823.556010	49863.373475
823.873976	43161.741689
824.191897	36630.115256
824.509775	31777.341767
824.827609	27258.370801
825.145398	24657.513503
825.463144	23283.121045
825.780845	23577.902516
826.098502	25351.151067
826.416116	29127.754156
826.733685	32773.072996
827.051210	33909.442334
827.368692	32119.620990
827.686129	28176.662345
828.003522	24040.498958
828.320872	20345.582725
828.638177	17491.770410
828.955439	15333.231512
829.272656	13500.741842
829.589830	12027.956143
829.906960	10748.012222
830.224046	9803.489035
830.541088	9056.332062
830.858086	8594.708563
831.175041	8210.807053
831.491952	8099.480732
831.808819	8140.956826
832.125642	8549.139053
832.442421	9444.437893
832.759157	11239.088662
833.075849	14161.493438
833.392497	17373.147018
833.709101	19556.616943
834.025662	19394.846316
834.342179	17709.908698
834.658653	15508.915723
834.975083	13583.845263
835.291469	11961.508694
835.607811	10637.621035
835.924110	9722.112209
836.240366	8853.539045
836.556578	8041.618368
836.872746	7393.071406
837.188871	6894.695375
837.504952	6476.113247
837.820990	6161.494836
838.136984	5941.554335
838.452935	5843.690415
838.768842	5882.499738
839.084706	6307.526980
839.400526	7507.571133
839.716303	9096.499975
840.032037	10192.429177
840.347727	10119.498805
840.663373	9145.159713
840.978977	8102.061803
841.294537	7285.785569
841.610054	6692.668614
841.925527	6251.335759
842.240957	5887.828238
842.556344	5554.950767
842.871687	5275.242346
843.186987	4987.795753
843.502244	4760.074231
843.817458	4598.306125
844.132629	4458.842604
844.447756	4367.932956
844.762840	4285.159730
845.077881	4213.809759
845.392879	4148.214265
845.707833	4100.184672
846.022745	4056.994587
846.337613	4025.494937
846.652438	3986.859534
846.967221	3967.536791
847.281960	3933.632511
847.596656	3916.913524
847.911309	3895.181110
848.225919	3870.960886
848.540485	3856.165100
848.855009	3843.569777
849.169490	3820.211590
849.483928	3805.803973
849.798323	3799.240390
850.112675	3779.963018
850.426984	3786.145993
850.741251	3772.527316
851.055474	3767.536574
851.369654	3771.831637
851.683792	3768.489352
851.997887	3778.034777
852.311938	3776.535033
852.625947	3781.314047
852.939914	3769.154784
853.253837	3779.542082
853.567718	3777.679375
853.881555	3766.641769
854.195350	3783.932927
854.509103	3776.474540
854.822812	3778.370013
855.136479	3769.598406
855.450103	3777.263480
855.763685	3762.288733
856.077224	3769.432048
856.390720	3786.440901
856.704173	3805.841781
857.017584	3816.395437
857.330953	3829.605781
857.644278	3848.774768
857.957561	3855.882795
858.270802	3855.426571
858.584000	3859.441850
858.897155	3851.771734
859.210268	3834.190710
859.523339	3812.896876
859.836367	3810.691371
860.149352	3806.371103
860.462295	3797.753250
860.775195	3787.643216
861.088054	3781.868574
861.400869	3778.647277
861.713642	3781.482926
862.026373	3788.777476
862.339062	3796.787869
862.651708	3815.906445
862.964312	3846.536496
863.276873	3861.995194
863.589392	3918.461158
863.901869	3968.023262
864.214303	4009.615302
864.526696	4043.537226
864.839045	4090.482972
865.151353	4118.521869
865.463619	4124.278867
865.775842	4133.647851
866.088023	4147.354749
866.400162	4139.432575
866.712258	4149.393895
867.024313	4152.179133
867.336325	4148.441117
867.648296	4154.671983
867.960224	4157.784896
868.272110	4168.368798
868.583954	4170.022297
868.895755	4183.530069
869.207515	4182.521838
869.519233	4222.795616
869.830909	4232.474631
870.142542	4257.012448
870.454134	4273.585241
870.765684	4304.550528
871.077191	4338.664017
871.388657	4362.891802
871.700081	4401.275147
872.011463	4443.940953
872.322803	4478.377075
872.634101	4509.354965
872.945357	4547.072878
873.256571	4606.233339
873.567744	4633.916836
873.878874	4649.299917
874.189963	4692.578222
874.501010	4702.221950
874.812015	4698.390673
875.122979	4743.206530
875.433900	4741.719390
875.744780	4752.860340
876.055618	4778.421511
876.366415	4780.075009
876.677169	4804.325480
876.987882	4848.135627
877.298554	4902.900202
877.609183	4978.434331
877.919771	5091.388944
878.230317	5237.907560
878.540822	5453.484943
878.851285	5775.440754
879.161707	6236.993676
879.472087	6999.115315
879.782425	8237.618430
880.092722	10412.707436
880.402977	13708.616341
880.713191	17450.551415
881.023363	21134.614043
881.333494	23310.660868
881.643583	24535.048753
881.953631	24545.080649
882.263637	23723.175967
882.573602	22270.607815
882.883526	20721.569623
883.193408	19056.053051
883.503248	17364.365328
883.813048	15817.058773
884.122806	14403.960335
884.432522	12927.492073
884.742197	11663.463076
885.051831	10578.258928
885.361424	9574.797091
885.670975	8755.856607
885.980485	8063.345742
886.289954	7487.467011
886.599382	7012.161821
886.908768	6635.776672
887.218113	6276.622187
887.527417	5982.980016
887.836680	5714.286516
888.145901	5496.160831
888.455082	5331.194112
888.764221	5181.106359
889.073319	5042.966141
889.382376	4973.642714
889.691392	4911.336573
890.000366	4885.939240
890.309300	4872.673443
890.618193	4874.868866
890.927044	4858.729612
891.235855	4878.266604
891.544625	4912.415380
891.853353	4977.952900
892.162041	5095.971353
892.470687	5281.556391
892.779293	5526.276684
893.087858	5903.039919
893.396381	6480.746068
893.704864	7283.186855
894.013306	8436.759130
894.321707	9597.545297
894.630068	10409.929760
894.938387	10617.400967
895.246665	10382.528568
895.554903	9782.406929
895.863100	9088.565199
896.171256	8531.374026
896.479371	8024.521295
896.787446	7529.285903
897.095480	7100.525686
897.403473	6780.977026
897.711425	6459.364014
898.019336	6192.238312
898.327207	5926.244350
898.635038	5693.282549
898.942827	5448.264828
899.250576	5254.135034
899.558284	5063.539090
899.865952	4940.532415
900.173579	4793.975991
900.481165	4681.490204
900.788711	4590.636009
901.096216	4519.742263
901.403681	4452.228610
901.711105	4428.109209
902.018489	4415.097991
902.325832	4482.810770
902.633135	4609.484883
902.940397	4952.195125
903.247619	5742.085959
903.554800	7182.086514
903.861941	9087.514119
904.169041	10609.030131
904.476101	11234.385266
904.783121	10878.515093
905.090100	10149.052569
905.397039	9318.787134
905.703938	8562.682112
906.010796	7872.495219
906.317614	7315.674571
906.624391	6784.957017
906.931129	6360.149065
907.237826	5957.928002
907.544483	5586.032001
907.851099	5208.671388
908.157675	4853.547306
908.464211	4532.965209
908.770707	4295.294970
909.077163	4097.538066
909.383578	3953.111529
909.689954	3838.720187
909.996289	3767.597068
910.302584	3700.292623
910.608839	3668.664423
910.915054	3635.728045
911.221229	3624.491313
911.527363	3636.007829
911.833458	3647.761279
912.139513	3675.122142
912.445527	3704.665824
912.751502	3785.430149
913.057436	3890.303793
913.363331	4024.043084
913.669186	4233.248448
913.975000	4490.208663
914.280775	4914.517541
914.586510	5490.645808
914.892205	6283.294154
915.197859	7319.084911
915.503475	8530.035600
915.809050	9582.439480
916.114585	10224.155679
916.420081	10483.878446
916.725536	10444.764133
917.030952	10010.713225
917.336328	9603.819013
917.641665	9197.517137
917.946961	8721.269251
918.252218	8299.039848
918.557435	7796.406563
918.862612	7361.917075
919.167750	6989.103583
919.472848	6564.025929
919.777906	6191.741759
920.082925	5831.732798
920.387904	5469.669567
920.692843	5206.188620
920.997743	4962.431188
921.302603	4726.729519
921.607423	4565.205909
921.912204	4399.664499
922.216946	4282.074544
922.521647	4158.203312
922.826310	4056.061973
923.130932	3962.304073
923.435516	3863.409238
923.740059	3792.611273
924.044564	3716.353739
924.349028	3658.299811
924.653454	3591.355809
924.957840	3522.130684
925.262186	3478.953201
925.566493	3414.756628
925.870761	3358.444419
926.174989	3321.969150
926.479178	3284.112605
926.783328	3242.765061
927.087438	3216.697255
927.391509	3180.965556
927.695541	3151.608397
927.999533	3125.636372
928.303486	3103.420007
928.607400	3086.842173
928.911275	3073.394895
929.215110	3057.847977
929.518906	3048.327758
929.822663	3048.587377
930.126381	3044.264588
930.430060	3048.753735
930.733699	3050.944116
931.037299	3062.591702
931.340861	3061.303687
931.644383	3072.273238
931.947866	3066.354924
932.251309	3062.478276
932.554714	3064.794687
932.858080	3055.355126
933.161407	3050.056873
933.464694	3039.553629
933.767943	3035.598844
934.071153	3028.150539
934.374323	3020.409848
934.677455	3014.022706
934.980548	3005.805625
935.283602	3001.152640
935.586617	2998.528719
935.889593	3009.654546
936.192530	3011.524814
936.495428	3026.935621
936.798287	3046.170144
937.101108	3080.308837
937.403890	3131.239615
937.706632	3190.755477
938.009336	3271.827313
938.312002	3341.780885
938.614628	3407.202459
938.917216	3459.088535
939.219765	3490.547855
939.522275	3521.160262
939.824747	3527.310470
940.127179	3526.115716
940.429573	3520.968698
940.731929	3518.218749
941.034246	3502.923888
941.336524	3490.469717
941.638763	3475.560505
941.940964	3460.943679
942.243126	3419.386928
942.545250	3399.237436
942.847335	3362.285778
943.149381	3325.361847
943.451389	3292.995118
943.753359	3257.207967
944.055290	3234.825244
944.357182	3208.185267
944.659036	3194.871579
944.960851	3184.297759
945.262628	3170.346366
945.564367	3170.847961
945.866067	3163.679440
946.167729	3162.837567
946.469352	3161.967968
946.770937	3158.310611
947.072484	3140.895945
947.373992	3144.250833
947.675462	3134.445789
947.976893	3117.923407
948.278286	3111.183384
948.579641	3104.324894
948.880958	3097.912547
949.182236	3100.687702
949.483476	3094.222422
949.784678	3092.372319
950.085841	3096.044799
950.386967	3109.035853
950.688054	3121.807616
950.989103	3142.667911
951.290114	3161.930159
951.591087	3188.232380
951.892021	3220.248748
952.192917	3246.102305
952.493776	3272.555760
952.794596	3279.535238
953.095378	3287.591001
953.396122	3276.397119
953.696828	3274.191614
953.997496	3262.511261
954.298126	3238.709453
954.598718	3217.047615
954.899272	3192.696321
955.199788	3167.609019
955.500266	3132.948566
955.800706	3097.824327
956.101108	3061.780077
956.401472	3028.705066
956.701798	2999.481497
957.002087	2958.086063
957.302337	2930.095056
957.602550	2898.827299
957.902724	2870.642208
958.202861	2846.288394
958.502960	2824.026658
958.803022	2807.398412
959.103045	2785.928138
959.403031	2767.011208
959.702979	2756.533170
960.002889	2740.230078
960.302762	2731.569376
960.602596	2715.362067
960.902393	2707.447455
961.202153	2701.667772
961.501875	2691.351051
961.801559	2687.292922
962.101205	2679.012827
962.400814	2673.316323
962.700385	2669.553102
962.999918	2660.244611
963.299414	2655.579023
963.598873	2650.127015
963.898293	2643.651653
964.197677	2645.322796
964.497022	2641.655356
964.796331	2642.257774
965.095601	2639.200314
965.394835	2638.285345
965.694030	2634.171763
965.993189	2631.845271
966.292309	2633.034983
966.591393	2633.236629
966.890439	2630.335445
967.189447	2633.372740
967.488419	2634.149078
967.787353	2635.860550
968.086249	2632.561115
968.385108	2634.481794
968.683930	2636.825931
968.982714	2640.261477
969.281462	2647.180461
969.580172	2650.472334
969.878844	2657.275371
970.177480	2663.763336
970.476078	2672.545026
970.774639	2679.653053
971.073162	2688.691842
971.371649	2691.474559
971.670098	2699.303471
971.968510	2702.262628
972.266885	2704.382433
972.565223	2712.574308
972.863524	2713.388455
973.161788	2719.639486
973.460014	2722.603684
973.758204	2725.101576
974.056356	2724.673078
974.354471	2726.684498
974.652550	2726.397152
974.950591	2727.521330
975.248595	2725.598129
975.546563	2722.296174
975.844493	2719.329455
976.142386	2712.256716
976.440243	2708.133052
976.738062	2702.817155
977.035845	2699.177442
977.333590	2692.863397
977.631299	2686.642613
977.928971	2682.075328
978.226606	2673.006292
978.524204	2672.930675
978.821765	2668.577638
979.119290	2668.859943
979.416777	2668.312978
979.714228	2673.860767
980.011642	2677.051818
980.309020	2683.519618
980.606360	2698.043182
980.903664	2718.721996
981.200931	2755.161976
981.498162	2804.282979
981.795356	2877.478013
982.092513	2964.926908
982.389633	3068.933474
982.686717	3167.208247
982.983764	3238.152406
983.280775	3284.949437
983.577749	3294.331024
983.874686	3283.041360
984.171587	3248.713623
984.468451	3212.497974
984.765279	3168.385357
985.062070	3120.156638
985.358824	3074.395564
985.655543	3019.426823
985.952224	2967.424800
986.248869	2904.606982
986.545478	2850.701924
986.842050	2790.518109
987.138586	2744.005903
987.435086	2711.913917
987.731549	2678.241530
988.027975	2653.192037
988.324366	2637.072947
988.620719	2624.679271
988.917037	2611.463886
989.213318	2603.705550
989.509563	2595.554004
989.805772	2592.057964
990.101944	2587.306677
990.398080	2585.882551
990.694180	2581.353074
990.990244	2586.505133
991.286271	2585.053281
991.582262	2586.734506
991.878217	2585.209557
992.174136	2589.915474
992.470019	2592.877152
992.765865	2597.638521
993.061676	2598.772781
993.357450	2608.189656
993.653188	2618.254320
993.948890	2634.249901
994.244556	2652.917294
994.540186	2674.022084
994.835780	2706.494677
995.131337	2745.538413
995.426859	2784.488889
995.722345	2832.548729
996.017795	2881.909187
996.313208	2915.291708
996.608586	2944.951336
996.903928	2957.960034
997.199234	2955.862914
997.494504	2956.697225
997.789738	2938.768361
998.084936	2914.958991
998.380099	2886.151318
998.675225	2854.439939
998.970316	2826.118737
999.265371	2787.997532
999.560390	2754.012593
999.855373	2724.433623
1000.150320	2697.796166
1000.445232	2674.238854
1000.740108	2651.669608
1001.034948	2632.367030
1001.329752	2617.745163
1001.624521	2607.057917
1001.919254	2593.250197
1002.213951	2588.980340
1002.508613	2579.379462
1002.803239	2573.337639
1003.097829	2570.635581
1003.392384	2561.990002
1003.686903	2556.071687
1003.981386	2557.397511
1004.275834	2550.934752
1004.570246	2546.327137
1004.864623	2547.819318
1005.158964	2544.038453
1005.453270	2542.773123
1005.747540	2536.126362
1006.041775	2536.771630
1006.335974	2535.095446
1006.630138	2534.132586
1006.924266	2534.578728
1007.218359	2530.346679
1007.512416	2530.024045
1007.806438	2529.779549
1008.100425	2531.906916
1008.394376	2526.084384
1008.688292	2531.803573
1008.982172	2530.450023
1009.276017	2528.733510
1009.569827	2531.178470
1009.863602	2528.186545
1010.157341	2529.751823
1010.451045	2526.782583
1010.744714	2525.063550
1011.038347	2525.512213
1011.331945	2525.239990
1011.625508	2524.771163
1011.919036	2520.072808
1012.212528	2524.481297
1012.505986	2522.041378
1012.799408	2520.995339
1013.092795	2516.717920
1013.386147	2521.897705
1013.679464	2521.136491
1013.972745	2516.917045
1014.265992	2518.706655
1014.559204	2517.968126
1014.852380	2518.275636
1015.145521	2519.540966
1015.438628	2519.523322
1015.731699	2516.526356
1016.024736	2519.810668
1016.317737	2522.865607
1016.610703	2522.386697
1016.903635	2522.653878
1017.196531	2524.027593
1017.489393	2527.881555
1017.782219	2528.405835
1018.075011	2529.010773
1018.367768	2528.093283
1018.660490	2528.040351
1018.953177	2528.040351
1019.245829	2528.040351
