Dividing Wavelength (nm)	Counts (n)	Blue Motor Position (mm): 47.500000	Red Motor Position (mm): 0.000000	
326.493990	2154.551345
326.888308	2154.551345
327.282561	2154.551345
327.676750	2127.230812
328.070874	2128.135699
328.464933	2133.925464
328.858929	2141.998872
329.252859	2155.695687
329.646726	2167.295382
330.040528	2183.129646
330.434265	2201.648325
330.827938	2221.875955
331.221547	2241.123080
331.615091	2260.813827
332.008571	2282.979781
332.401986	2303.245219
332.795338	2321.098465
333.188625	2341.116887
333.581847	2359.242356
333.975006	2380.180788
334.368100	2397.814745
334.761129	2417.031623
335.154095	2431.870259
335.546996	2457.859928
335.939833	2485.558548
336.332606	2502.264932
336.725315	2514.900584
337.117960	2520.120699
337.510540	2529.875331
337.903056	2538.256250
338.295508	2547.695810
338.687896	2551.353167
339.080220	2561.906823
339.472480	2564.520661
339.864676	2570.625498
340.256807	2570.900241
340.648875	2575.621282
341.040879	2577.496591
341.432818	2578.119174
341.824694	2578.703947
342.216506	2579.165213
342.608253	2575.006261
342.999937	2580.465831
343.391557	2579.036664
343.783113	2574.827300
344.174605	2576.352249
344.566033	2574.050962
344.957397	2570.902762
345.348697	2566.975703
345.739934	2568.745148
346.131106	2565.644838
346.522215	2565.649880
346.913260	2561.495969
347.304241	2560.031514
347.695159	2560.268448
348.086012	2558.065464
348.476802	2557.105124
348.867528	2556.893395
349.258191	2554.403065
349.648789	2553.213353
350.039324	2551.156562
350.429796	2551.058260
350.820203	2548.283105
351.210548	2549.077086
351.600828	2544.277908
351.991045	2550.135729
352.381198	2548.583053
352.771288	2544.940820
353.161314	2547.476520
353.551276	2546.707744
353.941175	2545.228165
354.331010	2547.373176
354.720782	2545.833104
355.110490	2550.844011
355.500135	2545.218083
355.889717	2548.431819
356.279235	2548.033567
356.668689	2551.446429
357.058080	2549.399720
357.447408	2546.798485
357.836672	2547.221942
358.225873	2548.716644
358.615010	2548.071376
359.004084	2552.368960
359.393095	2552.043805
359.782043	2550.861655
360.170927	2553.858621
360.559748	2553.266285
360.948505	2553.132695
361.337199	2553.674619
361.725830	2551.164124
362.114398	2555.073539
362.502903	2553.636810
362.891344	2556.180072
363.279722	2557.153015
363.668037	2555.865000
364.056289	2559.199723
364.444478	2560.701987
364.832603	2557.218550
365.220665	2557.999929
365.608665	2555.638148
365.996601	2559.630742
366.384474	2560.694425
366.772284	2562.632749
367.160031	2560.253324
367.547715	2560.462532
367.935336	2559.459343
368.322893	2562.158881
368.710388	2559.406411
369.097820	2565.037379
369.485189	2561.780794
369.872495	2560.278530
370.259738	2562.605023
370.646918	2562.332800
371.034035	2567.104252
371.421090	2564.354303
371.808081	2565.879252
372.195010	2565.286917
372.581875	2565.327246
372.968678	2566.290106
373.355418	2565.617112
373.742096	2569.864284
374.128710	2569.957546
374.515262	2566.872359
374.901751	2565.763306
375.288177	2568.944274
375.674540	2568.475446
376.060841	2570.181877
376.447079	2572.100036
376.833254	2571.689182
377.219367	2566.867318
377.605417	2570.083574
377.991404	2572.611713
378.377329	2574.638257
378.763191	2570.864953
379.148991	2582.913311
379.534727	2582.845255
379.920402	2586.091758
380.306013	2584.405492
380.691563	2589.466811
381.077049	2592.015114
381.462474	2594.013932
381.847835	2599.765888
382.233134	2600.469129
382.618371	2604.313009
383.003545	2609.306272
383.388657	2611.536982
383.773706	2619.262551
384.158693	2625.795886
384.543618	2624.376801
384.928480	2634.451547
385.313280	2639.379275
385.698017	2648.377735
386.082692	2656.410813
386.467305	2657.817295
386.851856	2665.734427
387.236344	2677.961746
387.620770	2683.882581
388.005133	2689.697552
388.389435	2700.594006
388.773674	2705.798998
389.157851	2715.656974
389.541965	2724.990670
389.926018	2728.383367
390.310008	2741.792836
390.693936	2753.831112
391.077802	2761.624735
391.461606	2769.814090
391.845348	2779.437652
392.229027	2789.666154
392.612645	2805.205510
392.996200	2818.423416
393.379694	2833.728359
393.763125	2845.537262
394.146494	2860.164170
394.529801	2872.666231
394.913047	2889.854045
395.296230	2893.481155
395.679351	2901.279820
396.062410	2920.968047
396.445408	2920.408479
396.828343	2932.925664
397.211217	2942.009823
397.594028	2938.828855
397.976778	2955.363839
398.359466	2969.163998
398.742092	2970.084009
399.124656	2985.235197
399.507158	3000.232629
399.889598	3006.299658
400.271977	3026.076104
400.654294	3032.942156
401.036549	3044.829197
401.418742	3052.819426
401.800874	3075.948239
402.182944	3081.397727
402.564952	3111.995010
402.946898	3103.011674
403.328783	3114.142542
403.710606	3129.306332
404.092367	3157.254489
404.474067	3179.859023
404.855705	3172.057837
405.237282	3171.997344
405.618797	3203.688557
406.000250	3226.948441
406.381642	3259.811723
406.762972	3258.690066
407.144240	3249.563057
407.525447	3272.291099
407.906593	3274.239505
408.287677	3295.225829
408.668700	3312.892553
409.049661	3312.453972
409.430560	3327.700942
409.811399	3334.047755
410.192176	3351.142307
410.572891	3358.048688
410.953545	3400.694329
411.334138	3367.639483
411.714669	3417.647729
412.095139	3366.931201
412.475547	3415.588418
412.855894	3408.122469
413.236180	3439.889300
413.616405	3418.484561
413.996568	3448.189560
414.376670	3442.848458
414.756711	3440.882408
415.136691	3469.375009
415.516609	3486.940910
415.896466	3497.030779
416.276262	3523.290149
416.655997	3554.532700
417.035670	3559.220973
417.415283	3630.676809
417.794834	3651.393430
418.174324	3635.279382
418.553753	3633.933394
418.933121	3677.829241
419.312428	3663.409021
419.691674	3661.311901
420.070859	3702.649362
420.449983	3679.273532
420.829045	3728.157601
421.208047	3708.602965
421.586988	3760.930142
421.965867	3791.812250
422.344686	3797.486069
422.723444	3836.953262
423.102141	3744.130497
423.480777	3843.836958
423.859352	3815.440138
424.237866	3907.806680
424.616319	3893.630955
424.994712	3956.075728
425.373044	3943.092236
425.751314	4009.688399
426.129524	3942.867905
426.507673	4042.725601
426.885762	4018.762476
427.263789	4046.025036
427.641756	4051.771951
428.019662	4079.901590
428.397508	4077.806990
428.775292	4119.096561
429.153016	4123.613435
429.530679	4134.814878
429.908282	4146.374244
430.285824	4121.818784
430.663305	4198.572872
431.040726	4155.198784
431.418086	4145.126559
431.795385	4216.947878
432.172624	4252.815687
432.549802	4223.579515
432.926920	4236.058892
433.303977	4235.211978
433.680974	4272.153553
434.057910	4294.649702
434.434786	4301.263696
434.811601	4298.143222
435.188355	4401.844798
435.565050	4373.231208
435.941683	4372.512844
436.318257	4462.988953
436.694770	4467.538594
437.071222	4519.601110
437.447614	4456.077531
437.823946	4460.279333
438.200218	4475.813648
438.576429	4459.661791
438.952580	4489.795288
439.328670	4491.000124
439.704700	4533.986043
440.080670	4493.518180
440.456580	4555.836924
440.832429	4593.315382
441.208218	4492.570443
441.583947	4546.803177
441.959616	4564.510229
442.335224	4587.018981
442.710773	4613.419504
443.086261	4665.111496
443.461689	4618.286738
443.837057	4629.654540
444.212365	4703.373853
444.587612	4707.368968
444.962800	4672.602650
445.337927	4713.773754
445.712995	4603.778297
446.088002	4795.276608
446.462949	4814.861491
446.837837	4837.012321
447.212664	4825.987318
447.587431	5050.981576
447.962139	5351.278069
448.336786	5687.956570
448.711374	5668.417057
449.085901	5312.075536
449.460369	5248.834261
449.834776	5189.872926
450.209124	5425.904790
450.583412	5435.636737
450.957640	5558.328340
451.331808	5422.365900
451.705917	5268.194813
452.079965	5263.446046
452.453954	5299.906191
452.827883	5263.055356
453.201752	5266.359832
453.575562	5304.604546
453.949311	5437.907777
454.323001	5442.361637
454.696632	5433.201860
455.070202	5594.107929
455.443713	5618.683554
455.817164	5712.244849
456.190556	5784.706394
456.563888	5758.341160
456.937160	5833.779507
457.310373	5677.476011
457.683526	5735.096399
458.056619	5726.218927
458.429653	5708.819385
458.802628	5755.336632
459.175542	5789.198062
459.548398	5924.777375
459.921194	6116.557990
460.293930	6178.337331
460.666607	6426.326812
461.039224	6647.308311
461.411782	6766.332474
461.784280	6682.462798
462.156719	6691.577204
462.529099	6651.263097
462.901419	6507.204564
463.273680	6379.403752
463.645882	6368.512339
464.018024	6373.389655
464.390106	6434.959788
464.762130	6698.602052
465.134094	7090.566887
465.505999	7726.344607
465.877845	8433.835261
466.249631	8789.224004
466.621358	8710.506387
466.993026	8510.354935
467.364634	8298.450033
467.736184	8012.440170
468.107674	7855.617436
468.479105	7774.656505
468.850477	7705.877522
469.221790	7537.999538
469.593043	7310.237686
469.964238	7209.545679
470.335373	7188.692946
470.706449	7346.574323
471.077467	7533.926285
471.448425	8205.380251
471.819324	8778.935009
472.190164	8809.998599
472.560945	8326.138571
472.931667	7857.011315
473.302330	7658.437744
473.672934	7545.329375
474.043479	7622.600181
474.413965	7521.577979
474.784393	7473.376986
475.154761	7624.709904
475.525070	7641.504508
475.895321	7592.086077
476.265513	7687.888165
476.635645	7855.335131
477.005719	7846.349274
477.375734	7927.073271
477.745691	8039.750621
478.115588	8250.347343
478.485427	8490.911205
478.855207	8962.909398
479.224928	9394.999297
479.594591	9779.891394
479.964194	9782.432135
480.333739	9869.918840
480.703226	9867.007573
481.072653	9966.444333
481.442022	10088.861192
481.811333	10236.083049
482.180584	10080.389533
482.549777	10017.990131
482.918912	9957.014855
483.287988	9940.225292
483.657005	9846.757258
484.025964	9765.017469
484.394864	9829.773611
484.763706	9787.400192
485.132489	9702.272748
485.501213	9691.136839
485.869879	9750.786292
486.238487	9682.685345
486.607036	9762.915308
486.975527	9708.261639
487.343959	9763.623590
487.712333	9800.499631
488.080648	9845.759110
488.448905	9955.096696
488.817104	9953.591911
489.185244	10123.035174
489.553326	10340.923926
489.921350	10813.338014
490.289315	11448.490632
490.657222	11741.968964
491.025070	11908.626990
491.392861	11828.991883
491.760593	11663.778148
492.128267	11410.505537
492.495883	11175.502068
492.863440	10932.445356
493.230939	10712.832530
493.598380	10527.360918
493.965763	10506.974492
494.333088	10373.678823
494.700354	10310.165326
495.067563	10279.157188
495.434713	10281.072827
495.801805	10322.763169
496.168839	10282.355800
496.535815	10255.743549
496.902733	10297.159149
497.269593	10256.013251
497.636395	10263.610270
498.003139	10375.377692
498.369825	10309.547784
498.736453	10398.385518
499.103023	10335.890334
499.469535	10348.773002
499.835989	10397.135312
500.202385	10360.539055
500.568723	10380.310461
500.935003	10443.019894
501.301226	10417.627602
501.667390	10585.107336
502.033497	10687.162975
502.399546	10607.802610
502.765537	10519.302634
503.131470	10622.868099
503.497345	10714.715401
503.863163	10489.789199
504.228923	10619.777871
504.594625	10736.969575
504.960269	10636.259924
505.325856	10793.717844
505.691385	10676.707622
506.056856	10740.601726
506.422270	10846.513848
506.787625	10782.619743
507.152924	10831.493730
507.518164	10892.007741
507.883347	10759.954716
508.248472	10830.891312
508.613540	10935.482652
508.978550	11017.991217
509.343503	10992.177988
509.708398	11041.709845
510.073236	11180.704539
510.438016	11188.142762
510.802738	11104.661254
511.167403	11232.235214
511.532010	11291.589759
511.896561	11385.428317
512.261053	11588.181005
512.625488	11501.732778
512.989866	11495.701037
513.354186	11467.263888
513.718449	11477.089097
514.082655	11615.372988
514.446803	11577.161042
514.810894	11682.352279
515.174927	11677.399345
515.538904	11663.211018
515.902822	11827.545072
516.266684	11696.966584
516.630488	11791.389916
516.994235	11779.669233
517.357925	11905.667833
517.721558	11959.895525
518.085133	12026.151410
518.448651	12052.783825
518.812112	12020.361644
519.175516	12028.803057
519.538863	12119.092643
519.902152	12127.589507
520.265385	12225.115670
520.628560	12252.380750
520.991678	12200.285466
521.354739	12253.068868
521.717743	12329.863285
522.080690	12291.023715
522.443580	12432.791043
522.806413	12447.175976
523.169189	12442.328907
523.531908	12501.408709
523.894569	12454.893983
524.257174	12475.784524
524.619722	12586.543715
524.982213	12565.348184
525.344647	12554.184549
525.707025	12566.643760
526.069345	12666.917352
526.431608	12647.377839
526.793815	12727.156619
527.155964	12614.373405
527.518057	12652.905464
527.880093	12606.355450
528.242072	12726.660066
528.603995	12641.812405
528.965860	12669.027074
529.327669	12696.030015
529.689421	12640.491623
530.051117	12660.411743
530.412755	12691.765199
530.774337	12695.420035
531.135862	12654.506031
531.497331	12716.343344
531.858743	12678.043178
532.220098	12761.804470
532.581396	12690.273017
532.942638	12607.141870
533.303824	12669.105212
533.664953	12658.123059
534.026025	12609.755708
534.387040	12717.921226
534.747999	12687.497862
535.108902	12727.738873
535.469748	12606.506684
535.830537	12631.442752
536.191270	12676.515708
536.551947	12605.024585
536.912567	12666.821570
537.273131	12692.324767
537.633638	12569.865058
537.994089	12636.141107
538.354483	12549.902088
538.714821	12680.276409
539.075103	12757.428748
539.435328	12693.643029
539.795497	12675.941017
540.155609	12661.808142
540.515665	12772.864761
540.875665	12637.126653
541.235609	12732.636354
541.595496	12686.514837
541.955328	12866.690717
542.315102	12711.604660
542.674821	12647.846667
543.034483	12658.241526
543.394090	12671.217456
543.753640	12641.124288
544.113134	12877.244372
544.472571	12644.191830
544.831953	12921.782967
545.191278	12737.271695
545.550548	12670.201663
545.909761	12782.465639
546.268918	12827.029439
546.628019	12888.889438
546.987064	12782.311884
547.346053	12629.746404
547.704986	12830.588493
548.063863	12705.119215
548.422684	12759.402360
548.781449	12716.882748
549.140158	12821.685816
549.498811	12762.638781
549.857408	12640.980615
550.215949	12842.772962
550.574434	12803.560347
550.932864	12749.398190
551.291237	12954.023666
551.649555	12844.116430
552.007817	12897.751786
552.366022	12814.925628
552.724173	12865.672404
553.082267	12947.427316
553.440305	13039.415771
553.798288	12863.431611
554.156215	12937.541613
554.514086	12984.648676
554.871902	12927.587855
555.229661	12945.166359
555.587365	12899.954770
555.945014	12909.898446
556.302606	12884.178479
556.660143	12951.800517
557.017625	12984.162204
557.375050	12954.096763
557.732421	13047.834498
558.089735	13044.227552
558.446994	13021.857432
558.804197	13138.913024
559.161345	13136.841110
559.518437	12949.156432
559.875474	13035.090461
560.232455	13057.584089
560.589381	13101.288373
560.946251	13050.024879
561.303065	13219.803379
561.659825	13170.642047
562.016528	13081.688367
562.373177	13027.253987
562.729770	13167.052745
563.086307	13041.512891
563.442789	13147.634221
563.799216	13187.759285
564.155587	13125.027166
564.511904	13148.062719
564.868164	13163.896983
565.224370	13222.651631
565.580520	13177.893747
565.936615	13233.815266
566.292654	13170.808405
566.648638	13246.922266
567.004567	13244.434457
567.360441	13254.415941
567.716260	13222.210530
568.072023	13297.626192
568.427732	13283.127833
568.783385	13177.114888
569.138982	13290.694605
569.494525	13290.445068
569.850013	13241.266092
570.205445	13225.948546
570.560823	13241.155186
570.916145	13190.499152
571.271412	13206.540103
571.626625	13164.915296
571.981782	13168.131552
572.336884	13123.318215
572.691931	13204.816029
573.046923	13091.359820
573.401860	13075.097058
573.756743	13059.106518
574.111570	13083.961927
574.466342	13060.268504
574.821059	13112.467131
575.175722	12980.613232
575.530330	13004.402437
575.884882	12935.260491
576.239380	12941.274588
576.593823	12918.468408
576.948211	12924.948811
577.302544	12788.104169
577.656823	12806.499340
578.011047	12874.479299
578.365216	12812.891523
578.719330	12750.663520
579.073389	12719.733520
579.427394	12739.230183
579.781344	12727.819531
580.135239	12661.656908
580.489080	12664.427022
580.842866	12550.965772
581.196597	12649.996719
581.550273	12637.809729
581.903895	12597.387237
582.257463	12708.711038
582.610975	12554.484497
582.964434	12625.368162
583.317837	12544.160214
583.671186	12494.272956
584.024481	12555.026421
584.377721	12439.679780
584.730906	12517.308508
585.084037	12528.774613
585.437113	12445.449381
585.790135	12472.442239
586.143103	12379.052343
586.496016	12396.514900
586.848874	12400.918348
587.201679	12405.931776
587.554428	12277.364709
587.907124	12330.906804
588.259765	12264.373655
588.612352	12328.056031
588.964884	12199.062987
589.317362	12245.602919
589.669786	12244.032599
590.022155	12194.475537
590.374470	12293.040177
590.726731	12188.605113
591.078937	12073.797875
591.431090	12094.045670
591.783188	12011.605160
592.135232	11944.179727
592.487222	12004.325734
592.839157	12010.727999
593.191038	11950.461005
593.542866	11898.121225
593.894639	11754.040007
594.246358	11810.495889
594.598022	11814.206178
594.949633	11723.414998
595.301190	11716.894265
595.652692	11668.476503
596.004141	11753.563618
596.355535	11536.168900
596.706876	11516.145437
597.058162	11478.845939
597.409395	11576.377143
597.760573	11612.706218
598.111698	11492.358752
598.462768	11501.130360
598.813785	11509.571772
599.164748	11382.930426
599.515657	11470.454939
599.866511	11338.956441
600.217312	11468.007459
600.568060	11229.951571
600.918753	11396.596994
601.269392	11394.058773
601.619978	11298.836418
601.970510	11334.119454
602.320988	11378.161494
602.671412	11450.078595
603.021783	11372.805268
603.372100	11296.918259
603.722363	11313.848974
604.072572	11317.733183
604.422728	11316.908954
604.772830	11272.579568
605.122878	11283.796135
605.472872	11257.246899
605.822813	11309.967286
606.172701	11271.311718
606.522534	11316.641773
606.872314	11362.851510
607.222041	11296.948506
607.571714	11374.383149
607.921333	11246.917574
608.270899	11284.128852
608.620411	11354.311795
608.969870	11308.906123
609.319276	11280.894951
609.668627	11302.511419
610.017926	11376.591175
610.367171	11402.134701
610.716362	11402.530432
611.065500	11373.473221
611.414585	11390.182126
611.763616	11449.193872
612.112594	11410.916391
612.461518	11432.900863
612.810389	11483.108235
613.159207	11424.338463
613.507971	11419.309912
613.856682	11528.622293
614.205340	11478.525826
614.553945	11620.774585
614.902496	11495.335554
615.250994	11555.877291
615.599439	11546.599047
615.947830	11592.723084
616.296169	11559.973228
616.644454	11562.261912
616.992686	11582.799573
617.340864	11679.821620
617.688990	11559.479195
618.037063	11704.924045
618.385082	11671.236535
618.733048	11708.566279
619.080961	11692.064062
619.428821	11673.540342
619.776628	11675.808861
620.124382	11627.088630
620.472083	11647.527988
620.819731	11669.915753
621.167326	11595.772982
621.514868	11567.232490
621.862357	11476.247225
622.209793	11459.445059
622.557176	11392.322095
622.904506	11323.666621
623.251783	11248.583676
623.599007	11189.297186
623.946179	11135.024124
624.293297	11116.681885
624.640363	10981.047121
624.987376	10965.220418
625.334336	10902.962168
625.681243	10815.455299
626.028097	10782.856678
626.374899	10752.443397
626.721647	10718.072810
627.068343	10692.236896
627.414987	10616.175967
627.761577	10555.757738
628.108115	10599.968657
628.454600	10475.179935
628.801032	10492.415640
629.147412	10465.682401
629.493739	10449.815369
629.840014	10369.623215
630.186236	10421.060628
630.532405	10315.939967
630.878521	10352.427839
631.224585	10304.710797
631.570597	10228.206246
631.916556	10237.912988
632.262462	10216.750224
632.608316	10192.696359
632.954117	10177.681282
633.299866	10152.828393
633.645562	10130.823757
633.991206	10029.415906
634.336797	9933.601216
634.682336	9926.873796
635.027823	9867.645279
635.373257	9826.363270
635.718639	9764.140308
636.063968	9727.249145
636.409245	9610.843861
636.754470	9602.888920
637.099642	9551.123832
637.444762	9445.025188
637.789829	9450.149521
638.134845	9376.740238
638.479808	9357.062094
638.824719	9331.029576
639.169577	9239.131862
639.514383	9244.074713
639.859137	9176.309003
640.203839	9207.324702
640.548489	9137.358527
640.893086	9137.938260
641.237632	9074.709588
641.582125	9079.964991
641.926566	9063.971930
642.270955	9049.899549
642.615292	9043.179691
642.959576	9026.042289
643.303809	9006.328857
643.647990	9022.757977
643.992118	9006.258280
644.336195	8982.312800
644.680219	8980.697110
645.024192	9015.206328
645.368112	9099.713711
645.711981	9068.269514
646.055797	9207.213796
646.399562	9163.595213
646.743274	9316.984921
647.086935	9382.217452
647.430544	9364.701963
647.774101	9387.094768
648.117606	9415.579808
648.461059	9484.605807
648.804460	9416.489736
649.147810	9301.841295
649.491108	9257.960571
649.834354	9195.591416
650.177548	9049.410557
650.520690	8961.507958
650.863781	8949.142007
651.206820	8924.556300
651.549807	8838.178649
651.892742	8750.611287
652.235626	8701.351652
652.578458	8664.432762
652.921238	8563.420641
653.263967	8593.486083
653.606644	8531.789922
653.949269	8509.543310
654.291843	8434.566228
654.634365	8503.388061
654.976836	8429.646062
655.319255	8416.591994
655.661622	8415.606449
656.003938	8373.038946
656.346203	8334.282555
656.688416	8366.293882
657.030577	8319.602715
657.372687	8284.506202
657.714746	8323.751585
658.056753	8339.729522
658.398708	8237.242864
658.740612	8230.147440
659.082465	8277.188967
659.424266	8224.082932
659.766016	8236.879901
660.107715	8214.305614
660.449362	8232.549550
660.790958	8226.573262
661.132503	8226.689208
661.473996	8212.894091
661.815438	8239.077844
662.156829	8268.036752
662.498168	8216.440543
662.839456	8199.706432
663.180693	8229.497131
663.521879	8250.533866
663.863013	8237.247905
664.204097	8222.923467
664.545129	8296.524313
664.886110	8289.809496
665.227040	8294.054147
665.567918	8311.655336
665.908746	8323.597829
666.249522	8343.084410
666.590248	8338.804470
666.930922	8352.574382
667.271545	8347.230759
667.612118	8364.227009
667.952639	8327.015732
668.293109	8329.203593
668.633528	8301.310888
668.973896	8294.507851
669.314213	8297.222513
669.654480	8261.352182
669.994695	8248.368691
670.334859	8231.594251
670.674973	8203.908234
671.015035	8229.623160
671.355047	8219.702169
671.695008	8200.802883
672.034918	8184.535080
672.374777	8193.253756
672.714585	8160.166142
673.054342	8194.937501
673.394049	8155.848394
673.733705	8202.456382
674.073310	8151.144997
674.412864	8157.368302
674.752368	8097.421421
675.091820	8151.984350
675.431223	8075.782268
675.770574	8034.858181
676.109875	8009.196187
676.449125	7965.232285
676.788324	7949.163607
677.127473	7860.678754
677.466571	7845.903132
677.805619	7784.794265
678.144616	7783.339892
678.483562	7762.104032
678.822458	7718.006538
679.161303	7695.603651
679.500098	7675.171854
679.838842	7661.815317
680.177535	7673.946854
680.516179	7708.491361
680.854771	7723.183803
681.193314	7839.110177
681.531805	7993.344279
681.870247	8117.323896
682.208638	8266.743696
682.546978	8346.010799
682.885268	8373.774954
683.223508	8309.265829
683.561697	8260.613653
683.899836	8221.559834
684.237925	8144.533524
684.575963	8116.812219
684.913951	8031.893983
685.251889	8042.729943
685.589776	8040.552164
685.927614	8027.689660
686.265401	8043.178606
686.603137	8046.639358
686.940824	8119.894885
687.278460	8174.465375
687.616046	8185.205553
687.953582	8299.596896
688.291068	8280.374976
688.628504	8342.343360
688.965889	8344.669853
689.303224	8303.791136
689.640510	8261.984847
689.977745	8154.058784
690.314930	8028.660082
690.652065	7963.682130
690.989150	7844.206784
691.326185	7694.169442
691.663170	7580.123419
692.000105	7451.085004
692.336990	7342.866554
692.673825	7265.041221
693.010610	7169.975142
693.347345	7080.245124
693.684030	6959.433872
694.020665	6917.312511
694.357251	6804.083155
694.693786	6793.262318
695.030272	6752.832264
695.366707	6654.761657
695.703093	6604.546724
696.039429	6608.166272
696.375716	6553.747017
696.711952	6541.547424
697.048139	6511.353433
697.384276	6482.359237
697.720363	6506.637434
698.056400	6476.004862
698.392388	6444.290964
698.728326	6442.498833
699.064214	6412.486324
699.400053	6410.958854
699.735842	6352.115986
700.071581	6311.706097
700.407270	6263.679024
700.742910	6236.459314
701.078501	6189.062386
701.414042	6147.495552
701.749533	6092.640236
702.084974	6039.030085
702.420366	6071.487554
702.755709	5999.883005
703.091002	5949.665551
703.426246	5957.343228
703.761440	5941.786228
704.096584	5898.245782
704.431679	5883.018977
704.766725	5869.082707
705.101721	5856.389082
705.436668	5867.288056
705.771565	5812.861239
706.106413	5870.776535
706.441212	5868.387028
706.775961	5887.775305
707.110661	5895.846193
707.445311	5955.898938
707.779913	5920.358803
708.114465	5963.869002
708.448967	6009.491444
708.783421	6116.003463
709.117825	6161.993910
709.452180	6201.781217
709.786485	6255.998826
710.120742	6384.389453
710.454949	6395.721967
710.789107	6472.990252
711.123216	6593.614982
711.457275	6619.629856
711.791286	6726.156999
712.125247	6747.150884
712.459159	6714.595112
712.793023	6846.201995
713.126837	6678.568506
713.460602	6729.431228
713.794318	6690.150557
714.127985	6636.762218
714.461602	6489.810062
714.795171	6496.875239
715.128691	6324.906358
715.462162	6236.766824
715.795584	6170.170662
716.128957	6123.159381
716.462281	6061.768210
716.795556	6022.192632
717.128782	5930.914979
717.461960	5834.606256
717.795088	5825.443959
718.128167	5756.987610
718.461198	5672.853273
718.794180	5650.447865
719.127113	5593.361838
719.459997	5559.049225
719.792833	5492.387527
720.125619	5485.667669
720.458357	5429.920069
720.791046	5403.658178
721.123686	5372.975195
721.456278	5329.114636
721.788821	5318.356814
722.121315	5279.063540
722.453761	5281.425321
722.786158	5266.611890
723.118506	5272.641110
723.450805	5250.235702
723.783056	5279.121513
724.115259	5257.021095
724.447412	5243.389815
724.779518	5291.288338
725.111574	5290.824552
725.443582	5329.172609
725.775542	5318.011495
726.107453	5404.003497
726.439315	5377.539960
726.771129	5443.327018
727.102895	5509.623232
727.434612	5552.054624
727.766281	5579.186114
728.097901	5641.560310
728.429473	5660.744421
728.760996	5664.479916
729.092471	5691.382034
729.423897	5676.707235
729.755276	5642.991998
730.086606	5655.093288
730.417887	5745.962607
730.749120	5837.913253
731.080305	5874.101176
731.411442	5951.316529
731.742530	5967.022244
732.073570	5996.429815
732.404562	6064.273663
732.735506	6058.128497
733.066401	6028.952819
733.397249	5966.739939
733.728048	5872.503130
734.058798	5735.419033
734.389501	5602.297284
734.720156	5517.527761
735.050762	5410.998098
735.381320	5335.920194
735.711831	5280.530516
736.042293	5205.210636
736.372707	5199.945151
736.703073	5156.321526
737.033391	5181.093756
737.363661	5165.239327
737.693883	5178.968910
738.024056	5205.056881
738.354182	5232.379935
738.684260	5280.848109
739.014290	5319.193645
739.344272	5356.972052
739.674207	5410.524230
740.004093	5441.847439
740.333931	5447.150733
740.663722	5465.354339
740.993464	5476.119723
741.323159	5458.296724
741.652806	5415.063789
741.982405	5385.971290
742.311956	5333.548331
742.641460	5320.632895
742.970915	5268.925780
743.300323	5211.769178
743.629683	5179.024363
743.958996	5124.272391
744.288260	5074.410338
744.617477	5015.088560
744.946647	4998.165407
745.275768	4948.706646
745.604842	4912.697684
745.933869	4878.715266
746.262847	4871.902147
746.591778	4856.738356
746.920662	4833.153318
747.249498	4831.721630
747.578286	4848.922047
747.907027	4872.378536
748.235720	4912.894289
748.564365	4921.799488
748.892963	4911.016460
749.221514	4930.145118
749.550017	4906.918002
749.878473	4900.677053
750.206881	4861.507288
750.535242	4842.638249
750.863555	4829.301876
751.191821	4807.398063
751.520039	4813.094567
751.848210	4796.025220
752.176334	4804.186848
752.504411	4784.561636
752.832440	4756.283283
753.160421	4767.751908
753.488356	4749.707098
753.816243	4725.943099
754.144082	4691.943037
754.471875	4685.321481
754.799620	4675.909647
755.127318	4663.793234
755.454969	4659.896422
755.782572	4652.987521
756.110129	4654.540196
756.437638	4636.228205
756.765100	4631.983553
757.092515	4630.667812
757.419882	4640.092249
757.747203	4633.516064
758.074477	4649.761182
758.401703	4640.213237
758.728882	4670.873534
759.056014	4685.505483
759.383099	4705.352506
759.710138	4733.199840
760.037129	4753.059466
760.364073	4766.836939
760.690970	4765.044809
761.017820	4762.743522
761.344623	4800.872289
761.671379	4861.940827
761.998088	4950.342501
762.324751	5179.029404
762.651366	5640.796576
762.977935	6333.015054
763.304456	6891.043059
763.630931	7203.854217
763.957359	7137.126984
764.283740	6845.581933
764.610074	6526.804570
764.936362	6116.704184
765.262602	5801.175844
765.588796	5453.540395
765.914943	5203.547056
766.241044	4977.713446
766.567097	4806.359585
766.893104	4650.693796
767.219064	4553.883477
767.544978	4458.338488
767.870845	4375.600551
768.196665	4330.361236
768.522438	4281.167136
768.848165	4236.227770
769.173846	4197.892316
769.499479	4169.850898
769.825066	4130.844970
770.150607	4092.504474
770.476101	4080.866971
770.801548	4055.172209
771.126949	4026.079711
771.452303	4006.799818
771.777611	3967.839260
772.102872	3967.733396
772.428087	3942.167184
772.753256	3911.655601
773.078378	3894.419896
773.403453	3864.205740
773.728482	3838.649611
774.053465	3824.022703
774.378401	3803.303560
774.703291	3784.878143
775.028135	3760.577261
775.352932	3750.570571
775.677683	3730.353023
776.002388	3711.725960
776.327046	3712.837534
776.651658	3689.854914
776.976224	3672.725073
777.300743	3671.711801
777.625216	3655.590191
777.949643	3645.076865
778.274024	3646.803460
778.598359	3629.754277
778.922647	3631.788383
779.246889	3620.198770
779.571086	3620.360087
779.895236	3621.171713
780.219339	3621.015437
780.543397	3620.773462
780.867409	3632.720997
781.191374	3631.639669
781.515294	3626.848052
781.839167	3642.457985
782.162995	3642.689878
782.486776	3632.743682
782.810511	3627.664719
783.134201	3612.296762
783.457844	3610.711319
783.781441	3602.032972
784.104993	3594.299842
784.428498	3590.012341
784.751958	3585.752566
785.075372	3579.418356
785.398739	3569.313363
785.722061	3577.918613
786.045337	3576.113880
786.368568	3600.802931
786.691752	3597.652210
787.014891	3645.747338
787.337983	3689.756611
787.661030	3777.054272
787.984031	3875.669324
788.306987	3949.499542
788.629897	3993.914628
788.952760	4003.883510
789.275579	3990.617714
789.598351	3939.326494
789.921078	3889.489647
790.243759	3829.018486
790.566395	3780.525107
790.888984	3731.686408
791.211529	3696.597457
791.534027	3648.323368
791.856480	3608.077316
792.178888	3592.371601
792.501249	3571.712953
792.823566	3543.154816
793.145836	3537.455792
793.468062	3529.667209
793.790241	3512.174405
794.112375	3519.799150
794.434464	3538.897562
794.756507	3539.220196
795.078505	3556.065211
795.400457	3594.829164
795.722364	3648.247750
796.044226	3693.045964
796.366042	3741.148654
796.687812	3735.794949
797.009538	3758.200357
797.331218	3750.013523
797.652852	3739.795104
797.974442	3723.779358
798.295986	3711.236968
798.617484	3683.709747
798.938938	3655.577588
799.260346	3641.911020
799.581709	3608.094960
799.903026	3593.251282
800.224299	3574.039445
800.545526	3543.626164
800.866708	3526.153525
801.187845	3511.171216
801.508936	3490.419306
801.829983	3483.981752
802.150984	3452.782051
802.471940	3447.801391
802.792851	3437.237653
803.113717	3432.660286
803.434538	3420.211156
803.755314	3411.421904
804.076045	3407.474681
804.396731	3396.384143
804.717372	3398.934966
805.037967	3394.410531
805.358518	3399.935635
805.679024	3412.500711
805.999485	3407.401584
806.319901	3413.269487
806.640272	3414.305444
806.960598	3426.147115
807.280879	3427.795572
807.601115	3437.661110
807.921306	3428.665171
808.241453	3431.886468
808.561554	3437.338476
808.881611	3434.505348
809.201623	3436.405863
809.521590	3427.868669
809.841513	3424.428081
810.161390	3430.603495
810.481223	3416.551278
810.801011	3409.851585
811.120755	3407.850247
811.440453	3395.774163
811.760107	3388.260323
812.079716	3380.151627
812.399281	3370.815410
812.718801	3369.456819
813.038276	3361.748895
813.357707	3355.734798
813.677093	3365.439020
813.996434	3349.879498
814.315731	3355.727237
814.634983	3354.978625
814.954191	3354.693800
815.273354	3373.421687
815.592473	3381.278325
815.911547	3401.092580
816.230577	3417.496495
816.549562	3443.912141
816.868502	3458.654995
817.187399	3481.451093
817.506250	3506.762727
817.825058	3518.178419
818.143821	3563.553845
818.462539	3609.856843
818.781213	3663.048578
819.099843	3751.140221
819.418429	3900.451636
819.736970	4052.185326
820.055466	4239.990992
820.373919	4477.625943
820.692327	4817.734949
821.010691	5332.414071
821.329011	6405.842083
821.647286	8154.313363
821.965517	10338.095838
822.283704	11966.272584
822.601847	13062.647928
822.919945	12649.359013
823.237999	11974.046043
823.556010	11076.405587
823.873976	10112.557136
824.191897	9140.390781
824.509775	8368.922844
824.827609	7558.128865
825.145398	7011.531677
825.463144	6622.107583
825.780845	6493.664024
826.098502	6555.899589
826.416116	6931.846158
826.733685	7445.547297
827.051210	7732.777119
827.368692	7635.006461
827.686129	7192.143616
828.003522	6644.835625
828.320872	6073.456125
828.638177	5608.293736
828.955439	5242.999126
829.272656	4901.042537
829.589830	4615.977890
829.906960	4353.812684
830.224046	4143.873832
830.541088	3973.717246
830.858086	3854.776262
831.175041	3762.160183
831.491952	3712.986248
831.808819	3694.580995
832.125642	3732.263620
832.442421	3833.560566
832.759157	4046.710633
833.075849	4426.528808
833.392497	4891.436618
833.709101	5281.543788
834.025662	5394.720212
834.342179	5274.125730
834.658653	4999.347557
834.975083	4727.135332
835.291469	4477.701560
835.607811	4255.439608
835.924110	4093.701748
836.240366	3936.851287
836.556578	3773.424642
836.872746	3636.963127
837.188871	3520.951054
837.504952	3427.049481
837.820990	3353.282277
838.136984	3294.129378
838.452935	3266.045110
838.768842	3253.497678
839.084706	3284.505815
839.400526	3420.180909
839.716303	3647.511742
840.032037	3856.943958
840.347727	3924.089607
840.663373	3834.178107
840.978977	3684.304603
841.294537	3554.462124
841.610054	3446.049590
841.925527	3369.698795
842.240957	3305.164464
842.556344	3239.006881
842.871687	3183.294569
843.186987	3121.910960
843.502244	3066.755695
843.817458	3028.074922
844.132629	2995.095693
844.447756	2974.545430
844.762840	2954.060701
845.077881	2936.406580
845.392879	2921.081473
845.707833	2907.183012
846.022745	2899.107083
846.337613	2895.187586
846.652438	2886.204250
846.967221	2880.767365
847.281960	2872.424256
847.596656	2868.590458
847.911309	2862.709952
848.225919	2859.060157
848.540485	2859.407997
848.855009	2854.500433
849.169490	2848.158662
849.483928	2844.796212
849.798323	2843.556088
850.112675	2840.697754
850.426984	2839.056858
850.741251	2837.007629
851.055474	2837.302537
851.369654	2834.658452
851.683792	2833.864470
851.997887	2834.489573
852.311938	2836.216168
852.625947	2834.494614
852.939914	2830.854901
853.253837	2834.199707
853.567718	2831.437154
853.881555	2833.824141
854.195350	2834.734069
854.509103	2834.227433
854.822812	2831.016218
855.136479	2829.735765
855.450103	2832.793225
855.763685	2828.104952
856.077224	2830.065961
856.390720	2831.608554
856.704173	2833.738441
857.017584	2837.262208
857.330953	2838.459482
857.644278	2842.222703
857.957561	2843.727487
858.270802	2844.377796
858.584000	2845.033146
858.897155	2842.000892
859.210268	2838.845130
859.523339	2837.478977
859.836367	2837.383195
860.149352	2837.090808
860.462295	2836.937053
860.775195	2827.704180
861.088054	2830.663337
861.400869	2829.405569
861.713642	2827.961279
862.026373	2828.730055
862.339062	2833.993019
862.651708	2834.885304
862.964312	2840.526355
863.276873	2840.291941
863.589392	2849.736543
863.901869	2854.651668
864.214303	2861.782380
864.526696	2871.063144
864.839045	2877.044473
865.151353	2883.600494
865.463619	2885.211143
865.775842	2886.153838
866.088023	2893.947462
866.400162	2893.171124
866.712258	2892.987122
867.024313	2895.391753
867.336325	2894.033162
867.648296	2898.683626
867.960224	2897.700601
868.272110	2900.644635
868.583954	2900.165725
868.895755	2905.118659
869.207515	2901.420973
869.519233	2909.983373
869.830909	2912.209042
870.142542	2914.409506
870.454134	2914.538055
870.765684	2921.938469
871.077191	2929.399377
871.388657	2934.705191
871.700081	2940.767178
872.011463	2946.322530
872.322803	2954.647996
872.634101	2958.023048
872.945357	2965.869604
873.256571	2974.386633
873.567744	2979.011892
873.878874	2982.646564
874.189963	2992.197030
874.501010	2997.187772
874.812015	2995.509068
875.122979	3002.518793
875.433900	3006.831500
875.744780	3008.563136
876.055618	3013.344670
876.366415	3018.700896
876.677169	3021.695342
876.987882	3025.360261
877.298554	3034.192362
877.609183	3052.025444
877.919771	3066.677558
878.230317	3094.323245
878.540822	3132.820017
878.851285	3180.917665
879.161707	3247.274373
879.472087	3356.223790
879.782425	3516.822349
880.092722	3798.113693
880.402977	4219.463413
880.713191	4768.961785
881.023363	5367.503023
881.333494	5809.634900
881.643583	6100.448983
881.953631	6173.797772
882.263637	6128.389578
882.573602	5985.601416
882.883526	5816.001878
883.193408	5611.925887
883.503248	5392.088730
883.813048	5172.180996
884.122806	4954.708140
884.432522	4709.322415
884.742197	4483.274556
885.051831	4272.942494
885.361424	4070.746854
885.670975	3905.838109
885.980485	3752.823966
886.289954	3631.511120
886.599382	3529.052188
886.908768	3442.545988
887.218113	3363.767877
887.527417	3300.561890
887.836680	3240.859505
888.145901	3190.334541
888.455082	3156.163079
888.764221	3122.044550
889.073319	3093.002463
889.382376	3073.107549
889.691392	3055.261865
890.000366	3045.968498
890.309300	3040.468599
890.618193	3038.787374
890.927044	3033.531971
891.235855	3032.553987
891.544625	3036.314688
891.853353	3040.904658
892.162041	3055.460990
892.470687	3080.041656
892.779293	3113.272942
893.087858	3164.070129
893.396381	3240.604927
893.704864	3348.520907
894.013306	3509.124507
894.321707	3691.400027
894.630068	3847.897607
894.938387	3925.034823
895.246665	3933.516564
895.554903	3871.994323
895.863100	3786.786220
896.171256	3709.913665
896.479371	3640.345742
896.787446	3560.657702
897.095480	3493.622959
897.403473	3435.369906
897.711425	3379.120711
898.019336	3328.618432
898.327207	3274.564660
898.635038	3224.097669
898.942827	3174.112108
899.250576	3133.122486
899.558284	3088.324272
899.865952	3065.094635
900.173579	3036.697816
900.481165	3015.686286
900.788711	2993.197699
901.096216	2978.379227
901.403681	2966.199800
901.711105	2958.113789
902.018489	2949.049794
902.325832	2958.814509
902.633135	2968.720377
902.940397	3009.591531
903.247619	3094.676126
903.554800	3274.100874
903.861941	3551.694531
904.169041	3815.112463
904.476101	3988.757528
904.783121	4011.823327
905.090100	3944.775981
905.397039	3840.953418
905.703938	3732.641707
906.010796	3628.630100
906.317614	3542.716236
906.624391	3456.424285
906.931129	3383.710682
907.237826	3318.258861
907.544483	3249.457193
907.851099	3178.782737
908.157675	3105.842282
908.464211	3032.125489
908.770707	2970.646097
909.077163	2924.968202
909.383578	2890.557286
909.689954	2861.462267
909.996289	2839.457630
910.302584	2832.732731
910.608839	2815.945689
910.915054	2810.181129
911.221229	2802.722742
911.527363	2804.230047
911.833458	2803.355407
912.139513	2807.763896
912.445527	2810.939823
912.751502	2820.253355
913.057436	2836.352279
913.363331	2858.366998
913.669186	2889.241545
913.975000	2926.581372
914.280775	2983.422902
914.586510	3068.489852
914.892205	3177.935823
915.197859	3327.078359
915.503475	3509.255577
915.809050	3683.896270
916.114585	3819.977177
916.420081	3889.721540
916.725536	3924.964247
917.030952	3889.116602
917.336328	3851.411292
917.641665	3806.789518
917.946961	3743.822986
918.252218	3685.738812
918.557435	3607.525310
918.862612	3543.623643
919.167750	3483.170127
919.472848	3405.677510
919.777906	3341.085205
920.082925	3268.648866
920.387904	3197.437527
920.692843	3139.980976
920.997743	3088.256217
921.302603	3036.589431
921.607423	3002.307064
921.912204	2969.516879
922.216946	2940.694082
922.521647	2919.614497
922.826310	2896.475601
923.130932	2877.167982
923.435516	2855.057481
923.740059	2841.607682
924.044564	2825.382729
924.349028	2815.292859
924.653454	2798.110086
924.957840	2786.785134
925.262186	2777.058228
925.566493	2764.861156
925.870761	2754.083169
926.174989	2750.292222
926.479178	2743.920203
926.783328	2733.943760
927.087438	2726.503017
927.391509	2718.439691
927.695541	2710.835110
927.999533	2708.944678
928.303486	2703.671631
928.607400	2701.030066
928.911275	2696.182997
929.215110	2691.030937
929.518906	2689.284178
929.822663	2687.607994
930.126381	2687.933148
930.430060	2687.171934
930.733699	2685.520956
931.037299	2686.965247
931.340861	2687.683611
931.644383	2691.479600
931.947866	2690.173941
932.251309	2687.355936
932.554714	2688.714527
932.858080	2687.154290
933.161407	2687.650844
933.464694	2685.800740
933.767943	2684.348888
934.071153	2682.874351
934.374323	2681.193126
934.677455	2682.221521
934.980548	2679.758917
935.283602	2677.089627
935.586617	2675.045439
935.889593	2678.957374
936.192530	2679.484175
936.495428	2680.230265
936.798287	2685.374763
937.101108	2686.778724
937.403890	2693.891792
937.706632	2704.417722
938.009336	2713.827035
938.312002	2728.600137
938.614628	2738.130438
938.917216	2747.282653
939.219765	2755.663571
939.522275	2763.641197
939.824747	2766.602875
940.127179	2762.088522
940.429573	2764.556166
940.731929	2766.365941
941.034246	2763.051382
941.336524	2762.264962
941.638763	2764.740168
941.940964	2764.190683
942.243126	2759.807399
942.545250	2756.139960
942.847335	2746.622262
943.149381	2741.946591
943.451389	2736.792012
943.753359	2728.544684
944.055290	2725.953531
944.357182	2719.619321
944.659036	2717.406254
944.960851	2716.234186
945.262628	2709.073227
945.564367	2711.165306
945.866067	2707.117259
946.167729	2705.630119
946.469352	2705.257074
946.770937	2706.502239
947.072484	2702.439069
947.373992	2704.669779
947.675462	2700.898996
947.976893	2699.132072
948.278286	2696.989581
948.579641	2696.301464
948.880958	2693.662420
949.182236	2696.941690
949.483476	2694.980682
949.784678	2693.836340
950.085841	2694.557225
950.386967	2695.116793
950.688054	2697.569314
950.989103	2700.251208
951.290114	2701.793801
951.591087	2705.436035
951.892021	2711.364432
952.192917	2717.665874
952.493776	2719.795761
952.794596	2723.558983
953.095378	2723.201061
953.396122	2724.536967
953.696828	2725.600650
953.997496	2721.378684
954.298126	2720.607387
954.598718	2716.975236
954.899272	2713.232179
955.199788	2708.259081
955.500266	2705.567105
955.800706	2698.643080
956.101108	2686.632531
956.401472	2682.561799
956.701798	2677.205573
957.002087	2668.655776
957.302337	2667.755930
957.602550	2658.883499
957.902724	2656.136071
958.202861	2650.051398
958.502960	2646.699031
958.803022	2643.891108
959.103045	2638.804584
959.403031	2634.844757
959.702979	2633.276958
960.002889	2629.760754
960.302762	2625.226236
960.602596	2623.323200
960.902393	2622.773714
961.202153	2618.551748
961.501875	2618.032509
961.801559	2615.867334
962.101205	2615.154010
962.400814	2614.599483
962.700385	2610.979935
962.999918	2609.747373
963.299414	2609.606221
963.598873	2609.482712
963.898293	2608.429111
964.197677	2607.776282
964.497022	2608.300562
964.796331	2606.009357
965.095601	2604.144130
965.394835	2604.794439
965.694030	2602.107504
965.993189	2607.025150
966.292309	2604.307968
966.591393	2602.692278
966.890439	2603.680344
967.189447	2600.758996
967.488419	2603.982813
967.787353	2603.776126
968.086249	2602.725046
968.385108	2605.817793
968.683930	2604.537340
968.982714	2604.365941
969.281462	2605.230499
969.580172	2606.304265
969.878844	2605.613627
970.177480	2606.841148
970.476078	2610.674945
970.774639	2612.774586
971.073162	2612.565378
971.371649	2610.606890
971.670098	2611.920110
971.968510	2612.681324
972.266885	2613.908845
972.565223	2616.754577
972.863524	2617.092334
973.161788	2617.467900
973.460014	2620.162397
973.758204	2618.990328
974.056356	2619.766666
974.354471	2621.142901
974.652550	2621.768004
974.950591	2618.329937
975.248595	2622.362860
975.546563	2620.071656
975.844493	2620.570730
976.142386	2620.863117
976.440243	2618.382869
976.738062	2620.243055
977.035845	2618.546707
977.333590	2615.030502
977.631299	2613.014041
977.928971	2614.939761
978.226606	2611.168978
978.524204	2609.185284
978.821765	2610.546396
979.119290	2610.138062
979.416777	2609.709564
979.714228	2612.109153
980.011642	2609.941457
980.309020	2612.938423
980.606360	2614.841459
980.903664	2619.134001
981.200931	2624.545680
981.498162	2634.259983
981.795356	2641.892290
982.092513	2656.695639
982.389633	2673.422187
982.686717	2694.559745
982.983764	2711.329143
983.280775	2725.489745
983.577749	2729.373954
983.874686	2729.336145
984.171587	2727.556618
984.468451	2720.597305
984.765279	2713.421222
985.062070	2707.666745
985.358824	2703.593493
985.655543	2691.877851
985.952224	2683.401151
986.248869	2670.677279
986.545478	2648.954947
986.842050	2639.953967
987.138586	2631.668830
987.435086	2620.767335
987.731549	2615.156531
988.027975	2609.376848
988.324366	2605.739656
988.620719	2606.188318
988.917037	2601.147164
989.213318	2599.952411
989.509563	2595.304467
989.805772	2596.095928
990.101944	2591.395052
990.398080	2594.313880
990.694180	2591.531163
990.990244	2591.536205
991.286271	2594.787749
991.582262	2593.787080
991.878217	2593.270362
992.174136	2595.138109
992.470019	2594.613829
992.765865	2596.862184
993.061676	2594.336566
993.357450	2598.072061
993.653188	2598.427462
993.948890	2602.241095
994.244556	2606.432814
994.540186	2607.889708
994.835780	2614.448249
995.131337	2622.136008
995.426859	2628.863428
995.722345	2634.209572
996.017795	2646.152065
996.313208	2656.708242
996.608586	2661.540187
996.903928	2665.457164
997.199234	2668.678461
997.494504	2668.136537
997.789738	2666.059582
998.084936	2663.007163
998.380099	2656.441060
998.675225	2652.098106
998.970316	2646.106695
999.265371	2642.908083
999.560390	2633.644963
999.855373	2628.941566
1000.150320	2619.754063
1000.445232	2614.801130
1000.740108	2609.228134
1001.034948	2607.073041
1001.329752	2601.626074
1001.624521	2599.541557
1001.919254	2594.381936
1002.213951	2590.064188
1002.508613	2587.059660
1002.803239	2588.503951
1003.097829	2585.428847
1003.392384	2590.580906
1003.686903	2588.922366
1003.981386	2587.551172
1004.275834	2586.623600
1004.570246	2585.138980
1004.864623	2583.828280
1005.158964	2583.951789
1005.453270	2582.731829
1005.747540	2584.092941
1006.041775	2580.574216
1006.335974	2583.223342
1006.630138	2582.754515
1006.924266	2582.507498
1007.218359	2582.847776
1007.512416	2581.421129
1007.806438	2581.884916
1008.100425	2581.244689
1008.394376	2579.006417
1008.688292	2582.530183
1008.982172	2579.240830
1009.276017	2577.743608
1009.569827	2582.348702
1009.863602	2578.129256
1010.157341	2581.529514
1010.451045	2580.375090
1010.744714	2578.429205
1011.038347	2581.461459
1011.331945	2577.912486
1011.625508	2579.160172
1011.919036	2580.790985
1012.212528	2579.671849
1012.505986	2579.568505
1012.799408	2579.172775
1013.092795	2579.051787
1013.386147	2578.194791
1013.679464	2577.851992
1013.972745	2578.855182
1014.265992	2577.746128
1014.559204	2578.711509
1014.852380	2574.275294
1015.145521	2577.269739
1015.438628	2576.188412
1015.731699	2579.046746
1016.024736	2578.494740
1016.317737	2578.482137
1016.610703	2581.463979
1016.903635	2573.904769
1017.196531	2574.933164
1017.489393	2575.759914
1017.782219	2576.334605
1018.075011	2578.998855
1018.367768	2579.785275
1018.660490	2579.603793
1018.953177	2579.603793
1019.245829	2579.603793
