Dividing Wavelength (nm)	Counts (n)	Blue Motor Position (mm): 13.600000	Red Motor Position (mm): 0.000000	
326.493990	2065.327963
326.888308	2065.327963
327.282561	2065.327963
327.676750	2034.917203
328.070874	2039.544982
328.464933	2043.905580
328.858929	2052.437733
329.252859	2067.130176
329.646726	2077.988821
330.040528	2095.685792
330.434265	2112.036774
330.827938	2133.912861
331.221547	2154.480769
331.615091	2175.399037
332.008571	2194.746985
332.401986	2215.884543
332.795338	2235.746690
333.188625	2256.831316
333.581847	2272.635333
333.975006	2290.647376
334.368100	2309.992803
334.761129	2325.000318
335.154095	2342.810715
335.546996	2381.252034
335.939833	2458.694239
336.332606	2468.579942
336.725315	2483.574854
337.117960	2490.095586
337.510540	2503.686537
337.903056	2509.919924
338.295508	2516.211284
338.687896	2524.846780
339.080220	2528.128572
339.472480	2532.335414
339.864676	2535.493697
340.256807	2539.965201
340.648875	2542.669780
341.040879	2542.478216
341.432818	2545.258412
341.824694	2543.919986
342.216506	2542.140459
342.608253	2543.269677
342.999937	2541.928730
343.391557	2541.333874
343.783113	2539.267001
344.174605	2534.588810
344.566033	2537.089223
344.957397	2534.462781
345.348697	2534.170394
345.739934	2532.484128
346.131106	2530.840712
346.522215	2527.856349
346.913260	2527.793335
347.304241	2523.190761
347.695159	2521.731347
348.086012	2520.760925
348.476802	2521.161697
348.867528	2518.131963
349.258191	2514.013341
349.648789	2512.795902
350.039324	2510.827332
350.429796	2512.586694
350.820203	2512.269102
351.210548	2514.777076
351.600828	2512.848834
351.991045	2510.494615
352.381198	2510.408916
352.771288	2511.427229
353.161314	2508.639471
353.551276	2509.723319
353.941175	2508.069820
354.331010	2510.678617
354.720782	2513.531911
355.110490	2515.724813
355.500135	2509.831704
355.889717	2511.212980
356.279235	2510.519821
356.668689	2512.168278
357.058080	2511.016375
357.447408	2512.410254
357.836672	2512.594256
358.225873	2512.508556
358.615010	2511.437311
359.004084	2511.825480
359.393095	2512.851355
359.782043	2511.369256
360.170927	2513.993176
360.559748	2516.614576
360.948505	2516.969978
361.337199	2516.564165
361.725830	2516.972498
362.114398	2514.673732
362.502903	2517.935358
362.891344	2521.320493
363.279722	2518.134484
363.668037	2518.033661
364.056289	2519.639268
364.444478	2519.664474
364.832603	2519.067098
365.220665	2520.690349
365.608665	2518.328568
365.996601	2519.452746
366.384474	2521.169259
366.772284	2521.045750
367.160031	2519.871162
367.547715	2523.377284
367.935336	2520.854187
368.322893	2518.668846
368.710388	2517.648013
369.097820	2519.475431
369.485189	2521.554907
369.872495	2524.241842
370.259738	2524.947603
370.646918	2522.893333
371.034035	2525.582789
371.421090	2523.634383
371.808081	2524.677902
372.195010	2525.303005
372.581875	2524.088087
372.968678	2525.287881
373.355418	2526.419620
373.742096	2523.820906
374.128710	2525.113962
374.515262	2523.710000
374.901751	2530.074457
375.288177	2526.485155
375.674540	2526.706966
376.060841	2528.829292
376.447079	2530.205527
376.833254	2528.967924
377.219367	2531.740558
377.605417	2528.105886
377.991404	2529.416586
378.377329	2531.390198
378.763191	2527.032121
379.148991	2530.228212
379.534727	2530.659231
379.920402	2529.603109
380.306013	2530.195445
380.691563	2531.160826
381.077049	2529.000691
381.462474	2530.780218
381.847835	2533.262987
382.233134	2528.022707
382.618371	2529.240146
383.003545	2531.669982
383.388657	2531.251566
383.773706	2532.952956
384.158693	2534.729963
384.543618	2530.301309
384.928480	2532.287523
385.313280	2529.986237
385.698017	2533.968748
386.082692	2533.308357
386.467305	2534.334232
386.851856	2532.411032
387.236344	2529.988757
387.620770	2532.554705
388.005133	2526.908612
388.389435	2531.087729
388.773674	2530.293747
389.157851	2535.370189
389.541965	2533.777184
389.926018	2535.896990
390.310008	2534.772812
390.693936	2536.199459
391.077802	2536.650642
391.461606	2537.600900
391.845348	2535.929757
392.229027	2537.033770
392.612645	2535.670138
392.996200	2538.036959
393.379694	2538.997299
393.763125	2537.202648
394.146494	2536.232226
394.529801	2539.045190
394.913047	2538.248688
395.296230	2538.624254
395.679351	2537.910931
396.062410	2538.019315
396.445408	2539.892104
396.828343	2538.397402
397.211217	2539.992927
397.594028	2538.304141
397.976778	2538.500746
398.359466	2540.371014
398.742092	2538.460416
399.124656	2538.621733
399.507158	2539.468647
399.889598	2540.963349
400.271977	2540.860006
400.654294	2540.388658
401.036549	2539.803884
401.418742	2538.760365
401.800874	2539.856816
402.182944	2539.662732
402.564952	2540.464275
402.946898	2540.950746
403.328783	2539.493853
403.710606	2540.996117
404.092367	2541.906045
404.474067	2543.526776
404.855705	2542.468134
405.237282	2543.380583
405.618797	2541.162475
406.000250	2542.939482
406.381642	2541.958977
406.762972	2543.075593
407.144240	2540.706250
407.525447	2542.475695
407.906593	2538.311702
408.287677	2542.649615
408.668700	2542.062321
409.049661	2545.608773
409.430560	2544.270346
409.811399	2543.925027
410.192176	2543.148689
410.572891	2547.562220
410.953545	2547.259750
411.334138	2544.159441
411.714669	2548.527601
412.095139	2545.144986
412.475547	2545.583567
412.855894	2542.309337
413.236180	2541.754810
413.616405	2549.545914
413.996568	2542.521066
414.376670	2546.914431
414.756711	2545.838145
415.136691	2547.473999
415.516609	2546.271684
415.896466	2548.638506
416.276262	2546.937117
416.655997	2546.667415
417.035670	2547.355532
417.415283	2548.668753
417.794834	2547.141283
418.174324	2547.373176
418.553753	2547.133722
418.933121	2547.930224
419.312428	2547.216901
419.691674	2549.061963
420.070859	2549.314021
420.449983	2550.216387
420.829045	2545.830583
421.208047	2546.218752
421.586988	2548.275543
421.965867	2550.037426
422.344686	2549.619010
422.723444	2545.886036
423.102141	2544.585418
423.480777	2547.957950
423.859352	2546.974925
424.237866	2549.248486
424.616319	2550.392828
424.994712	2549.631613
425.373044	2549.762683
425.751314	2545.875954
426.129524	2545.061807
426.507673	2547.630275
426.885762	2545.886036
427.263789	2546.879143
427.641756	2550.022303
428.019662	2544.948381
428.397508	2548.623383
428.775292	2549.987015
429.153016	2546.609442
429.530679	2547.179092
429.908282	2547.945347
430.285824	2548.119267
430.663305	2547.428629
431.040726	2548.152035
431.418086	2549.500543
431.795385	2550.801161
432.172624	2547.395862
432.549802	2548.530121
432.926920	2547.274874
433.303977	2549.371994
433.680974	2551.469114
434.057910	2547.284956
434.434786	2551.885009
434.811601	2550.203784
435.188355	2548.767055
435.565050	2547.922662
435.941683	2548.220090
436.318257	2549.351829
436.694770	2552.926007
437.071222	2547.048022
437.447614	2549.525749
437.823946	2550.347457
438.200218	2548.883002
438.576429	2549.989535
438.952580	2550.100441
439.328670	2548.388969
439.704700	2550.455842
440.080670	2548.061294
440.456580	2548.605738
440.832429	2548.073897
441.208218	2549.838301
441.583947	2551.701007
441.959616	2550.697817
442.335224	2550.213867
442.710773	2549.838301
443.086261	2549.548434
443.461689	2550.571788
443.837057	2551.867365
444.212365	2552.202602
444.587612	2550.521377
444.962800	2546.097764
445.337927	2546.284287
445.712995	2544.827394
446.088002	2550.826367
446.462949	2547.945347
446.837837	2549.009031
447.212664	2551.988353
447.587431	2550.465924
447.962139	2550.695297
448.336786	2550.352498
448.711374	2552.492468
449.085901	2548.653629
449.460369	2549.334185
449.834776	2548.716644
450.209124	2549.324103
450.583412	2551.189330
450.957640	2551.995914
451.331808	2550.082797
451.705917	2550.324772
452.079965	2549.808054
452.453954	2549.823177
452.827883	2550.077755
453.201752	2551.935421
453.575562	2549.528270
453.949311	2550.730585
454.323001	2552.371480
454.696632	2548.976263
455.070202	2550.539021
455.443713	2549.510626
455.817164	2549.109854
456.190556	2551.789227
456.563888	2549.737477
456.937160	2550.798640
457.310373	2552.331151
457.683526	2552.865513
458.056619	2550.571788
458.429653	2549.351829
458.802628	2554.524053
459.175542	2549.702189
459.548398	2553.150339
459.921194	2551.814433
460.293930	2551.020451
460.666607	2550.261758
461.039224	2550.778476
461.411782	2549.427447
461.784280	2552.303425
462.156719	2551.637993
462.529099	2554.345092
462.901419	2552.212684
463.273680	2551.660678
463.645882	2548.366284
464.018024	2550.150852
464.390106	2548.792261
464.762130	2550.823846
465.134094	2553.127653
465.505999	2553.150339
465.877845	2554.057746
466.249631	2553.964485
466.621358	2554.655123
466.993026	2555.557490
467.364634	2558.927501
467.736184	2555.852397
468.107674	2555.554969
468.479105	2555.761656
468.850477	2555.839794
469.221790	2553.462890
469.593043	2551.418702
469.964238	2553.152859
470.335373	2552.046326
470.706449	2554.319886
471.077467	2554.730740
471.448425	2555.227294
471.819324	2555.401214
472.190164	2556.343910
472.560945	2554.226625
472.931667	2555.065977
473.302330	2556.860628
473.672934	2556.225442
474.043479	2552.505071
474.413965	2558.340207
474.784393	2554.133364
475.154761	2556.729558
475.525070	2554.667726
475.895321	2554.264434
476.265513	2554.889537
476.635645	2556.122099
477.005719	2554.713096
477.375734	2556.868190
477.745691	2555.459187
478.115588	2555.703683
478.485427	2558.259548
478.855207	2557.959599
479.224928	2559.262738
479.594591	2559.267779
479.964194	2560.006308
480.333739	2557.478169
480.703226	2558.977912
481.072653	2559.633263
481.442022	2559.764333
481.811333	2558.448591
482.180584	2557.518498
482.549777	2559.754250
482.918912	2555.244938
483.287988	2562.045455
483.657005	2559.880279
484.025964	2561.531257
484.394864	2559.721483
484.763706	2561.488407
485.132489	2560.467573
485.501213	2559.547563
485.869879	2558.927501
486.238487	2562.521844
486.607036	2559.923129
486.975527	2561.304405
487.343959	2557.972202
487.712333	2562.055537
488.080648	2559.610577
488.448905	2560.139898
488.817104	2561.765671
489.185244	2561.092677
489.553326	2560.424724
489.921350	2562.831875
490.289315	2564.225754
490.657222	2566.300188
491.025070	2568.787998
491.392861	2566.264900
491.760593	2567.283213
492.128267	2562.554611
492.495883	2564.611402
492.863440	2566.653069
493.230939	2564.954200
493.598380	2566.942936
493.965763	2563.885476
494.333088	2566.842113
494.700354	2562.738613
495.067563	2565.798594
495.434713	2566.080898
495.801805	2564.591237
496.168839	2566.038048
496.535815	2568.019222
496.902733	2566.070816
497.269593	2567.575600
497.636395	2568.329253
498.003139	2568.898903
498.369825	2569.035014
498.736453	2569.705488
499.103023	2570.219686
499.469535	2570.083574
499.835989	2568.135168
500.202385	2570.144068
500.568723	2567.106773
500.935003	2571.855540
501.301226	2568.568708
501.667390	2572.962073
502.033497	2577.007599
502.399546	2575.069276
502.765537	2573.418298
503.131470	2572.765468
503.497345	2576.876529
503.863163	2576.193453
504.228923	2578.633371
504.594625	2576.253947
504.960269	2577.302507
505.325856	2578.968608
505.691385	2580.301993
506.056856	2577.420974
506.422270	2581.184195
506.787625	2579.845769
507.152924	2582.159658
507.518164	2582.825091
507.883347	2582.197467
508.248472	2583.283836
508.613540	2584.365163
508.978550	2586.530339
509.343503	2584.647468
509.708398	2585.620411
510.073236	2587.084866
510.438016	2590.570824
510.802738	2592.874631
511.167403	2592.138622
511.532010	2592.506627
511.896561	2596.705908
512.261053	2596.486618
512.625488	2595.032245
512.989866	2597.096597
513.354186	2598.359406
513.718449	2600.292689
514.082655	2599.801176
514.446803	2603.471136
514.810894	2606.455499
515.174927	2606.831065
515.538904	2607.110849
515.902822	2609.465068
516.266684	2609.245778
516.630488	2608.179574
516.994235	2610.483381
517.357925	2611.284925
517.721558	2614.110492
518.085133	2615.653085
518.448651	2618.304732
518.812112	2615.138887
519.175516	2615.559823
519.538863	2616.565533
519.902152	2621.379835
520.265385	2624.855711
520.628560	2623.189610
520.991678	2625.405197
521.354739	2629.886782
521.717743	2631.560446
522.080690	2633.012298
522.443580	2635.429531
522.806413	2637.478760
523.169189	2638.975983
523.531908	2639.769965
523.894569	2639.351549
524.257174	2642.436735
524.619722	2644.412867
524.982213	2646.489823
525.344647	2646.295738
525.707025	2649.930410
526.069345	2653.650782
526.431608	2650.661377
526.793815	2655.584064
527.155964	2656.458704
527.518057	2658.281082
527.880093	2658.467604
528.242072	2661.361227
528.603995	2663.715445
528.965860	2665.331135
529.327669	2666.281393
529.689421	2669.631239
530.051117	2668.680982
530.412755	2671.466219
530.774337	2671.942608
531.135862	2673.172650
531.497331	2677.750018
531.858743	2677.540810
532.220098	2683.081038
532.581396	2682.997859
532.942638	2681.046932
533.303824	2684.739577
533.664953	2686.009948
534.026025	2688.021369
534.387040	2691.835002
534.747999	2695.331042
535.108902	2697.218954
535.469748	2696.303984
535.830537	2698.801876
536.191270	2700.881352
536.551947	2701.035107
536.912567	2701.758513
537.273131	2706.403936
537.633638	2702.817155
537.994089	2709.980635
538.354483	2710.237734
538.714821	2711.130018
539.075103	2718.245607
539.435328	2719.589074
539.795497	2720.935062
540.155609	2723.884137
540.515665	2726.800445
540.875665	2728.300188
541.235609	2729.477297
541.595496	2732.680951
541.955328	2735.786301
542.315102	2734.939387
542.674821	2738.143041
543.034483	2736.628174
543.394090	2739.955336
543.753640	2743.595049
544.113134	2748.661408
544.472571	2747.638054
544.831953	2758.426123
545.191278	2755.804723
545.550548	2758.158942
545.909761	2761.281937
546.268918	2765.105652
546.628019	2767.865684
546.987064	2770.847526
547.346053	2770.587907
547.704986	2775.427415
548.063863	2775.374482
548.422684	2781.686007
548.781449	2780.892025
549.140158	2789.116668
549.498811	2791.768315
549.857408	2792.017852
550.215949	2801.482618
550.574434	2805.021508
550.932864	2808.850265
551.291237	2815.096254
551.649555	2819.973571
552.007817	2823.590598
552.366022	2827.653768
552.724173	2832.457988
553.082267	2839.051817
553.440305	2847.541120
553.798288	2852.927593
554.156215	2856.126205
554.514086	2862.455374
554.871902	2861.714324
555.229661	2875.290152
555.587365	2877.218393
555.945014	2889.458315
556.302606	2895.540467
556.660143	2905.801735
557.017625	2914.694331
557.375050	2924.695980
557.732421	2933.638987
558.089735	2945.974690
558.446994	2952.013993
558.804197	2967.712146
559.161345	2978.724546
559.518437	2982.800319
559.875474	2996.093842
560.232455	3008.237982
560.589381	3020.813140
560.946251	3032.627084
561.303065	3048.647871
561.659825	3059.493913
562.016528	3068.898186
562.373177	3079.527459
562.729770	3098.933380
563.086307	3110.863271
563.442789	3133.140130
563.799216	3145.107829
564.155587	3162.920746
564.511904	3178.291224
564.868164	3199.711087
565.224370	3221.234293
565.580520	3235.704925
565.936615	3257.855755
566.292654	3273.322015
566.648638	3300.942497
567.004567	3320.348419
567.360441	3346.101153
567.716260	3365.257538
568.072023	3395.350706
568.427732	3418.353491
568.783385	3435.379988
569.138982	3467.023311
569.494525	3499.503465
569.850013	3517.424767
570.205445	3544.972152
570.560823	3569.280596
570.916145	3597.868979
571.271412	3634.177890
571.626625	3653.593894
571.981782	3686.643699
572.336884	3709.419632
572.691931	3743.311309
573.046923	3774.072430
573.401860	3803.369095
573.756743	3837.613653
574.111570	3876.322153
574.466342	3907.433634
574.821059	3949.020633
575.175722	3971.678099
575.530330	4011.861136
575.884882	4040.333573
576.239380	4071.999581
576.593823	4116.888535
576.948211	4155.798681
577.302544	4178.725849
577.656823	4221.568095
578.011047	4276.030201
578.365216	4307.371054
578.719330	4340.511599
579.073389	4388.251326
579.427394	4435.086166
579.781344	4478.122497
580.135239	4516.946943
580.489080	4570.718410
580.842866	4591.719857
581.196597	4663.352133
581.550273	4715.775092
581.903895	4765.806023
582.257463	4844.609340
582.610975	4867.438205
582.964434	4940.025779
583.317837	4966.040654
583.671186	5019.676010
584.024481	5090.549592
584.377721	5119.110249
584.730906	5184.990568
585.084037	5252.211834
585.437113	5289.158451
585.790135	5354.607751
586.143103	5385.263008
586.496016	5451.244150
586.848874	5517.195045
587.201679	5585.409418
587.554428	5613.942349
587.907124	5701.852510
588.259765	5743.164766
588.612352	5824.120656
588.964884	5845.762329
589.317362	5936.188026
589.669786	5998.670608
590.022155	6050.602054
590.374470	6154.890924
590.726731	6187.933167
591.078937	6191.782088
591.431090	6287.513600
591.783188	6315.829761
592.135232	6360.514548
592.487222	6455.202541
592.839157	6540.844183
593.191038	6573.029430
593.542866	6626.085054
593.894639	6630.165868
594.246358	6731.112453
594.598022	6802.729605
594.949633	6829.762793
595.301190	6897.165540
595.652692	6960.850437
596.004141	7081.926349
596.355535	7040.674587
596.706876	7105.425688
597.058162	7145.989332
597.409395	7271.824094
597.760573	7372.095164
598.111698	7399.826552
598.462768	7469.812891
598.813785	7551.202319
599.164748	7567.870895
599.515657	7687.726848
599.866511	7697.857047
600.217312	7869.951957
600.568060	7809.148079
600.918753	7995.970720
601.269392	8068.974190
601.619978	8110.583874
601.970510	8222.684012
602.320988	8315.930234
602.671412	8444.847662
603.021783	8507.242023
603.372100	8527.167183
603.722363	8631.191393
604.072572	8716.026451
604.422728	8797.615005
604.772830	8854.065846
605.122878	8963.441240
605.472872	9026.727886
605.822813	9163.532198
606.172701	9202.281027
606.522534	9352.172175
606.872314	9481.540786
607.222041	9536.663282
607.571714	9688.606180
607.921333	9689.077528
608.270899	9820.465120
608.620411	9987.942333
608.969870	10032.543942
609.319276	10141.546291
609.668627	10237.567669
610.017926	10414.040821
610.367171	10533.440550
610.716362	10650.551595
611.065500	10734.534697
611.414585	10879.331759
611.763616	11019.735456
612.112594	11104.613363
612.461518	11234.181099
612.810389	11424.777044
613.159207	11488.983700
613.507971	11591.004051
613.856682	11808.161835
614.205340	11881.644214
614.553945	12149.037096
614.902496	12098.948192
615.250994	12319.125627
615.599439	12454.924229
615.947830	12588.350969
616.296169	12726.264335
616.644454	12856.300899
616.992686	13019.057071
617.340864	13257.395263
617.688990	13259.885593
618.037063	13555.965162
618.385082	13634.105567
618.733048	13854.877858
619.080961	13944.005458
619.428821	14068.731166
619.776628	14185.149052
620.124382	14253.658333
620.472083	14401.885900
620.819731	14545.556264
621.167326	14539.610223
621.514868	14642.822807
621.862357	14606.460965
622.209793	14732.073916
622.557176	14716.063211
622.904506	14757.866979
623.251783	14752.604015
623.599007	14761.675571
623.946179	14853.648902
624.293297	14879.615886
624.640363	14816.404858
624.987376	14880.387182
625.334336	14916.562502
625.681243	14897.950562
626.028097	14986.604294
626.374899	15040.902562
626.721647	15129.261386
627.068343	15180.938254
627.414987	15188.179872
627.761577	15216.798502
628.108115	15437.943839
628.454600	15291.493278
628.801032	15475.200486
629.147412	15546.953750
629.493739	15634.354754
629.840014	15594.146511
630.186236	15850.348032
630.532405	15771.184273
630.878521	15964.510002
631.224585	15996.397821
631.570597	15978.214379
631.916556	16153.475133
632.262462	16220.998869
632.608316	16305.889379
632.954117	16361.306783
633.299866	16455.551154
633.645562	16523.712595
633.991206	16427.224911
634.336797	16363.446753
634.682336	16423.431443
635.027823	16431.792196
635.373257	16480.416646
635.718639	16445.133610
636.063968	16501.420613
636.409245	16332.695714
636.754470	16413.427273
637.099642	16406.634318
637.444762	16273.938546
637.789829	16432.999552
638.134845	16365.891713
638.479808	16433.652382
638.824719	16505.289699
639.169577	16388.453397
639.514383	16520.448448
639.859137	16446.101511
640.203839	16603.942559
640.548489	16572.889051
640.893086	16667.453536
641.237632	16632.399872
641.582125	16780.957635
641.926566	16779.891431
642.270955	16883.255249
642.615292	16956.909028
642.959576	16998.110378
643.303809	17087.122032
643.647990	17232.156028
643.992118	17304.294939
644.336195	17326.730594
644.680219	17467.978684
645.024192	17667.537800
645.368112	18030.944499
645.711981	18146.283578
646.055797	18613.941338
646.399562	18620.227657
646.743274	19162.824689
647.086935	19467.396081
647.430544	19537.868892
647.774101	19663.086112
648.117606	19911.985521
648.461059	20091.392625
648.804460	19982.140739
649.147810	19802.025353
649.491108	19714.949503
649.834354	19729.289065
650.177548	19375.024499
650.520690	19200.724084
650.863781	19279.381207
651.206820	19274.236710
651.549807	19144.573192
651.892742	18905.509074
652.235626	18931.158464
652.578458	18938.821018
652.921238	18643.457294
653.263967	18904.218538
653.606644	18822.400611
653.949269	18853.348255
654.291843	18703.353763
654.634365	18994.258587
654.976836	18815.390887
655.319255	18937.777499
655.661622	18944.242779
656.003938	18950.014900
656.346203	18915.518285
656.688416	19138.319641
657.030577	19085.228729
657.372687	19060.983299
657.714746	19240.148428
658.056753	19438.338871
658.398708	19150.708276
658.740612	19254.102342
659.082465	19462.450709
659.424266	19473.256423
659.766016	19549.662671
660.107715	19533.929230
660.449362	19676.170427
660.790958	19738.718543
661.132503	19764.952708
661.473996	19895.062368
661.815438	20022.253200
662.156829	20178.140800
662.498168	20127.847729
662.839456	20177.757673
663.180693	20336.823721
663.521879	20470.875563
663.863013	20522.252483
664.204097	20582.761452
664.545129	20929.413876
664.886110	20962.899740
665.227040	21098.063157
665.567918	21167.484887
665.908746	21284.313627
666.249522	21404.335938
666.590248	21500.919405
666.930922	21620.384669
667.271545	21703.414993
667.612118	21805.072381
667.952639	21746.526941
668.293109	21844.461437
668.633528	21821.045277
668.973896	21872.129810
669.314213	21926.634765
669.654480	21865.077235
669.994695	21928.318510
670.334859	21936.802772
670.674973	21883.711861
671.015035	22090.288263
671.355047	22105.416766
671.695008	22125.024333
672.034918	22125.024333
672.374777	22249.258529
672.714585	22216.359959
673.054342	22372.960883
673.394049	22324.346515
673.733705	22532.578937
674.073310	22392.026526
674.412864	22501.122137
674.752368	22334.804389
675.091820	22583.618099
675.431223	22340.526099
675.770574	22252.217686
676.109875	22206.436448
676.449125	22111.556891
676.788324	22098.273451
677.127473	21788.237448
677.466571	21781.832662
677.805619	21633.436216
678.144616	21629.385649
678.483562	21648.395840
678.822458	21467.176442
679.161303	21474.707926
679.500098	21454.513063
679.838842	21448.443514
680.177535	21563.596071
680.516179	21803.365951
680.854771	21957.264816
681.193314	22589.796033
681.531805	23409.903543
681.870247	24043.427868
682.208638	24657.538709
682.546978	24920.003863
682.885268	25075.989766
683.223508	24782.047647
683.561697	24618.759633
683.899836	24541.647623
684.237925	24258.221351
684.575963	24173.119112
684.913951	23929.099540
685.251889	24117.411842
685.589776	24168.188864
685.927614	24221.652821
686.265401	24404.465224
686.603137	24522.637432
686.940824	24969.933972
687.278460	25253.740851
687.616046	25414.808237
687.953582	25990.772667
688.291068	25954.554497
688.628504	26245.076193
688.965889	26295.785159
689.303224	26120.433664
689.640510	25951.741533
689.977745	25490.178528
690.314930	24936.861482
690.652065	24642.180834
690.989150	24134.075376
691.326185	23513.121168
691.663170	23043.396535
692.000105	22475.029124
692.336990	21998.468687
692.673825	21705.408770
693.010610	21341.497956
693.347345	20962.609874
693.684030	20453.730599
694.020665	20332.919347
694.357251	19794.435896
694.693786	19830.212965
695.030272	19666.294806
695.366707	19292.097518
695.703093	19083.517257
696.039429	19162.030708
696.375716	18981.766608
696.711952	19011.345578
697.048139	18902.658301
697.384276	18784.735630
697.720363	18917.761598
698.056400	18845.547069
698.392388	18722.273214
698.728326	18748.719107
699.064214	18631.663514
699.400053	18663.947064
699.735842	18346.586264
700.071581	18204.836580
700.407270	18015.034617
700.742910	17897.621103
701.078501	17710.556487
701.414042	17544.652113
701.749533	17298.096841
702.084974	17043.412707
702.420366	17277.468439
702.755709	16940.321111
703.091002	16694.663163
703.426246	16772.904392
703.761440	16733.341416
704.096584	16544.963579
704.431679	16505.261972
704.766725	16476.086294
705.101721	16440.941890
705.436668	16547.552212
705.771565	16331.374932
706.106413	16619.597862
706.441212	16695.159717
706.775961	16792.572453
707.110661	16891.963843
707.445311	17232.632417
707.779913	17133.939227
708.114465	17415.593534
708.448967	17712.457002
708.783421	18291.678017
709.117825	18635.255337
709.452180	18842.136729
709.786485	19240.604652
710.120742	19934.854716
710.454949	20036.970849
710.789107	20488.630507
711.123216	21118.467227
711.457275	21306.580404
711.791286	21790.803395
712.125247	21941.359975
712.459159	21718.170451
712.793023	22404.596643
713.126837	21528.040813
713.460602	21769.675919
713.794318	21501.022749
714.127985	21305.204169
714.461602	20525.045282
714.795171	20545.222500
715.128691	19690.439413
715.462162	19243.944417
715.795584	18879.567296
716.128957	18660.277104
716.462281	18331.913986
716.795556	18082.898630
717.128782	17659.953384
717.461960	17128.535110
717.795088	17099.029237
718.128167	16804.225081
718.461198	16418.836431
718.794180	16321.476627
719.127113	16029.611463
719.459997	15863.628952
719.792833	15533.650145
720.125619	15584.427167
720.458357	15288.488751
720.791046	15165.323280
721.123686	15043.682758
721.456278	14843.538868
721.788821	14854.712586
722.121315	14607.033136
722.453761	14709.222365
722.786158	14610.335091
723.118506	14696.412793
723.450805	14591.728193
723.783056	14767.974493
724.115259	14677.536193
724.447412	14677.367314
724.779518	14878.784095
725.111574	14937.344659
725.443582	15184.956054
725.775542	15153.854655
726.107453	15639.539581
726.439315	15559.385235
726.771129	15943.380006
727.102895	16338.223340
727.434612	16575.954073
727.766281	16739.075729
728.097901	17027.651540
728.429473	17120.141589
728.760996	17139.749157
729.092471	17272.737316
729.423897	17180.680806
729.755276	17079.918223
730.086606	17195.176644
730.417887	17748.803721
730.749120	18296.605745
731.080305	18499.055963
731.411442	18896.651766
731.742530	19014.708028
732.073570	19187.024748
732.404562	19484.369646
732.735506	19352.596405
733.066401	19172.153345
733.397249	18724.960149
733.728048	18146.512951
734.058798	17346.141557
734.389501	16648.753375
734.720156	16192.891915
735.050762	15656.210677
735.381320	15297.083918
735.711831	15051.574685
736.042293	14706.318661
736.372707	14742.264608
736.703073	14540.598290
737.033391	14741.420215
737.363661	14736.409308
737.693883	14857.480179
738.024056	15040.726122
738.354182	15246.586680
738.684260	15581.639409
739.014290	15845.344687
739.344272	16054.812191
739.674207	16375.336314
740.004093	16549.482974
740.333931	16602.238649
740.663722	16693.251640
740.993464	16747.164260
741.323159	16607.930112
741.652806	16343.045203
741.982405	16194.169848
742.311956	15863.074425
742.641460	15776.467402
742.970915	15473.791484
743.300323	15155.440098
743.629683	14960.370129
743.958996	14662.851312
744.288260	14375.087127
744.617477	14083.902519
744.946647	14056.087952
745.275768	13767.580197
745.604842	13579.837546
745.933869	13412.919901
746.262847	13387.520047
746.591778	13303.567191
746.920662	13193.947301
747.249498	13203.870812
747.578286	13365.613713
747.907027	13524.110110
748.235720	13783.681643
748.564365	13855.152601
748.892963	13785.103248
749.221514	13882.722672
749.550017	13768.132203
749.878473	13745.111774
750.206881	13522.776725
750.535242	13452.876086
750.863555	13387.641035
751.191821	13283.405097
751.520039	13315.383656
751.848210	13246.188778
752.176334	13296.738948
752.504411	13227.208834
752.832440	13049.631669
753.160421	13165.409329
753.488356	13056.843040
753.816243	12975.546872
754.144082	12808.921614
754.471875	12765.900407
754.799620	12734.438566
755.127318	12714.422665
755.454969	12699.682331
755.782572	12677.647447
756.110129	12702.238196
756.437638	12599.650715
756.765100	12611.908281
757.092515	12646.319197
757.419882	12674.733661
757.747203	12689.912575
758.074477	12779.146039
758.401703	12756.889345
758.728882	12954.142133
759.056014	12993.959687
759.383099	13170.589115
759.710138	13286.344089
760.037129	13413.973502
760.364073	13462.776912
760.690970	13498.032222
761.017820	13520.425027
761.344623	13744.295108
761.671379	14117.053146
761.998088	14806.362879
762.324751	16536.136519
762.651366	19852.812457
762.977935	24189.449930
763.304456	27052.389255
763.630931	28089.339478
763.957359	26927.749247
764.283740	24753.066054
764.610074	22553.033418
764.936362	20001.929788
765.262602	18179.144339
765.588796	16315.492777
765.914943	15067.431634
766.241044	14000.993182
766.567097	13225.666241
766.893104	12525.734797
767.219064	12075.660582
767.544978	11615.118410
767.870845	11239.388611
768.196665	11028.121415
768.522438	10797.899481
768.848165	10607.870666
769.173846	10407.003370
769.499479	10283.409402
769.825066	10120.610379
770.150607	9894.779290
770.476101	9821.531324
770.801548	9698.819557
771.126949	9540.378613
771.452303	9438.751472
771.777611	9238.247139
772.102872	9235.262776
772.428087	9094.629707
772.753256	8946.182850
773.078378	8862.151857
773.403453	8677.426336
773.728482	8568.794511
774.053465	8499.367741
774.378401	8400.891321
774.703291	8275.255685
775.028135	8162.318715
775.352932	8129.825958
775.677683	8024.561624
776.002388	7921.757374
776.327046	7931.461595
776.651658	7840.073038
776.976224	7737.170485
777.300743	7737.765341
777.625216	7658.594020
777.949643	7608.782379
778.274024	7627.112014
778.598359	7536.232613
778.922647	7555.043679
779.246889	7508.985177
779.571086	7515.974736
779.895236	7520.297526
780.219339	7529.452261
780.543397	7529.550564
780.867409	7607.895136
781.191374	7622.937939
781.515294	7593.185049
781.839167	7681.344747
782.162995	7653.739389
782.486776	7600.862726
782.810511	7555.567959
783.134201	7470.311965
783.457844	7473.908828
783.781441	7415.101248
784.104993	7354.226795
784.428498	7329.197466
784.751958	7319.011814
785.075372	7288.031403
785.398739	7235.119453
785.722061	7282.907071
786.045337	7285.979654
786.368568	7441.113602
786.691752	7465.190153
787.014891	7804.948798
787.337983	8157.827047
787.661030	8732.140499
787.984031	9350.122946
788.306987	9746.508873
788.629897	9946.635119
788.952760	9895.946317
789.275579	9687.071148
789.598351	9293.709914
789.921078	8954.173079
790.243759	8546.111840
790.566395	8260.079291
790.888984	8012.898915
791.211529	7806.909807
791.534027	7589.865449
791.856480	7387.886579
792.178888	7315.641803
792.501249	7221.906588
792.823566	7070.656850
793.145836	7065.298103
793.468062	7037.478496
793.790241	6993.204562
794.112375	7068.461427
794.434464	7216.681432
794.756507	7252.660147
795.078505	7411.408603
795.400457	7721.421920
795.722364	8065.120228
796.044226	8346.207404
796.366042	8613.801933
796.687812	8565.409377
797.009538	8642.705388
797.331218	8543.046818
797.652852	8463.353738
797.974442	8308.451683
798.295986	8221.786686
798.617484	8035.939509
798.938938	7889.012559
799.260346	7795.118548
799.581709	7591.982733
799.903026	7520.640324
800.224299	7414.070332
800.545526	7248.234014
800.866708	7152.348748
801.187845	7089.024294
801.508936	6985.219374
801.829983	6942.563651
802.150984	6798.754655
802.471940	6749.389156
802.792851	6736.128401
803.113717	6703.870058
803.434538	6667.964439
803.755314	6615.889320
804.076045	6613.280523
804.396731	6566.004582
804.717372	6595.213028
805.037967	6594.061124
805.358518	6638.607280
805.679024	6715.003446
805.999485	6729.234623
806.319901	6767.915397
806.640272	6792.412884
806.960598	6868.622527
807.280879	6872.763835
807.601115	6949.011287
807.921306	6898.713174
808.241453	6912.110041
808.561554	6930.595952
808.881611	6897.692341
809.201623	6907.414206
809.521590	6852.203489
809.841513	6836.591035
810.161390	6879.944958
810.481223	6747.786069
810.801011	6730.315951
811.120755	6707.996242
811.440453	6630.506146
811.760107	6600.334840
812.079716	6572.885757
812.399281	6504.867989
812.718801	6499.955384
813.038276	6452.500483
813.357707	6391.978910
813.677093	6437.666887
813.996434	6342.033678
814.315731	6379.043309
814.634983	6379.479369
814.954191	6392.959415
815.273354	6495.138562
815.592473	6559.856895
815.911547	6678.891140
816.230577	6760.966166
816.549562	6912.079794
816.868502	7010.281471
817.187399	7108.646985
817.506250	7259.322032
817.825058	7291.482073
818.143821	7558.166673
818.462539	7828.964855
818.781213	8193.931791
819.099843	8736.049914
819.418429	9719.079955
819.736970	10683.530823
820.055466	11847.162722
820.373919	13371.017830
820.692327	15717.067486
821.010691	19832.191618
821.329011	28739.239990
821.647286	41537.431509
821.965517	54880.939762
822.283704	60338.303873
822.601847	62362.672461
822.919945	59650.120838
823.237999	55418.369612
823.556010	49250.875803
823.873976	42582.011518
824.191897	36141.017469
824.509775	31349.728413
824.827609	26878.061114
825.145398	24318.687471
825.463144	22974.123520
825.780845	23284.467033
826.098502	25040.694127
826.416116	28784.181877
826.733685	32352.199664
827.051210	33484.750328
827.368692	31685.446574
827.686129	27783.825390
828.003522	23722.492891
828.320872	20062.322811
828.638177	17245.789828
828.955439	15125.624193
829.272656	13327.860512
829.589830	11873.805220
829.906960	10611.011305
830.224046	9685.815901
830.541088	8942.444834
830.858086	8490.707038
831.175041	8115.057898
831.491952	8003.860126
831.808819	8046.427629
832.125642	8448.442004
832.442421	9337.981327
832.759157	11116.386978
833.075849	13995.289116
833.392497	17178.066968
833.709101	19309.895312
834.025662	19157.687754
834.342179	17473.067729
834.658653	15307.882070
834.975083	13414.976691
835.291469	11812.661065
835.607811	10506.881231
835.924110	9612.232699
836.240366	8745.050894
836.556578	7952.092517
836.872746	7314.857904
837.188871	6818.848694
837.504952	6406.313431
837.820990	6100.496874
838.136984	5876.583944
838.452935	5785.583555
838.768842	5817.801569
839.084706	6245.170428
839.400526	7437.173940
839.716303	8998.714194
840.032037	10078.914996
840.347727	10002.100414
840.663373	9041.763127
840.978977	8010.504367
841.294537	7205.968981
841.610054	6616.632890
841.925527	6186.408218
842.240957	5825.771634
842.556344	5498.575543
842.871687	5216.560794
843.186987	4939.073001
843.502244	4715.245771
843.817458	4550.594124
844.132629	4418.891459
844.447756	4329.620187
844.762840	4245.964759
845.077881	4173.341897
845.392879	4110.624902
845.707833	4061.292170
846.022745	4018.770037
846.337613	3987.167044
846.652438	3946.673976
846.967221	3927.560441
847.281960	3895.846542
847.596656	3878.378944
847.911309	3857.652240
848.225919	3836.766740
848.540485	3822.699400
848.855009	3804.120227
849.169490	3788.069193
849.483928	3773.268366
849.798323	3763.705297
850.112675	3746.081423
850.426984	3754.172475
850.741251	3739.180083
851.055474	3732.001480
851.369654	3738.733941
851.683792	3736.490628
851.997887	3739.351483
852.311938	3741.249477
852.625947	3747.850868
852.939914	3733.533991
853.253837	3743.384406
853.567718	3744.919437
853.881555	3730.569793
854.195350	3748.400354
854.509103	3744.319540
854.822812	3741.062954
855.136479	3730.874783
855.450103	3744.690065
855.763685	3730.166500
856.077224	3735.162284
856.390720	3749.819439
856.704173	3767.869290
857.017584	3783.335550
857.330953	3791.451808
857.644278	3815.533400
857.957561	3820.977846
858.270802	3818.439625
858.584000	3821.943227
858.897155	3817.388544
859.210268	3798.776604
859.523339	3777.903707
859.836367	3776.751803
860.149352	3769.202675
860.462295	3762.447529
860.775195	3754.701796
861.088054	3745.446238
861.400869	3745.673090
861.713642	3742.308119
862.026373	3757.194647
862.339062	3761.898043
862.651708	3779.416053
862.964312	3812.601969
863.276873	3825.456911
863.589392	3882.106877
863.901869	3930.764094
864.214303	3972.048624
864.526696	4004.828727
864.839045	4051.973597
865.151353	4078.301023
865.463619	4087.123042
865.775842	4090.246037
866.088023	4111.325622
866.400162	4105.490487
866.712258	4110.496352
867.024313	4111.774285
867.336325	4108.036269
867.648296	4118.703351
867.960224	4118.337867
868.272110	4126.716265
868.583954	4130.315649
868.895755	4142.590858
869.207515	4140.135816
869.519233	4181.223741
869.830909	4194.678580
870.142542	4221.467272
870.454134	4234.067636
870.765684	4266.300774
871.077191	4299.418634
871.388657	4324.463086
871.700081	4359.277295
872.011463	4403.135333
872.322803	4439.146816
872.634101	4466.905929
872.945357	4505.551415
873.256571	4560.719282
873.567744	4591.518211
873.878874	4608.234677
874.189963	4648.049710
874.501010	4657.154034
874.812015	4654.068848
875.122979	4698.146177
875.433900	4697.495868
875.744780	4711.008681
876.055618	4737.479780
876.366415	4739.367692
876.677169	4761.064818
876.987882	4800.506806
877.298554	4854.023695
877.609183	4942.828661
877.919771	5045.282551
878.230317	5185.948387
878.540822	5402.304628
878.851285	5722.390171
879.161707	6181.334297
879.472087	6938.593742
879.782425	8170.692072
880.092722	10341.115490
880.402977	13616.776600
880.713191	17310.046896
881.023363	20979.470013
881.333494	23131.767962
881.643583	24339.865358
881.953631	24360.153482
882.263637	23547.418659
882.573602	22087.170309
882.883526	20546.707120
883.193408	18896.356859
883.503248	17214.549798
883.813048	15687.372569
884.122806	14269.918575
884.432522	12809.899598
884.742197	11562.609752
885.051831	10485.126132
885.361424	9489.951951
885.670975	8677.675873
885.980485	7989.447467
886.289954	7415.565034
886.599382	6949.296112
886.908768	6571.469193
887.218113	6215.873762
887.527417	5928.981697
887.836680	5661.505636
888.145901	5445.106545
888.455082	5285.659890
888.764221	5131.672805
889.073319	4998.825798
889.382376	4931.942289
889.691392	4866.987022
890.000366	4841.456098
890.309300	4828.086958
890.618193	4832.465200
890.927044	4819.499353
891.235855	4835.462166
891.544625	4870.137743
891.853353	4931.176034
892.162041	5049.320515
892.470687	5232.069904
892.779293	5479.875383
893.087858	5855.574935
893.396381	6430.768068
893.704864	7223.360961
894.013306	8374.115232
894.321707	9519.498153
894.630068	10329.420013
894.938387	10528.026351
895.246665	10291.460124
895.554903	9699.933652
895.863100	9006.734669
896.171256	8458.466339
896.479371	7956.387580
896.787446	7462.914072
897.095480	7038.562344
897.403473	6725.574745
897.711425	6400.014509
898.019336	6140.316948
898.327207	5869.062542
898.635038	5644.040558
898.942827	5396.955964
899.250576	5208.537798
899.558284	5020.394375
899.865952	4893.324530
900.173579	4748.618209
900.481165	4643.389164
900.788711	4551.536820
901.096216	4476.902537
901.403681	4415.019853
901.711105	4390.565216
902.018489	4380.006519
902.325832	4446.380871
902.633135	4566.234304
902.940397	4911.878497
903.247619	5703.206060
903.554800	7126.091898
903.861941	9029.510602
904.169041	10535.250324
904.476101	11146.956535
904.783121	10782.627305
905.090100	10064.154497
905.397039	9243.603365
905.703938	8495.964962
906.010796	7807.751680
906.317614	7257.562670
906.624391	6727.802935
906.931129	6305.646630
907.237826	5908.895219
907.544483	5536.903436
907.851099	5165.672867
908.157675	4814.518693
908.464211	4492.920804
908.770707	4259.684259
909.077163	4060.946851
909.383578	3916.220365
909.689954	3805.602327
909.996289	3732.656830
910.302584	3669.758354
910.608839	3636.353148
910.915054	3603.787294
911.221229	3594.055347
911.527363	3603.845267
911.833458	3616.438070
912.139513	3645.591062
912.445527	3675.258253
912.751502	3754.795058
913.057436	3856.167620
913.363331	3992.298939
913.669186	4195.185216
913.975000	4450.146613
914.280775	4873.008680
914.586510	5453.426969
914.892205	6240.567854
915.197859	7264.746314
915.503475	8475.795305
915.809050	9514.426753
916.114585	10146.252208
916.420081	10409.241643
916.725536	10368.035251
917.030952	9933.775135
917.336328	9527.889154
917.641665	9121.083162
917.946961	8652.061770
918.252218	8233.285558
918.557435	7729.023980
918.862612	7304.369783
919.167750	6936.955367
919.472848	6514.766294
919.777906	6145.753833
920.082925	5788.124297
920.387904	5428.748001
920.692843	5162.801930
920.997743	4919.520886
921.302603	4686.770813
921.607423	4524.773334
921.912204	4363.474055
922.216946	4245.609358
922.521647	4125.203919
922.826310	4024.612735
923.130932	3930.191923
923.435516	3830.359433
923.740059	3760.743619
924.044564	3685.867361
924.349028	3625.766725
924.653454	3562.472518
924.957840	3493.121364
925.262186	3445.961370
925.566493	3387.781413
925.870761	3331.892661
926.174989	3295.871097
926.479178	3260.913215
926.783328	3217.150959
927.087438	3190.846218
927.391509	3151.121926
927.695541	3123.002369
927.999533	3098.837598
928.303486	3079.207345
928.607400	3063.224367
928.911275	3050.160217
929.215110	3029.494007
929.518906	3022.443953
929.822663	3022.678367
930.126381	3019.290711
930.430060	3024.127698
930.733699	3028.367309
931.037299	3039.974566
931.340861	3038.215203
931.644383	3048.443704
931.947866	3047.319527
932.251309	3036.629760
932.554714	3035.684544
932.858080	3033.801673
933.161407	3023.167359
933.464694	3019.081503
933.767943	3009.389885
934.071153	3004.799915
934.374323	2993.275837
934.677455	2987.440701
934.980548	2981.098930
935.283602	2975.389823
935.586617	2974.452168
935.889593	2986.573623
936.192530	2987.395331
936.495428	3003.285048
936.798287	3023.230373
937.101108	3053.966288
937.403890	3107.843620
937.706632	3167.971982
938.009336	3241.590472
938.312002	3318.573933
938.614628	3379.408057
938.917216	3432.272117
939.219765	3459.587609
939.522275	3492.508864
939.824747	3498.366685
940.127179	3498.517919
940.429573	3491.051971
940.731929	3489.090962
941.034246	3473.566728
941.336524	3464.119606
941.638763	3448.539920
941.940964	3434.346552
942.243126	3390.763256
942.545250	3368.317518
942.847335	3334.085563
943.149381	3299.069709
943.451389	3266.760954
943.753359	3235.011767
944.055290	3208.966645
944.357182	3184.264992
944.659036	3168.629853
944.960851	3160.879079
945.262628	3145.785864
945.564367	3146.481543
945.866067	3141.498363
946.167729	3136.598361
946.469352	3134.619708
946.770937	3131.128709
947.072484	3116.562295
947.373992	3120.025568
947.675462	3115.112964
947.976893	3093.607401
948.278286	3085.851586
948.579641	3080.301276
948.880958	3074.819021
949.182236	3076.699371
949.483476	3067.907599
949.784678	3069.165367
950.085841	3074.133424
950.386967	3083.426791
950.688054	3100.145778
950.989103	3118.157821
951.290114	3141.319402
951.591087	3168.894513
951.892021	3189.522915
952.192917	3219.490054
952.493776	3246.011564
952.794596	3254.248810
953.095378	3260.724172
953.396122	3255.188985
953.696828	3249.379055
953.997496	3239.450503
954.298126	3214.920248
954.598718	3194.833771
954.899272	3169.443999
955.199788	3140.565749
955.500266	3109.262705
955.800706	3076.104515
956.101108	3039.173022
956.401472	3006.985255
956.701798	2977.260091
957.002087	2935.859615
957.302337	2908.949936
957.602550	2878.720657
957.902724	2850.197808
958.202861	2827.313491
958.502960	2803.312557
958.803022	2787.004424
959.103045	2766.996085
959.403031	2747.688466
959.702979	2734.853688
960.002889	2723.692573
960.302762	2707.906200
960.602596	2694.889941
960.902393	2688.628828
961.202153	2682.100533
961.501875	2674.564008
961.801559	2668.063441
962.101205	2657.179589
962.400814	2657.134219
962.700385	2647.729947
962.999918	2643.462610
963.299414	2639.233082
963.598873	2633.110600
963.898293	2626.940228
964.197677	2630.116155
964.497022	2624.961575
964.796331	2624.338993
965.095601	2622.103241
965.394835	2617.909001
965.694030	2618.128291
965.993189	2616.021089
966.292309	2614.901953
966.591393	2615.612755
966.890439	2614.516304
967.189447	2613.800461
967.488419	2614.259206
967.787353	2614.236520
968.086249	2615.693414
968.385108	2619.562499
968.683930	2620.303549
968.982714	2625.818571
969.281462	2628.349231
969.580172	2631.653707
969.878844	2637.435910
970.177480	2647.336737
970.476078	2656.781338
970.774639	2663.198727
971.073162	2668.945642
971.371649	2674.251457
971.670098	2681.210770
971.968510	2686.390555
972.266885	2690.322655
972.565223	2696.324149
972.863524	2701.556867
973.161788	2701.357741
973.460014	2702.882690
973.758204	2708.927034
974.056356	2707.949050
974.354471	2711.780327
974.652550	2710.197404
974.950591	2708.808567
975.248595	2708.856457
975.546563	2705.771271
975.844493	2702.960828
976.142386	2698.678368
976.440243	2691.565300
976.738062	2689.231246
977.035845	2679.264884
977.333590	2673.170129
977.631299	2670.992351
977.928971	2663.198727
978.226606	2659.122954
978.524204	2655.374856
978.821765	2651.641882
979.119290	2654.490134
979.416777	2656.141112
979.714228	2656.068015
980.011642	2660.378202
980.309020	2668.449089
980.606360	2682.355112
980.903664	2705.945191
981.200931	2739.110942
981.498162	2790.482821
981.795356	2860.779190
982.092513	2947.290432
982.389633	3051.717933
982.686717	3148.583705
982.983764	3218.933007
983.280775	3269.563835
983.577749	3278.045577
983.874686	3265.735079
984.171587	3232.544122
984.468451	3192.482072
984.765279	3151.555465
985.062070	3105.325563
985.358824	3057.295970
985.655543	3003.443844
985.952224	2954.705969
986.248869	2888.586195
986.545478	2830.426403
986.842050	2778.671397
987.138586	2732.403687
987.435086	2694.264838
987.731549	2666.341887
988.027975	2639.482619
988.324366	2624.011318
988.620719	2610.385079
988.917037	2594.114755
989.213318	2588.884558
989.509563	2583.908939
989.805772	2577.317630
990.101944	2572.692372
990.398080	2569.783626
990.694180	2568.132648
990.990244	2568.689695
991.286271	2569.685323
991.582262	2570.348235
991.878217	2572.644481
992.174136	2578.376272
992.470019	2579.775193
992.765865	2581.395924
993.061676	2586.878178
993.357450	2596.589961
993.653188	2606.122783
993.948890	2619.922942
994.244556	2639.112094
994.540186	2661.646052
994.835780	2692.540763
995.131337	2730.092318
995.426859	2769.239398
995.722345	2819.270330
996.017795	2870.453165
996.313208	2905.196797
996.608586	2932.035900
996.903928	2943.524690
997.199234	2945.495781
997.494504	2940.328598
997.789738	2926.034406
998.084936	2902.371230
998.380099	2871.842003
998.675225	2841.703464
998.970316	2813.644402
999.265371	2775.170316
999.560390	2738.800911
999.855373	2711.639174
1000.150320	2686.466173
1000.445232	2661.078922
1000.740108	2639.175108
1001.034948	2618.254320
1001.329752	2608.066148
1001.624521	2595.284302
1001.919254	2580.601942
1002.213951	2578.020871
1002.508613	2566.123748
1002.803239	2559.300546
1003.097829	2554.912222
1003.392384	2551.222097
1003.686903	2546.049873
1003.981386	2544.240099
1004.275834	2539.675334
1004.570246	2538.712474
1004.864623	2534.276259
1005.158964	2534.296423
1005.453270	2529.477080
1005.747540	2531.367513
1006.041775	2529.361134
1006.335974	2527.652183
1006.630138	2525.668488
1006.924266	2526.790145
1007.218359	2522.530370
1007.512416	2521.207067
1007.806438	2517.965605
1008.100425	2518.406706
1008.394376	2514.824967
1008.688292	2519.679598
1008.982172	2520.619773
1009.276017	2521.517098
1009.569827	2517.360667
1009.863602	2519.084742
1010.157341	2519.193126
1010.451045	2517.426202
1010.744714	2516.531397
1011.038347	2512.185923
1011.331945	2513.607528
1011.625508	2513.746160
1011.919036	2513.665501
1012.212528	2510.676097
1012.505986	2511.457476
1012.799408	2510.494615
1013.092795	2509.045284
1013.386147	2512.294307
1013.679464	2511.028978
1013.972745	2512.470748
1014.265992	2508.470592
1014.559204	2508.926817
1014.852380	2507.464882
1015.145521	2509.914883
1015.438628	2511.764986
1015.731699	2511.001251
1016.024736	2511.911180
1016.317737	2510.638288
1016.610703	2512.586694
1016.903635	2514.809843
1017.196531	2518.114319
1017.489393	2516.155831
1017.782219	2516.788496
1018.075011	2521.738909
1018.367768	2519.702283
1018.660490	2521.330576
1018.953177	2521.330576
1019.245829	2521.330576
