Dividing Wavelength (nm)	Counts (n)	Blue Motor Position (mm): 13.700000	Red Motor Position (mm): 0.000000	
326.493990	2138.391927
326.888308	2138.391927
327.282561	2138.391927
327.676750	2103.124014
328.070874	2103.456730
328.464933	2106.471340
328.858929	2112.089706
329.252859	2122.839967
329.646726	2132.095525
330.040528	2146.281332
330.434265	2162.982675
330.827938	2182.156704
331.221547	2199.594055
331.615091	2219.453680
332.008571	2236.089488
332.401986	2256.899371
332.795338	2274.984511
333.188625	2295.696091
333.581847	2313.153607
333.975006	2331.747903
334.368100	2350.811026
334.761129	2367.991278
335.154095	2384.216232
335.546996	2405.058883
335.939833	2423.562438
336.332606	2438.406115
336.725315	2450.252827
337.117960	2461.350927
337.510540	2466.523151
337.903056	2479.178968
338.295508	2484.860348
338.687896	2494.249497
339.080220	2504.823317
339.472480	2509.433453
339.864676	2514.504853
340.256807	2519.341840
340.648875	2520.327386
341.040879	2525.519774
341.432818	2524.204033
341.824694	2527.735362
342.216506	2526.832995
342.608253	2526.313756
342.999937	2527.644621
343.391557	2525.008097
343.783113	2525.643283
344.174605	2525.547501
344.566033	2526.482635
344.957397	2522.641276
345.348697	2521.040709
345.739934	2518.620955
346.131106	2517.232118
346.522215	2516.206243
346.913260	2511.293638
347.304241	2513.599966
347.695159	2508.946981
348.086012	2509.025119
348.476802	2508.321878
348.867528	2503.910868
349.258191	2505.735766
349.648789	2503.386588
350.039324	2502.733759
350.429796	2499.603202
350.820203	2499.315857
351.210548	2496.422234
351.600828	2495.764364
351.991045	2497.034735
352.381198	2493.430310
352.771288	2496.626401
353.161314	2494.264621
353.551276	2496.820486
353.941175	2493.909219
354.331010	2495.414004
354.720782	2492.855618
355.110490	2496.167656
355.500135	2494.148674
355.889717	2494.239415
356.279235	2492.890906
356.668689	2497.039776
357.058080	2496.611278
357.447408	2494.690598
357.836672	2491.411327
358.225873	2495.592965
358.615010	2492.328818
359.004084	2496.613798
359.393095	2497.097749
359.782043	2499.923316
360.170927	2498.312667
360.559748	2501.276866
360.948505	2497.102790
361.337199	2500.190497
361.725830	2499.653614
362.114398	2500.913902
362.502903	2502.590086
362.891344	2502.978255
363.279722	2501.720487
363.668037	2503.154695
364.056289	2505.403050
364.444478	2502.083450
364.832603	2505.846672
365.220665	2505.980262
365.608665	2505.743328
365.996601	2504.344408
366.384474	2505.299706
366.772284	2508.417660
367.160031	2506.247443
367.547715	2508.221055
367.935336	2506.857423
368.322893	2507.774913
368.710388	2505.095540
369.097820	2508.372290
369.485189	2505.214007
369.872495	2509.413288
370.259738	2507.646363
370.646918	2509.395644
371.034035	2510.605521
371.421090	2509.730881
371.808081	2506.945643
372.195010	2510.721467
372.581875	2508.291631
372.968678	2507.671569
373.355418	2510.721467
373.742096	2509.816580
374.128710	2508.674759
374.515262	2511.583505
374.901751	2511.709533
375.288177	2512.584174
375.674540	2510.754235
376.060841	2513.794051
376.447079	2511.833042
376.833254	2512.647188
377.219367	2508.407578
377.605417	2511.278515
377.991404	2509.819101
378.377329	2511.510408
378.763191	2508.019409
379.148991	2515.140039
379.534727	2514.076355
379.920402	2515.170286
380.306013	2516.029802
380.691563	2515.591222
381.077049	2512.311951
381.462474	2514.598115
381.847835	2511.936385
382.233134	2517.413599
382.618371	2510.625685
383.003545	2514.638444
383.388657	2515.946623
383.773706	2518.497447
384.158693	2516.415451
384.543618	2518.386542
384.928480	2518.625997
385.313280	2520.100534
385.698017	2517.151459
386.082692	2518.782272
386.467305	2515.601304
386.851856	2518.240348
387.236344	2516.939731
387.620770	2517.534587
388.005133	2515.863444
388.389435	2519.984588
388.773674	2518.346213
389.157851	2517.958044
389.541965	2517.431243
389.926018	2519.009124
390.310008	2518.726820
390.693936	2520.924763
391.077802	2518.888137
391.461606	2519.372087
391.845348	2519.276305
392.229027	2523.498272
392.612645	2519.072139
392.996200	2519.850997
393.379694	2522.111954
393.763125	2521.554907
394.146494	2523.107582
394.529801	2520.702952
394.913047	2522.585823
395.296230	2522.588343
395.679351	2521.960720
396.062410	2520.730678
396.445408	2521.799403
396.828343	2521.927952
397.211217	2518.530215
397.594028	2519.556089
397.976778	2519.546007
398.359466	2521.653209
398.742092	2519.470390
399.124656	2523.430216
399.507158	2522.870648
399.889598	2525.305525
400.271977	2526.676719
400.654294	2522.777387
401.036549	2524.592202
401.418742	2522.956348
401.800874	2523.878879
402.182944	2526.543129
402.564952	2526.228057
402.946898	2524.824095
403.328783	2523.649506
403.710606	2527.437933
404.092367	2527.460619
404.474067	2526.757378
404.855705	2525.676050
405.237282	2528.458767
405.618797	2526.386853
406.000250	2527.805938
406.381642	2526.084384
406.762972	2527.279137
407.144240	2526.767460
407.525447	2526.850639
407.906593	2528.836854
408.287677	2527.652183
408.668700	2527.745444
409.049661	2528.569673
409.430560	2528.035310
409.811399	2527.382481
410.192176	2529.174611
410.572891	2529.368695
410.953545	2531.027235
411.334138	2529.552697
411.714669	2530.139992
412.095139	2528.148736
412.475547	2530.739889
412.855894	2531.629653
413.236180	2528.645290
413.616405	2530.573531
413.996568	2531.206196
414.376670	2530.681916
414.756711	2530.427338
415.136691	2529.051103
415.516609	2528.824251
415.896466	2530.008922
416.276262	2532.312729
416.655997	2526.275948
417.035670	2527.979857
417.415283	2530.286185
417.794834	2525.471883
418.174324	2529.061185
418.553753	2531.385157
418.933121	2531.624612
419.312428	2529.131761
419.691674	2530.084539
420.070859	2530.422297
420.449983	2532.131248
420.829045	2531.518747
421.208047	2529.794673
421.586988	2532.103521
421.965867	2535.423121
422.344686	2533.446989
422.723444	2532.040507
423.102141	2533.996475
423.480777	2532.925229
423.859352	2529.769467
424.237866	2533.729293
424.616319	2534.293903
424.994712	2534.109901
425.373044	2535.481094
425.751314	2533.457071
426.129524	2533.646114
426.507673	2536.171733
426.885762	2535.881866
427.263789	2534.246012
427.641756	2535.443286
428.019662	2533.663758
428.397508	2534.296423
428.775292	2534.440096
429.153016	2538.379758
429.530679	2537.502597
429.908282	2533.071423
430.285824	2537.840354
430.663305	2533.227699
431.040726	2537.658873
431.418086	2534.233409
431.795385	2537.875642
432.172624	2536.257432
432.549802	2536.819521
432.926920	2537.361445
433.303977	2537.061496
433.680974	2535.612164
434.057910	2535.755837
434.434786	2537.479912
434.811601	2539.486291
435.188355	2539.324974
435.565050	2536.038142
435.941683	2537.457227
436.318257	2535.024870
436.694770	2531.536392
437.071222	2535.171063
437.447614	2533.792308
437.823946	2534.369520
438.200218	2536.383461
438.576429	2537.878163
438.952580	2538.483102
439.328670	2539.950077
439.704700	2538.077289
440.080670	2533.124355
440.456580	2540.524769
440.832429	2536.149047
441.208218	2539.093081
441.583947	2537.910931
441.959616	2540.703730
442.335224	2539.277083
442.710773	2538.316743
443.086261	2539.655170
443.461689	2538.407484
443.837057	2540.035777
444.212365	2537.931095
444.587612	2538.094933
444.962800	2538.891435
445.337927	2541.404450
445.712995	2541.081816
446.088002	2537.984027
446.462949	2538.082330
446.837837	2542.871426
447.212664	2539.304810
447.587431	2541.469985
447.962139	2537.174922
448.336786	2540.136600
448.711374	2540.529810
449.085901	2541.590973
449.460369	2540.343287
449.834776	2540.048380
450.209124	2541.122146
450.583412	2540.149203
450.957640	2538.636857
451.331808	2542.642053
451.705917	2540.769265
452.079965	2542.410160
452.453954	2541.880839
452.827883	2539.582073
453.201752	2539.738349
453.575562	2541.427135
453.949311	2544.671118
454.323001	2542.218597
454.696632	2542.803370
455.070202	2542.178267
455.443713	2541.381765
455.817164	2539.461085
456.190556	2537.369007
456.563888	2539.793802
456.937160	2536.902700
457.310373	2542.541230
457.683526	2543.937630
458.056619	2541.782537
458.429653	2543.494008
458.802628	2543.471323
459.175542	2540.237423
459.548398	2541.717002
459.921194	2546.064997
460.293930	2541.732125
460.666607	2544.754297
461.039224	2541.575849
461.411782	2543.670449
461.784280	2544.109029
462.156719	2545.331509
462.529099	2543.095757
462.901419	2547.284956
463.273680	2542.468134
463.645882	2542.521066
464.018024	2543.448638
464.390106	2547.184133
464.762130	2543.801519
465.134094	2545.134904
465.505999	2547.436191
465.877845	2545.102137
466.249631	2544.149358
466.621358	2545.197918
466.993026	2544.035932
467.364634	2548.018444
467.736184	2544.529966
468.107674	2543.567105
468.479105	2544.358566
468.850477	2541.953936
469.221790	2546.380069
469.593043	2543.567105
469.964238	2544.305634
470.335373	2545.530635
470.706449	2547.537014
471.077467	2545.112219
471.448425	2549.084648
471.819324	2546.221273
472.190164	2546.957281
472.560945	2543.284801
472.931667	2546.806047
473.302330	2546.475851
473.672934	2545.379400
474.043479	2546.095244
474.413965	2547.156407
474.784393	2542.994934
475.154761	2542.120294
475.525070	2542.684903
475.895321	2542.044677
476.265513	2540.615510
476.635645	2546.982487
477.005719	2545.540717
477.375734	2547.204298
477.745691	2547.143804
478.115588	2547.428629
478.485427	2548.164637
478.855207	2546.359904
479.224928	2548.792261
479.594591	2548.031047
479.964194	2548.625903
480.333739	2548.580533
480.703226	2548.270502
481.072653	2549.009031
481.442022	2549.561037
481.811333	2548.351160
482.180584	2547.395862
482.549777	2547.189174
482.918912	2549.518187
483.287988	2551.103630
483.657005	2548.187323
484.025964	2547.836962
484.394864	2548.431819
484.763706	2550.387786
485.132489	2549.989535
485.501213	2551.706048
485.869879	2550.092879
486.238487	2548.905687
486.607036	2551.345606
486.975527	2549.833259
487.343959	2551.244782
487.712333	2548.860317
488.080648	2547.161448
488.448905	2548.273022
488.817104	2549.429967
489.185244	2550.329813
489.553326	2550.337375
489.921350	2551.509443
490.289315	2551.484237
490.657222	2551.718651
491.025070	2552.711758
491.392861	2550.075235
491.760593	2547.980635
492.128267	2553.714948
492.495883	2549.487940
492.863440	2548.457024
493.230939	2549.981973
493.598380	2553.215874
493.965763	2546.611962
494.333088	2546.312013
494.700354	2546.022147
495.067563	2549.203115
495.434713	2546.110367
495.801805	2552.895760
496.168839	2550.738147
496.535815	2554.697973
496.902733	2551.534649
497.269593	2552.061449
497.636395	2548.880481
498.003139	2549.203115
498.369825	2553.208312
498.736453	2549.351829
499.103023	2550.004659
499.469535	2550.876778
499.835989	2551.280071
500.202385	2552.245452
500.568723	2552.096738
500.935003	2550.901984
501.301226	2552.671429
501.667390	2550.004659
502.033497	2553.979608
502.399546	2551.721172
502.765537	2552.003476
503.131470	2550.491130
503.497345	2554.060267
503.863163	2553.452808
504.228923	2550.922149
504.594625	2551.718651
504.960269	2551.564896
505.325856	2550.539021
505.691385	2550.551624
506.056856	2553.846018
506.422270	2553.326779
506.787625	2550.644885
507.152924	2552.981460
507.518164	2554.541697
507.883347	2554.067829
508.248472	2551.905174
508.613540	2556.157387
508.978550	2554.256872
509.343503	2554.208981
509.708398	2556.928683
510.073236	2553.856100
510.438016	2555.343241
510.802738	2553.856100
511.167403	2557.004301
511.532010	2554.095555
511.896561	2555.726368
512.261053	2557.793241
512.625488	2555.025648
512.989866	2553.699824
513.354186	2553.777962
513.718449	2553.593960
514.082655	2556.059084
514.446803	2556.676626
514.810894	2558.352809
515.174927	2558.181410
515.538904	2558.395659
515.902822	2559.454302
516.266684	2556.336348
516.630488	2557.163097
516.994235	2559.769374
517.357925	2561.536298
517.721558	2556.601008
518.085133	2560.959086
518.448651	2560.336503
518.812112	2557.652089
519.175516	2560.056719
519.538863	2561.710218
519.902152	2562.070660
520.265385	2560.465053
520.628560	2562.814231
520.991678	2563.618295
521.354739	2561.377502
521.717743	2564.132492
522.080690	2561.203582
522.443580	2562.075702
522.806413	2563.391443
523.169189	2561.032183
523.531908	2566.315312
523.894569	2563.363716
524.257174	2562.857080
524.619722	2566.297668
524.982213	2567.457133
525.344647	2563.787173
525.707025	2565.843964
526.069345	2564.959242
526.431608	2565.871690
526.793815	2567.588203
527.155964	2567.041238
527.518057	2565.360013
527.880093	2567.658779
528.242072	2565.851526
528.603995	2570.565005
528.965860	2568.795560
529.327669	2569.087947
529.689421	2567.623491
530.051117	2570.519634
530.412755	2568.319171
530.774337	2567.005950
531.135862	2568.972000
531.497331	2569.355128
531.858743	2565.783470
532.220098	2568.326732
532.581396	2566.630384
532.942638	2570.166753
533.303824	2571.132134
533.664953	2572.016857
534.026025	2573.753534
534.387040	2571.968966
534.747999	2572.984758
535.108902	2573.398133
535.469748	2571.600962
535.830537	2574.502146
536.191270	2571.608523
536.551947	2573.617423
536.912567	2570.169274
537.273131	2574.769327
537.633638	2574.918041
537.994089	2573.992989
538.354483	2573.244378
538.714821	2575.538103
539.075103	2575.071796
539.435328	2573.945098
539.795497	2577.231931
540.155609	2577.083217
540.515665	2575.679255
540.875665	2578.431725
541.235609	2578.159503
541.595496	2579.989442
541.955328	2576.022054
542.315102	2576.911817
542.674821	2579.008937
543.034483	2580.780903
543.394090	2580.491037
543.753640	2579.266036
544.113134	2582.174782
544.472571	2581.509350
544.831953	2581.975656
545.191278	2580.954823
545.550548	2582.573033
545.909761	2581.128742
546.268918	2579.192939
546.628019	2582.205029
546.987064	2583.399782
547.346053	2583.298959
547.704986	2583.999680
548.063863	2583.540935
548.422684	2586.424475
548.781449	2584.292067
549.140158	2585.106213
549.498811	2585.320462
549.857408	2587.049578
550.215949	2583.881212
550.574434	2581.784092
550.932864	2586.253075
551.291237	2585.547314
551.649555	2590.285998
552.007817	2593.610639
552.366022	2590.023858
552.724173	2590.873293
553.082267	2592.115937
553.440305	2591.626945
553.798288	2593.880341
554.156215	2596.347986
554.514086	2594.908737
554.871902	2594.039137
555.229661	2594.916298
555.587365	2595.216247
555.945014	2596.143819
556.302606	2598.326639
556.660143	2601.608430
557.017625	2602.972062
557.375050	2604.355859
557.732421	2604.446600
558.089735	2607.219234
558.446994	2607.892228
558.804197	2607.068000
559.161345	2608.976076
559.518437	2608.875253
559.875474	2614.092847
560.232455	2615.708537
560.589381	2615.312807
560.946251	2620.555607
561.303065	2619.020575
561.659825	2622.466204
562.016528	2621.911677
562.373177	2621.122737
562.729770	2626.100876
563.086307	2626.794035
563.442789	2629.743110
563.799216	2632.316619
564.155587	2636.909110
564.511904	2638.272742
564.868164	2638.653349
565.224370	2642.824904
565.580520	2647.225831
565.936615	2644.279277
566.292654	2646.623413
566.648638	2651.566265
567.004567	2655.858807
567.360441	2657.993736
567.716260	2661.560352
568.072023	2663.294509
568.427732	2666.467915
568.783385	2667.299706
569.138982	2671.554440
569.494525	2676.454441
569.850013	2674.034687
570.205445	2686.108251
570.560823	2687.464321
570.916145	2690.622604
571.271412	2697.017308
571.626625	2701.554346
571.981782	2700.846064
572.336884	2708.158258
572.691931	2707.976776
573.046923	2719.362222
573.401860	2721.436657
573.756743	2727.198696
574.111570	2733.406877
574.466342	2737.008781
574.821059	2742.780902
575.175722	2745.056983
575.530330	2751.812129
575.884882	2756.215577
576.239380	2761.660023
576.593823	2764.828389
576.948211	2772.445572
577.302544	2770.386261
577.656823	2783.447890
578.011047	2789.971143
578.365216	2793.676392
578.719330	2797.137144
579.073389	2809.077117
579.427394	2810.045018
579.781344	2817.279074
580.135239	2822.501709
580.489080	2832.014367
580.842866	2839.520645
581.196597	2852.617562
581.550273	2858.666947
581.903895	2867.776312
582.257463	2876.734442
582.610975	2884.714589
582.964434	2894.060888
583.317837	2902.149419
583.671186	2905.222003
584.024481	2914.838004
584.377721	2923.516350
584.730906	2931.362906
585.084037	2945.223558
585.437113	2948.845628
585.790135	2961.856846
586.143103	2967.117290
586.496016	2978.613641
586.848874	2991.677791
587.201679	3002.012157
587.554428	3006.546674
587.907124	3024.082328
588.259765	3027.641383
588.612352	3051.092830
588.964884	3049.283056
589.317362	3065.147567
589.669786	3080.628951
590.022155	3088.472986
590.374470	3106.706840
590.726731	3115.811163
591.078937	3116.973149
591.431090	3142.423415
591.783188	3138.468629
592.135232	3155.779952
592.487222	3162.025941
592.839157	3188.991073
593.191038	3190.629448
593.542866	3197.165304
593.894639	3204.338866
594.246358	3221.196485
594.598022	3239.362282
594.949633	3243.730442
595.301190	3254.125302
595.652692	3270.912344
596.004141	3301.910399
596.355535	3290.373718
596.706876	3297.937970
597.058162	3308.554640
597.409395	3329.314111
597.760573	3355.265971
598.111698	3359.344265
598.462768	3376.201883
598.813785	3381.613562
599.164748	3399.265162
599.515657	3407.010895
599.866511	3422.610745
600.217312	3443.639919
600.568060	3446.692337
600.918753	3474.630412
601.269392	3488.465859
601.619978	3492.176148
601.970510	3518.758152
602.320988	3532.011346
602.671412	3564.181469
603.021783	3566.308836
603.372100	3578.102615
603.722363	3605.040021
604.072572	3611.253243
604.422728	3633.144453
604.772830	3634.666882
605.122878	3651.895025
605.472872	3667.888086
605.822813	3692.075542
606.172701	3700.005277
606.522534	3735.300916
606.872314	3754.928648
607.222041	3769.353910
607.571714	3797.382725
607.921333	3812.047442
608.270899	3836.991071
608.620411	3868.894013
608.969870	3872.271586
609.319276	3892.272364
609.668627	3919.141714
610.017926	3948.745890
610.367171	3985.140500
610.716362	3995.822705
611.065500	4019.548896
611.414585	4048.898493
611.763616	4059.623548
612.112594	4079.954522
612.461518	4104.719190
612.810389	4136.745640
613.159207	4144.367865
613.507971	4151.879184
613.856682	4209.920509
614.205340	4213.903021
614.553945	4260.334568
614.902496	4252.230913
615.250994	4289.220380
615.599439	4300.731854
615.947830	4332.987677
616.296169	4348.854709
616.644454	4371.131568
616.992686	4390.562695
617.340864	4435.250004
617.688990	4426.496040
618.037063	4473.252742
618.385082	4481.535358
618.733048	4537.708935
619.080961	4534.026372
619.428821	4564.860590
619.776628	4592.841514
620.124382	4591.004013
620.472083	4615.879587
620.819731	4641.382784
621.167326	4626.836535
621.514868	4650.219927
621.862357	4626.098006
622.209793	4651.911234
622.557176	4650.126666
622.904506	4660.897091
623.251783	4650.169516
623.599007	4659.651926
623.946179	4673.000901
624.293297	4686.932130
624.640363	4668.053009
624.987376	4686.261657
625.334336	4679.685471
625.681243	4680.792005
626.028097	4693.029406
626.374899	4704.142629
626.721647	4725.559971
627.068343	4711.689237
627.414987	4715.578487
627.761577	4714.761820
628.108115	4748.562756
628.454600	4721.504363
628.801032	4770.993370
629.147412	4762.146145
629.493739	4780.455616
629.840014	4766.521867
630.186236	4818.796112
630.532405	4775.727014
630.878521	4820.847861
631.224585	4813.991892
631.570597	4794.797699
631.916556	4833.339841
632.262462	4843.044062
632.608316	4845.373075
632.954117	4850.464640
633.299866	4857.665928
633.645562	4873.936252
633.991206	4849.169064
634.336797	4835.532742
634.682336	4831.756918
635.027823	4834.559800
635.373257	4841.811500
635.718639	4823.988500
636.063968	4844.934494
636.409245	4804.196930
636.754470	4820.142100
637.099642	4808.907888
637.444762	4799.430519
637.789829	4818.135721
638.134845	4802.994615
638.479808	4808.461746
638.824719	4824.026309
639.169577	4792.070435
639.514383	4827.066125
639.859137	4796.345333
640.203839	4810.957117
640.548489	4824.716947
640.893086	4818.891894
641.237632	4812.663548
641.582125	4836.331765
641.926566	4836.167928
642.270955	4856.622410
642.615292	4871.362743
642.959576	4894.791506
643.303809	4902.164193
643.647990	4919.541051
643.992118	4926.228141
644.336195	4902.300305
644.680219	4935.287095
645.024192	4933.663843
645.368112	5010.201162
645.711981	5035.724523
646.055797	5095.358853
646.399562	5078.405453
646.743274	5177.643087
647.086935	5217.430393
647.430544	5229.314913
647.774101	5258.969501
648.117606	5267.274802
648.461059	5278.761071
648.804460	5272.373929
649.147810	5213.072316
649.491108	5208.706677
649.834354	5204.845153
650.177548	5162.454090
650.520690	5122.296258
650.863781	5116.453561
651.206820	5141.195544
651.549807	5101.945120
651.892742	5073.578548
652.235626	5089.490950
652.578458	5088.016412
652.921238	5038.809710
653.263967	5073.434875
653.606644	5039.308784
653.949269	5052.831679
654.291843	5019.739025
654.634365	5066.742743
654.976836	5044.160894
655.319255	5048.773550
655.661622	5046.933529
656.003938	5055.306886
656.346203	5031.414337
656.688416	5074.203651
657.030577	5041.494124
657.372687	5028.261095
657.714746	5029.886867
658.056753	5067.256941
658.398708	5035.447260
658.740612	5034.423906
659.082465	5083.721349
659.424266	5080.842850
659.766016	5092.767700
660.107715	5085.042132
660.449362	5098.260037
660.790958	5109.406028
661.132503	5106.396459
661.473996	5144.752078
661.815438	5142.140761
662.156829	5147.290299
662.498168	5146.065299
662.839456	5134.800841
663.180693	5173.078322
663.521879	5175.838353
663.863013	5179.490669
664.204097	5205.049319
664.545129	5240.672633
664.886110	5245.595320
665.227040	5280.502790
665.567918	5255.395323
665.908746	5285.304489
666.249522	5296.558865
666.590248	5291.845386
666.930922	5322.102391
667.271545	5339.824568
667.612118	5347.509807
667.952639	5336.872972
668.293109	5362.020768
668.633528	5327.546837
668.973896	5339.552345
669.314213	5344.265824
669.654480	5333.434905
669.994695	5329.051622
670.334859	5333.979350
670.674973	5333.074462
671.015035	5340.568138
671.355047	5347.101473
671.695008	5345.720197
672.034918	5326.452907
672.374777	5338.914639
672.714585	5330.337116
673.054342	5340.283313
673.394049	5338.077808
673.733705	5374.772367
674.073310	5366.341037
674.412864	5338.085369
674.752368	5337.253579
675.091820	5346.098283
675.431223	5298.867713
675.770574	5304.730575
676.109875	5269.467704
676.449125	5282.950270
676.788324	5258.397330
677.127473	5216.076843
677.466571	5214.292275
677.805619	5212.479980
678.144616	5201.606211
678.483562	5192.269994
678.822458	5166.471890
679.161303	5169.388197
679.500098	5162.378473
679.838842	5152.013860
680.177535	5162.658257
680.516179	5175.442623
680.854771	5193.255540
681.193314	5267.952837
681.531805	5366.666191
681.870247	5497.219473
682.208638	5590.692547
682.546978	5607.000680
682.885268	5592.184729
683.223508	5522.803329
683.561697	5478.751206
683.899836	5456.330674
684.237925	5416.503038
684.575963	5389.966404
684.913951	5354.393502
685.251889	5412.200413
685.589776	5382.361824
685.927614	5363.850707
686.265401	5426.240027
686.603137	5416.261063
686.940824	5489.572042
687.278460	5510.868397
687.616046	5518.364593
687.953582	5575.982461
688.291068	5561.148865
688.628504	5627.762672
688.965889	5588.091312
689.303224	5542.186565
689.640510	5508.988047
689.977745	5441.560093
690.314930	5354.275035
690.652065	5311.657120
690.989150	5231.328854
691.326185	5167.969112
691.663170	5125.036126
692.000105	5054.129776
692.336990	4985.212162
692.673825	4970.071056
693.010610	4904.389863
693.347345	4844.695040
693.684030	4840.026931
694.020665	4799.811126
694.357251	4720.334815
694.693786	4735.294439
695.030272	4705.377712
695.366707	4670.976878
695.703093	4640.457733
696.039429	4662.991690
696.375716	4653.962984
696.711952	4628.306031
697.048139	4616.250112
697.384276	4596.483748
697.720363	4610.646869
698.056400	4622.279332
698.392388	4569.604315
698.728326	4563.353285
699.064214	4538.850756
699.400053	4533.149211
699.735842	4503.464377
700.071581	4486.269001
700.407270	4463.893840
700.742910	4443.867856
701.078501	4395.223242
701.414042	4396.662492
701.749533	4366.657544
702.084974	4307.421466
702.420366	4363.519426
702.755709	4308.744768
703.091002	4257.428343
703.426246	4303.542298
703.761440	4262.184672
704.096584	4232.429261
704.431679	4254.990945
704.766725	4241.173142
705.101721	4228.121595
705.436668	4255.273250
705.771565	4205.683419
706.106413	4230.811051
706.441212	4267.979478
706.775961	4275.737814
707.110661	4257.284670
707.445311	4284.156541
707.779913	4308.986744
708.114465	4319.981500
708.448967	4345.235161
708.783421	4401.983429
709.117825	4439.971044
709.452180	4449.181232
709.786485	4491.932737
710.120742	4572.376950
710.454949	4558.367583
710.789107	4617.543168
711.123216	4690.788613
711.457275	4678.669679
711.791286	4751.307665
712.125247	4767.086476
712.459159	4673.631046
712.793023	4747.793980
713.126837	4711.169998
713.460602	4705.702866
713.794318	4627.378459
714.127985	4638.035458
714.461602	4554.251481
714.795171	4530.792472
715.128691	4469.983554
715.462162	4413.515069
715.795584	4368.588306
716.128957	4356.169423
716.462281	4302.765960
716.795556	4279.004481
717.128782	4245.770675
717.461960	4178.365407
717.795088	4189.113147
718.128167	4148.970438
718.461198	4093.951285
718.794180	4087.100357
719.127113	4071.611412
719.459997	4047.633164
719.792833	4005.264786
720.125619	3998.769260
720.458357	3966.762974
720.791046	3971.083243
721.123686	3945.965694
721.456278	3905.006319
721.788821	3923.741767
722.121315	3896.678333
722.453761	3872.977348
722.786158	3880.909603
723.118506	3906.919437
723.450805	3858.373125
723.783056	3883.891446
724.115259	3899.052716
724.447412	3901.759816
724.779518	3892.446284
725.111574	3898.745206
725.443582	3930.300308
725.775542	3918.277156
726.107453	3968.058550
726.439315	3964.340699
726.771129	3977.243533
727.102895	4018.265922
727.434612	4060.898960
727.766281	4074.245415
728.097901	4070.361206
728.429473	4079.349583
728.760996	4084.032815
729.092471	4078.837906
729.423897	4069.612595
729.755276	4071.278696
730.086606	4072.538984
730.417887	4110.009881
730.749120	4171.327956
731.080305	4236.825147
731.411442	4261.914970
731.742530	4230.876586
732.073570	4237.523347
732.404562	4292.482006
732.735506	4280.426087
733.066401	4242.125920
733.397249	4186.519473
733.728048	4105.024180
734.058798	4024.705996
734.389501	3958.785348
734.720156	3896.060791
735.050762	3857.364894
735.381320	3848.003472
735.711831	3797.728044
736.042293	3771.259466
736.372707	3793.138074
736.703073	3766.687139
737.033391	3757.393772
737.363661	3772.676030
737.693883	3800.624187
738.024056	3805.549394
738.354182	3801.796255
738.684260	3866.428889
739.014290	3885.305489
739.344272	3880.178636
739.674207	3922.050460
740.004093	3921.211108
740.333931	3920.873350
740.663722	3921.440480
740.993464	3919.950819
741.323159	3892.884864
741.652806	3867.053992
741.982405	3842.828727
742.311956	3809.327739
742.641460	3800.074701
742.970915	3778.501083
743.300323	3734.786718
743.629683	3704.822099
743.958996	3692.753577
744.288260	3672.452851
744.617477	3638.074702
744.946647	3623.520891
745.275768	3598.786469
745.604842	3596.134822
745.933869	3546.630692
746.262847	3542.892676
746.591778	3580.436669
746.920662	3548.909293
747.249498	3519.297556
747.578286	3566.079463
747.907027	3585.873554
748.235720	3579.103284
748.564365	3604.954321
748.892963	3605.244187
749.221514	3589.057043
749.550017	3567.543918
749.878473	3565.277920
750.206881	3533.523692
750.535242	3530.640152
750.863555	3532.981768
751.191821	3528.568237
751.520039	3511.380423
751.848210	3487.649192
752.176334	3520.552803
752.504411	3528.046478
752.832440	3485.269767
753.160421	3472.611430
753.488356	3481.559478
753.816243	3491.281343
754.144082	3447.342646
754.471875	3438.356789
754.799620	3454.339768
755.127318	3451.241979
755.454969	3447.536731
755.782572	3450.737863
756.110129	3426.091662
756.437638	3417.425919
756.765100	3431.397477
757.092515	3444.091102
757.419882	3449.001186
757.747203	3418.650919
758.074477	3425.617794
758.401703	3439.367541
758.728882	3462.140953
759.056014	3468.628918
759.383099	3472.240905
759.710138	3469.019608
760.037129	3485.534428
760.364073	3513.588449
760.690970	3499.561438
761.017820	3476.291472
761.344623	3496.072960
761.671379	3537.438148
761.998088	3590.486210
762.324751	3716.880539
762.651366	3960.179227
762.977935	4426.881688
763.304456	4855.336915
763.630931	4943.909988
763.957359	4590.033591
764.283740	4254.680914
764.610074	4066.197213
764.936362	3874.426679
765.262602	3720.051425
765.588796	3613.362966
765.914943	3525.178062
766.241044	3438.591203
766.567097	3411.313520
766.893104	3366.757281
767.219064	3334.982889
767.544978	3306.467602
767.870845	3251.471134
768.196665	3236.327508
768.522438	3244.710947
768.848165	3237.492014
769.173846	3202.516489
769.499479	3188.923018
769.825066	3173.895338
770.150607	3156.601660
770.476101	3170.505162
770.801548	3166.187414
771.126949	3119.602111
771.452303	3105.323043
771.777611	3109.618106
772.102872	3114.026595
772.428087	3092.173193
772.753256	3084.780341
773.078378	3074.188877
773.403453	3040.226623
773.728482	3029.632638
774.053465	3048.675597
774.378401	3039.692261
774.703291	3008.061541
775.028135	3011.030781
775.352932	3006.271932
775.677683	2989.668891
776.002388	2989.978922
776.327046	2989.323572
776.651658	2977.862509
776.976224	2966.202320
777.300743	2966.285499
777.625216	2958.338120
777.949643	2955.910805
778.274024	2958.827112
778.598359	2943.731377
778.922647	2952.792851
779.246889	2949.090123
779.571086	2933.898606
779.895236	2926.198244
780.219339	2940.951181
780.543397	2950.363015
780.867409	2954.350568
781.191374	2948.328909
781.515294	2942.985286
781.839167	2944.104422
782.162995	2935.315171
782.486776	2944.298507
782.810511	2941.107456
783.134201	2930.357196
783.457844	2938.412960
783.781441	2927.226639
784.104993	2904.095305
784.428498	2908.655028
784.751958	2924.549787
785.075372	2915.291708
785.398739	2900.385016
785.722061	2917.625762
786.045337	2927.612288
786.368568	2912.014958
786.691752	2904.690161
787.014891	2954.300156
787.337983	2980.680514
787.661030	3008.732015
787.984031	3074.128383
788.306987	3119.705455
788.629897	3112.965432
788.952760	3095.936414
789.275579	3079.426636
789.598351	3020.722399
789.921078	2979.667242
790.243759	2972.604586
790.566395	2954.738736
790.888984	2928.328131
791.211529	2913.860020
791.534027	2903.891138
791.856480	2893.244221
792.178888	2875.766541
792.501249	2872.305789
792.823566	2869.341590
793.145836	2866.042155
793.468062	2861.454705
793.790241	2861.893285
794.112375	2865.704398
794.434464	2878.846686
794.756507	2880.553116
795.078505	2887.552758
795.400457	2898.855025
795.722364	2936.767023
796.044226	2962.706280
796.366042	2960.881382
796.687812	2954.746298
797.009538	2970.101653
797.331218	2962.146712
797.652852	2945.379834
797.974442	2929.041455
798.295986	2925.774787
798.617484	2921.194899
798.938938	2904.559091
799.260346	2890.811864
799.581709	2885.609394
799.903026	2878.037581
800.224299	2874.188660
800.545526	2864.376054
800.866708	2847.775534
801.187845	2837.715912
801.508936	2837.967969
801.829983	2845.854854
802.150984	2832.473112
802.471940	2820.601194
802.792851	2821.206133
803.113717	2821.337203
803.434538	2825.395332
803.755314	2819.015751
804.076045	2812.933599
804.396731	2812.348825
804.717372	2815.489464
805.037967	2807.524441
805.358518	2813.881336
805.679024	2826.033037
805.999485	2822.363077
806.319901	2828.508244
806.640272	2817.858807
806.960598	2820.510453
807.280879	2830.801969
807.601115	2838.814883
807.921306	2827.235353
808.241453	2819.436688
808.561554	2829.254335
808.881611	2830.668378
809.201623	2827.154694
809.521590	2824.382060
809.841513	2819.650937
810.161390	2824.760146
810.481223	2816.623724
810.801011	2809.896304
811.120755	2805.845737
811.440453	2809.697178
811.760107	2809.336736
812.079716	2805.507980
812.399281	2796.514561
812.718801	2790.336627
813.038276	2784.685494
813.357707	2792.796710
813.677093	2798.568831
813.996434	2791.813685
814.315731	2786.548200
814.634983	2783.195833
814.954191	2787.747995
815.273354	2798.523461
815.592473	2808.746921
815.911547	2809.530820
816.230577	2814.687921
816.549562	2825.176041
816.868502	2823.542707
817.187399	2835.820438
817.506250	2850.197808
817.825058	2841.174143
818.143821	2854.356760
818.462539	2870.876622
818.781213	2898.013153
819.099843	2934.102773
819.418429	2989.026144
819.736970	3049.217521
820.055466	3120.819550
820.373919	3223.437277
820.692327	3356.576671
821.010691	3522.269316
821.329011	3956.466417
821.647286	4834.821940
821.965517	6180.366395
822.283704	6887.055506
822.601847	6860.292020
822.919945	6243.842084
823.237999	5755.261015
823.556010	5186.545764
823.873976	4654.993900
824.191897	4255.641254
824.509775	3971.504179
824.827609	3706.773026
825.145398	3587.869851
825.463144	3579.879622
825.780845	3669.334897
826.098502	3773.187707
826.416116	4049.619378
826.733685	4355.078013
827.051210	4406.999377
827.368692	4301.543480
827.686129	4036.895506
828.003522	3722.929924
828.320872	3475.240392
828.638177	3283.961371
828.955439	3152.800630
829.272656	3068.852815
829.589830	3006.796212
829.906960	2957.244190
830.224046	2912.471182
830.541088	2878.269474
830.858086	2864.975951
831.175041	2849.121522
831.491952	2851.405165
831.808819	2862.851105
832.125642	2887.517470
832.442421	2930.657144
832.759157	3007.988444
833.075849	3182.404806
833.392497	3454.949747
833.709101	3656.001045
834.025662	3601.750668
834.342179	3448.222328
834.658653	3271.562653
834.975083	3133.127527
835.291469	3035.069523
835.607811	2956.190589
835.924110	2900.276631
836.240366	2847.440297
836.556578	2805.450006
836.872746	2788.242028
837.188871	2764.750251
837.504952	2748.333733
837.820990	2741.142527
838.136984	2727.055023
838.452935	2718.971533
838.768842	2719.175699
839.084706	2735.559449
839.400526	2814.012406
839.716303	2942.685338
840.032037	3019.414220
840.347727	3002.992661
840.663373	2943.990996
840.978977	2870.959801
841.294537	2801.775005
841.610054	2755.741709
841.925527	2731.909654
842.240957	2713.390975
842.556344	2691.696370
842.871687	2675.909997
843.186987	2666.319201
843.502244	2662.651762
843.817458	2658.321411
844.132629	2648.254227
844.447756	2639.971611
844.762840	2634.436424
845.077881	2635.159829
845.392879	2633.949953
845.707833	2629.901906
846.022745	2622.504013
846.337613	2626.042903
846.652438	2622.539301
846.967221	2625.506020
847.281960	2622.219187
847.596656	2619.917901
847.911309	2619.930504
848.225919	2619.106275
848.540485	2616.986470
848.855009	2614.922117
849.169490	2613.341716
849.483928	2615.675770
849.798323	2613.462703
850.112675	2613.195522
850.426984	2615.227107
850.741251	2612.920779
851.055474	2612.283073
851.369654	2612.764503
851.683792	2616.883126
851.997887	2611.088320
852.311938	2609.182764
852.625947	2613.704679
852.939914	2613.739967
853.253837	2618.907149
853.567718	2610.367435
853.881555	2607.877105
854.195350	2615.872375
854.509103	2611.927672
854.822812	2611.312651
855.136479	2607.030191
855.450103	2612.509925
855.763685	2613.936572
856.077224	2609.797784
856.390720	2609.840634
856.704173	2613.099740
857.017584	2616.147118
857.330953	2616.026130
857.644278	2620.570730
857.957561	2622.297325
858.270802	2613.790378
858.584000	2613.097220
858.897155	2618.864300
859.210268	2619.199536
859.523339	2615.302724
859.836367	2610.763165
860.149352	2609.155037
860.462295	2610.148145
860.775195	2610.415326
861.088054	2608.051025
861.400869	2606.082454
861.713642	2603.017432
862.026373	2604.769233
862.339062	2607.090685
862.651708	2616.068980
862.964312	2614.065121
863.276873	2614.460852
863.589392	2614.700307
863.901869	2618.569392
864.214303	2624.661627
864.526696	2627.519961
864.839045	2626.234467
865.151353	2633.586989
865.463619	2630.017852
865.775842	2630.952987
866.088023	2631.462143
866.400162	2632.498100
866.712258	2629.475928
867.024313	2629.584313
867.336325	2626.121041
867.648296	2629.289406
867.960224	2630.892493
868.272110	2632.089767
868.583954	2623.010649
868.895755	2625.735392
869.207515	2630.731176
869.519233	2641.463792
869.830909	2633.801238
870.142542	2629.465846
870.454134	2632.427524
870.765684	2635.926085
871.077191	2637.181332
871.388657	2645.834473
871.700081	2638.512197
872.011463	2641.521766
872.322803	2639.530510
872.634101	2644.281797
872.945357	2652.022489
873.256571	2655.110196
873.567744	2654.076759
873.878874	2652.476193
874.189963	2654.389311
874.501010	2657.771925
874.812015	2661.857780
875.122979	2662.561021
875.433900	2653.227325
875.744780	2654.137253
876.055618	2658.732265
876.366415	2661.575476
876.677169	2661.280568
876.987882	2658.487769
877.298554	2655.707572
877.609183	2667.503872
877.919771	2672.429080
878.230317	2679.113650
878.540822	2690.564631
878.851285	2701.801363
879.161707	2724.836915
879.472087	2762.312853
879.782425	2808.265491
880.092722	2920.065680
880.402977	3099.467743
880.713191	3345.566791
881.023363	3625.436529
881.333494	3807.134837
881.643583	3976.149602
881.953631	3971.995692
882.263637	3800.341882
882.573602	3585.724840
882.883526	3461.571303
883.193408	3352.805888
883.503248	3256.051022
883.813048	3146.751245
884.122806	3039.150337
884.432522	2957.753346
884.742197	2893.947462
885.051831	2858.903881
885.361424	2825.478511
885.670975	2792.579941
885.980485	2762.496855
886.289954	2746.443301
886.599382	2734.468040
886.908768	2719.672253
887.218113	2701.718184
887.527417	2693.065043
887.836680	2685.652026
888.145901	2679.882426
888.455082	2670.339522
888.764221	2658.119765
889.073319	2651.473003
889.382376	2653.282777
889.691392	2654.361584
890.000366	2655.233704
890.309300	2653.358395
890.618193	2653.653302
890.927044	2656.546925
891.235855	2655.783190
891.544625	2654.071718
891.853353	2656.274702
892.162041	2662.147647
892.470687	2682.493743
892.779293	2693.659899
893.087858	2700.490663
893.396381	2723.460680
893.704864	2765.128337
894.013306	2832.805828
894.321707	2918.863365
894.630068	2966.227526
894.938387	2982.782675
895.246665	2976.836634
895.554903	2936.837599
895.863100	2893.337483
896.171256	2837.340346
896.479371	2780.556789
896.787446	2746.299628
897.095480	2723.932028
897.403473	2719.770556
897.711425	2706.794626
898.019336	2688.699404
898.327207	2675.738597
898.635038	2676.378824
898.942827	2675.413443
899.250576	2664.229643
899.558284	2654.404434
899.865952	2648.773465
900.173579	2649.083496
900.481165	2643.908752
900.788711	2637.118318
901.096216	2630.653038
901.403681	2624.825464
901.711105	2628.112296
902.018489	2625.453088
902.325832	2629.738068
902.633135	2631.109262
902.940397	2643.941519
903.247619	2682.140863
903.554800	2747.688466
903.861941	2864.376054
904.169041	2985.038592
904.476101	3043.573949
904.783121	3035.223278
905.090100	2984.143787
905.397039	2909.232241
905.703938	2844.655060
906.010796	2784.864455
906.317614	2733.853019
906.624391	2700.861188
906.931129	2673.417146
907.237826	2654.500216
907.544483	2636.120169
907.851099	2623.406379
908.157675	2614.264247
908.464211	2608.910541
908.770707	2597.416711
909.077163	2593.887903
909.383578	2590.021338
909.689954	2593.257759
909.996289	2589.091245
910.302584	2588.655185
910.608839	2584.458425
910.915054	2584.100503
911.221229	2588.219125
911.527363	2589.255083
911.833458	2587.853642
912.139513	2587.528487
912.445527	2590.338931
912.751502	2596.237081
913.057436	2600.048193
913.363331	2605.837958
913.669186	2616.643671
913.975000	2630.514406
914.280775	2646.598208
914.586510	2663.697801
914.892205	2694.897502
915.197859	2759.489807
915.503475	2839.366889
915.809050	2902.454409
916.114585	2913.025709
916.420081	2919.095258
916.725536	2930.430293
917.030952	2909.446490
917.336328	2866.493338
917.641665	2819.839980
917.946961	2772.309461
918.252218	2742.586818
918.557435	2717.527242
918.862612	2697.476053
919.167750	2680.895698
919.472848	2663.922133
919.777906	2649.461583
920.082925	2636.939357
920.387904	2626.214302
920.692843	2625.006946
920.997743	2622.118364
921.302603	2614.891870
921.607423	2606.541199
921.912204	2602.450303
922.216946	2599.818820
922.521647	2599.518872
922.826310	2593.625763
923.130932	2589.623087
923.435516	2586.074114
923.740059	2584.655030
924.044564	2582.908270
924.349028	2579.621437
924.653454	2572.609193
924.957840	2568.039387
925.262186	2567.598286
925.566493	2569.045097
925.870761	2563.464539
926.174989	2565.748182
926.479178	2564.891186
926.783328	2563.933367
927.087438	2563.245249
927.391509	2562.887327
927.695541	2560.679302
927.999533	2559.262738
928.303486	2559.645865
928.607400	2559.325752
928.911275	2560.023952
929.215110	2556.969013
929.518906	2556.583364
929.822663	2557.465566
930.126381	2557.150494
930.430060	2554.859290
930.733699	2557.044630
931.037299	2557.417675
931.340861	2557.803324
931.644383	2558.025134
931.947866	2557.306770
932.251309	2557.594116
932.554714	2554.708055
932.858080	2559.993705
933.161407	2557.946997
933.464694	2557.039589
933.767943	2554.123281
934.071153	2556.225443
934.374323	2554.304763
934.677455	2554.019938
934.980548	2556.167469
935.283602	2554.108158
935.586617	2556.454815
935.889593	2553.036913
936.192530	2551.877447
936.495428	2553.472973
936.798287	2553.636810
937.101108	2556.258210
937.403890	2563.116700
937.706632	2562.574776
938.009336	2565.317163
938.312002	2569.357648
938.614628	2573.372927
938.917216	2571.979048
939.219765	2574.310582
939.522275	2577.234451
939.824747	2575.283525
940.127179	2570.159192
940.429573	2567.366393
940.731929	2568.863615
941.034246	2564.583676
941.336524	2568.853533
941.638763	2567.668862
941.940964	2565.201217
942.243126	2565.312122
942.545250	2563.487225
942.847335	2561.160732
943.149381	2559.663509
943.451389	2562.211813
943.753359	2558.834240
944.055290	2556.817778
944.357182	2556.903478
944.659036	2555.103786
944.960851	2560.240722
945.262628	2554.937428
945.564367	2558.619991
945.866067	2555.403734
946.167729	2555.759136
946.469352	2557.657130
946.770937	2557.122768
947.072484	2555.570092
947.373992	2556.069167
947.675462	2556.555638
947.976893	2556.459856
948.278286	2556.848025
948.579641	2555.393652
948.880958	2555.635627
949.182236	2554.788714
949.483476	2553.740154
949.784678	2553.709907
950.085841	2553.611604
950.386967	2555.252500
950.688054	2553.397355
950.989103	2556.233004
951.290114	2555.426420
951.591087	2557.866338
951.892021	2557.195865
952.192917	2557.914229
952.493776	2558.932542
952.794596	2561.158212
953.095378	2562.221895
953.396122	2562.801628
953.696828	2556.149825
953.997496	2561.581668
954.298126	2557.672254
954.598718	2556.290978
954.899272	2556.104455
955.199788	2553.609084
955.500266	2555.368446
955.800706	2550.811243
956.101108	2547.370656
956.401472	2549.135060
956.701798	2549.329144
957.002087	2545.646581
957.302337	2549.442570
957.602550	2547.879812
957.902724	2548.467107
958.202861	2544.197249
958.502960	2545.223124
958.803022	2543.284801
959.103045	2543.410829
959.403031	2544.834955
959.702979	2541.273380
960.002889	2546.082641
960.302762	2542.881508
960.602596	2546.448125
960.902393	2542.478216
961.202153	2543.463762
961.501875	2542.871426
961.801559	2542.752959
962.101205	2542.788247
962.400814	2542.395037
962.700385	2541.898483
962.999918	2538.838503
963.299414	2543.735984
963.598873	2540.736497
963.898293	2542.954605
964.197677	2539.700540
964.497022	2540.265149
964.796331	2543.728422
965.095601	2543.040305
965.394835	2541.885880
965.694030	2543.826725
965.993189	2543.463762
966.292309	2542.153062
966.591393	2538.397402
966.890439	2539.907227
967.189447	2540.582742
967.488419	2536.930426
967.787353	2540.486960
968.086249	2539.050231
968.385108	2540.905376
968.683930	2539.960160
968.982714	2540.461754
969.281462	2539.841693
969.580172	2540.239944
969.878844	2542.163144
970.177480	2543.415871
970.476078	2540.421425
970.774639	2539.327495
971.073162	2539.786240
971.371649	2538.364634
971.670098	2537.008564
971.968510	2539.468647
972.266885	2538.541075
972.565223	2540.373534
972.863524	2541.603576
973.161788	2543.443597
973.460014	2542.165664
973.758204	2542.115253
974.056356	2542.500901
974.354471	2543.509132
974.652550	2542.067362
974.950591	2544.237579
975.248595	2540.819676
975.546563	2540.207176
975.844493	2541.170037
976.142386	2540.653318
976.440243	2543.249512
976.738062	2542.798329
977.035845	2540.373534
977.333590	2538.732639
977.631299	2541.437218
977.928971	2542.319420
978.226606	2539.360262
978.524204	2539.788760
978.821765	2539.829090
979.119290	2536.877494
979.416777	2541.570808
979.714228	2542.694986
980.011642	2541.908566
980.309020	2543.496529
980.606360	2540.681045
980.903664	2542.165664
981.200931	2540.552495
981.498162	2541.469985
981.795356	2545.497867
982.092513	2547.728578
982.389633	2547.353012
982.686717	2549.291335
982.983764	2553.089845
983.280775	2555.895247
983.577749	2554.743343
983.874686	2554.292160
984.171587	2550.410472
984.468451	2551.791748
984.765279	2548.663712
985.062070	2547.562220
985.358824	2545.172713
985.655543	2541.671631
985.952224	2542.563916
986.248869	2540.214738
986.545478	2540.418905
986.842050	2538.301620
987.138586	2538.208359
987.435086	2536.295241
987.731549	2532.342976
988.027975	2541.222969
988.324366	2538.538554
988.620719	2537.366486
988.917037	2537.328677
989.213318	2539.115766
989.509563	2538.379758
989.805772	2539.110725
990.101944	2538.772968
990.398080	2537.149716
990.694180	2540.378575
990.990244	2537.169881
991.286271	2536.484284
991.582262	2537.560570
991.878217	2539.919830
992.174136	2538.266332
992.470019	2536.842206
992.765865	2539.755993
993.061676	2538.344470
993.357450	2537.885725
993.653188	2538.099974
993.948890	2541.119625
994.244556	2539.108205
994.540186	2541.679193
994.835780	2541.129707
995.131337	2540.693647
995.426859	2538.853626
995.722345	2540.345808
996.017795	2543.841848
996.313208	2542.432846
996.608586	2540.252547
996.903928	2543.428473
997.199234	2540.169368
997.494504	2541.215407
997.789738	2540.620551
998.084936	2539.985365
998.380099	2540.134079
998.675225	2540.577701
998.970316	2539.902186
999.265371	2541.681714
999.560390	2537.527803
999.855373	2539.551826
1000.150320	2540.542413
1000.445232	2538.077289
1000.740108	2538.162988
1001.034948	2536.930426
1001.329752	2538.170550
1001.624521	2538.828421
1001.919254	2533.943543
1002.213951	2535.007226
1002.508613	2534.482946
1002.803239	2536.038142
1003.097829	2533.993954
1003.392384	2537.737011
1003.686903	2535.513862
1003.981386	2538.644418
1004.275834	2537.948739
1004.570246	2539.347659
1004.864623	2537.210210
1005.158964	2535.939839
1005.453270	2536.645601
1005.747540	2537.762217
1006.041775	2538.639377
1006.335974	2537.573173
1006.630138	2536.920344
1006.924266	2535.831455
1007.218359	2536.806918
1007.512416	2538.294058
1007.806438	2536.106198
1008.100425	2536.249870
1008.394376	2537.668955
1008.688292	2536.882535
1008.982172	2537.394212
1009.276017	2536.287679
1009.569827	2539.314892
1009.863602	2535.430683
1010.157341	2535.171063
1010.451045	2537.432021
1010.744714	2534.142668
1011.038347	2538.863709
1011.331945	2534.467823
1011.625508	2536.554860
1011.919036	2537.933616
1012.212528	2535.077802
1012.505986	2537.421939
1012.799408	2537.363965
1013.092795	2535.150899
1013.386147	2535.927237
1013.679464	2535.317257
1013.972745	2536.953111
1014.265992	2536.736342
1014.559204	2537.013605
1014.852380	2534.712318
1015.145521	2538.498225
1015.438628	2535.004705
1015.731699	2536.506969
1016.024736	2536.358255
1016.317737	2538.878832
1016.610703	2536.116280
1016.903635	2532.451361
1017.196531	2530.087060
1017.489393	2533.772143
1017.782219	2532.927750
1018.075011	2535.203831
1018.367768	2536.141486
1018.660490	2535.660055
1018.953177	2535.660055
1019.245829	2535.660055
