Dividing Wavelength (nm)	Counts (n)	Blue Motor Position (mm): 48.000000	Red Motor Position (mm): 0.000000	
326.493990	2094.022211
326.888308	2094.022211
327.282561	2094.022211
327.676750	2069.726370
328.070874	2072.080589
328.464933	2079.133163
328.858929	2088.171952
329.252859	2102.945053
329.646726	2113.823863
330.040528	2131.384723
330.434265	2149.979019
330.827938	2168.475012
331.221547	2190.063753
331.615091	2213.900849
332.008571	2230.251832
332.401986	2251.787641
332.795338	2272.108532
333.188625	2292.593261
333.581847	2311.537917
333.975006	2328.773622
334.368100	2346.490757
334.761129	2363.166894
335.154095	2379.903525
335.546996	2430.254570
335.939833	2514.346057
336.332606	2526.734692
336.725315	2536.063348
337.117960	2547.295038
337.510540	2553.682180
337.903056	2562.783984
338.295508	2570.678431
338.687896	2576.039698
339.080220	2582.492375
339.472480	2588.410689
339.864676	2593.915629
340.256807	2593.537543
340.648875	2597.164653
341.040879	2598.366968
341.432818	2597.623398
341.824694	2600.083481
342.216506	2600.582555
342.608253	2602.155395
342.999937	2596.363109
343.391557	2595.551484
343.783113	2595.501072
344.174605	2595.085177
344.566033	2593.240115
344.957397	2592.037799
345.348697	2588.965216
345.739934	2586.318610
346.131106	2588.105699
346.522215	2584.097982
346.913260	2583.140163
347.304241	2585.587643
347.695159	2581.335430
348.086012	2581.375759
348.476802	2580.496078
348.867528	2577.965418
349.258191	2578.673701
349.648789	2577.355439
350.039324	2574.413926
350.429796	2573.554409
350.820203	2574.313103
351.210548	2572.263873
351.600828	2572.652042
351.991045	2571.306054
352.381198	2573.347722
352.771288	2571.711867
353.161314	2568.349417
353.551276	2571.401836
353.941175	2573.206569
354.331010	2572.475602
354.720782	2576.085068
355.110490	2577.171437
355.500135	2573.708164
355.889717	2574.781930
356.279235	2572.208421
356.668689	2572.566343
357.058080	2576.422825
357.447408	2574.151786
357.836672	2573.458627
358.225873	2573.302351
358.615010	2572.583987
359.004084	2576.742939
359.393095	2579.727302
359.782043	2579.923907
360.170927	2580.758218
360.559748	2581.355594
360.948505	2583.651840
361.337199	2584.445822
361.725830	2583.886254
362.114398	2584.372725
362.502903	2586.321131
362.891344	2589.285329
363.279722	2588.113261
363.668037	2585.872468
364.056289	2589.013107
364.444478	2589.028231
364.832603	2588.211564
365.220665	2592.562079
365.608665	2590.328848
365.996601	2594.215578
366.384474	2595.972420
366.772284	2595.710280
367.160031	2593.683736
367.547715	2597.890579
367.935336	2596.625249
368.322893	2599.808738
368.710388	2600.396032
369.097820	2601.971393
369.485189	2604.055910
369.872495	2601.888214
370.259738	2604.814604
370.646918	2603.680344
371.034035	2603.377875
371.421090	2604.567587
371.808081	2606.357197
372.195010	2608.610593
372.581875	2608.781992
372.968678	2613.669391
373.355418	2610.465737
373.742096	2614.639813
374.128710	2620.190123
374.515262	2620.492592
374.901751	2623.474435
375.288177	2627.189765
375.674540	2630.481639
376.060841	2644.788433
376.447079	2649.441418
376.833254	2655.634476
377.219367	2663.644869
377.605417	2678.075172
377.991404	2687.502130
378.377329	2707.482743
378.763191	2723.069991
379.148991	2749.478075
379.534727	2776.866664
379.920402	2801.036476
380.306013	2830.875066
380.691563	2869.036600
381.077049	2901.602454
381.462474	2940.936057
381.847835	2991.491268
382.233134	3036.493649
382.618371	3079.441759
383.003545	3139.751603
383.388657	3199.617826
383.773706	3268.202724
384.158693	3326.024758
384.543618	3394.768453
384.928480	3460.182465
385.313280	3542.522151
385.698017	3627.233701
386.082692	3724.979153
386.467305	3785.586425
386.851856	3888.473855
387.236344	4020.599976
387.620770	4083.193463
388.005133	4188.732539
388.389435	4315.298268
388.773674	4402.805137
389.157851	4521.272253
389.541965	4644.793125
389.926018	4691.496895
390.310008	4850.361297
390.693936	4973.879648
391.077802	5087.436680
391.461606	5223.401640
391.845348	5341.483107
392.229027	5464.071366
392.612645	5670.791441
392.996200	5795.887674
393.379694	5973.542976
393.763125	6183.973341
394.146494	6292.199352
394.529801	6440.678977
394.913047	6679.382653
395.296230	6705.473144
395.679351	6783.379136
396.062410	7035.426746
396.445408	6978.784341
396.828343	7141.598487
397.211217	7295.716642
397.594028	7215.781587
397.976778	7434.119001
398.359466	7609.178109
398.742092	7622.872404
399.124656	7784.867362
399.507158	7982.447825
399.889598	8026.903240
400.271977	8246.185871
400.654294	8302.901372
401.036549	8510.276798
401.418742	8558.351761
401.800874	8855.464766
402.182944	8958.747926
402.564952	9322.010952
402.946898	9174.025360
403.328783	9238.105987
403.710606	9445.630126
404.092367	9705.196617
404.474067	10069.782946
404.855705	9874.032421
405.237282	9842.842802
405.618797	10270.665365
406.000250	10516.403971
406.381642	10877.910154
406.762972	10827.644809
407.144240	10651.017902
407.525447	10904.066181
407.906593	10853.541216
408.287677	11119.845209
408.668700	11265.312745
409.049661	11258.194636
409.430560	11422.984914
409.811399	11400.829042
410.192176	11558.007178
410.572891	11630.188940
410.953545	12108.014707
411.334138	11595.168044
411.714669	12183.296778
412.095139	11532.078003
412.475547	12006.218687
412.855894	11878.266641
413.236180	12190.442613
413.616405	11898.753890
413.996568	12163.727019
414.376670	12146.128351
414.756711	12042.567927
415.136691	12313.519864
415.516609	12482.738796
415.896466	12575.367477
416.276262	12866.904966
416.655997	13318.219305
417.035670	13370.180998
417.415283	13983.323938
417.794834	14073.691662
418.174324	13814.021827
418.553753	13726.270462
418.933121	14204.713771
419.312428	14035.033573
419.691674	13950.271612
420.070859	14410.675152
420.449983	14066.356783
420.829045	14624.538542
421.208047	14379.256161
421.586988	14830.308360
421.965867	15078.648201
422.344686	15083.641464
422.723444	15654.534493
423.102141	14357.690105
423.480777	15544.554160
423.859352	15054.773297
424.237866	16146.397353
424.616319	15862.996287
424.994712	16506.476890
425.373044	16303.303267
425.751314	16991.461096
426.129524	16126.973788
426.507673	17198.050101
426.885762	16923.057680
427.263789	17111.896782
427.641756	17299.009289
428.019662	17354.265377
428.397508	17399.234990
428.775292	17707.544397
429.153016	17683.961879
429.530679	17751.941839
429.908282	17790.000030
430.285824	17520.930964
430.663305	18224.497080
431.040726	17845.273761
431.418086	17672.236156
431.795385	18319.497624
432.172624	18745.651565
432.549802	18317.450916
432.926920	18517.990536
433.303977	18403.339574
433.680974	18654.114293
434.057910	18968.770513
434.434786	19005.825515
434.811601	18937.767417
435.188355	19978.813577
435.565050	19649.679163
435.941683	19614.554924
436.318257	20510.128508
436.694770	20312.243054
437.071222	20903.320863
437.447614	19967.536516
437.823946	19989.871348
438.200218	20177.523259
438.576429	19959.884045
438.952580	20261.524006
439.328670	20230.112576
439.704700	20654.151752
440.080670	20220.456246
440.456580	20829.843526
440.832429	21006.702326
441.208218	20006.481950
441.583947	20451.227666
441.959616	20573.326933
442.335224	20822.727937
442.710773	20966.282354
443.086261	21517.275429
443.461689	20863.745285
443.837057	21015.579798
444.212365	21666.080208
444.587612	21671.267555
444.962800	21278.871702
445.337927	21695.250845
445.712995	20413.318189
446.088002	22317.051966
446.462949	22522.259695
446.837837	22712.843037
447.212664	22742.429568
447.587431	25724.846760
447.962139	28716.675786
448.336786	30985.111838
448.711374	29273.546845
449.085901	25547.839246
449.460369	25568.114766
449.834776	25590.651245
450.209124	28164.797989
450.583412	27633.243604
450.957640	28080.446882
451.331808	26739.895690
451.705917	25360.353693
452.079965	25414.352012
452.453954	25811.489071
452.827883	25713.468876
453.201752	25516.200964
453.575562	25685.009042
453.949311	26827.281571
454.323001	26902.888797
454.696632	26672.752562
455.070202	28292.208111
455.443713	28479.620567
455.817164	29059.824607
456.190556	29619.133065
456.563888	29025.932930
456.937160	29441.477762
457.310373	27731.349499
457.683526	28180.528910
458.056619	28182.288272
458.429653	28165.884358
458.802628	28786.460478
459.175542	28935.497151
459.548398	30310.340792
459.921194	31966.037197
460.293930	32714.078893
460.666607	34826.370245
461.039224	36604.148272
461.411782	36929.544671
461.784280	35631.150127
462.156719	35051.183022
462.529099	34464.536387
462.901419	33119.367497
463.273680	32082.813005
463.645882	32228.772053
464.018024	32251.038830
464.390106	33209.546178
464.762130	36168.204411
465.134094	40591.504360
465.505999	46090.757938
465.877845	50588.505647
466.249631	51518.601052
466.621358	49618.748964
466.993026	47345.664968
467.364634	45200.316249
467.736184	43242.437960
468.107674	41982.628408
468.479105	41179.698629
468.850477	40453.316251
469.221790	38990.529680
469.593043	37211.990439
469.964238	36321.538667
470.335373	36279.649199
470.706449	38170.896038
471.077467	41022.094516
471.448425	45684.834148
471.819324	48394.817304
472.190164	46325.138825
472.560945	42707.742936
472.931667	39564.127288
473.302330	38456.363977
473.672934	37628.825806
474.043479	38182.888943
474.413965	37379.427323
474.784393	36998.106884
475.154761	37944.328940
475.525070	37992.726538
475.895321	37502.154213
476.265513	38133.510841
476.635645	39141.872680
477.005719	38987.283177
477.375734	39511.784988
477.745691	40234.782231
478.115588	41622.077523
478.485427	43781.816215
478.855207	47284.296482
479.224928	49946.308017
479.594591	51443.941563
479.964194	50314.897022
480.333739	50448.669080
480.703226	50521.130626
481.072653	51197.872762
481.442022	51670.054957
481.811333	51858.188298
482.180584	50561.716955
482.549777	50047.683100
482.918912	49513.880361
483.287988	49209.931551
483.657005	48362.755565
484.025964	47677.370371
484.394864	47674.098662
484.763706	47242.573372
485.132489	46356.162085
485.501213	46192.785851
485.869879	46338.868407
486.238487	45930.986129
486.607036	46127.775131
486.975527	45573.855667
487.343959	45789.269212
487.712333	45862.733947
488.080648	45758.003976
488.448905	46204.176338
488.817104	46024.466765
489.185244	47049.771923
489.553326	48865.562770
489.921350	51641.012870
490.289315	54452.045954
490.657222	54932.397340
491.025070	55152.501678
491.392861	54205.939344
491.760593	52941.272641
492.128267	51228.026424
492.495883	49675.766934
492.863440	48247.771887
493.230939	46877.606436
493.598380	45780.331246
493.965763	45455.688500
494.333088	44623.411644
494.700354	44123.414882
495.067563	43836.963918
495.434713	43698.344790
495.801805	43770.350111
496.168839	43362.165363
496.535815	43024.332438
496.902733	43052.751943
497.269593	42618.098617
497.636395	42560.677355
498.003139	42956.216368
498.369825	42389.706622
498.736453	42704.125908
499.103023	42211.716082
499.469535	42094.993206
499.835989	42184.753471
500.202385	41830.393123
500.568723	41854.356248
500.935003	42050.759602
501.301226	41861.676003
501.667390	42462.163126
502.033497	42709.114130
502.399546	42121.625622
502.765537	41416.758888
503.131470	41792.657566
503.497345	42173.970443
503.863163	40807.845477
504.228923	41452.493107
504.594625	41858.298430
504.960269	41115.529782
505.325856	41825.704850
505.691385	41181.926819
506.056856	41320.813128
506.422270	41759.655653
506.787625	41323.999137
507.152924	41526.850127
507.518164	41618.120217
507.883347	40812.629532
508.248472	41063.187481
508.613540	41557.278531
508.978550	41852.879190
509.343503	41616.643159
509.708398	41808.098620
510.073236	42346.821526
510.438016	42326.861078
510.802738	41793.625468
511.167403	42431.633898
511.532010	42653.079184
511.896561	42951.213023
512.261053	43810.891070
512.625488	43337.393133
512.989866	43218.283271
513.354186	43071.300869
513.718449	43045.459914
514.082655	43729.360489
514.446803	43393.203748
514.810894	43921.509109
515.174927	43826.541332
515.538904	43736.471037
515.902822	44400.053241
516.266684	43841.828631
516.630488	44260.529226
516.994235	44109.211431
517.357925	44698.572727
517.721558	44869.729983
518.085133	45194.796186
518.448651	45305.736858
518.812112	45057.127315
519.175516	45153.836811
519.538863	45503.082908
519.902152	45467.802393
520.265385	45936.443178
520.628560	45957.217773
520.991678	45721.995014
521.354739	45960.076107
521.717743	46282.510828
522.080690	46160.499781
522.443580	46690.733384
522.806413	46759.693848
523.169189	46702.663274
523.531908	46871.398255
523.894569	46718.583238
524.257174	46902.323214
524.619722	47186.369548
524.982213	47151.991399
525.344647	47085.803570
525.707025	47139.060839
526.069345	47537.710244
526.431608	47440.627704
526.793815	47757.665869
527.155964	47266.246630
527.518057	47460.063872
527.880093	47234.676404
528.242072	47753.607740
528.603995	47456.436762
528.965860	47458.034808
529.327669	47557.106084
529.689421	47456.104046
530.051117	47397.296466
530.412755	47548.095021
530.774337	47609.062736
531.135862	47410.935308
531.497331	47613.798900
531.858743	47502.485182
532.220098	47845.450002
532.581396	47538.650420
532.942638	47203.448977
533.303824	47530.939975
533.664953	47481.052716
534.026025	47210.783856
534.387040	47682.335907
534.747999	47623.891290
535.108902	47796.487795
535.469748	47280.248435
535.830537	47390.566525
536.191270	47599.081251
536.551947	47242.520440
536.912567	47564.980366
537.273131	47670.302673
537.633638	47166.330961
537.994089	47499.286570
538.354483	47089.844054
538.714821	47662.834203
539.075103	48001.687962
539.435328	47761.466899
539.795497	47626.328688
540.155609	47630.719533
540.515665	48102.236296
540.875665	47531.018113
541.235609	47864.462713
541.595496	47820.060230
541.955328	48532.523983
542.315102	47859.706385
542.674821	47631.818504
543.034483	47673.544135
543.394090	47656.043769
543.753640	47598.705685
544.113134	48606.986866
544.472571	47586.042307
544.831953	48836.198049
545.191278	48032.391110
545.550548	47757.872556
545.909761	48221.406653
546.268918	48395.717150
546.628019	48717.055419
546.987064	48271.442625
547.346053	47526.758338
547.704986	48402.893232
548.063863	47957.716498
548.422684	48131.033887
548.781449	47961.358731
549.140158	48354.687198
549.498811	48193.050162
549.857408	47629.204666
550.215949	48451.505079
550.574434	48393.302437
550.932864	48142.043767
551.291237	48857.113797
551.649555	48450.794276
552.007817	48683.070481
552.366022	48331.119804
552.724173	48512.132515
553.082267	48885.460205
553.440305	49166.118883
553.798288	48460.165781
554.156215	48778.607908
554.514086	48964.810487
554.871902	48688.842602
555.229661	48718.557683
555.587365	48537.295435
555.945014	48638.947782
556.302606	48573.138039
556.660143	48777.196385
557.017625	48839.671404
557.375050	48627.479157
557.732421	48969.034974
558.089735	48942.921797
558.446994	48841.201394
558.804197	49301.801539
559.161345	49223.088963
559.518437	48454.958269
559.875474	48766.932595
560.232455	48934.046845
560.589381	49110.414133
560.946251	48789.912695
561.303065	49456.605291
561.659825	49246.096789
562.016528	48898.184077
562.373177	48632.963932
562.729770	49099.936095
563.086307	48615.269482
563.442789	49062.495445
563.799216	49091.706411
564.155587	48878.546262
564.511904	48885.558507
564.868164	48966.406012
565.224370	49205.782682
565.580520	48943.224266
565.936615	49139.753649
566.292654	48842.844811
566.648638	49104.810891
567.004567	49045.098423
567.360441	49085.236090
567.716260	48936.126321
568.072023	49217.079908
568.427732	49187.974806
568.783385	48709.254234
569.138982	49110.237693
569.494525	49038.363442
569.850013	48800.670517
570.205445	48791.717428
570.560823	48713.786231
570.916145	48588.662272
571.271412	48620.724010
571.626625	48352.229636
571.981782	48356.267600
572.336884	48054.741065
572.691931	48377.384994
573.046923	47964.890060
573.401860	47798.839493
573.756743	47755.926671
574.111570	47875.187768
574.466342	47716.560301
574.821059	47795.494687
575.175722	47308.166345
575.530330	47321.878284
575.884882	47015.547529
576.239380	46985.736666
576.593823	46947.786860
576.948211	46849.499483
577.302544	46377.733183
577.656823	46384.851292
578.011047	46613.225643
578.365216	46321.632702
578.719330	46086.553616
579.073389	45949.439272
579.427394	46001.456418
579.781344	45971.151522
580.135239	45601.367764
580.489080	45675.843250
580.842866	45158.441905
581.196597	45593.649758
581.550273	45540.941973
581.903895	45408.626808
582.257463	45798.401262
582.610975	45160.798644
582.964434	45452.890660
583.317837	45068.232977
583.671186	44901.708542
584.024481	45123.153828
584.377721	44631.500176
584.730906	44903.853553
585.084037	44939.144151
585.437113	44644.357638
585.790135	44667.834292
586.143103	44243.759828
586.496016	44353.525911
586.848874	44364.868507
587.201679	44374.436617
587.554428	43861.476528
587.907124	44040.966811
588.259765	43804.148527
588.612352	44025.142629
588.964884	43395.845312
589.317362	43685.515053
589.669786	43627.186383
590.022155	43375.927713
590.374470	43784.251093
590.726731	43302.888956
591.078937	42808.936537
591.431090	42914.198350
591.783188	42549.163359
592.135232	42219.020714
592.487222	42475.247441
592.839157	42519.796118
593.191038	42205.243241
593.542866	41943.289764
593.894639	41347.495955
594.246358	41617.837913
594.598022	41588.326998
594.949633	41191.252953
595.301190	41134.436629
595.652692	40975.181538
596.004141	41297.573409
596.355535	40293.932610
596.706876	40231.024051
597.058162	40067.070605
597.409395	40529.200739
597.760573	40603.918201
598.111698	40197.268485
598.462768	40191.445952
598.813785	40220.107433
599.164748	39672.958238
599.515657	40055.851517
599.866511	39537.935973
600.217312	40153.644860
600.568060	39129.408428
600.918753	39887.040918
601.269392	39816.767234
601.619978	39473.232764
601.970510	39676.431593
602.320988	39859.475889
602.671412	40165.294967
603.021783	39900.722610
603.372100	39551.960463
603.722363	39654.031226
604.072572	39733.550387
604.422728	39724.849355
604.772830	39546.175739
605.122878	39641.952621
605.472872	39572.583824
605.822813	39834.265079
606.172701	39660.786372
606.522534	39918.510321
606.872314	40168.911995
607.222041	39932.313001
607.571714	40304.355196
607.921333	39760.258420
608.270899	40047.707533
608.620411	40391.620089
608.969870	40178.714518
609.319276	40191.544255
609.668627	40236.962530
610.017926	40715.231919
610.367171	40864.760104
610.716362	40944.090222
611.065500	40891.551316
611.414585	41085.318147
611.763616	41381.185986
612.112594	41308.008597
612.461518	41528.899356
612.810389	41811.602222
613.159207	41690.324664
613.507971	41769.218721
613.856682	42234.469330
614.205340	42136.602890
614.553945	42824.677540
614.902496	42273.729837
615.250994	42749.403031
615.599439	42807.010817
615.947830	43006.892567
616.296169	43089.012963
616.644454	43201.886918
616.992686	43372.729101
617.340864	43896.673865
617.688990	43605.549751
618.037063	44223.189399
618.385082	44176.135269
618.733048	44473.487729
619.080961	44465.777284
619.428821	44480.825128
619.776628	44585.605511
620.124382	44432.029280
620.472083	44543.063214
620.819731	44672.230178
621.167326	44331.838867
621.514868	44308.072348
621.862357	43850.421278
622.209793	43880.176689
622.557176	43544.125812
622.904506	43270.943164
623.251783	42929.284003
623.599007	42693.746172
623.946179	42487.946108
624.293297	42429.105760
624.640363	41842.680936
624.987376	41819.211844
625.334336	41572.003742
625.681243	41228.605383
626.028097	41214.507796
626.374899	41058.647922
626.721647	41042.758205
627.068343	40925.591708
627.414987	40696.803981
627.761577	40481.022432
628.108115	40812.253966
628.454600	40260.996231
628.801032	40450.054624
629.147412	40418.693606
629.493739	40414.854767
629.840014	40059.468545
630.186236	40408.548284
630.532405	39990.402216
630.878521	40225.241848
631.224585	40082.453686
631.570597	39795.483482
631.916556	39947.020567
632.262462	39896.344368
632.608316	39926.351836
632.954117	39809.855812
633.299866	39792.456269
633.645562	39725.323224
633.991206	39220.489475
634.336797	38775.335425
634.682336	38764.650700
635.027823	38530.113538
635.373257	38330.327570
635.718639	38092.448123
636.063968	37961.970458
636.409245	37390.732110
636.754470	37428.881042
637.099642	37193.892696
637.444762	36707.622996
637.789829	36866.021091
638.134845	36519.144336
638.479808	36463.442107
638.824719	36373.197891
639.169577	35995.565057
639.514383	36056.389098
639.859137	35740.273464
640.203839	35987.884859
640.548489	35627.543182
640.893086	35695.407195
641.237632	35447.223629
641.582125	35561.378038
641.926566	35491.641236
642.270955	35446.354030
642.615292	35485.911965
642.959576	35458.861133
643.303809	35452.418538
643.647990	35596.439263
643.992118	35558.060958
644.336195	35558.675979
644.680219	35638.006097
645.024192	35949.201565
645.368112	36477.174210
645.711981	36479.311659
646.055797	37353.692232
646.399562	37291.693602
646.743274	38256.575489
647.086935	38679.578708
647.430544	38571.282121
647.774101	38667.391719
648.117606	38899.710773
648.461059	39182.827014
648.804460	38792.573651
649.147810	38168.320008
649.491108	37897.577279
649.834354	37529.946094
650.177548	36704.636113
650.520690	36260.245798
650.863781	36281.411083
651.206820	36113.465042
651.549807	35692.851330
651.892742	35216.114452
652.235626	35016.265469
652.578458	34889.551026
652.921238	34292.413750
653.263967	34609.676247
653.606644	34299.436078
653.949269	34240.636059
654.291843	33834.661858
654.634365	34233.923763
654.976836	33833.888041
655.319255	33845.860781
655.661622	33848.252808
656.003938	33613.241778
656.346203	33491.268540
656.688416	33709.883218
657.030577	33505.557691
657.372687	33335.869932
657.714746	33606.474029
658.056753	33714.722725
658.398708	33175.921682
658.740612	33233.272368
659.082465	33504.932588
659.424266	33347.671273
659.766016	33463.111175
660.107715	33338.110724
660.449362	33460.693942
660.790958	33432.569345
661.132503	33429.794189
661.473996	33470.040241
661.815438	33602.947742
662.156829	33792.480003
662.498168	33552.904208
662.839456	33570.291147
663.180693	33729.198399
663.521879	33902.132661
663.863013	33845.255843
664.204097	33840.030687
664.545129	34294.067249
664.886110	34250.546968
665.227040	34338.484855
665.567918	34460.256447
665.908746	34514.000188
666.249522	34666.023744
666.590248	34690.027198
666.930922	34773.211278
667.271545	34730.825256
667.612118	34800.390659
667.952639	34582.764047
668.293109	34639.197244
668.633528	34534.379053
668.973896	34459.563288
669.314213	34484.242257
669.654480	34229.263216
669.994695	34251.562760
670.334859	34152.032739
670.674973	34043.259763
671.015035	34189.249058
671.355047	34137.448681
671.695008	34089.726598
672.034918	33975.390708
672.374777	34086.530507
672.714585	33921.294087
673.054342	34132.893999
673.394049	33891.805857
673.733705	34174.455792
674.073310	33826.656505
674.412864	33906.226078
674.752368	33526.785989
675.091820	33807.457271
675.431223	33369.421331
675.770574	33082.960284
676.109875	32946.803760
676.449125	32656.009842
676.788324	32587.707248
677.127473	32048.762532
677.466571	31969.770171
677.805619	31629.088994
678.144616	31625.618160
678.483562	31549.668136
678.822458	31223.117313
679.161303	31157.105924
679.500098	31082.602712
679.838842	30967.805556
680.177535	31119.498917
680.516179	31415.228125
680.854771	31680.052539
681.193314	32553.916394
681.531805	33703.261662
681.870247	34462.837518
682.208638	35162.842059
682.546978	35354.501687
682.885268	35433.506650
683.223508	34895.741563
683.561697	34579.857822
683.899836	34364.731623
684.237925	33868.049420
684.575963	33713.054103
684.913951	33257.578292
685.251889	33409.564039
685.589776	33409.561518
685.927614	33414.010337
686.265401	33557.380752
686.603137	33659.912780
686.940824	34177.104918
687.278460	34556.643309
687.616046	34694.274370
687.953582	35282.370337
688.291068	35133.653778
688.628504	35387.979989
688.965889	35318.838044
689.303224	34932.481493
689.640510	34571.550001
689.977745	33803.164728
690.314930	32995.904598
690.652065	32475.102995
690.989150	31730.922823
691.326185	30810.493830
691.663170	30112.896440
692.000105	29393.669980
692.336990	28706.316215
692.673825	28251.500794
693.010610	27741.358710
693.347345	27161.782293
693.684030	26489.846897
694.020665	26215.756842
694.357251	25551.652878
694.693786	25502.920044
695.030272	25273.580312
695.366707	24729.145779
695.703093	24450.150681
696.039429	24448.086328
696.375716	24189.245763
696.711952	24162.386496
697.048139	23998.150745
697.384276	23816.482683
697.720363	23960.188336
698.056400	23742.319749
698.392388	23525.804712
698.728326	23486.690399
699.064214	23292.416933
699.400053	23227.895204
699.735842	22855.406867
700.071581	22576.242891
700.407270	22281.821862
700.742910	22098.931321
701.078501	21829.842091
701.414042	21541.472967
701.749533	21248.997824
702.084974	20895.663351
702.420366	21102.345617
702.755709	20658.777011
703.091002	20366.155674
703.426246	20385.307018
703.761440	20286.477717
704.096584	20013.022847
704.431679	19975.196549
704.766725	19878.832373
705.101721	19830.757409
705.436668	19922.264434
705.771565	19602.037739
706.106413	19949.748805
706.441212	19937.264387
706.775961	20074.880326
707.110661	20141.113525
707.445311	20499.526961
707.779913	20340.556695
708.114465	20583.202553
708.448967	20873.429342
708.783421	21574.525292
709.117825	21838.202844
709.452180	22062.440929
709.786485	22473.904947
710.120742	23270.371967
710.454949	23303.031082
710.789107	23758.121245
711.123216	24466.620130
711.457275	24575.907305
711.791286	25095.138589
712.125247	25148.216898
712.459159	24837.086965
712.793023	25488.517468
713.126837	24365.418967
713.460602	24622.225426
713.794318	24243.047478
714.127985	23842.139636
714.461602	22926.656015
714.795171	22892.033371
715.128691	21861.964323
715.462162	21333.200217
715.795584	20916.150600
716.128957	20654.902884
716.462281	20255.703993
716.795556	20019.263796
717.128782	19506.389406
717.461960	18972.843766
717.795088	18902.812056
718.128167	18499.575201
718.461198	18039.569913
718.794180	17909.828257
719.127113	17537.415537
719.459997	17341.838933
719.792833	16995.612486
720.125619	16968.435626
720.458357	16645.126265
720.791046	16476.933208
721.123686	16318.177191
721.456278	16080.537199
721.788821	16051.318671
722.121315	15788.248578
722.453761	15868.428130
722.786158	15794.829805
723.118506	15799.008921
723.450805	15667.288612
723.783056	15828.865155
724.115259	15731.888478
724.447412	15654.035419
724.779518	15898.092800
725.111574	15930.300732
725.443582	16128.677698
725.775542	16122.865247
726.107453	16588.882112
726.439315	16467.433154
726.771129	16875.030607
727.102895	17249.878204
727.434612	17449.878421
727.766281	17563.833704
728.097901	17817.292837
728.429473	17843.970623
728.760996	17829.512594
729.092471	17917.924350
729.423897	17787.663455
729.755276	17656.512797
730.086606	17774.589223
730.417887	18312.089649
730.749120	18828.303802
731.080305	18990.523092
731.411442	19306.578232
731.742530	19371.571308
732.073570	19467.446493
732.404562	19750.693804
732.735506	19553.816582
733.066401	19250.838194
733.397249	18707.132108
733.728048	18068.947237
734.058798	17248.363337
734.389501	16571.291005
734.720156	16111.154647
735.050762	15593.014772
735.381320	15254.075314
735.711831	15017.304921
736.042293	14682.834445
736.372707	14695.099573
736.703073	14483.272809
737.033391	14674.871943
737.363661	14648.090813
737.693883	14757.020065
738.024056	14932.245532
738.354182	15111.506442
738.684260	15397.811213
739.014290	15627.161028
739.344272	15807.394881
739.674207	16071.873976
740.004093	16187.329002
740.333931	16165.094993
740.663722	16204.690736
740.993464	16182.010585
741.323159	16004.476270
741.652806	15725.803806
741.982405	15502.979765
742.311956	15166.795297
742.641460	15052.570312
742.970915	14752.417492
743.300323	14410.047528
743.629683	14206.397516
743.958996	13923.135081
744.288260	13660.112879
744.617477	13366.639588
744.946647	13295.536633
745.275768	13020.345086
745.604842	12836.998321
745.933869	12669.478258
746.262847	12621.539405
746.591778	12551.311091
746.920662	12449.462139
747.249498	12456.454220
747.578286	12575.007035
747.907027	12717.301164
748.235720	12940.324330
748.564365	12969.913383
748.892963	12865.233823
749.221514	12917.389601
749.550017	12776.902726
749.878473	12735.015778
750.206881	12511.871624
750.535242	12418.605237
750.863555	12343.018176
751.191821	12238.285684
751.520039	12254.669434
751.848210	12167.891012
752.176334	12204.482227
752.504411	12109.058226
752.832440	11946.493617
753.160421	12011.085921
753.488356	11893.185936
753.816243	11799.995166
754.144082	11657.416212
754.471875	11596.829104
754.799620	11543.836495
755.127318	11515.510251
755.454969	11474.513068
755.782572	11426.533886
756.110129	11447.200096
756.437638	11361.911335
756.765100	11364.222704
757.092515	11362.060049
757.419882	11371.277799
757.747203	11382.620395
758.074477	11452.334511
758.401703	11415.856722
758.728882	11574.022924
759.056014	11615.199069
759.383099	11725.554968
759.710138	11836.924138
760.037129	11915.402301
760.364073	11928.985690
760.690970	11916.380285
761.017820	11917.375912
761.344623	12110.583175
761.671379	12439.447887
761.998088	13110.163324
762.324751	14730.254059
762.651366	17659.895411
762.977935	21261.620873
763.304456	23346.362320
763.630931	23671.935159
763.957359	22442.972427
764.283740	20524.518481
764.610074	18664.504111
764.936362	16563.968729
765.262602	15072.326594
765.588796	13622.911685
765.914943	12617.297274
766.241044	11785.713577
766.567097	11170.259268
766.893104	10637.832764
767.219064	10286.340833
767.544978	9913.696220
767.870845	9605.966545
768.196665	9423.159183
768.522438	9229.460408
768.848165	9066.739524
769.173846	8904.507631
769.499479	8780.207901
769.825066	8625.721741
770.150607	8445.326571
770.476101	8381.896253
770.801548	8272.261239
771.126949	8139.182339
771.452303	8046.898977
771.777611	7888.702528
772.102872	7866.629836
772.428087	7746.617607
772.753256	7625.849205
773.078378	7544.316103
773.403453	7393.671303
773.728482	7288.676671
774.053465	7226.292392
774.378401	7146.594271
774.703291	7052.785959
775.028135	6953.931453
775.352932	6918.035917
775.677683	6837.019533
776.002388	6749.091728
776.327046	6754.246308
776.651658	6668.589542
776.976224	6594.088850
777.300743	6578.229380
777.625216	6510.473752
777.949643	6470.678883
778.274024	6472.352547
778.598359	6406.820067
778.922647	6411.493217
779.246889	6372.928390
779.571086	6379.776797
779.895236	6391.217696
780.219339	6384.391974
780.543397	6383.033383
780.867409	6437.755108
781.191374	6435.589932
781.515294	6403.530714
781.839167	6449.611902
782.162995	6424.428817
782.486776	6366.858841
782.810511	6330.141597
783.134201	6246.677733
783.457844	6241.510550
783.781441	6195.648653
784.104993	6146.731817
784.428498	6120.772395
784.751958	6104.146670
785.075372	6080.465849
785.398739	6041.346496
785.722061	6070.131484
786.045337	6066.416154
786.368568	6179.282547
786.691752	6205.466300
787.014891	6460.808304
787.337983	6751.219095
787.661030	7188.362751
787.984031	7602.853982
788.306987	7851.289605
788.629897	7925.848270
788.952760	7829.385792
789.275579	7650.142525
789.598351	7347.474169
789.921078	7081.238232
790.243759	6806.475182
790.566395	6606.457321
790.888984	6417.540081
791.211529	6281.630573
791.534027	6120.880780
791.856480	5987.489328
792.178888	5925.347025
792.501249	5866.831832
792.823566	5763.836018
793.145836	5756.901910
793.468062	5741.758284
793.790241	5702.291091
794.112375	5748.299181
794.434464	5845.003636
794.756507	5880.790787
795.078505	6007.147308
795.400457	6216.191355
795.722364	6455.631039
796.044226	6645.180944
796.366042	6803.566437
796.687812	6739.450521
797.009538	6761.719818
797.331218	6669.033164
797.652852	6599.997083
797.974442	6486.568600
798.295986	6408.148411
798.617484	6281.839781
798.938938	6172.666033
799.260346	6109.853256
799.581709	5968.877388
799.903026	5917.530716
800.224299	5844.925498
800.545526	5736.906174
800.866708	5667.686090
801.187845	5621.055417
801.508936	5546.799221
801.829983	5521.119583
802.150984	5414.431124
802.471940	5383.460795
802.792851	5372.098034
803.113717	5351.240260
803.434538	5323.967618
803.755314	5295.069204
804.076045	5286.897493
804.396731	5248.178911
804.717372	5268.419144
805.037967	5271.196820
805.358518	5298.968536
805.679024	5349.924519
805.999485	5367.981932
806.319901	5386.125045
806.640272	5399.658022
806.960598	5446.041679
807.280879	5438.210247
807.601115	5473.400021
807.921306	5434.656233
808.241453	5428.700110
808.561554	5438.225370
808.881611	5407.802007
809.201623	5401.709772
809.521590	5354.007854
809.841513	5336.832643
810.161390	5354.396023
810.481223	5264.792034
810.801011	5245.270165
811.120755	5227.210232
811.440453	5173.993291
811.760107	5144.852901
812.079716	5121.734170
812.399281	5063.289553
812.718801	5062.165375
813.038276	5028.626579
813.357707	4991.760621
813.677093	5014.564280
813.996434	4955.794509
814.315731	4975.331500
814.634983	4971.722034
814.954191	4983.409949
815.273354	5039.230646
815.592473	5078.198765
815.911547	5155.512421
816.230577	5208.525195
816.549562	5294.880160
816.868502	5345.815979
817.187399	5397.510491
817.506250	5482.489221
817.825058	5509.098952
818.143821	5662.155944
818.462539	5831.125339
818.781213	6065.347429
819.099843	6431.630106
819.418429	7065.504790
819.736970	7684.772732
820.055466	8387.822129
820.373919	9306.902613
820.692327	10794.942844
821.010691	13611.420374
821.329011	20020.393014
821.647286	29585.385061
821.965517	39632.402155
822.283704	44564.563735
822.601847	45662.960582
822.919945	40957.235030
823.237999	35896.697948
823.556010	30821.415490
823.873976	26260.837360
824.191897	22194.493954
824.509775	19210.463593
824.827609	16539.128444
825.145398	15069.314505
825.463144	14392.620260
825.780845	14744.586059
826.098502	16077.653659
826.416116	18529.287762
826.733685	20699.330573
827.051210	21077.444838
827.368692	19563.961904
827.686129	17014.171494
828.003522	14599.675572
828.320872	12447.112962
828.638177	10848.300937
828.955439	9644.057503
829.272656	8613.317982
829.589830	7784.887527
829.906960	7077.303611
830.224046	6555.672737
830.541088	6157.925699
830.858086	5909.278347
831.175041	5716.794490
831.491952	5668.233055
831.808819	5715.267021
832.125642	5969.711699
832.442421	6547.599329
832.759157	7686.108638
833.075849	9469.134506
833.392497	11270.273240
833.709101	12289.408025
834.025662	11959.729167
834.342179	10875.177849
834.658653	9591.858876
834.975083	8517.934310
835.291469	7642.948799
835.607811	6928.929850
835.924110	6423.980155
836.240366	5942.060971
836.556578	5501.285163
836.872746	5157.599459
837.188871	4890.894694
837.504952	4675.196324
837.820990	4513.410573
838.136984	4398.956217
838.452935	4360.562789
838.768842	4403.026948
839.084706	4705.516344
839.400526	5466.554134
839.716303	6353.383836
840.032037	6872.499174
840.347727	6672.869482
840.663373	6070.098717
840.978977	5510.881000
841.294537	5079.890072
841.610054	4764.523049
841.925527	4531.364643
842.240957	4333.368284
842.556344	4151.622085
842.871687	3993.546624
843.186987	3845.157740
843.502244	3735.227819
843.817458	3644.867657
844.132629	3577.898448
844.447756	3531.323228
844.762840	3488.765807
845.077881	3451.635189
845.392879	3414.812080
845.707833	3392.905746
846.022745	3363.863659
846.337613	3353.660364
846.652438	3331.113803
846.967221	3319.839263
847.281960	3301.197076
847.596656	3292.178451
847.911309	3282.302831
848.225919	3268.658948
848.540485	3255.730909
848.855009	3251.685383
849.169490	3238.429669
849.483928	3230.197465
849.798323	3228.372567
850.112675	3217.067780
850.426984	3220.062225
850.741251	3211.157027
851.055474	3210.078220
851.369654	3211.910679
851.683792	3208.318857
851.997887	3210.773899
852.311938	3206.914896
852.625947	3209.175853
852.939914	3207.419011
853.253837	3209.362376
853.567718	3209.669886
853.881555	3201.929195
854.195350	3206.355328
854.509103	3204.865667
854.822812	3201.077240
855.136479	3196.436857
855.450103	3198.783515
855.763685	3194.324614
856.077224	3198.211344
856.390720	3204.903475
856.704173	3217.145917
857.017584	3221.824108
857.330953	3225.025241
857.644278	3234.666448
857.957561	3240.466295
858.270802	3233.149060
858.584000	3234.888258
858.897155	3226.514902
859.210268	3218.872513
859.523339	3206.864484
859.836367	3203.161757
860.149352	3196.663709
860.462295	3194.690098
860.775195	3183.498736
861.088054	3183.027388
861.400869	3182.475382
861.713642	3178.134948
862.026373	3187.100641
862.339062	3192.167000
862.651708	3200.258052
862.964312	3217.748335
863.276873	3226.731672
863.589392	3258.692587
863.901869	3282.935496
864.214303	3303.884011
864.526696	3324.078873
864.839045	3338.801563
865.151353	3349.919828
865.463619	3350.371011
865.775842	3355.071887
866.088023	3355.986856
866.400162	3349.075434
866.712258	3354.466948
867.024313	3351.936289
867.336325	3346.333047
867.648296	3349.854293
867.960224	3348.667101
868.272110	3352.296732
868.583954	3351.021320
868.895755	3359.263606
869.207515	3357.158924
869.519233	3377.696585
869.830909	3379.617265
870.142542	3390.954820
870.454134	3398.128382
870.765684	3412.800660
871.077191	3429.706169
871.388657	3439.717901
871.700081	3461.780511
872.011463	3477.786174
872.322803	3499.198475
872.634101	3516.318234
872.945357	3536.795401
873.256571	3565.124165
873.567744	3579.859457
873.878874	3585.825663
874.189963	3599.645986
874.501010	3600.311418
874.812015	3597.616922
875.122979	3611.028912
875.433900	3611.091926
875.744780	3613.867081
876.055618	3624.521560
876.366415	3617.025364
876.677169	3626.749750
876.987882	3638.619147
877.298554	3666.048065
877.609183	3706.566339
877.919771	3749.892535
878.230317	3821.779389
878.540822	3930.990946
878.851285	4082.817897
879.161707	4307.378616
879.472087	4693.972101
879.782425	5338.362633
880.092722	6554.722480
880.402977	8511.068259
880.713191	10862.295180
881.023363	13168.678517
881.333494	14392.453902
881.643583	14770.933650
881.953631	14315.404906
882.263637	13483.964882
882.573602	12468.696662
882.883526	11530.719412
883.193408	10602.116189
883.503248	9706.870280
883.813048	8895.103359
884.122806	8147.994276
884.432522	7391.611992
884.742197	6751.012408
885.051831	6201.672832
885.361424	5720.391354
885.670975	5337.404814
885.980485	5019.502090
886.289954	4762.128501
886.599382	4548.370975
886.908768	4371.434037
887.218113	4210.028894
887.527417	4082.606169
887.836680	3959.475986
888.145901	3863.174824
888.455082	3788.190181
888.764221	3721.218452
889.073319	3662.032786
889.382376	3631.725369
889.691392	3603.948611
890.000366	3603.489866
890.309300	3597.811006
890.618193	3602.826954
890.927044	3592.974019
891.235855	3602.753857
891.544625	3615.921351
891.853353	3645.885970
892.162041	3707.287224
892.470687	3803.341369
892.779293	3923.272940
893.087858	4104.043675
893.396381	4385.322416
893.704864	4803.637362
894.013306	5379.362337
894.321707	5936.737512
894.630068	6270.640858
894.938387	6281.325583
895.246665	6094.540751
895.554903	5779.670282
895.863100	5443.503458
896.171256	5177.932953
896.479371	4946.760761
896.787446	4729.000559
897.095480	4531.808264
897.403473	4388.876429
897.711425	4243.134151
898.019336	4127.608549
898.327207	4007.099766
898.635038	3904.661000
898.942827	3799.557983
899.250576	3709.477605
899.558284	3629.542549
899.865952	3577.447265
900.173579	3512.852440
900.481165	3467.983651
900.788711	3428.284564
901.096216	3397.178124
901.403681	3372.110987
901.711105	3359.576158
902.018489	3355.860827
902.325832	3391.907598
902.633135	3458.677681
902.940397	3634.656800
903.247619	4063.608580
903.554800	4829.969829
903.861941	5783.695643
904.169041	6442.312311
904.476101	6600.039932
904.783121	6312.185007
905.090100	5914.962248
905.397039	5510.157594
905.703938	5164.881406
906.010796	4847.450030
906.317614	4599.203450
906.624391	4368.747102
906.931129	4176.782484
907.237826	3993.390348
907.544483	3829.663754
907.851099	3659.696211
908.157675	3500.476408
908.464211	3362.769729
908.770707	3263.310284
909.077163	3186.709951
909.383578	3125.175107
909.689954	3083.225145
909.996289	3054.437636
910.302584	3034.746889
910.608839	3024.470497
910.915054	3014.252078
911.221229	3009.896521
911.527363	3011.277797
911.833458	3021.123171
912.139513	3028.639531
912.445527	3045.202242
912.751502	3081.352356
913.057436	3128.073770
913.363331	3183.186185
913.669186	3273.843775
913.975000	3393.999677
914.280775	3583.960436
914.586510	3856.260882
914.892205	4241.001743
915.197859	4740.259976
915.503475	5318.145085
915.809050	5794.292148
916.114585	6065.223921
916.420081	6113.866014
916.725536	6039.440939
917.030952	5805.796062
917.336328	5599.547334
917.641665	5388.028081
917.946961	5166.287888
918.252218	4968.621725
918.557435	4746.710132
918.862612	4555.267274
919.167750	4379.762023
919.472848	4191.081717
919.777906	4028.444012
920.082925	3869.849312
920.387904	3719.494378
920.692843	3612.541258
920.997743	3512.653315
921.302603	3419.210487
921.607423	3354.240096
921.912204	3291.651651
922.216946	3240.337746
922.521647	3194.034748
922.826310	3152.649395
923.130932	3117.414250
923.435516	3074.995461
923.740059	3049.328427
924.044564	3018.320289
924.349028	2994.707525
924.653454	2966.242649
924.957840	2940.696602
925.262186	2917.640885
925.566493	2896.261352
925.870761	2870.818648
926.174989	2861.749613
926.479178	2847.533559
926.783328	2829.786177
927.087438	2818.698159
927.391509	2806.468319
927.695541	2794.916515
927.999533	2784.619959
928.303486	2776.977569
928.607400	2769.693102
928.911275	2769.350304
929.215110	2762.030548
929.518906	2757.256576
929.822663	2758.705907
930.126381	2759.267996
930.430060	2760.256062
930.733699	2763.656320
931.037299	2765.892072
931.340861	2765.413162
931.644383	2769.327618
931.947866	2765.483739
932.251309	2765.118255
932.554714	2763.507606
932.858080	2762.501896
933.161407	2756.336565
933.464694	2751.595360
933.767943	2750.327510
934.071153	2750.307345
934.374323	2744.167220
934.677455	2741.147568
934.980548	2736.519789
935.283602	2736.053483
935.586617	2733.570714
935.889593	2737.215468
936.192530	2736.434090
936.495428	2744.346181
936.798287	2754.481420
937.101108	2768.470622
937.403890	2790.939045
937.706632	2817.667243
938.009336	2852.057994
938.312002	2876.487426
938.614628	2902.671179
938.917216	2922.828233
939.219765	2933.253339
939.522275	2939.171653
939.824747	2939.506890
940.127179	2932.590427
940.429573	2927.085487
940.731929	2925.225301
941.034246	2919.536359
941.336524	2914.134763
941.638763	2908.503794
941.940964	2903.223185
942.243126	2886.065618
942.545250	2873.442569
942.847335	2858.649303
943.149381	2844.665142
943.451389	2831.863132
943.753359	2821.553972
944.055290	2810.924699
944.357182	2804.620737
944.659036	2798.672175
944.960851	2793.378963
945.262628	2792.138840
945.564367	2792.257307
945.866067	2787.332099
946.167729	2788.073149
946.469352	2789.580454
946.770937	2784.141049
947.072484	2779.175512
947.373992	2783.589043
947.675462	2776.428084
947.976893	2770.189656
948.278286	2765.239243
948.579641	2764.059613
948.880958	2761.055085
949.182236	2762.814448
949.483476	2755.963520
949.784678	2756.177769
950.085841	2755.640886
950.386967	2759.515012
950.688054	2765.340066
950.989103	2774.777106
951.290114	2783.765483
951.591087	2792.872327
951.892021	2806.586787
952.192917	2817.856286
952.493776	2829.435816
952.794596	2834.688699
953.095378	2833.723318
953.396122	2833.430931
953.696828	2827.663851
953.997496	2824.419868
954.298126	2811.375883
954.598718	2807.118628
954.899272	2796.247380
955.199788	2785.078704
955.500266	2771.848195
955.800706	2757.914446
956.101108	2738.626992
956.401472	2730.906464
956.701798	2718.311142
957.002087	2702.938143
957.302337	2695.426824
957.602550	2681.838393
957.902724	2674.218689
958.202861	2663.082781
958.502960	2657.499703
958.803022	2652.556851
959.103045	2644.518732
959.403031	2638.451703
959.702979	2631.257976
960.002889	2627.925774
960.302762	2622.143570
960.602596	2620.157356
960.902393	2615.078393
961.202153	2611.814246
961.501875	2609.339039
961.801559	2608.245109
962.101205	2604.368462
962.400814	2606.644543
962.700385	2600.254880
962.999918	2600.234716
963.299414	2598.124993
963.598873	2596.942842
963.898293	2595.554004
964.197677	2595.115424
964.497022	2591.884044
964.796331	2587.901533
965.095601	2589.635690
965.394835	2593.295567
965.694030	2588.594691
965.993189	2587.152921
966.292309	2586.873137
966.591393	2582.782241
966.890439	2587.009248
967.189447	2588.486307
967.488419	2588.362798
967.787353	2588.405648
968.086249	2587.785586
968.385108	2587.999835
968.683930	2588.723241
968.982714	2589.809609
969.281462	2589.086204
969.580172	2591.163159
969.878844	2595.186000
970.177480	2599.410487
970.476078	2600.154057
970.774639	2604.113883
971.073162	2604.832248
971.371649	2603.997937
971.670098	2608.540017
971.968510	2610.440532
972.266885	2610.392641
972.565223	2613.921448
972.863524	2613.903804
973.161788	2617.856069
973.460014	2619.013014
973.758204	2617.004114
974.056356	2618.637448
974.354471	2619.418827
974.652550	2621.692387
974.950591	2619.338168
975.248595	2614.901953
975.546563	2617.435132
975.844493	2612.953547
976.142386	2613.732405
976.440243	2611.920110
976.738062	2609.477671
977.035845	2606.924327
977.333590	2607.637650
977.631299	2602.392329
977.928971	2603.118256
978.226606	2599.163470
978.524204	2596.499221
978.821765	2596.176587
979.119290	2596.877307
979.416777	2595.629622
979.714228	2596.897472
980.011642	2598.351845
980.309020	2600.897627
980.606360	2603.438369
980.903664	2613.704679
981.200931	2628.366875
981.498162	2645.330357
981.795356	2675.899914
982.092513	2713.771582
982.389633	2756.959147
982.686717	2797.139664
982.983764	2828.137719
983.280775	2844.161027
983.577749	2841.968125
983.874686	2832.248780
984.171587	2820.628921
984.468451	2802.377423
984.765279	2784.672891
985.062070	2766.484408
985.358824	2749.798188
985.655543	2730.004098
985.952224	2707.646581
986.248869	2679.761438
986.545478	2650.837818
986.842050	2633.317288
987.138586	2617.601491
987.435086	2603.309819
987.731549	2592.993098
988.027975	2587.150401
988.324366	2581.209401
988.620719	2575.230593
988.917037	2573.526683
989.213318	2573.171281
989.509563	2565.385219
989.805772	2567.525189
990.101944	2566.837071
990.398080	2566.211968
990.694180	2564.369427
990.990244	2564.714746
991.286271	2563.792214
991.582262	2565.284396
991.878217	2564.424879
992.174136	2564.825651
992.470019	2565.712894
992.765865	2568.079716
993.061676	2573.362845
993.357450	2577.373083
993.653188	2575.543144
993.948890	2581.811819
994.244556	2588.410689
994.540186	2599.619695
994.835780	2610.092692
995.131337	2623.519805
995.426859	2638.295427
995.722345	2657.003149
996.017795	2681.072138
996.313208	2693.657379
996.608586	2699.600899
996.903928	2705.531817
997.199234	2700.233564
997.494504	2696.855991
997.789738	2690.821730
998.084936	2681.850996
998.380099	2666.707370
998.675225	2657.993736
998.970316	2647.245996
999.265371	2632.969448
999.560390	2621.372274
999.855373	2608.842486
1000.150320	2598.792946
1000.445232	2590.366657
1000.740108	2582.217632
1001.034948	2579.170254
1001.329752	2569.834037
1001.624521	2567.099211
1001.919254	2560.270968
1002.213951	2560.505382
1002.508613	2556.447253
1002.803239	2557.286605
1003.097829	2551.968188
1003.392384	2554.312325
1003.686903	2552.081614
1003.981386	2554.087993
1004.275834	2550.486089
1004.570246	2552.908363
1004.864623	2548.930893
1005.158964	2547.607590
1005.453270	2547.423588
1005.747540	2544.676159
1006.041775	2544.928217
1006.335974	2545.500388
1006.630138	2545.528114
1006.924266	2545.235727
1007.218359	2545.346632
1007.512416	2545.185316
1007.806438	2543.231868
1008.100425	2543.176416
1008.394376	2546.105326
1008.688292	2543.330171
1008.982172	2542.667259
1009.276017	2544.078782
1009.569827	2542.155582
1009.863602	2546.561551
1010.157341	2544.716488
1010.451045	2544.872764
1010.744714	2541.699358
1011.038347	2539.859337
1011.331945	2536.239788
1011.625508	2542.868905
1011.919036	2539.234233
1012.212528	2538.059645
1012.505986	2542.236241
1012.799408	2538.359593
1013.092795	2539.919830
1013.386147	2536.532175
1013.679464	2537.003523
1013.972745	2539.481250
1014.265992	2536.781712
1014.559204	2537.104346
1014.852380	2537.915972
1015.145521	2539.014943
1015.438628	2538.276414
1015.731699	2538.548637
1016.024736	2537.782381
1016.317737	2539.231713
1016.610703	2538.778009
1016.903635	2538.609130
1017.196531	2536.101156
1017.489393	2539.957639
1017.782219	2536.922864
1018.075011	2540.408822
1018.367768	2540.071065
1018.660490	2541.114584
1018.953177	2541.114584
1019.245829	2541.114584
