Dividing Wavelength (nm)	Counts (n)	Blue Motor Position (mm): 37.600000	Red Motor Position (mm): 0.000000	
326.493990	2051.288350
326.888308	2051.288350
327.282561	2051.288350
327.676750	2024.648372
328.070874	2028.083919
328.464933	2036.180012
328.858929	2042.854499
329.252859	2053.536704
329.646726	2065.832079
330.040528	2084.741447
330.434265	2097.296440
330.827938	2121.302415
331.221547	2142.044243
331.615091	2161.198107
332.008571	2182.383556
332.401986	2203.276618
332.795338	2223.418548
333.188625	2242.395972
333.581847	2263.525968
333.975006	2279.110695
334.368100	2297.493263
334.761129	2314.229893
335.154095	2330.238077
335.546996	2381.292363
335.939833	2487.106182
336.332606	2499.295692
336.725315	2513.771365
337.117960	2521.494413
337.510540	2532.884900
337.903056	2538.478060
338.295508	2549.024154
338.687896	2556.646379
339.080220	2560.313818
339.472480	2564.613922
339.864676	2572.324367
340.256807	2572.878894
340.648875	2577.070614
341.040879	2573.209090
341.432818	2575.114646
341.824694	2575.835531
342.216506	2576.994996
342.608253	2575.875860
342.999937	2573.521641
343.391557	2570.978379
343.783113	2571.442165
344.174605	2572.369738
344.566033	2568.528378
344.957397	2568.581311
345.348697	2565.758264
345.739934	2562.829354
346.131106	2564.127451
346.522215	2562.262224
346.913260	2560.538150
347.304241	2558.408262
347.695159	2558.604867
348.086012	2557.001780
348.476802	2552.008517
348.867528	2549.727395
349.258191	2547.431150
349.648789	2548.835111
350.039324	2544.010727
350.429796	2549.019113
350.820203	2547.526932
351.210548	2547.330327
351.600828	2547.965512
351.991045	2542.135418
352.381198	2543.294883
352.771288	2542.145500
353.161314	2542.243802
353.551276	2543.935109
353.941175	2540.769265
354.331010	2544.071221
354.720782	2548.159596
355.110490	2544.156920
355.500135	2542.337064
355.889717	2542.750438
356.279235	2545.724719
356.668689	2544.439225
357.058080	2543.894780
357.447408	2545.097095
357.836672	2546.122970
358.225873	2547.186654
358.615010	2548.414175
359.004084	2547.758825
359.393095	2548.976263
359.782043	2547.811757
360.170927	2550.728064
360.559748	2550.176058
360.948505	2551.164124
361.337199	2552.963816
361.725830	2551.496840
362.114398	2551.569937
362.502903	2553.369629
362.891344	2554.597150
363.279722	2550.864175
363.668037	2555.537325
364.056289	2553.208312
364.444478	2554.766028
364.832603	2555.113868
365.220665	2556.288457
365.608665	2555.169321
365.996601	2558.025134
366.384474	2556.651420
366.772284	2558.299877
367.160031	2556.772408
367.547715	2558.882131
367.935336	2555.769218
368.322893	2555.232335
368.710388	2555.169321
369.097820	2559.645865
369.485189	2554.634958
369.872495	2559.870197
370.259738	2560.427244
370.646918	2561.745506
371.034035	2559.839950
371.421090	2561.773232
371.808081	2561.087635
372.195010	2562.156360
372.581875	2564.104766
372.968678	2563.416648
373.355418	2561.324570
373.742096	2560.371792
374.128710	2564.818089
374.515262	2565.400342
374.901751	2565.044941
375.288177	2564.697102
375.674540	2567.205076
376.060841	2568.218347
376.447079	2565.372616
376.833254	2567.139541
377.219367	2568.611557
377.605417	2567.822617
377.991404	2566.741289
378.377329	2568.626681
378.763191	2566.980744
379.148991	2565.904458
379.534727	2573.715726
379.920402	2571.744635
380.306013	2571.913513
380.691563	2571.026270
381.077049	2569.685323
381.462474	2572.490725
381.847835	2573.317475
382.233134	2569.987792
382.618371	2572.526013
383.003545	2572.604151
383.388657	2571.295972
383.773706	2575.696899
384.158693	2572.289079
384.543618	2574.872671
384.928480	2576.619430
385.313280	2574.416446
385.698017	2577.683114
386.082692	2575.772517
386.467305	2575.737228
386.851856	2577.405850
387.236344	2578.514904
387.620770	2575.838052
388.005133	2572.730180
388.389435	2578.272929
388.773674	2576.145562
389.157851	2582.867941
389.541965	2578.572877
389.926018	2584.067735
390.310008	2582.847776
390.693936	2581.272415
391.077802	2582.431881
391.461606	2583.175451
391.845348	2585.842221
392.229027	2586.384145
392.612645	2585.065884
392.996200	2585.882551
393.379694	2587.205853
393.763125	2587.820874
394.146494	2588.569486
394.529801	2589.403797
394.913047	2590.301122
395.296230	2589.948241
395.679351	2590.507809
396.062410	2590.285998
396.445408	2591.901688
396.828343	2592.564600
397.211217	2591.727768
397.594028	2597.494848
397.976778	2598.525764
398.359466	2597.633480
398.742092	2601.114397
399.124656	2604.020622
399.507158	2602.961980
399.889598	2608.030860
400.271977	2611.002620
400.654294	2613.500512
401.036549	2618.198867
401.418742	2619.559979
401.800874	2628.634056
402.182944	2632.659417
402.564952	2640.778195
402.946898	2646.535193
403.328783	2654.979126
403.710606	2663.602019
404.092367	2673.086950
404.474067	2688.346523
404.855705	2695.986392
405.237282	2703.530478
405.618797	2725.434292
406.000250	2740.010788
406.381642	2763.769746
406.762972	2777.143927
407.144240	2785.010648
407.525447	2814.198929
407.906593	2830.335662
408.287677	2861.172400
408.668700	2885.264075
409.049661	2907.054462
409.430560	2940.373968
409.811399	2958.469190
410.192176	2987.468428
410.572891	3024.709952
410.953545	3073.087385
411.334138	3077.674835
411.714669	3131.486631
412.095139	3139.285296
412.475547	3192.809747
412.855894	3220.112637
413.236180	3273.201028
413.616405	3288.112761
413.996568	3346.312882
414.376670	3382.236144
414.756711	3407.857809
415.136691	3469.990030
415.516609	3534.345400
415.896466	3582.937082
416.276262	3646.662308
416.655997	3727.943352
417.035670	3802.265083
417.415283	3900.998601
417.794834	3964.338179
418.174324	3986.562106
418.553753	4031.060371
418.933121	4146.079337
419.312428	4193.047767
419.691674	4206.782391
420.070859	4361.601267
420.449983	4349.540306
420.829045	4492.242768
421.208047	4501.077391
421.586988	4633.533708
421.965867	4721.166606
422.344686	4816.661183
422.723444	4962.663081
423.102141	4781.990647
423.480777	5063.181168
423.859352	4997.323534
424.237866	5273.198158
424.616319	5316.300023
424.994712	5474.604857
425.373044	5463.877281
425.751314	5718.508483
426.129524	5575.727882
426.507673	5815.729655
426.885762	5886.076437
427.263789	5961.736594
427.641756	6072.291618
428.019662	6169.159910
428.397508	6244.273103
428.775292	6286.167612
429.153016	6441.404903
429.530679	6444.260717
429.908282	6524.730135
430.285824	6511.139184
430.663305	6761.500528
431.040726	6717.148457
431.418086	6754.402584
431.795385	6903.020840
432.172624	7093.984789
432.549802	7014.606781
432.926920	7165.125552
433.303977	7156.472412
433.680974	7225.891621
434.057910	7420.129799
434.434786	7489.846436
434.811601	7481.389900
435.188355	7817.624780
435.565050	7740.870692
435.941683	7778.255889
436.318257	8089.264834
436.694770	8061.485556
437.071222	8283.649206
437.447614	8087.737364
437.823946	8084.594205
438.200218	8239.513904
438.576429	8154.000811
438.952580	8311.627610
439.328670	8340.016868
439.704700	8434.740148
440.080670	8339.142227
440.456580	8590.257224
440.832429	8595.409283
441.208218	8349.254782
441.583947	8471.187691
441.959616	8584.343950
442.335224	8630.034448
442.710773	8719.938386
443.086261	8896.701404
443.461689	8646.627406
443.837057	8803.659348
444.212365	9000.080346
444.587612	9008.660390
444.962800	8907.650791
445.337927	9048.132625
445.712995	8605.819266
446.088002	9246.207121
446.462949	9316.974839
446.837837	9327.427671
447.212664	9385.025375
447.587431	10285.307396
447.962139	11258.461817
448.336786	11998.455310
448.711374	11602.853283
449.085901	10465.538728
449.460369	10452.711512
449.834776	10376.985820
450.209124	11296.399020
450.583412	11060.999821
450.957640	11281.608275
451.331808	10870.827333
451.705917	10388.545186
452.079965	10313.830244
452.453954	10513.664103
452.827883	10472.545932
453.201752	10427.835939
453.575562	10454.919538
453.949311	10807.586058
454.323001	10884.650177
454.696632	10806.219905
455.070202	11393.952909
455.443713	11446.489293
455.817164	11600.025196
456.190556	11920.776171
456.563888	11745.409552
456.937160	11957.929475
457.310373	11463.150307
457.683526	11516.541167
458.056619	11554.546426
458.429653	11626.450924
458.802628	11800.935341
459.175542	11862.059331
459.548398	12412.079463
459.921194	12989.349552
460.293930	13303.451245
460.666607	14141.941323
461.039224	14864.820099
461.411782	15125.755263
461.784280	14735.418721
462.156719	14658.778059
462.529099	14564.387495
462.901419	13990.943642
463.273680	13632.832675
463.645882	13863.679713
464.018024	13820.111541
464.390106	14234.038163
464.762130	15395.396500
465.134094	17067.811892
465.505999	19344.999387
465.877845	21342.763285
466.249631	22248.774578
466.621358	21603.912699
466.993026	20792.886827
467.364634	20095.826320
467.736184	19389.855573
468.107674	18837.861830
468.479105	18696.979224
468.850477	18432.737063
469.221790	18005.257299
469.593043	17375.327318
469.964238	17027.210439
470.335373	17146.279972
470.706449	18019.780863
471.077467	19151.482093
471.448425	21486.743680
471.819324	22989.393175
472.190164	22473.733548
472.560945	20796.521499
472.931667	19382.674450
473.302330	19143.375918
473.672934	18692.893369
474.043479	19134.364855
474.413965	18936.854968
474.784393	18776.087531
475.154761	19407.683614
475.525070	19551.195182
475.895321	19386.546056
476.265513	19914.745553
476.635645	20494.798359
477.005719	20562.785880
477.375734	20942.246133
477.745691	21548.354142
478.115588	22206.819575
478.485427	23472.802020
478.855207	25344.700910
479.224928	27071.893479
479.594591	28249.451565
479.964194	27716.977169
480.333739	28104.271375
480.703226	28406.032324
481.072653	28907.105372
481.442022	29385.641942
481.811333	29702.160869
482.180584	29207.666526
482.549777	28995.870009
482.918912	28791.486509
483.287988	28754.214738
483.657005	28574.474918
484.025964	28238.855060
484.394864	28429.624924
484.763706	28369.269710
485.132489	27877.815183
485.501213	27960.661505
485.869879	28148.099167
486.238487	28111.553322
486.607036	28373.229536
486.975527	28097.682587
487.343959	28429.720706
487.712333	28753.324974
488.080648	28734.501306
488.448905	29163.064918
488.817104	29103.148284
489.185244	29986.474384
489.553326	31142.363070
489.921350	33095.359002
490.289315	35469.560982
490.657222	36136.795502
491.025070	36546.132153
491.392861	36159.465571
491.760593	35352.512952
492.128267	34355.957495
492.495883	33408.265942
492.863440	32577.014961
493.230939	31695.687678
493.598380	31186.473166
493.965763	31075.517370
494.333088	30608.948499
494.700354	30428.263463
495.067563	30413.881051
495.434713	30338.460348
495.801805	30640.906894
496.168839	30501.108136
496.535815	30367.772138
496.902733	30517.857370
497.269593	30335.206284
497.636395	30488.681692
498.003139	30792.819545
498.369825	30560.669369
498.736453	30968.584415
499.103023	30823.522692
499.469535	30929.633939
499.835989	31074.796485
500.202385	30936.563005
500.568723	31023.774967
500.935003	31338.075786
501.301226	31241.267988
501.667390	31931.570828
502.033497	32138.444658
502.399546	31946.464917
502.765537	31554.724413
503.131470	32023.208923
503.497345	32459.142702
503.863163	31454.891923
504.228923	32215.549107
504.594625	32624.621097
504.960269	32122.529736
505.325856	32798.505617
505.691385	32494.508916
506.056856	32815.973215
506.422270	33299.676967
506.787625	32849.554861
507.152924	33320.234793
507.518164	33530.213974
507.883347	33084.341560
508.248472	33258.949486
508.613540	33940.669761
508.978550	34177.813200
509.343503	34054.796443
509.708398	34423.302269
510.073236	35035.026123
510.438016	35131.856607
510.802738	34830.874516
511.167403	35410.652579
511.532010	35665.177916
511.896561	36142.449156
512.261053	36894.410349
512.625488	36693.094391
512.989866	36626.808259
513.354186	36687.483587
513.718449	36669.630340
514.082655	37557.138078
514.446803	37256.541636
514.810894	37880.502891
515.174927	37908.947602
515.538904	37905.025584
515.902822	38558.732168
516.266684	38257.291333
516.630488	38628.859659
516.994235	38644.043615
517.357925	39232.890713
517.721558	39496.777473
518.085133	39873.197910
518.448651	40077.982182
518.812112	39978.658848
519.175516	40125.144697
519.538863	40584.885325
519.902152	40655.562302
520.265385	41191.878057
520.628560	41223.798643
520.991678	41185.490915
521.354739	41423.874477
521.717743	41788.228912
522.080690	41709.831408
522.443580	42379.707493
522.806413	42405.729929
523.169189	42545.274109
523.531908	42773.091413
523.894569	42640.037719
524.257174	42847.801313
524.619722	43190.251935
524.982213	43337.282228
525.344647	43367.801373
525.707025	43481.759177
526.069345	43941.993838
526.431608	43851.442112
526.793815	44243.684210
527.155964	43798.915809
527.518057	44078.175568
527.880093	43920.571454
528.242072	44562.539712
528.603995	44285.893791
528.965860	44217.132453
529.327669	44445.501763
529.689421	44502.980999
530.051117	44445.327843
530.412755	44731.836781
530.774337	44794.387418
531.135862	44741.936733
531.497331	44887.368980
531.858743	44883.494853
532.220098	45300.577238
532.581396	45022.323189
532.942638	44793.548066
533.303824	45052.807047
533.664953	45096.702894
534.026025	44779.057269
534.387040	45360.692997
534.747999	45434.583710
535.108902	45745.844713
535.469748	45055.804013
535.830537	45341.478639
536.191270	45576.507314
536.551947	45314.667263
536.912567	45599.978926
537.273131	45759.644871
537.633638	45368.952928
537.994089	45564.118678
538.354483	45323.297718
538.714821	45976.253170
539.075103	46247.507576
539.435328	46106.103211
539.795497	45870.905657
540.155609	45997.791500
540.515665	46571.426916
540.875665	45876.327418
541.235609	46168.159814
541.595496	46291.421067
541.955328	46868.895322
542.315102	46293.296376
542.674821	46172.666606
543.034483	46070.631132
543.394090	46088.925479
543.753640	46080.300065
544.113134	47135.675705
544.472571	46246.471619
544.831953	47382.651914
545.191278	46643.172618
545.550548	46312.669531
545.909761	46967.691856
546.268918	47118.928992
546.628019	47534.902322
546.987064	46958.106102
547.346053	46248.871208
547.704986	47162.078748
548.063863	46816.326170
548.422684	47009.661982
548.781449	46600.403469
549.140158	47139.070922
549.498811	46912.347548
549.857408	46302.942624
550.215949	47143.464287
550.574434	46976.365161
550.932864	46895.951195
551.291237	47635.276736
551.649555	47376.262251
552.007817	47556.753203
552.366022	47236.851662
552.724173	47292.521124
553.082267	47696.531796
553.440305	48057.957321
553.798288	47308.756160
554.156215	47702.848362
554.514086	47904.159279
554.871902	47520.368675
555.229661	47685.937812
555.587365	47356.836165
555.945014	47514.425155
556.302606	47529.546096
556.660143	47615.896020
557.017625	47838.800720
557.375050	47541.680153
557.732421	47959.659862
558.089735	48008.150721
558.446994	47878.872852
558.804197	48367.509373
559.161345	48227.274556
559.518437	47569.474555
559.875474	47828.589863
560.232455	48046.740754
560.589381	48114.887072
560.946251	47917.324252
561.303065	48578.290098
561.659825	48259.724463
562.016528	48073.436184
562.373177	47647.461205
562.729770	48269.794168
563.086307	47798.907549
563.442789	48333.559723
563.799216	48188.273669
564.155587	48071.707068
564.511904	48059.814987
564.868164	48110.541597
565.224370	48414.394625
565.580520	48148.647679
565.936615	48337.086010
566.292654	47992.051797
566.648638	48359.914875
567.004567	48298.558992
567.360441	48385.385305
567.716260	48107.398438
568.072023	48472.146083
568.427732	48395.041635
568.783385	47934.965770
569.138982	48350.427423
569.494525	48477.852669
569.850013	48076.125640
570.205445	48200.916883
570.560823	47991.212444
570.916145	47854.677834
571.271412	48093.310933
571.626625	47726.957680
571.981782	47826.981734
572.336884	47406.254596
572.691931	47739.053929
573.046923	47398.944923
573.401860	47241.431551
573.756743	47249.066378
574.111570	47393.404695
574.466342	47308.791448
574.821059	47462.828945
575.175722	46947.991026
575.530330	47059.650063
575.884882	46701.531535
576.239380	46593.396265
576.593823	46680.792228
576.948211	46622.062786
577.302544	46152.444017
577.656823	46148.826989
578.011047	46417.341528
578.365216	46227.993269
578.719330	45952.446321
579.073389	45940.486183
579.427394	45994.860069
579.781344	45927.669050
580.135239	45665.183731
580.489080	45724.250930
580.842866	45223.301390
581.196597	45699.443412
581.550273	45707.121089
581.903895	45643.453837
582.257463	46071.442757
582.610975	45488.491288
582.964434	45845.843561
583.317837	45356.992790
583.671186	45303.783411
584.024481	45583.464106
584.377721	45120.822294
584.730906	45329.168142
585.084037	45459.504654
585.437113	45164.395507
585.790135	45276.321726
586.143103	44840.889542
586.496016	45004.984141
586.848874	45103.140447
587.201679	45134.433410
587.554428	44622.393331
587.907124	44912.541982
588.259765	44677.427608
588.612352	44834.245301
588.964884	44299.583045
589.317362	44597.172438
589.669786	44593.908291
590.022155	44449.731291
590.374470	44905.933029
590.726731	44471.383047
591.078937	43820.963296
591.431090	44153.434953
591.783188	43692.192062
592.135232	43479.324299
592.487222	43739.357097
592.839157	43890.264038
593.191038	43534.585428
593.542866	43339.570912
593.894639	42745.975047
594.246358	43049.548290
594.598022	43035.188563
594.949633	42607.169396
595.301190	42590.463012
595.652692	42540.822770
596.004141	43014.149308
596.355535	41909.715679
596.706876	41934.737446
597.058162	41662.323575
597.409395	42161.518793
597.760573	42364.039587
598.111698	41974.522232
598.462768	41882.874055
598.813785	41922.719335
599.164748	41503.799451
599.515657	41794.235447
599.866511	41297.863275
600.217312	41991.105108
600.568060	40904.819633
600.918753	41746.238622
601.269392	41669.227435
601.619978	41382.315205
601.970510	41578.209402
602.320988	41724.609551
602.671412	41979.283602
603.021783	41860.095602
603.372100	41432.930910
603.722363	41542.901161
604.072572	41573.155645
604.422728	41570.829153
604.772830	41353.205062
605.122878	41499.466579
605.472872	41370.392876
605.822813	41621.313788
606.172701	41377.901675
606.522534	41708.498023
606.872314	41910.050916
607.222041	41741.212591
607.571714	42074.367325
607.921333	41560.832545
608.270899	41792.975159
608.620411	42175.029085
608.969870	41906.330544
609.319276	41928.493977
609.668627	41958.236785
610.017926	42375.450239
610.367171	42487.787311
610.716362	42535.658108
611.065500	42417.974892
611.414585	42639.289108
611.763616	42822.814834
612.112594	42714.051940
612.461518	42833.078623
612.810389	43234.833379
613.159207	43016.478321
613.507971	43001.823687
613.856682	43490.692101
614.205340	43313.119978
614.553945	44011.712995
614.902496	43323.212368
615.250994	43763.902475
615.599439	43822.072349
615.947830	43915.260599
616.296169	43921.551959
616.644454	43971.421573
616.992686	44116.889109
617.340864	44578.714254
617.688990	44103.421666
618.037063	44775.989727
618.385082	44591.332262
618.733048	44926.357264
619.080961	44792.063446
619.428821	44822.464124
619.776628	44833.315208
620.124382	44672.091546
620.472083	44779.344615
620.819731	44875.799532
621.167326	44424.308752
621.514868	44410.397688
621.862357	43880.975712
622.209793	43968.323784
622.557176	43548.080597
622.904506	43296.083398
623.251783	42930.317440
623.599007	42621.151036
623.946179	42542.158676
624.293297	42271.466358
624.640363	41730.316137
624.987376	41569.175654
625.334336	41369.278781
625.681243	40965.822636
626.028097	40851.948012
626.374899	40679.931239
626.721647	40654.307054
627.068343	40431.142735
627.414987	40155.878091
627.761577	39893.072659
628.108115	40199.645389
628.454600	39459.397317
628.801032	39688.167399
629.147412	39579.656563
629.493739	39503.961117
629.840014	39046.471364
630.186236	39477.989092
630.532405	38914.786344
630.878521	39144.657918
631.224585	38927.873179
631.570597	38595.895554
631.916556	38747.672094
632.262462	38630.208168
632.608316	38571.566946
632.954117	38432.605019
633.299866	38385.707165
633.645562	38298.449833
633.991206	37761.236753
634.336797	37353.228446
634.682336	37257.721266
635.027823	37013.124481
635.373257	36892.570328
635.718639	36559.564308
636.063968	36453.944573
636.409245	35782.097397
636.754470	35756.679899
637.099642	35517.877921
637.444762	34960.409485
637.789829	35105.630004
638.134845	34712.225919
638.479808	34649.831558
638.824719	34590.804688
639.169577	34069.677929
639.514383	34163.551776
639.859137	33790.990342
640.203839	33947.770227
640.548489	33646.984741
640.893086	33645.724453
641.237632	33376.262177
641.582125	33481.909638
641.926566	33271.116310
642.270955	33298.215033
642.615292	33226.421440
642.959576	33114.263329
643.303809	33131.312511
643.647990	33214.972980
643.992118	33161.892151
644.336195	33006.521268
644.680219	33094.252469
645.024192	33275.602937
645.368112	33816.775844
645.711981	33824.478727
646.055797	34571.968416
646.399562	34368.915781
646.743274	35240.566569
647.086935	35636.667670
647.430544	35593.076813
647.774101	35631.518132
648.117606	35929.750273
648.461059	36062.020067
648.804460	35662.732956
649.147810	35168.911608
649.491108	34805.109179
649.834354	34661.895039
650.177548	33820.423119
650.520690	33346.388299
650.863781	33319.990297
651.206820	33151.151972
651.549807	32754.957609
651.892742	32154.276402
652.235626	32049.947203
652.578458	31928.614191
652.921238	31226.545298
653.263967	31543.275953
653.606644	31240.128687
653.949269	31156.032159
654.291843	30766.557654
654.634365	31128.860339
654.976836	30662.563691
655.319255	30740.905742
655.661622	30605.591091
656.003938	30469.237962
656.346203	30286.032348
656.688416	30529.265501
657.030577	30290.009819
657.372687	30132.975356
657.714746	30298.242023
658.056753	30473.959002
658.398708	29867.793020
658.740612	29919.018704
659.082465	30128.191301
659.424266	30029.404850
659.766016	30031.993483
660.107715	29894.019622
660.449362	30007.158238
660.790958	29978.915174
661.132503	29896.416691
661.473996	29983.555556
661.815438	30055.911237
662.156829	30182.466884
662.498168	29981.244187
662.839456	29960.411619
663.180693	30087.156309
663.521879	30174.398517
663.863013	30122.240219
664.204097	30105.692631
664.545129	30526.344152
664.886110	30454.036362
665.227040	30559.018391
665.567918	30541.807892
665.908746	30631.782406
666.249522	30713.575127
666.590248	30739.529507
666.930922	30848.264675
667.271545	30834.406543
667.612118	30889.806303
667.952639	30704.306965
668.293109	30739.801730
668.633528	30602.936923
668.973896	30555.976055
669.314213	30536.555009
669.654480	30359.250067
669.994695	30333.295686
670.334859	30268.015265
670.674973	30097.299110
671.015035	30286.060075
671.355047	30219.647914
671.695008	30148.444137
672.034918	30052.337059
672.374777	30154.491001
672.714585	30021.553253
673.054342	30154.491001
673.394049	30006.933907
673.733705	30220.033562
674.073310	29932.115622
674.412864	30001.126498
674.752368	29699.257164
675.091820	29912.573589
675.431223	29526.096050
675.770574	29325.523662
676.109875	29162.875874
676.449125	28963.117633
676.788324	28857.588639
677.127473	28371.263486
677.466571	28282.559343
677.805619	27996.897319
678.144616	27934.971785
678.483562	27886.175937
678.822458	27557.817860
679.161303	27501.024221
679.500098	27416.002641
679.838842	27354.913938
680.177535	27432.698942
680.516179	27675.909410
680.854771	27798.754767
681.193314	28572.473580
681.531805	29581.883979
681.870247	30316.889251
682.208638	31062.274259
682.546978	31331.005567
682.885268	31472.919089
683.223508	31026.484587
683.561697	30753.581724
683.899836	30592.849574
684.237925	30179.124599
684.575963	30032.200170
684.913951	29647.245059
685.251889	29837.470479
685.589776	29860.659787
685.927614	29868.642454
686.265401	30041.551510
686.603137	30156.000826
686.940824	30648.370322
687.278460	30973.461731
687.616046	31142.693266
687.953582	31814.510195
688.291068	31729.402915
688.628504	32066.794739
688.965889	32052.946689
689.303224	31795.482359
689.640510	31512.030882
689.977745	30885.065098
690.314930	30152.469498
690.652065	29716.565966
690.989150	29044.088646
691.326185	28207.791470
691.663170	27555.544300
692.000105	26825.912898
692.336990	26211.252571
692.673825	25790.175073
693.010610	25299.262470
693.347345	24791.925788
693.684030	24159.729808
694.020665	23968.150838
694.357251	23282.984934
694.693786	23272.922791
695.030272	23050.834758
695.366707	22549.565105
695.703093	22270.053288
696.039429	22338.716324
696.375716	22100.604984
696.711952	22107.939863
697.048139	21956.175927
697.384276	21796.207512
697.720363	21913.663876
698.056400	21799.786731
698.392388	21644.831744
698.728326	21638.278244
699.064214	21478.198925
699.400053	21478.130869
699.735842	21089.722568
700.071581	20899.179556
700.407270	20649.864251
700.742910	20478.593570
701.078501	20225.905733
701.414042	20012.201139
701.749533	19710.924141
702.084974	19397.036697
702.420366	19624.075143
702.755709	19218.862156
703.091002	18917.980888
703.426246	18986.659048
703.761440	18907.689373
704.096584	18662.669131
704.431679	18596.299820
704.766725	18546.820895
705.101721	18480.844794
705.436668	18604.048074
705.771565	18316.679619
706.106413	18641.095513
706.441212	18704.729998
706.775961	18805.782448
707.110661	18892.301251
707.445311	19263.425956
707.779913	19129.343866
708.114465	19429.363096
708.448967	19736.165199
708.783421	20359.297184
709.117825	20734.288454
709.452180	20965.848815
709.786485	21412.046383
710.120742	22174.241118
710.454949	22273.864401
710.789107	22794.799595
711.123216	23499.996524
711.457275	23711.246076
711.791286	24274.907570
712.125247	24437.005872
712.459159	24158.802235
712.793023	24925.405460
713.126837	23889.037490
713.460602	24152.871318
713.794318	23827.890815
714.127985	23560.225710
714.461602	22655.570488
714.795171	22641.682109
715.128691	21658.208446
715.462162	21140.277779
715.795584	20710.224507
716.128957	20432.706467
716.462281	20061.753161
716.795556	19780.161869
717.128782	19302.048756
717.461960	18697.682465
717.795088	18659.374737
718.128167	18302.796282
718.461198	17848.318618
718.794180	17723.242550
719.127113	17385.638998
719.459997	17192.204883
719.792833	16821.838872
720.125619	16860.252464
720.458357	16520.309817
720.791046	16383.863426
721.123686	16230.987915
721.456278	16007.838719
721.788821	15996.939745
722.121315	15733.945269
722.453761	15847.401478
722.786158	15720.321551
723.118506	15794.343333
723.450805	15678.429563
723.783056	15859.742222
724.115259	15751.599390
724.447412	15744.095632
724.779518	15958.200998
725.111574	16008.095818
725.443582	16271.937208
725.775542	16226.440794
726.107453	16754.259684
726.439315	16661.487330
726.771129	17080.107266
727.102895	17505.941093
727.434612	17776.986291
727.766281	17944.995346
728.097901	18269.081045
728.429473	18353.734621
728.760996	18368.187609
729.092471	18497.838524
729.423897	18383.500113
729.755276	18263.941588
730.086606	18374.032827
730.417887	18953.876424
730.749120	19507.508542
731.080305	19719.801613
731.411442	20123.882862
731.742530	20248.727037
732.073570	20409.660832
732.404562	20743.503684
732.735506	20587.742112
733.066401	20379.761748
733.397249	19880.856396
733.728048	19261.074257
734.058798	18394.078975
734.389501	17626.490205
734.720156	17117.341228
735.050762	16531.216353
735.381320	16150.722663
735.711831	15873.045827
736.042293	15490.576006
736.372707	15528.780390
736.703073	15308.660928
737.033391	15512.719274
737.363661	15505.076885
737.693883	15625.600791
738.024056	15822.982128
738.354182	16036.558173
738.684260	16406.848567
739.014290	16681.624219
739.344272	16896.614307
739.674207	17248.058347
740.004093	17429.978466
740.333931	17485.902507
740.663722	17560.612407
740.993464	17615.896220
741.323159	17459.005430
741.652806	17156.092578
741.982405	16996.136766
742.311956	16643.818086
742.641460	16533.366405
742.970915	16197.023141
743.300323	15847.688823
743.629683	15641.430014
743.958996	15327.918136
744.288260	15016.324416
744.617477	14705.716243
744.946647	14663.695705
745.275768	14345.752652
745.604842	14140.151713
745.933869	13964.616216
746.262847	13931.694961
746.591778	13849.839225
746.920662	13737.146751
747.249498	13748.713679
747.578286	13898.715732
747.907027	14073.275766
748.235720	14341.245861
748.564365	14406.647270
748.892963	14332.108769
749.221514	14433.675417
749.550017	14302.517196
749.878473	14268.343214
750.206881	14044.866344
750.535242	13964.243170
750.863555	13892.870514
751.191821	13786.970995
751.520039	13804.088233
751.848210	13731.498138
752.176334	13782.544862
752.504411	13701.823386
752.832440	13524.339483
753.160421	13641.062359
753.488356	13525.282179
753.816243	13436.462089
754.144082	13267.104526
754.471875	13214.268192
754.799620	13179.338037
755.127318	13162.155264
755.454969	13144.803613
755.782572	13115.726237
756.110129	13137.181388
756.437638	13036.943085
756.765100	13044.081359
757.092515	13065.118094
757.419882	13097.164709
757.747203	13117.160446
758.074477	13197.592055
758.401703	13186.856918
758.728882	13384.139953
759.056014	13416.909974
759.383099	13597.025360
759.710138	13716.067167
760.037129	13838.635261
760.364073	13889.671902
760.690970	13918.867745
761.017820	13942.974542
761.344623	14168.672041
761.671379	14553.488520
761.998088	15253.568678
762.324751	17020.611568
762.651366	20427.025086
762.977935	24900.348404
763.304456	27891.212049
763.630931	28981.497680
763.957359	27813.719432
764.283740	25543.551744
764.610074	23295.272746
764.936362	20629.341714
765.262602	18759.366024
765.588796	16805.387067
765.914943	15514.922258
766.241044	14398.541095
766.567097	13609.628244
766.893104	12882.963561
767.219064	12409.105182
767.544978	11922.018815
767.870845	11534.144877
768.196665	11311.454426
768.522438	11075.321739
768.848165	10865.445901
769.173846	10659.353450
769.499479	10536.119923
769.825066	10369.222443
770.150607	10131.612697
770.476101	10053.459689
770.801548	9928.136605
771.126949	9769.153736
771.452303	9656.909925
771.777611	9460.546900
772.102872	9449.968039
772.428087	9307.263056
772.753256	9148.529724
773.078378	9053.395589
773.403453	8879.906800
773.728482	8758.873738
774.053465	8682.956481
774.378401	8584.580885
774.703291	8461.110424
775.028135	8335.913368
775.352932	8300.037997
775.677683	8192.026235
776.002388	8083.591015
776.327046	8099.190866
776.651658	8003.557657
776.976224	7901.154178
777.300743	7901.774240
777.625216	7805.233623
777.949643	7768.362624
778.274024	7780.834439
778.598359	7688.326745
778.922647	7707.604118
779.246889	7661.701891
779.571086	7667.108529
779.895236	7673.830907
780.219339	7679.597987
780.543397	7685.634769
780.867409	7762.398939
781.191374	7775.077441
781.515294	7737.591421
781.839167	7834.863005
782.162995	7813.995149
782.486776	7748.994511
782.810511	7700.606996
783.134201	7618.456353
783.457844	7615.845035
783.781441	7560.309164
784.104993	7489.569173
784.428498	7472.225083
784.751958	7455.856456
785.075372	7425.556601
785.398739	7370.915534
785.722061	7416.684170
786.045337	7421.105262
786.368568	7572.659991
786.691752	7601.076975
787.014891	7937.727749
787.337983	8296.418448
787.661030	8887.503819
787.984031	9516.433132
788.306987	9923.692828
788.629897	10136.053954
788.952760	10088.248692
789.275579	9866.561431
789.598351	9469.116862
789.921078	9120.637020
790.243759	8701.628915
790.566395	8413.446314
790.888984	8158.016090
791.211529	7949.632434
791.534027	7723.151036
791.856480	7521.078905
792.178888	7449.882689
792.501249	7347.227152
792.823566	7193.265273
793.145836	7185.585075
793.468062	7165.549009
793.790241	7111.956502
794.112375	7183.251021
794.434464	7335.756007
794.756507	7376.906946
795.078505	7532.388733
795.400457	7841.918100
795.722364	8192.169907
796.044226	8481.965677
796.366042	8760.144108
796.687812	8710.284576
797.009538	8789.213922
797.331218	8684.186523
797.652852	8599.056558
797.974442	8453.266389
798.295986	8367.022329
798.617484	8169.567894
798.938938	8026.285699
799.260346	7927.622757
799.581709	7727.574648
799.903026	7645.844942
800.224299	7537.261008
800.545526	7365.645008
800.866708	7268.834690
801.187845	7206.914197
801.508936	7091.428924
801.829983	7046.905453
802.150984	6900.984214
802.471940	6856.861515
802.792851	6839.804771
803.113717	6809.595657
803.434538	6769.820953
803.755314	6715.825154
804.076045	6717.579475
804.396731	6664.619634
804.717372	6696.381423
805.037967	6694.803542
805.358518	6736.902218
805.679024	6816.862480
805.999485	6825.440003
806.319901	6864.919799
806.640272	6887.829323
806.960598	6973.261757
807.280879	6968.684390
807.601115	7052.569190
807.921306	6998.681776
808.241453	7015.284816
808.561554	7035.850203
808.881611	6996.801425
809.201623	7009.187540
809.521590	6951.541946
809.841513	6931.052176
810.161390	6975.653785
810.481223	6847.726944
810.801011	6830.518966
811.120755	6803.369832
811.440453	6728.062555
811.760107	6696.255395
812.079716	6666.381517
812.399281	6596.795950
812.718801	6588.835968
813.038276	6546.200409
813.357707	6486.308981
813.677093	6525.977821
813.996434	6432.834942
814.315731	6473.756508
814.634983	6467.618903
814.954191	6481.126675
815.273354	6589.771102
815.592473	6644.959134
815.911547	6771.388752
816.230577	6857.640373
816.549562	7001.618248
816.868502	7109.163703
817.187399	7205.245575
817.506250	7365.440841
817.825058	7397.144658
818.143821	7669.407295
818.462539	7941.377545
818.781213	8311.867064
819.099843	8857.962658
819.418429	9861.661430
819.736970	10834.289050
820.055466	12024.059331
820.373919	13567.035535
820.692327	15934.164777
821.010691	20090.258365
821.329011	29089.096067
821.647286	42075.025196
821.965517	55532.309771
822.283704	60930.720108
822.601847	62951.476709
822.919945	60310.587609
823.237999	56215.280253
823.556010	50143.951495
823.873976	43411.339299
824.191897	36850.212033
824.509775	31981.264002
824.827609	27408.234223
825.145398	24775.897439
825.463144	23394.820411
825.780845	23680.603423
826.098502	25420.832416
826.416116	29201.889364
826.733685	32840.132945
827.051210	34008.122920
827.368692	32245.720412
827.686129	28284.999261
828.003522	24155.878366
828.320872	20424.622977
828.638177	17572.199499
828.955439	15386.839142
829.272656	13570.158530
829.589830	12083.187024
829.906960	10787.091247
830.224046	9846.674079
830.541088	9089.714582
830.858086	8614.061552
831.175041	8239.730673
831.491952	8117.573433
831.808819	8157.527098
832.125642	8561.154643
832.442421	9445.325136
832.759157	11245.861453
833.075849	14167.562987
833.392497	17388.177219
833.709101	19603.116546
834.025662	19460.580441
834.342179	17774.773225
834.658653	15577.399798
834.975083	13636.522800
835.291469	11999.902122
835.607811	10677.758702
835.924110	9762.459084
836.240366	8886.745126
836.556578	8076.914007
836.872746	7421.740447
837.188871	6914.529794
837.504952	6495.743500
837.820990	6181.230953
838.136984	5960.312468
838.452935	5865.453076
838.768842	5886.462085
839.084706	6312.437064
839.400526	7517.935745
839.716303	9107.557746
840.032037	10215.031191
840.347727	10153.841665
840.663373	9179.225310
840.978977	8132.775033
841.294537	7313.232132
841.610054	6704.162444
841.925527	6274.772083
842.240957	5904.574951
842.556344	5573.245114
842.871687	5287.840189
843.186987	4998.795551
843.502244	4773.153505
843.817458	4603.687557
844.132629	4466.306032
844.447756	4376.238257
844.762840	4296.265392
845.077881	4218.646746
845.392879	4156.285153
845.707833	4109.142802
846.022745	4062.126481
846.337613	4030.626831
846.652438	3986.514215
846.967221	3970.725321
847.281960	3939.492852
847.596656	3923.799740
847.911309	3900.202099
848.225919	3872.599261
848.540485	3859.262889
848.855009	3843.602544
849.169490	3822.079338
849.483928	3813.975683
849.798323	3802.265083
850.112675	3782.912093
850.426984	3792.787713
850.741251	3777.187863
851.055474	3769.686626
851.369654	3774.261473
851.683792	3771.345166
851.997887	3777.318933
852.311938	3780.525107
852.625947	3782.211373
852.939914	3775.589817
853.253837	3779.779016
853.567718	3777.394550
853.881555	3772.522275
854.195350	3786.294707
854.509103	3780.328502
854.822812	3779.295065
855.136479	3770.609157
855.450103	3781.077113
855.763685	3766.465329
856.077224	3769.530350
856.390720	3783.958132
856.704173	3804.170639
857.017584	3820.526663
857.330953	3830.651820
857.644278	3853.531097
857.957561	3858.426057
858.270802	3857.173330
858.584000	3858.700800
858.897155	3853.009337
859.210268	3840.918130
859.523339	3816.796209
859.836367	3813.249757
860.149352	3805.017553
860.462295	3799.686533
860.775195	3788.545583
861.088054	3784.018626
861.400869	3784.570633
861.713642	3783.423770
862.026373	3793.954741
862.339062	3797.750729
862.651708	3815.523317
862.964312	3848.905838
863.276873	3865.362685
863.589392	3925.004576
863.901869	3965.159887
864.214303	4013.169316
864.526696	4041.137637
864.839045	4093.542952
865.151353	4120.256026
865.463619	4127.628714
865.775842	4138.900734
866.088023	4155.586953
866.400162	4142.878204
866.712258	4153.557888
867.024313	4155.874299
867.336325	4153.890605
867.648296	4161.323786
867.960224	4158.415040
868.272110	4171.380888
868.583954	4169.321577
868.895755	4184.651725
869.207515	4181.548895
869.519233	4228.108992
869.830909	4246.020212
870.142542	4265.995784
870.454134	4282.044297
870.765684	4311.552691
871.077191	4343.029656
871.388657	4372.469994
871.700081	4406.245725
872.011463	4451.401861
872.322803	4484.071058
872.634101	4515.752189
872.945357	4557.261050
873.256571	4611.531592
873.567744	4640.556035
873.878874	4660.657636
874.189963	4701.513667
874.501010	4708.631777
874.812015	4705.589440
875.122979	4746.974793
875.433900	4748.628291
875.744780	4761.730250
876.055618	4790.976504
876.366415	4792.713182
876.677169	4811.062982
876.987882	4857.255074
877.298554	4912.276748
877.609183	4993.391434
877.919771	5107.485348
878.230317	5251.206124
878.540822	5468.810050
878.851285	5794.052694
879.161707	6260.361945
879.472087	7019.698346
879.782425	8257.253724
880.092722	10450.937026
880.402977	13766.110701
880.713191	17540.057102
881.023363	21267.435844
881.333494	23507.152442
881.643583	24741.060546
881.953631	24755.669810
882.263637	23925.119549
882.573602	22452.510290
882.883526	20896.371633
883.193408	19210.889571
883.503248	17511.546856
883.813048	15954.614217
884.122806	14512.093085
884.432522	13033.928475
884.742197	11749.807959
885.051831	10656.048973
885.361424	9642.378799
885.670975	8808.077920
885.980485	8108.088502
886.289954	7530.785646
886.599382	7050.555249
886.908768	6670.167423
887.218113	6299.846782
887.527417	6008.921794
887.836680	5741.150825
888.145901	5518.783008
888.455082	5352.210682
888.764221	5197.875758
889.073319	5064.343154
889.382376	4990.654088
889.691392	4929.711579
890.000366	4899.941045
890.309300	4886.917224
890.618193	4885.790526
890.927044	4872.554976
891.235855	4894.420981
891.544625	4927.284263
891.853353	4988.357842
892.162041	5105.047951
892.470687	5295.570798
892.779293	5544.533222
893.087858	5925.301655
893.396381	6498.349777
893.704864	7300.808208
894.013306	8457.311915
894.321707	9640.894179
894.630068	10465.321959
894.938387	10672.810810
895.246665	10448.098857
895.554903	9844.622330
895.863100	9144.088468
896.171256	8578.168537
896.479371	8072.273625
896.787446	7570.336019
897.095480	7137.825183
897.403473	6814.614125
897.711425	6495.120918
898.019336	6223.649742
898.327207	5954.530265
898.635038	5714.770467
898.942827	5470.758456
899.250576	5272.537767
899.558284	5080.963838
899.865952	4956.359118
900.173579	4806.004184
900.481165	4698.332699
900.788711	4601.146815
901.096216	4531.790620
901.403681	4471.558914
901.711105	4443.038586
902.018489	4425.069393
902.325832	4499.887678
902.633135	4617.714567
902.940397	4965.718020
903.247619	5759.679586
903.554800	7200.532096
903.861941	9125.380746
904.169041	10661.276650
904.476101	11307.063581
904.783121	10958.624068
905.090100	10225.267254
905.397039	9384.586794
905.703938	8622.117316
906.010796	7927.935308
906.317614	7365.208948
906.624391	6824.235167
906.931129	6397.980404
907.237826	5997.503581
907.544483	5613.468481
907.851099	5234.935800
908.157675	4879.209299
908.464211	4550.873908
908.770707	4312.107218
909.077163	4111.663379
909.383578	3959.554124
909.689954	3843.169005
909.996289	3773.573356
910.302584	3706.213458
910.608839	3676.079961
910.915054	3641.066627
911.221229	3629.744195
911.527363	3640.900269
911.833458	3656.495078
912.139513	3680.407791
912.445527	3711.466340
912.751502	3797.508754
913.057436	3897.242942
913.363331	4034.198489
913.669186	4240.220364
913.975000	4498.549252
914.280775	4924.423408
914.586510	5509.608108
914.892205	6309.961858
915.197859	7351.444078
915.503475	8579.080986
915.809050	9635.021235
916.114585	10290.766966
916.420081	10554.079034
916.725536	10522.360094
917.030952	10084.109905
917.336328	9676.242750
917.641665	9262.101879
917.946961	8786.383314
918.252218	8359.626956
918.557435	7843.604366
918.862612	7409.866010
919.167750	7038.947992
919.472848	6606.353978
919.777906	6232.867492
920.082925	5865.783272
920.387904	5500.390359
920.692843	5229.549327
920.997743	4981.020443
921.302603	4743.670317
921.607423	4583.074278
921.912204	4414.651849
922.216946	4296.046102
922.521647	4172.285775
922.826310	4067.432296
923.130932	3973.926453
923.435516	3872.100187
923.740059	3798.388435
924.044564	3722.937486
924.349028	3664.213085
924.653454	3599.542642
924.957840	3529.642003
925.262186	3483.026454
925.566493	3420.710230
925.870761	3363.873741
926.174989	3327.348061
926.479178	3293.158956
926.783328	3247.100454
927.087438	3221.705641
927.391509	3185.119467
927.695541	3156.054695
927.999533	3124.474386
928.303486	3102.071499
928.607400	3088.064653
928.911275	3080.170206
929.215110	3058.276475
929.518906	3048.990669
929.822663	3047.347253
930.126381	3048.229455
930.430060	3050.984446
930.733699	3053.744477
931.037299	3063.655386
931.340861	3061.964079
931.644383	3070.181159
931.947866	3066.924574
932.251309	3064.172104
932.554714	3061.381825
932.858080	3055.103068
933.161407	3046.712068
933.464694	3039.498177
933.767943	3030.257742
934.071153	3025.909746
934.374323	3019.129394
934.677455	3013.674866
934.980548	3006.604648
935.283602	3000.419152
935.586617	2999.665499
935.889593	3009.909124
936.192530	3012.795185
936.495428	3025.816485
936.798287	3049.046122
937.101108	3083.167172
937.403890	3132.341107
937.706632	3192.209850
938.009336	3271.809669
938.312002	3346.380938
938.614628	3409.234044
938.917216	3457.581230
939.219765	3493.683453
939.522275	3523.393493
939.824747	3533.397663
940.127179	3528.222918
940.429573	3523.229656
940.731929	3523.799306
941.034246	3511.161133
941.336524	3497.212261
941.638763	3478.368428
941.940964	3468.820482
942.243126	3421.597473
942.545250	3401.949576
942.847335	3362.989019
943.149381	3327.153977
943.451389	3296.050058
943.753359	3261.719800
944.055290	3236.214082
944.357182	3210.806667
944.659036	3194.722865
944.960851	3187.755991
945.262628	3171.795697
945.564367	3174.061696
945.866067	3165.305212
946.167729	3162.560304
946.469352	3160.659789
946.770937	3157.342709
947.072484	3141.150523
947.373992	3147.126811
947.675462	3139.900317
947.976893	3117.434415
948.278286	3113.199846
948.579641	3107.276490
948.880958	3098.658638
949.182236	3102.341200
949.483476	3094.666044
949.784678	3094.529932
950.085841	3097.264758
950.386967	3108.025101
950.688054	3122.709982
950.989103	3144.013899
951.290114	3164.614574
951.591087	3194.531301
951.892021	3220.871330
952.192917	3248.476689
952.493776	3274.252108
952.794596	3283.575722
953.095378	3286.497071
953.396122	3283.553037
953.696828	3277.470885
953.997496	3266.327414
954.298126	3239.752972
954.598718	3218.582646
954.899272	3193.959130
955.199788	3165.736231
955.500266	3133.145171
955.800706	3097.204265
956.101108	3060.814696
956.401472	3029.859490
956.701798	2997.560818
957.002087	2955.522636
957.302337	2927.771084
957.602550	2899.412073
957.902724	2870.506097
958.202861	2846.704289
958.502960	2822.668067
958.803022	2801.442289
959.103045	2780.992848
959.403031	2764.677154
959.702979	2752.248189
960.002889	2740.194790
960.302762	2725.640979
960.602596	2713.769062
960.902393	2701.889583
961.202153	2693.632173
961.501875	2687.855011
961.801559	2683.403672
962.101205	2675.365552
962.400814	2669.815242
962.700385	2663.080260
962.999918	2655.626914
963.299414	2650.527787
963.598873	2647.026706
963.898293	2641.504122
964.197677	2643.079482
964.497022	2640.654687
964.796331	2635.237967
965.095601	2634.030611
965.394835	2630.610188
965.694030	2630.554735
965.993189	2628.601288
966.292309	2626.872172
966.591393	2628.462657
966.890439	2625.107769
967.189447	2626.511730
967.488419	2627.855197
967.787353	2626.766308
968.086249	2630.446351
968.385108	2632.515744
968.683930	2634.832154
968.982714	2637.619912
969.281462	2641.239461
969.580172	2648.826397
969.878844	2650.684063
970.177480	2662.583706
970.476078	2668.718791
970.774639	2676.850172
971.073162	2683.612880
971.371649	2689.722758
971.670098	2693.407842
971.968510	2702.116435
972.266885	2704.589121
972.565223	2708.637167
972.863524	2713.015409
973.161788	2713.123794
973.460014	2717.237376
973.758204	2721.051009
974.056356	2723.400186
974.354471	2725.459498
974.652550	2722.018910
974.950591	2723.334651
975.248595	2723.059908
975.546563	2717.771738
975.844493	2715.152859
976.142386	2714.157231
976.440243	2705.604913
976.738062	2701.387988
977.035845	2693.453212
977.333590	2687.129084
977.631299	2683.620441
977.928971	2677.626509
978.226606	2670.009326
978.524204	2664.600168
978.821765	2662.440033
979.119290	2666.160405
979.416777	2665.106804
979.714228	2666.992195
980.011642	2670.384892
980.309020	2680.472241
980.606360	2694.126206
980.903664	2716.718137
981.200931	2752.711975
981.498162	2802.805921
981.795356	2879.038250
982.092513	2968.904379
982.389633	3073.077302
982.686717	3171.168074
982.983764	3247.236565
983.280775	3293.645427
983.577749	3300.332518
983.874686	3286.363480
984.171587	3253.860641
984.468451	3215.754559
984.765279	3173.179494
985.062070	3125.233080
985.358824	3079.477047
985.655543	3022.980836
985.952224	2969.539564
986.248869	2905.942888
986.545478	2846.653877
986.842050	2791.599436
987.138586	2743.937847
987.435086	2703.601055
987.731549	2676.877898
988.027975	2651.467962
988.324366	2632.223357
988.620719	2618.917232
988.917037	2606.442897
989.213318	2595.710280
989.509563	2591.526122
989.805772	2587.102510
990.101944	2579.255954
990.398080	2580.402816
990.694180	2576.090109
990.990244	2579.303845
991.286271	2576.931982
991.582262	2579.354256
991.878217	2582.799885
992.174136	2587.364650
992.470019	2587.344485
992.765865	2591.679878
993.061676	2595.314549
993.357450	2606.763010
993.653188	2611.047991
993.948890	2628.311422
994.244556	2647.825728
994.540186	2671.161230
994.835780	2701.428317
995.131337	2738.594224
995.426859	2782.265740
995.722345	2829.947493
996.017795	2880.280894
996.313208	2916.572161
996.608586	2942.435800
996.903928	2957.455918
997.199234	2958.817030
997.494504	2955.762091
997.789738	2941.228444
998.084936	2917.146852
998.380099	2887.081411
998.675225	2854.540762
998.970316	2825.859118
999.265371	2790.361833
999.560390	2751.955802
999.855373	2724.385732
1000.150320	2694.128727
1000.445232	2670.407577
1000.740108	2647.838331
1001.034948	2628.858387
1001.329752	2611.726026
1001.624521	2600.698502
1001.919254	2586.648806
1002.213951	2581.584967
1002.508613	2569.345045
1002.803239	2570.151630
1003.097829	2559.751730
1003.392384	2555.885165
1003.686903	2552.114382
1003.981386	2546.823691
1004.275834	2542.465613
1004.570246	2541.074255
1004.864623	2538.306661
1005.158964	2537.288348
1005.453270	2532.683254
1005.747540	2532.721063
1006.041775	2528.841895
1006.335974	2529.151926
1006.630138	2525.514733
1006.924266	2525.741585
1007.218359	2526.497758
1007.512416	2522.278312
1007.806438	2522.313601
1008.100425	2521.570030
1008.394376	2518.131963
1008.688292	2520.098013
1008.982172	2524.869466
1009.276017	2522.782428
1009.569827	2521.136491
1009.863602	2519.210770
1010.157341	2523.798220
1010.451045	2520.382839
1010.744714	2517.501819
1011.038347	2517.466531
1011.331945	2517.690862
1011.625508	2514.593073
1011.919036	2516.455780
1012.212528	2514.517456
1012.505986	2512.165758
1012.799408	2514.257837
1013.092795	2509.967815
1013.386147	2511.991838
1013.679464	2507.653925
1013.972745	2509.682990
1014.265992	2511.386900
1014.559204	2511.182733
1014.852380	2512.311951
1015.145521	2510.028309
1015.438628	2514.978722
1015.731699	2509.796416
1016.024736	2509.960253
1016.317737	2512.014523
1016.610703	2515.371932
1016.903635	2517.877385
1017.196531	2515.364370
1017.489393	2516.175996
1017.782219	2520.007273
1018.075011	2520.178672
1018.367768	2521.980884
1018.660490	2522.429547
1018.953177	2522.429547
1019.245829	2522.429547
