Dividing Wavelength (nm)	Counts (n)	Blue Motor Position (mm): 15.000000	Red Motor Position (mm): 0.000000	
326.493990	2100.981524
326.888308	2100.981524
327.282561	2100.981524
327.676750	2080.348081
328.070874	2083.105592
328.464933	2088.267734
328.858929	2097.785432
329.252859	2111.711620
329.646726	2126.714094
330.040528	2141.887967
330.434265	2160.371357
330.827938	2182.754080
331.221547	2200.544312
331.615091	2219.221787
332.008571	2240.122411
332.401986	2264.249373
332.795338	2282.286622
333.188625	2304.659263
333.581847	2320.100317
333.975006	2340.643019
334.368100	2357.188086
334.761129	2374.096116
335.154095	2389.816954
335.546996	2423.640576
335.939833	2483.242138
336.332606	2496.717142
336.725315	2508.949502
337.117960	2516.029802
337.510540	2520.738240
337.903056	2534.417411
338.295508	2538.530992
338.687896	2545.170192
339.080220	2550.735626
339.472480	2554.541697
339.864676	2561.034703
340.256807	2564.692060
340.648875	2564.566032
341.040879	2568.271280
341.432818	2565.785991
341.824694	2567.121897
342.216506	2566.708522
342.608253	2564.414797
342.999937	2567.318502
343.391557	2564.818089
343.783113	2564.351782
344.174605	2562.045455
344.566033	2560.265927
344.957397	2558.231822
345.348697	2555.756615
345.739934	2552.739485
346.131106	2552.593291
346.522215	2552.431974
346.913260	2550.039947
347.304241	2548.341078
347.695159	2548.182282
348.086012	2547.925183
348.476802	2544.749256
348.867528	2541.419574
349.258191	2540.910417
349.648789	2541.878319
350.039324	2539.808925
350.429796	2537.565612
350.820203	2538.105015
351.210548	2536.012936
351.600828	2537.081661
351.991045	2534.243491
352.381198	2537.447144
352.771288	2537.379089
353.161314	2533.840199
353.551276	2534.384643
353.941175	2532.784077
354.331010	2537.172402
354.720782	2536.791794
355.110490	2537.517721
355.500135	2535.385312
355.889717	2536.317926
356.279235	2536.728780
356.668689	2539.090561
357.058080	2536.842206
357.447408	2533.666279
357.836672	2536.837165
358.225873	2536.569984
358.615010	2532.799201
359.004084	2539.261960
359.393095	2541.424615
359.782043	2541.371683
360.170927	2539.763555
360.559748	2541.835469
360.948505	2542.085006
361.337199	2545.157589
361.725830	2541.820345
362.114398	2543.531817
362.502903	2541.898483
362.891344	2544.250182
363.279722	2541.858154
363.668037	2547.773948
364.056289	2545.094575
364.444478	2544.446787
364.832603	2544.540048
365.220665	2548.504915
365.608665	2545.127342
365.996601	2548.179761
366.384474	2548.303269
366.772284	2546.599359
367.160031	2545.097095
367.547715	2547.547096
367.935336	2548.570450
368.322893	2547.726057
368.710388	2549.334185
369.097820	2549.102292
369.485189	2550.660009
369.872495	2550.309648
370.259738	2550.299566
370.646918	2552.840308
371.034035	2549.838301
371.421090	2551.761501
371.808081	2551.564896
372.195010	2550.513815
372.581875	2552.822664
372.968678	2552.585729
373.355418	2552.096737
373.742096	2551.209494
374.128710	2551.958106
374.515262	2553.596481
374.901751	2553.178065
375.288177	2553.137736
375.674540	2554.299722
376.060841	2553.672098
376.447079	2553.777962
376.833254	2552.696635
377.219367	2552.565565
377.605417	2553.372149
377.991404	2550.728064
378.377329	2552.656306
378.763191	2551.728733
379.148991	2558.367933
379.534727	2559.144271
379.920402	2557.886503
380.306013	2558.607388
380.691563	2558.279713
381.077049	2557.480690
381.462474	2558.932542
381.847835	2560.991853
382.233134	2561.425393
382.618371	2558.398180
383.003545	2557.329455
383.388657	2558.614949
383.773706	2559.671071
384.158693	2558.861966
384.543618	2561.349775
384.928480	2561.969837
385.313280	2557.896585
385.698017	2560.339024
386.082692	2561.619477
386.467305	2562.400856
386.851856	2559.958417
387.236344	2561.319528
387.620770	2562.874724
388.005133	2563.769529
388.389435	2562.184086
388.773674	2563.590568
389.157851	2562.279868
389.541965	2563.393963
389.926018	2562.773901
390.310008	2563.426731
390.693936	2563.182235
391.077802	2564.742472
391.461606	2567.820096
391.845348	2564.250959
392.229027	2566.574931
392.612645	2565.276834
392.996200	2566.090981
393.379694	2568.578790
393.763125	2567.326063
394.146494	2565.491083
394.529801	2565.647359
394.913047	2568.591393
395.296230	2566.620302
395.679351	2567.104252
396.062410	2569.501321
396.445408	2567.464695
396.828343	2571.248081
397.211217	2565.377657
397.594028	2566.776577
397.976778	2565.735579
398.359466	2565.982596
398.742092	2566.232133
399.124656	2569.435786
399.507158	2570.365879
399.889598	2572.609192
400.271977	2569.874367
400.654294	2571.248081
401.036549	2571.812690
401.418742	2573.771178
401.800874	2572.377299
402.182944	2572.311764
402.564952	2570.469223
402.946898	2570.799418
403.328783	2568.311609
403.710606	2573.317475
404.092367	2569.667679
404.474067	2574.257650
404.855705	2573.219172
405.237282	2574.613051
405.618797	2572.248750
406.000250	2571.127093
406.381642	2574.136662
406.762972	2574.083730
407.144240	2571.653894
407.525447	2576.659760
407.906593	2572.926785
408.287677	2573.372927
408.668700	2574.497105
409.049661	2573.670355
409.430560	2575.147413
409.811399	2576.029615
410.192176	2576.901735
410.572891	2576.886612
410.953545	2577.451221
411.334138	2576.816035
411.714669	2575.936354
412.095139	2575.349060
412.475547	2577.761252
412.855894	2578.184709
413.236180	2579.429874
413.616405	2580.420460
413.996568	2574.706312
414.376670	2578.661098
414.756711	2577.826787
415.136691	2577.365521
415.516609	2576.460634
415.896466	2577.685634
416.276262	2577.720922
416.655997	2574.184553
417.035670	2575.187743
417.415283	2579.535738
417.794834	2576.206056
418.174324	2577.567167
418.553753	2576.926941
418.933121	2582.058835
419.312428	2580.062538
419.691674	2579.195460
420.070859	2580.155800
420.449983	2580.002045
420.829045	2582.096644
421.208047	2578.892991
421.586988	2580.725450
421.965867	2580.281829
422.344686	2582.688980
422.723444	2583.014134
423.102141	2581.269895
423.480777	2581.562282
423.859352	2583.704772
424.237866	2580.738053
424.616319	2580.105388
424.994712	2581.002714
425.373044	2581.653022
425.751314	2582.018506
426.129524	2580.904411
426.507673	2585.819536
426.885762	2583.205698
427.263789	2582.825091
427.641756	2586.031265
428.019662	2580.485995
428.397508	2583.014134
428.775292	2582.764597
429.153016	2581.990780
429.530679	2586.069073
429.908282	2585.116295
430.285824	2580.783423
430.663305	2582.905749
431.040726	2584.307190
431.418086	2581.897518
431.795385	2585.711151
432.172624	2585.678384
432.549802	2585.156624
432.926920	2581.342992
433.303977	2586.621080
433.680974	2585.418764
434.057910	2586.099320
434.434786	2588.408169
434.811601	2583.261151
435.188355	2586.195102
435.565050	2586.152252
435.941683	2586.822726
436.318257	2583.493044
436.694770	2584.108064
437.071222	2587.044537
437.447614	2584.385328
437.823946	2584.483630
438.200218	2585.413723
438.576429	2587.178127
438.952580	2588.156111
439.328670	2588.710638
439.704700	2587.679722
440.080670	2586.149732
440.456580	2586.061512
440.832429	2586.623600
441.208218	2584.798702
441.583947	2588.622418
441.959616	2588.037644
442.335224	2591.211050
442.710773	2588.962696
443.086261	2589.786924
443.461689	2587.871286
443.837057	2587.732654
444.212365	2588.272057
444.587612	2590.331369
444.962800	2589.935638
445.337927	2589.655854
445.712995	2589.776842
446.088002	2591.493355
446.462949	2586.800041
446.837837	2591.823550
447.212664	2593.257759
447.587431	2592.609970
447.962139	2595.359920
448.336786	2594.722214
448.711374	2595.758171
449.085901	2592.350351
449.460369	2594.702049
449.834776	2591.324476
450.209124	2597.341093
450.583412	2592.584765
450.957640	2593.933273
451.331808	2594.384457
451.705917	2596.549632
452.079965	2596.012749
452.453954	2593.519899
452.827883	2594.944025
453.201752	2595.866556
453.575562	2596.524426
453.949311	2597.257914
454.323001	2599.188676
454.696632	2597.320929
455.070202	2598.341762
455.443713	2596.980651
455.817164	2596.332862
456.190556	2600.002822
456.563888	2598.616505
456.937160	2595.138109
457.310373	2599.622215
457.683526	2600.363265
458.056619	2599.992740
458.429653	2600.857298
458.802628	2600.988368
459.175542	2600.789242
459.548398	2603.153544
459.921194	2602.331836
460.293930	2606.470623
460.666607	2606.425252
461.039224	2608.184615
461.411782	2609.064297
461.784280	2609.896087
462.156719	2606.508432
462.529099	2609.770058
462.901419	2607.345263
463.273680	2606.941971
463.645882	2604.002978
464.018024	2607.773761
464.390106	2606.631940
464.762130	2609.318875
465.134094	2614.266767
465.505999	2618.292129
465.877845	2623.131636
466.249631	2624.636421
466.621358	2624.344034
466.993026	2624.202882
467.364634	2623.234980
467.736184	2618.251799
468.107674	2618.650051
468.479105	2616.731892
468.850477	2619.544855
469.221790	2616.011007
469.593043	2613.306427
469.964238	2616.537807
470.335373	2613.442539
470.706449	2620.260699
471.077467	2621.031996
471.448425	2623.638272
471.819324	2627.459467
472.190164	2625.397635
472.560945	2621.533591
472.931667	2621.095010
473.302330	2620.638786
473.672934	2621.314300
474.043479	2621.158025
474.413965	2618.980246
474.784393	2615.786675
475.154761	2621.427726
475.525070	2618.093003
475.895321	2619.829681
476.265513	2618.211470
476.635645	2626.375619
477.005719	2622.556945
477.375734	2627.356123
477.745691	2628.873511
478.115588	2631.036166
478.485427	2632.921557
478.855207	2637.216620
479.224928	2644.289359
479.594591	2647.056953
479.964194	2645.264822
480.333739	2648.743218
480.703226	2648.377735
481.072653	2653.005514
481.442022	2654.595998
481.811333	2655.586585
482.180584	2654.028868
482.549777	2657.852583
482.918912	2656.630104
483.287988	2659.004487
483.657005	2659.964827
484.025964	2659.400218
484.394864	2659.289312
484.763706	2662.278717
485.132489	2657.671102
485.501213	2661.487255
485.869879	2665.850374
486.238487	2665.731907
486.607036	2667.939932
486.975527	2669.356497
487.343959	2671.090653
487.712333	2674.634585
488.080648	2673.714574
488.448905	2679.340502
488.817104	2680.573064
489.185244	2685.853672
489.553326	2691.154446
489.921350	2700.611650
490.289315	2709.121118
490.657222	2713.033053
491.025070	2721.134188
491.392861	2720.206615
491.760593	2719.717623
492.128267	2717.456666
492.495883	2717.154197
492.863440	2716.839125
493.230939	2713.532128
493.598380	2713.315358
493.965763	2716.297201
494.333088	2717.489433
494.700354	2715.170503
495.067563	2716.196377
495.434713	2718.316183
495.801805	2725.227605
496.168839	2730.508213
496.535815	2731.405539
496.902733	2732.254973
497.269593	2734.528533
497.636395	2736.613051
498.003139	2741.903742
498.369825	2742.188567
498.736453	2746.864237
499.103023	2749.934300
499.469535	2751.320617
499.835989	2755.792120
500.202385	2758.647934
500.568723	2762.060795
500.935003	2766.403749
501.301226	2767.772422
501.667390	2774.698968
502.033497	2778.943619
502.399546	2777.206942
502.765537	2778.275667
503.131470	2783.886471
503.497345	2788.549538
503.863163	2782.903446
504.228923	2788.075670
504.594625	2797.389201
504.960269	2793.691515
505.325856	2802.969759
505.691385	2802.256435
506.056856	2808.320943
506.422270	2812.326140
506.787625	2814.655153
507.152924	2819.073725
507.518164	2822.347954
507.883347	2820.026503
508.248472	2824.813078
508.613540	2831.497648
508.978550	2835.281034
509.343503	2840.433093
509.708398	2842.822600
510.073236	2848.440966
510.438016	2854.762573
510.802738	2851.828622
511.167403	2860.181814
511.532010	2862.896475
511.896561	2869.949049
512.261053	2880.842983
512.625488	2878.793754
512.989866	2879.290307
513.354186	2882.867006
513.718449	2885.029661
514.082655	2893.899571
514.446803	2897.826630
514.810894	2906.212589
515.174927	2906.976324
515.538904	2910.394227
515.902822	2921.830084
516.266684	2918.250865
516.630488	2926.162956
516.994235	2929.878286
517.357925	2937.981941
517.721558	2941.873712
518.085133	2951.971143
518.448651	2958.665795
518.812112	2958.585137
519.175516	2965.438585
519.538863	2971.495532
519.902152	2976.037611
520.265385	2986.785351
520.628560	2989.603356
520.991678	2994.626866
521.354739	3001.031652
521.717743	3009.160513
522.080690	3015.497243
522.443580	3029.504089
522.806413	3031.931405
523.169189	3038.005995
523.531908	3048.688200
523.894569	3054.646844
524.257174	3063.481466
524.619722	3072.043866
524.982213	3084.563571
525.344647	3088.538521
525.707025	3097.262238
526.069345	3108.982921
526.431608	3120.363325
526.793815	3131.458905
527.155964	3139.108856
527.518057	3149.077738
527.880093	3156.437822
528.242072	3174.366686
528.603995	3183.055115
528.965860	3190.463090
529.327669	3203.507076
529.689421	3216.001576
530.051117	3233.123855
530.412755	3243.483426
530.774337	3260.361209
531.135862	3273.221192
531.497331	3287.843059
531.858743	3299.727579
532.220098	3325.313956
532.581396	3333.755368
532.942638	3346.083509
533.303824	3371.279196
533.664953	3393.309039
534.026025	3406.327818
534.387040	3435.218671
534.747999	3456.383956
535.108902	3477.251812
535.469748	3492.738237
535.830537	3519.526928
536.191270	3546.522307
536.551947	3563.163156
536.912567	3592.968978
537.273131	3622.787403
537.633638	3638.178046
537.994089	3677.564581
538.354483	3696.269782
538.714821	3741.597317
539.075103	3779.292545
539.435328	3804.400011
539.795497	3831.831450
540.155609	3871.023901
540.515665	3915.945622
540.875665	3936.533695
541.235609	3977.757730
541.595496	4017.887836
541.955328	4079.011826
542.315102	4100.245166
542.674821	4130.418992
543.034483	4175.799459
543.394090	4212.478895
543.753640	4257.488837
544.113134	4342.848174
544.472571	4350.500646
544.831953	4445.881797
545.191278	4462.129436
545.550548	4499.766691
545.909761	4574.015325
546.268918	4635.010766
546.628019	4705.816292
546.987064	4739.670161
547.346053	4758.640023
547.704986	4853.025546
548.063863	4897.060025
548.422684	4961.896825
548.781449	5011.579917
549.140158	5095.948668
549.498811	5148.081760
549.857408	5178.888252
550.215949	5298.734123
550.574434	5355.563050
550.932864	5409.054733
551.291237	5523.816601
551.649555	5575.841308
552.007817	5664.532848
552.366022	5713.931115
552.724173	5797.901615
553.082267	5909.117030
553.440305	6004.485579
553.798288	6036.764087
554.156215	6139.505323
554.514086	6237.326393
554.871902	6299.559437
555.229661	6392.420011
555.587365	6463.603624
555.945014	6563.531896
556.302606	6648.573641
556.660143	6757.838130
557.017625	6858.343614
557.375050	6936.965450
557.732421	7061.237454
558.089735	7154.072822
558.446994	7253.859942
558.804197	7399.675317
559.161345	7495.217785
559.518437	7511.833428
559.875474	7648.678070
560.232455	7777.892926
560.589381	7904.062924
560.946251	7977.396589
561.303065	8167.518665
561.659825	8266.748738
562.016528	8330.766350
562.373177	8408.488340
562.729770	8587.323272
563.086307	8645.034402
563.442789	8831.799069
563.799216	8953.671484
564.155587	9047.073982
564.511904	9180.941823
564.868164	9312.226072
565.224370	9483.133790
565.580520	9570.870032
565.936615	9740.512420
566.292654	9831.779990
566.648638	10005.354479
567.004567	10144.828082
567.360441	10295.798037
567.716260	10413.728270
568.072023	10601.075191
568.427732	10751.956925
568.783385	10805.844339
569.138982	11030.367249
569.494525	11181.737976
569.850013	11288.297886
570.205445	11437.609301
570.560823	11587.679410
570.916145	11715.487783
571.271412	11884.399205
571.626625	11988.224289
571.981782	12160.848520
572.336884	12246.830440
572.691931	12493.983089
573.046923	12577.935945
573.401860	12699.145448
573.756743	12871.396634
574.111570	13065.113053
574.466342	13197.339997
574.821059	13396.049679
575.175722	13441.157924
575.530330	13624.701294
575.884882	13724.246439
576.239380	13888.706521
576.593823	14056.859249
576.948211	14203.372824
577.302544	14250.063991
577.656823	14438.025932
578.011047	14671.978321
578.365216	14778.205514
578.719330	14894.378905
579.073389	15037.194793
579.427394	15236.232150
579.781344	15416.619758
580.135239	15496.136398
580.489080	15710.987855
580.842866	15727.515277
581.196597	16060.498612
581.550273	16236.626446
581.903895	16386.724281
582.257463	16726.666929
582.610975	16710.230247
582.964434	16999.592477
583.317837	17072.948828
583.671186	17201.906584
584.024481	17473.652503
584.377721	17492.183784
584.730906	17796.795505
585.084037	18008.939862
585.437113	18085.940967
585.790135	18307.454308
586.143103	18341.713989
586.496016	18587.840764
586.848874	18790.643863
587.201679	18998.220934
587.554428	18974.900556
587.907124	19258.336911
588.259765	19348.795375
588.612352	19664.238016
588.964884	19590.443085
589.317362	19904.348173
589.669786	20073.715819
590.022155	20161.958697
590.374470	20544.115967
590.726731	20533.527023
591.078937	20501.898824
591.431090	20733.738969
591.783188	20754.410220
592.135232	20787.689397
592.487222	21110.111515
592.839157	21331.745844
593.191038	21349.407526
593.542866	21421.743043
593.894639	21323.548928
594.246358	21639.720014
594.598022	21809.150675
594.949633	21793.520577
595.301190	21951.331378
595.652692	22052.073796
596.004141	22395.797309
596.355535	22069.622053
596.706876	22205.869318
597.058162	22294.838121
597.409395	22727.790058
597.760573	22939.836112
598.111698	22898.624679
598.462768	23081.621084
598.813785	23271.715434
599.164748	23140.605105
599.515657	23526.379403
599.866511	23414.438061
600.217312	23943.988588
600.568060	23508.319469
600.918753	24125.331494
601.269392	24265.052114
601.619978	24227.432504
601.970510	24511.640155
602.320988	24795.867970
602.671412	25153.905840
603.021783	25164.020915
603.372100	25127.898527
603.722363	25335.190773
604.072572	25543.561827
604.422728	25736.194397
604.772830	25767.923420
605.122878	25996.741393
605.472872	26112.637520
605.822813	26433.781705
606.172701	26476.772665
606.522534	26809.713150
606.872314	27137.514179
607.222041	27124.016489
607.571714	27552.620431
607.921333	27326.718765
608.270899	27671.258945
608.620411	28077.805318
608.969870	28075.403208
609.319276	28242.497293
609.668627	28419.671166
610.017926	28904.945238
610.367171	29165.852676
610.716362	29365.285763
611.065500	29477.360695
611.414585	29746.926315
611.763616	30124.662493
612.112594	30206.175430
612.461518	30513.065753
612.810389	30876.714427
613.159207	30923.072878
613.507971	31119.670316
613.856682	31587.449064
614.205340	31650.491213
614.553945	32317.640034
614.902496	32027.352751
615.250994	32526.288350
615.599439	32707.263253
615.947830	32996.282685
616.296169	33174.464788
616.644454	33390.629465
616.992686	33658.402955
617.340864	34194.761559
617.688990	34074.398970
618.037063	34698.385431
618.385082	34770.179024
618.733048	35119.220954
619.080961	35250.671562
619.428821	35396.796968
619.776628	35588.766627
620.124382	35583.554073
620.472083	35814.123848
620.819731	36025.461620
621.167326	35888.536319
621.514868	35989.213203
621.862357	35754.943222
622.209793	35896.488740
622.557176	35714.661882
622.904506	35633.126260
623.251783	35453.434331
623.599007	35383.304319
623.946179	35314.452240
624.293297	35392.068365
624.640363	35004.799365
624.987376	35081.472794
625.334336	34984.647353
625.681243	34775.873007
626.028097	34846.436558
626.374899	34810.566228
626.721647	34888.845265
627.068343	34881.338987
627.414987	34767.464363
627.761577	34647.850385
628.108115	35033.564189
628.454600	34630.644927
628.801032	34882.725304
629.147412	34929.635761
629.493739	35000.620248
629.840014	34766.889671
630.186236	35134.987163
630.532405	34858.663877
630.878521	35121.146675
631.224585	35081.634111
631.570597	34905.052574
631.916556	35103.419458
632.262462	35114.111745
632.608316	35198.649374
632.954117	35178.613308
633.299866	35229.712964
633.645562	35218.360286
633.991206	34870.160228
634.336797	34542.868356
634.682336	34600.944969
635.027823	34474.157429
635.373257	34364.590471
635.718639	34227.355139
636.063968	34156.547093
636.409245	33691.636761
636.754470	33815.525638
637.099642	33653.981863
637.444762	33284.535862
637.789829	33461.359374
638.134845	33219.557909
638.479808	33219.232755
638.824719	33189.789896
639.169577	32896.755185
639.514383	32992.726151
639.859137	32761.443054
640.203839	33037.594941
640.548489	32742.531165
640.893086	32853.418906
641.237632	32682.455735
641.582125	32815.143945
641.926566	32803.834116
642.270955	32817.064625
642.615292	32878.062586
642.959576	32891.943403
643.303809	32940.900569
643.647990	33111.445324
643.992118	33131.229332
644.336195	33153.221366
644.680219	33278.801549
645.024192	33598.304839
645.368112	34132.725120
645.711981	34155.856454
646.055797	35011.181466
646.399562	34964.477696
646.743274	35886.439199
647.086935	36314.675136
647.430544	36225.923102
647.774101	36362.593824
648.117606	36617.285519
648.461059	36930.797398
648.804460	36592.132682
649.147810	36075.979022
649.491108	35852.434096
649.834354	35538.672681
650.177548	34793.958147
650.520690	34417.998975
650.863781	34472.740865
651.206820	34367.297570
651.549807	33978.100329
651.892742	33546.189391
652.235626	33404.606064
652.578458	33299.152688
652.921238	32762.335338
653.263967	33101.521813
653.606644	32834.469208
653.949269	32794.926397
654.291843	32413.726947
654.634365	32824.144925
654.976836	32484.361074
655.319255	32498.481346
655.661622	32530.197765
656.003938	32347.052646
656.346203	32245.387696
656.688416	32478.543582
657.030577	32307.595535
657.372687	32168.686540
657.714746	32451.545683
658.056753	32584.370004
658.398708	32096.345983
658.740612	32155.818995
659.082465	32435.567746
659.424266	32304.986737
659.766016	32449.395631
660.107715	32327.855932
660.449362	32466.396922
660.790958	32462.600933
661.132503	32489.858452
661.473996	32555.232135
661.815438	32681.260981
662.156829	32895.474732
662.498168	32678.725281
662.839456	32713.965467
663.180693	32886.816550
663.521879	33057.005904
663.863013	33042.109294
664.204097	33045.718760
664.545129	33504.229347
664.886110	33474.839420
665.227040	33582.112653
665.567918	33702.608833
665.908746	33771.798669
666.249522	33944.637149
666.590248	33959.710199
666.930922	34072.017025
667.271545	34058.655447
667.612118	34129.970129
667.952639	33920.540434
668.293109	34016.574415
668.633528	33899.697783
668.973896	33871.023700
669.314213	33919.186884
669.654480	33667.083822
669.994695	33706.122517
670.334859	33610.620378
670.674973	33518.750390
671.015035	33700.156311
671.355047	33653.024043
671.695008	33613.022488
672.034918	33517.742159
672.374777	33623.974394
672.714585	33467.585199
673.054342	33699.639593
673.394049	33457.397027
673.733705	33752.037346
674.073310	33429.138839
674.412864	33500.093080
674.752368	33138.153357
675.091820	33449.275728
675.431223	33028.233518
675.770574	32755.928031
676.109875	32643.217914
676.449125	32363.862373
676.788324	32298.120686
677.127473	31784.278395
677.466571	31716.858003
677.805619	31395.008057
678.144616	31409.118246
678.483562	31333.773161
678.822458	31011.552689
679.161303	30959.366665
679.500098	30870.725536
679.838842	30776.322369
680.177535	30928.597982
680.516179	31237.698851
680.854771	31485.804279
681.193314	32365.689792
681.531805	33492.813654
681.870247	34245.770474
682.208638	34938.944252
682.546978	35141.699459
682.885268	35214.236622
683.223508	34715.719439
683.561697	34389.660129
683.899836	34189.329716
684.237925	33694.522822
684.575963	33548.578897
684.913951	33097.254476
685.251889	33257.500154
685.589776	33263.874693
685.927614	33264.444343
686.265401	33404.701846
686.603137	33510.182949
686.940824	34016.987789
687.278460	34391.548041
687.616046	34501.780431
687.953582	35095.961071
688.291068	34978.242567
688.628504	35227.880505
688.965889	35152.394267
689.303224	34762.944968
689.640510	34429.218063
689.977745	33697.557597
690.314930	32896.271234
690.652065	32387.787689
690.989150	31669.924861
691.326185	30778.008635
691.663170	30097.034450
692.000105	29342.787093
692.336990	28682.940384
692.673825	28246.663807
693.010610	27731.886382
693.347345	27172.872832
693.684030	26510.177871
694.020665	26233.153864
694.357251	25567.335908
694.693786	25518.809761
695.030272	25302.365300
695.366707	24751.823409
695.703093	24476.601615
696.039429	24474.617921
696.375716	24212.160328
696.711952	24186.412635
697.048139	24016.220761
697.384276	23834.777031
697.720363	23975.636952
698.056400	23771.066928
698.392388	23553.082395
698.728326	23524.282283
699.064214	23315.707063
699.400053	23250.285489
699.735842	22900.777252
700.071581	22608.884362
700.407270	22328.202998
700.742910	22134.199233
701.078501	21873.601827
701.414042	21600.046134
701.749533	21297.987757
702.084974	20954.160900
702.420366	21164.200575
702.755709	20727.853422
703.091002	20426.946948
703.426246	20450.433684
703.761440	20350.051708
704.096584	20077.201777
704.431679	20049.359484
704.766725	19946.451890
705.101721	19892.670340
705.436668	19982.536469
705.771565	19666.957718
706.106413	20012.513691
706.441212	20014.835142
706.775961	20141.239554
707.110661	20210.726819
707.445311	20568.565563
707.779913	20402.835110
708.114465	20644.709671
708.448967	20933.119124
708.783421	21624.571347
709.117825	21906.480232
709.452180	22114.669803
709.786485	22515.277697
710.120742	23317.826868
710.454949	23314.076250
710.789107	23784.723414
711.123216	24493.693647
711.457275	24588.852988
711.791286	25122.191941
712.125247	25176.475086
712.459159	24864.316757
712.793023	25514.078638
713.126837	24408.225925
713.460602	24672.788199
713.794318	24295.755262
714.127985	23906.179934
714.461602	23012.166587
714.795171	22963.670687
715.128691	21954.280453
715.462162	21423.290677
715.795584	21002.840802
716.128957	20741.441852
716.462281	20343.934268
716.795556	20123.308170
717.128782	19615.522825
717.461960	19065.114525
717.795088	18996.559874
718.128167	18592.987782
718.461198	18130.421587
718.794180	17989.377665
719.127113	17627.342160
719.459997	17434.565916
719.792833	17087.651353
720.125619	17061.026499
720.458357	16733.769914
720.791046	16567.691622
721.123686	16414.115390
721.456278	16176.243505
721.788821	16136.809079
722.121315	15876.307454
722.453761	15952.585153
722.786158	15868.493665
723.118506	15876.768719
723.450805	15748.431025
723.783056	15911.600572
724.115259	15806.842874
724.447412	15737.668161
724.779518	15972.714480
725.111574	15992.027140
725.443582	16208.128803
725.775542	16190.545258
726.107453	16652.635064
726.439315	16545.175308
726.771129	16937.157787
727.102895	17301.527346
727.434612	17509.810179
727.766281	17632.514384
728.097901	17889.663642
728.429473	17907.600067
728.760996	17896.524652
729.092471	17971.642885
729.423897	17864.783027
729.755276	17733.924755
730.086606	17856.069392
730.417887	18386.668479
730.749120	18898.814421
731.080305	19065.830369
731.411442	19393.046624
731.742530	19461.928950
732.073570	19552.705007
732.404562	19830.984261
732.735506	19637.598038
733.066401	19330.780812
733.397249	18802.394792
733.728048	18167.335437
734.058798	17347.157350
734.389501	16662.515725
734.720156	16210.828341
735.050762	15688.292580
735.381320	15334.690926
735.711831	15107.176091
736.042293	14757.246917
736.372707	14766.336118
736.703073	14563.175097
737.033391	14760.571558
737.363661	14721.908429
737.693883	14824.137988
738.024056	15003.230019
738.354182	15177.139745
738.684260	15460.959227
739.014290	15680.259501
739.344272	15856.173085
739.674207	16121.083199
740.004093	16236.205509
740.333931	16230.355250
740.663722	16270.518123
740.993464	16244.346973
741.323159	16069.091259
741.652806	15792.886440
741.982405	15581.641929
742.311956	15248.348563
742.641460	15127.096210
742.970915	14827.286188
743.300323	14485.155680
743.629683	14279.920224
743.958996	14004.794212
744.288260	13739.223707
744.617477	13454.592599
744.946647	13372.862892
745.275768	13103.564454
745.604842	12917.059405
745.933869	12745.869382
746.262847	12699.137886
746.591778	12624.884211
746.920662	12527.211855
747.249498	12530.455838
747.578286	12645.192499
747.907027	12791.847226
748.235720	13013.416020
748.564365	13034.722457
748.892963	12924.497628
749.221514	12993.952125
749.550017	12842.467972
749.878473	12798.935088
750.206881	12574.560893
750.535242	12481.425575
750.863555	12405.926735
751.191821	12299.666773
751.520039	12316.942807
751.848210	12229.017523
752.176334	12255.370154
752.504411	12164.616782
752.832440	12003.970333
753.160421	12063.077862
753.488356	11947.554780
753.816243	11856.052797
754.144082	11708.596526
754.471875	11655.172898
754.799620	11597.555030
755.127318	11564.951368
755.454969	11530.573219
755.782572	11475.526340
756.110129	11498.541728
756.437638	11407.632080
756.765100	11404.577140
757.092515	11410.573593
757.419882	11427.748804
757.747203	11427.272415
758.074477	11496.351346
758.401703	11447.920981
758.728882	11613.845519
759.056014	11650.494707
759.383099	11767.091555
759.710138	11868.043181
760.037129	11950.221550
760.364073	11960.613889
760.690970	11945.795417
761.017820	11953.906634
761.344623	12141.132567
761.671379	12498.240344
761.998088	13158.996981
762.324751	14787.118274
762.651366	17732.825784
762.977935	21315.644398
763.304456	23396.748652
763.630931	23723.954825
763.957359	22503.851922
764.283740	20590.209757
764.610074	18722.994099
764.936362	16624.006351
765.262602	15127.955727
765.588796	13687.012476
765.914943	12679.520236
766.241044	11842.124088
766.567097	11213.119158
766.893104	10679.303816
767.219064	10329.722482
767.544978	9964.009456
767.870845	9647.651846
768.196665	9467.942273
768.522438	9268.095811
768.848165	9107.162016
769.173846	8941.769320
769.499479	8823.420672
769.825066	8664.727669
770.150607	8478.247827
770.476101	8413.201818
770.801548	8312.424112
771.126949	8169.414139
771.452303	8085.796520
771.777611	7917.656395
772.102872	7899.346925
772.428087	7782.616487
772.753256	7654.825757
773.078378	7570.194867
773.403453	7426.458968
773.728482	7321.587844
774.053465	7264.390913
774.378401	7175.225504
774.703291	7079.975422
775.028135	6983.268448
775.352932	6944.380987
775.677683	6863.367124
776.002388	6777.042406
776.327046	6775.812364
776.651658	6693.271032
776.976224	6616.663137
777.300743	6598.152020
777.625216	6535.417381
777.949643	6497.863306
778.274024	6497.777606
778.598359	6428.668428
778.922647	6429.613644
779.246889	6398.885291
779.571086	6396.775568
779.895236	6409.519605
780.219339	6408.183699
780.543397	6402.028450
780.867409	6454.428724
781.191374	6455.537778
781.515294	6417.008239
781.839167	6461.009950
782.162995	6432.655981
782.486776	6385.523713
782.810511	6344.463515
783.134201	6274.318379
783.457844	6263.953767
783.781441	6216.461057
784.104993	6167.967677
784.428498	6140.382483
784.751958	6125.112828
785.075372	6100.275063
785.398739	6062.431122
785.722061	6084.413073
786.045337	6086.726962
786.368568	6199.363983
786.691752	6227.803653
787.014891	6479.440409
787.337983	6761.535816
787.661030	7201.142076
787.984031	7616.117258
788.306987	7860.542643
788.629897	7933.291534
788.952760	7837.050866
789.275579	7661.873290
789.598351	7365.289607
789.921078	7106.116326
790.243759	6826.453275
790.566395	6624.456761
790.888984	6434.354849
791.211529	6294.336801
791.534027	6139.023892
791.856480	6008.609243
792.178888	5945.849398
792.501249	5881.574686
792.823566	5773.313387
793.145836	5773.152070
793.468062	5756.145737
793.790241	5718.175767
794.112375	5761.174288
794.434464	5854.309606
794.756507	5892.103136
795.078505	6011.971692
795.400457	6228.884980
795.722364	6464.722760
796.044226	6650.280072
796.366042	6806.205481
796.687812	6743.364977
797.009538	6768.240551
797.331218	6682.331728
797.652852	6607.722651
797.974442	6490.699826
798.295986	6415.778197
798.617484	6292.897552
798.938938	6181.719945
799.260346	6117.770388
799.581709	5980.842567
799.903026	5930.483961
800.224299	5852.898083
800.545526	5741.148305
800.866708	5676.755126
801.187845	5630.968846
801.508936	5553.211569
801.829983	5522.752917
802.150984	5420.873718
802.471940	5393.512856
802.792851	5377.146750
803.113717	5356.732597
803.434538	5330.342157
803.755314	5297.680521
804.076045	5285.783398
804.396731	5252.552112
804.717372	5271.958034
805.037967	5272.618425
805.358518	5299.122291
805.679024	5355.167319
805.999485	5367.051839
806.319901	5380.312595
806.640272	5395.917486
806.960598	5443.064878
807.280879	5430.477117
807.601115	5472.517819
807.921306	5433.327889
808.241453	5427.031488
808.561554	5433.443836
808.881611	5403.789248
809.201623	5400.230193
809.521590	5348.003840
809.841513	5333.981870
810.161390	5354.060786
810.481223	5266.518629
810.801011	5251.115383
811.120755	5227.454728
811.440453	5178.817675
811.760107	5150.690558
812.079716	5122.369355
812.399281	5070.921860
812.718801	5063.118153
813.038276	5027.792268
813.357707	4993.754397
813.677093	5017.835989
813.996434	4959.010765
814.315731	4980.246625
814.634983	4980.972552
814.954191	4984.614785
815.273354	5045.264907
815.592473	5084.709415
815.911547	5159.321013
816.230577	5210.251790
816.549562	5298.966016
816.868502	5344.270865
817.187399	5402.889402
817.506250	5484.422504
817.825058	5516.196897
818.143821	5669.465617
818.462539	5837.797306
818.781213	6071.727009
819.099843	6443.449091
819.418429	7072.552323
819.736970	7692.052158
820.055466	8390.859425
820.373919	9321.988266
820.692327	10824.549541
821.010691	13651.227846
821.329011	20062.529499
821.647286	29535.205415
821.965517	39454.005803
822.283704	44321.655737
822.601847	45363.352206
822.919945	40723.922868
823.237999	35746.781594
823.556010	30723.057537
823.873976	26187.725506
824.191897	22145.985451
824.509775	19187.768319
824.827609	16527.768204
825.145398	15061.117589
825.463144	14386.626328
825.780845	14761.763791
826.098502	16084.113898
826.416116	18509.534001
826.733685	20640.452417
827.051210	20979.364149
827.368692	19460.272931
827.686129	16945.183304
828.003522	14551.824939
828.320872	12413.241449
828.638177	10834.336941
828.955439	9629.672571
829.272656	8594.587575
829.589830	7782.142618
829.906960	7070.293887
830.224046	6552.630401
830.541088	6163.725546
830.858086	5910.773049
831.175041	5721.371858
831.491952	5670.758673
831.808819	5718.752979
832.125642	5984.252908
832.442421	6555.534106
832.759157	7698.051131
833.075849	9461.570255
833.392497	11235.607746
833.709101	12248.751119
834.025662	11902.126422
834.342179	10829.812505
834.658653	9564.003980
834.975083	8499.135848
835.291469	7628.654607
835.607811	6914.481903
835.924110	6406.772176
836.240366	5929.112767
836.556578	5489.002392
836.872746	5145.772912
837.188871	4882.647366
837.504952	4670.729862
837.820990	4509.181045
838.136984	4392.848859
838.452935	4358.589177
838.768842	4397.678284
839.084706	4708.719997
839.400526	5465.898784
839.716303	6338.116702
840.032037	6848.835998
840.347727	6651.598333
840.663373	6046.979985
840.978977	5495.812991
841.294537	5074.488476
841.610054	4752.346142
841.925527	4521.315103
842.240957	4319.573167
842.556344	4140.670179
842.871687	3983.623113
843.186987	3843.574818
843.502244	3724.159966
843.817458	3640.499497
844.132629	3576.237388
844.447756	3529.505892
844.762840	3482.590394
845.077881	3444.161678
845.392879	3411.416863
845.707833	3386.286711
846.022745	3360.612115
846.337613	3350.219776
846.652438	3324.083914
846.967221	3315.597132
847.281960	3295.215747
847.596656	3285.849283
847.911309	3275.265380
848.225919	3260.260386
848.540485	3254.684870
848.855009	3244.458889
849.169490	3230.494893
849.483928	3227.253431
849.798323	3222.595405
850.112675	3212.830690
850.426984	3213.402861
850.741251	3205.969679
851.055474	3202.256870
851.369654	3202.463557
851.683792	3202.519010
851.997887	3203.141592
852.311938	3202.881973
852.625947	3203.338197
852.939914	3195.232022
853.253837	3204.664021
853.567718	3199.559852
853.881555	3193.896116
854.195350	3203.199565
854.509103	3195.625232
854.822812	3193.482741
855.136479	3189.376722
855.450103	3194.932073
855.763685	3187.788758
856.077224	3190.216074
856.390720	3195.388297
856.704173	3206.466233
857.017584	3211.335988
857.330953	3216.152810
857.644278	3225.844428
857.957561	3227.303842
858.270802	3226.283009
858.584000	3225.791496
858.897155	3217.982749
859.210268	3205.851212
859.523339	3199.310315
859.836367	3194.669933
860.149352	3190.654654
860.462295	3185.568130
860.775195	3177.096471
861.088054	3176.831810
861.400869	3172.637570
861.713642	3169.388547
862.026373	3181.205011
862.339062	3186.626772
862.651708	3192.988708
862.964312	3209.473281
863.276873	3217.176164
863.589392	3245.575505
863.901869	3271.797066
864.214303	3293.773977
864.526696	3310.198056
864.839045	3328.772187
865.151353	3338.572190
865.463619	3339.504804
865.775842	3339.708970
866.088023	3343.615865
866.400162	3337.974813
866.712258	3340.210565
867.024313	3340.437417
867.336325	3338.549505
867.648296	3341.317098
867.960224	3335.393743
868.272110	3339.497242
868.583954	3339.068744
868.895755	3347.132069
869.207515	3341.231399
869.519233	3363.223433
869.830909	3371.722818
870.142542	3383.178840
870.454134	3386.604304
870.765684	3397.732651
871.077191	3417.531783
871.388657	3430.227929
871.700081	3447.080506
872.011463	3468.810400
872.322803	3484.992504
872.634101	3502.923888
872.945357	3525.175541
873.256571	3550.109088
873.567744	3564.425965
873.878874	3568.242118
874.189963	3585.460179
874.501010	3586.995211
874.812015	3581.081937
875.122979	3597.649689
875.433900	3598.738578
875.744780	3599.371243
876.055618	3607.227882
876.366415	3606.449023
876.677169	3610.302985
876.987882	3626.490130
877.298554	3650.516270
877.609183	3684.213863
877.919771	3733.818816
878.230317	3803.190134
878.540822	3908.144437
878.851285	4061.390473
879.161707	4285.845327
879.472087	4666.139891
879.782425	5316.960414
880.092722	6517.884248
880.402977	8443.973022
880.713191	10746.807387
881.023363	12991.499604
881.333494	14182.777190
881.643583	14546.456110
881.953631	14110.219862
882.263637	13288.867187
882.573602	12292.581432
882.883526	11379.068902
883.193408	10466.310025
883.503248	9593.877858
883.813048	8793.330024
884.122806	8050.074904
884.432522	7315.543501
884.742197	6677.872827
885.051831	6141.191589
885.361424	5665.120143
885.670975	5291.757166
885.980485	4983.548581
886.289954	4722.620979
886.599382	4512.669524
886.908768	4341.514789
887.218113	4179.643339
887.527417	4053.264133
887.836680	3937.148716
888.145901	3838.027028
888.455082	3762.903753
888.764221	3697.512426
889.073319	3643.088129
889.382376	3609.829117
889.691392	3587.300200
890.000366	3579.355342
890.309300	3574.669589
890.618193	3579.677976
890.927044	3574.374682
891.235855	3580.010692
891.544625	3598.357971
891.853353	3627.362250
892.162041	3687.417516
892.470687	3779.821866
892.779293	3902.213519
893.087858	4074.210127
893.396381	4355.851831
893.704864	4773.894554
894.013306	5334.997663
894.321707	5875.111927
894.630068	6198.436411
894.938387	6206.938317
895.246665	6018.850347
895.554903	5709.066402
895.863100	5383.571701
896.171256	5125.320951
896.479371	4897.710334
896.787446	4679.871994
897.095480	4491.307634
897.403473	4350.122559
897.711425	4207.271383
898.019336	4092.617900
898.327207	3972.724138
898.635038	3874.741752
898.942827	3770.072274
899.250576	3684.612114
899.558284	3604.936677
899.865952	3556.433215
900.173579	3494.343844
900.481165	3446.702420
900.788711	3410.194383
901.096216	3375.871688
901.403681	3350.655836
901.711105	3338.582273
902.018489	3335.786953
902.325832	3378.823283
902.633135	3437.018363
902.940397	3614.996300
903.247619	4035.063047
903.554800	4793.507163
903.861941	5719.730962
904.169041	6362.609148
904.476101	6506.382856
904.783121	6229.691565
905.090100	5838.833263
905.397039	5438.437098
905.703938	5098.953196
906.010796	4792.443480
906.317614	4550.556316
906.624391	4318.207014
906.931129	4138.394098
907.237826	3962.304073
907.544483	3795.913229
907.851099	3629.509782
908.157675	3478.867502
908.464211	3340.467664
908.770707	3243.032242
909.077163	3167.903927
909.383578	3108.604834
909.689954	3068.363823
909.996289	3041.597817
910.302584	3021.097965
910.608839	3007.015502
910.915054	2996.865138
911.221229	2993.081753
911.527363	2999.710870
911.833458	3006.609689
912.139513	3020.671988
912.445527	3032.236394
912.751502	3064.540108
913.057436	3110.061728
913.363331	3168.105573
913.669186	3255.456166
913.975000	3375.571739
914.280775	3560.405645
914.586510	3828.897498
914.892205	4202.104200
915.197859	4688.421791
915.503475	5249.436679
915.809050	5715.367844
916.114585	5974.931814
916.420081	6015.213154
916.725536	5950.910716
917.030952	5710.283840
917.336328	5515.095404
917.641665	5311.437830
917.946961	5093.468420
918.252218	4898.922732
918.557435	4683.393240
918.862612	4494.879292
919.167750	4330.194878
919.472848	4143.044562
919.777906	3982.985407
920.082925	3830.868590
920.387904	3681.426104
920.692843	3576.877615
920.997743	3482.174499
921.302603	3394.183679
921.607423	3331.219667
921.912204	3267.123917
922.216946	3219.147256
922.521647	3171.551202
922.826310	3133.644245
923.130932	3098.459512
923.435516	3059.814027
923.740059	3036.163453
924.044564	3002.491066
924.349028	2981.905514
924.653454	2952.518108
924.957840	2927.143460
925.262186	2907.271232
925.566493	2883.512274
925.870761	2859.508820
926.174989	2848.662777
926.479178	2835.099553
926.783328	2818.761173
927.087438	2808.739359
927.391509	2796.940539
927.695541	2783.324382
927.999533	2775.298865
928.303486	2766.527257
928.607400	2762.970723
928.911275	2755.532501
929.215110	2750.277098
929.518906	2746.581932
929.822663	2748.686614
930.126381	2747.534710
930.430060	2750.035123
930.733699	2751.935638
931.037299	2756.167686
931.340861	2756.107192
931.644383	2759.807399
931.947866	2754.017634
932.251309	2755.562748
932.554714	2753.889085
932.858080	2751.381111
933.161407	2749.407499
933.464694	2744.469689
933.767943	2742.238978
934.071153	2738.155644
934.374323	2733.366547
934.677455	2730.467884
934.980548	2728.816906
935.283602	2726.898747
935.586617	2724.481514
935.889593	2727.367574
936.192530	2729.784808
936.495428	2735.178842
936.798287	2742.634709
937.101108	2755.771956
937.403890	2777.784154
937.706632	2803.287351
938.009336	2837.058041
938.312002	2863.856815
938.614628	2883.739126
938.917216	2906.300810
939.219765	2913.585277
939.522275	2923.339910
939.824747	2920.889909
940.127179	2916.189033
940.429573	2910.134607
940.731929	2910.137128
941.034246	2897.067936
941.336524	2898.653379
941.638763	2892.959396
941.940964	2886.453787
942.243126	2868.156919
942.545250	2861.573172
942.847335	2844.806294
943.149381	2831.091835
943.451389	2820.936431
943.753359	2807.489153
944.055290	2798.170580
944.357182	2790.271092
944.659036	2785.073662
944.960851	2784.572068
945.262628	2778.245420
945.564367	2780.466048
945.866067	2779.256171
946.167729	2779.659463
946.469352	2775.044287
946.770937	2773.327774
947.072484	2765.907196
947.373992	2766.539860
947.675462	2764.931732
947.976893	2760.392173
948.278286	2755.552666
948.579641	2751.086203
948.880958	2749.654516
949.182236	2748.210225
949.483476	2745.722416
949.784678	2747.693507
950.085841	2745.790471
950.386967	2749.745256
950.688054	2756.036616
950.989103	2763.111876
951.290114	2771.608741
951.591087	2784.972839
951.892021	2795.710497
952.192917	2808.497384
952.493776	2817.231183
952.794596	2820.195381
953.095378	2822.932728
953.396122	2821.160762
953.696828	2815.403765
953.997496	2808.376396
954.298126	2801.890952
954.598718	2793.394087
954.899272	2781.978394
955.199788	2773.398350
955.500266	2761.619694
955.800706	2748.202663
956.101108	2733.358986
956.401472	2720.685525
956.701798	2711.314020
957.002087	2695.177287
957.302337	2685.800740
957.602550	2677.331602
957.902724	2666.644356
958.202861	2659.803510
958.502960	2650.449649
958.803022	2646.119298
959.103045	2637.471198
959.403031	2631.200003
959.702979	2625.445526
960.002889	2626.725979
960.302762	2617.954371
960.602596	2613.563526
960.902393	2612.827518
961.202153	2606.437855
961.501875	2605.719491
961.801559	2603.433328
962.101205	2602.404932
962.400814	2602.480550
962.700385	2596.438727
962.999918	2596.335383
963.299414	2594.941504
963.598873	2595.911926
963.898293	2590.230546
964.197677	2593.446802
964.497022	2590.371698
964.796331	2589.176945
965.095601	2588.609815
965.394835	2587.415061
965.694030	2589.534867
965.993189	2588.327510
966.292309	2581.635378
966.591393	2585.852304
966.890439	2584.803744
967.189447	2585.411203
967.488419	2585.537232
967.787353	2586.003538
968.086249	2585.512026
968.385108	2587.001687
968.683930	2587.644434
968.982714	2587.999835
969.281462	2587.470514
969.580172	2592.277254
969.878844	2593.585434
970.177480	2597.028542
970.476078	2599.223964
970.774639	2602.553646
971.073162	2604.421394
971.371649	2603.075406
971.670098	2605.885849
971.968510	2606.949532
972.266885	2606.689913
972.565223	2611.484050
972.863524	2611.012702
973.161788	2612.827518
973.460014	2616.177365
973.758204	2615.769031
974.056356	2616.532766
974.354471	2615.486727
974.652550	2616.011007
974.950591	2614.526387
975.248595	2613.946654
975.546563	2614.753239
975.844493	2612.709051
976.142386	2610.768207
976.440243	2608.993720
976.738062	2605.646394
977.035845	2606.730242
977.333590	2604.204624
977.631299	2600.143975
977.928971	2598.210692
978.226606	2600.534664
978.524204	2596.342945
978.821765	2595.624580
979.119290	2595.440578
979.416777	2594.767584
979.714228	2594.361771
980.011642	2596.647935
980.309020	2598.722369
980.606360	2601.855447
980.903664	2612.003289
981.200931	2625.120372
981.498162	2643.364307
981.795356	2671.420849
982.092513	2707.394523
982.389633	2746.418095
982.686717	2785.623148
982.983764	2813.173054
983.280775	2829.786177
983.577749	2830.386074
983.874686	2822.617656
984.171587	2806.130562
984.468451	2790.949127
984.765279	2774.600665
985.062070	2758.554673
985.358824	2739.352918
985.655543	2714.099257
985.952224	2699.111907
986.248869	2673.074347
986.545478	2648.871768
986.842050	2629.740589
987.138586	2613.271139
987.435086	2601.089191
987.731549	2588.347675
988.027975	2587.488158
988.324366	2582.227714
988.620719	2578.371231
988.917037	2573.924934
989.213318	2569.017370
989.509563	2569.440827
989.805772	2566.474108
990.101944	2566.494273
990.398080	2567.925961
990.694180	2564.003943
990.990244	2566.844633
991.286271	2563.038562
991.582262	2566.968141
991.878217	2561.022100
992.174136	2565.662482
992.470019	2566.217009
992.765865	2572.175653
993.061676	2571.144737
993.357450	2575.470047
993.653188	2578.272929
993.948890	2581.421129
994.244556	2589.877665
994.540186	2599.095415
994.835780	2607.120932
995.131337	2623.068622
995.426859	2637.791312
995.722345	2654.104486
996.017795	2672.686179
996.313208	2684.283353
996.608586	2693.727955
996.903928	2696.757688
997.199234	2692.480269
997.494504	2689.357274
997.789738	2685.788137
998.084936	2674.619461
998.380099	2666.089829
998.675225	2653.272695
998.970316	2641.186529
999.265371	2629.377626
999.560390	2617.661984
999.855373	2606.037084
1000.150320	2596.050558
1000.445232	2589.532346
1000.740108	2583.233424
1001.034948	2575.926272
1001.329752	2572.319326
1001.624521	2570.469223
1001.919254	2560.810372
1002.213951	2563.003274
1002.508613	2556.684187
1002.803239	2558.443550
1003.097829	2552.028682
1003.392384	2556.197716
1003.686903	2556.101934
1003.981386	2554.660164
1004.275834	2553.984650
1004.570246	2549.407282
1004.864623	2552.263096
1005.158964	2552.936090
1005.453270	2554.256872
1005.747540	2550.569268
1006.041775	2547.703372
1006.335974	2550.407951
1006.630138	2548.711603
1006.924266	2548.812426
1007.218359	2545.936447
1007.512416	2547.355532
1007.806438	2548.724206
1008.100425	2546.332178
1008.394376	2549.868547
1008.688292	2547.410985
1008.982172	2544.832435
1009.276017	2547.247147
1009.569827	2545.702034
1009.863602	2545.094575
1010.157341	2544.671118
1010.451045	2543.791437
1010.744714	2544.209852
1011.038347	2545.878474
1011.331945	2539.534182
1011.625508	2544.668597
1011.919036	2545.303783
1012.212528	2543.998124
1012.505986	2540.544933
1012.799408	2541.691796
1013.092795	2543.183978
1013.386147	2541.659028
1013.679464	2542.279090
1013.972745	2544.678680
1014.265992	2544.419060
1014.559204	2542.705068
1014.852380	2544.882846
1015.145521	2544.393854
1015.438628	2541.903524
1015.731699	2543.090716
1016.024736	2541.946374
1016.317737	2542.263967
1016.610703	2545.772610
1016.903635	2540.907897
1017.196531	2540.290355
1017.489393	2540.330684
1017.782219	2541.827907
1018.075011	2544.063659
1018.367768	2544.673638
1018.660490	2546.601880
1018.953177	2546.601880
1019.245829	2546.601880
