Dividing Wavelength (nm)	Counts (n)	Blue Motor Position (mm): 4.400000	Red Motor Position (mm): 0.000000	
326.493990	2143.034829
326.888308	2143.034829
327.282561	2143.034829
327.676750	2112.122474
328.070874	2107.698861
328.464933	2113.012238
328.858929	2118.804523
329.252859	2127.561008
329.646726	2139.871505
330.040528	2154.914308
330.434265	2168.366627
330.827938	2189.237004
331.221547	2202.969107
331.615091	2225.238404
332.008571	2244.251116
332.401986	2263.687285
332.795338	2281.865686
333.188625	2303.305713
333.581847	2321.963023
333.975006	2339.012206
334.368100	2355.670698
334.761129	2377.768596
335.154095	2390.638662
335.546996	2412.434091
335.939833	2422.823909
336.332606	2439.404264
336.725315	2450.406582
337.117960	2463.369909
337.510540	2469.986424
337.903056	2481.366828
338.295508	2486.060143
338.687896	2494.095742
339.080220	2503.953718
339.472480	2511.475120
339.864676	2515.422343
340.256807	2519.530884
340.648875	2522.679084
341.040879	2525.454239
341.432818	2527.311905
341.824694	2528.115969
342.216506	2527.770650
342.608253	2528.693181
342.999937	2529.199817
343.391557	2529.288037
343.783113	2527.866432
344.174605	2527.180835
344.566033	2527.662265
344.957397	2524.602284
345.348697	2521.325534
345.739934	2522.023734
346.131106	2515.825636
346.522215	2518.144566
346.913260	2513.100892
347.304241	2510.940757
347.695159	2512.352281
348.086012	2509.872033
348.476802	2507.427073
348.867528	2503.739469
349.258191	2505.193842
349.648789	2504.304078
350.039324	2500.707215
350.429796	2503.011022
350.820203	2498.983141
351.210548	2496.389467
351.600828	2495.729076
351.991045	2496.061792
352.381198	2493.692450
352.771288	2496.553304
353.161314	2494.859477
353.551276	2496.618839
353.941175	2494.400732
354.331010	2494.814106
354.720782	2495.335866
355.110490	2493.616832
355.500135	2495.154384
355.889717	2492.618684
356.279235	2494.367964
356.668689	2493.523571
357.058080	2494.413335
357.447408	2495.756802
357.836672	2492.739672
358.225873	2495.509786
358.615010	2492.343941
359.004084	2499.308295
359.393095	2500.172853
359.782043	2500.046824
360.170927	2497.783346
360.559748	2499.663696
360.948505	2499.958604
361.337199	2501.770899
361.725830	2499.734273
362.114398	2502.622854
362.502903	2500.346773
362.891344	2505.367762
363.279722	2504.387257
363.668037	2503.575632
364.056289	2501.125631
364.444478	2505.897083
364.832603	2504.762823
365.220665	2505.793739
365.608665	2503.799963
365.996601	2507.129645
366.384474	2504.750221
366.772284	2507.366579
367.160031	2504.667042
367.547715	2507.298524
367.935336	2505.846672
368.322893	2506.754079
368.710388	2508.762979
369.097820	2511.568381
369.485189	2506.539830
369.872495	2506.849861
370.259738	2508.871364
370.646918	2509.065448
371.034035	2507.084275
371.421090	2512.826149
371.808081	2509.027640
372.195010	2509.146107
372.581875	2513.053001
372.968678	2510.330778
373.355418	2510.885305
373.742096	2514.013341
374.128710	2513.393279
374.515262	2513.405882
374.901751	2512.410254
375.288177	2513.219359
375.674540	2511.691889
376.060841	2512.659791
376.447079	2511.228103
376.833254	2515.298835
377.219367	2509.408247
377.605417	2512.243896
377.991404	2508.102588
378.377329	2510.693741
378.763191	2509.793895
379.148991	2512.390089
379.534727	2514.328413
379.920402	2515.528208
380.306013	2515.346726
380.691563	2513.816736
381.077049	2513.821777
381.462474	2516.289422
381.847835	2515.112312
382.233134	2516.541479
382.618371	2517.005266
383.003545	2516.423012
383.388657	2517.864782
383.773706	2519.752694
384.158693	2517.280008
384.543618	2522.011131
384.928480	2517.436284
385.313280	2515.341685
385.698017	2517.844618
386.082692	2519.369567
386.467305	2519.283867
386.851856	2517.753877
387.236344	2519.704803
387.620770	2520.448374
388.005133	2518.847807
388.389435	2521.617921
388.773674	2518.487365
389.157851	2518.739423
389.541965	2518.507529
389.926018	2518.560462
390.310008	2518.978877
390.693936	2520.902078
391.077802	2519.684639
391.461606	2519.997190
391.845348	2519.651871
392.229027	2521.489372
392.612645	2522.048940
392.996200	2519.636748
393.379694	2522.298477
393.763125	2520.302180
394.146494	2521.547345
394.529801	2523.160514
394.913047	2523.364681
395.296230	2523.510875
395.679351	2523.538601
396.062410	2521.685977
396.445408	2523.818385
396.828343	2525.560104
397.211217	2520.435771
397.594028	2521.139012
397.976778	2521.166738
398.359466	2522.479959
398.742092	2519.515760
399.124656	2525.683612
399.507158	2524.201513
399.889598	2526.268386
400.271977	2523.818385
400.654294	2527.503468
401.036549	2527.049765
401.418742	2528.456247
401.800874	2523.594054
402.182944	2526.507841
402.564952	2527.014477
402.946898	2527.780732
403.328783	2524.254445
403.710606	2528.347862
404.092367	2527.841226
404.474067	2527.563962
404.855705	2526.369209
405.237282	2526.036493
405.618797	2526.192768
406.000250	2530.676875
406.381642	2527.526154
406.762972	2528.594878
407.144240	2526.530526
407.525447	2530.407173
407.906593	2528.010104
408.287677	2530.223171
408.668700	2528.436082
409.049661	2526.217974
409.430560	2528.804086
409.811399	2528.310053
410.192176	2529.295599
410.572891	2527.682429
410.953545	2527.125382
411.334138	2531.216278
411.714669	2530.669313
412.095139	2528.993129
412.475547	2529.575383
412.855894	2529.003212
413.236180	2532.900024
413.616405	2530.402132
413.996568	2530.981865
414.376670	2531.085208
414.756711	2529.840043
415.136691	2532.955476
415.516609	2529.698891
415.896466	2530.439941
416.276262	2532.695857
416.655997	2530.384488
417.035670	2531.228881
417.415283	2530.192924
417.794834	2526.921215
418.174324	2533.078985
418.553753	2531.735517
418.933121	2533.207534
419.312428	2534.525796
419.691674	2532.282482
420.070859	2531.377595
420.449983	2533.958666
420.829045	2534.185518
421.208047	2531.251566
421.586988	2532.680733
421.965867	2533.038655
422.344686	2533.520086
422.723444	2535.655014
423.102141	2534.210724
423.480777	2530.858356
423.859352	2534.369520
424.237866	2532.428676
424.616319	2535.647452
424.994712	2536.058307
425.373044	2535.002185
425.751314	2531.065044
426.129524	2533.250384
426.507673	2533.900693
426.885762	2536.476722
427.263789	2536.264994
427.641756	2535.574356
428.019662	2534.341794
428.397508	2535.604603
428.775292	2536.217103
429.153016	2536.464119
429.530679	2536.819521
429.908282	2535.521424
430.285824	2537.124511
430.663305	2535.675179
431.040726	2537.595858
431.418086	2534.674510
431.795385	2537.066537
432.172624	2535.372710
432.549802	2539.876981
432.926920	2538.266332
433.303977	2539.728267
433.680974	2537.033770
434.057910	2538.508307
434.434786	2537.510159
434.811601	2538.651980
435.188355	2539.866898
435.565050	2539.435880
435.941683	2537.923533
436.318257	2534.982020
436.694770	2533.119314
437.071222	2538.823379
437.447614	2535.206352
437.823946	2539.934954
438.200218	2538.150385
438.576429	2537.984027
438.952580	2538.190715
439.328670	2541.076775
439.704700	2538.926723
440.080670	2541.008720
440.456580	2538.210879
440.832429	2539.047711
441.208218	2542.652136
441.583947	2538.634336
441.959616	2540.187012
442.335224	2537.157278
442.710773	2540.852444
443.086261	2538.916641
443.461689	2541.041487
443.837057	2538.967052
444.212365	2542.362269
444.587612	2539.677855
444.962800	2541.432177
445.337927	2540.446631
445.712995	2541.515356
446.088002	2541.860675
446.462949	2540.486960
446.837837	2537.424459
447.212664	2544.199770
447.587431	2541.827907
447.962139	2540.771785
448.336786	2541.623740
448.711374	2541.354039
449.085901	2541.386806
449.460369	2539.113246
449.834776	2542.803370
450.209124	2541.875798
450.583412	2542.823535
450.957640	2541.225489
451.331808	2540.398740
451.705917	2541.858154
452.079965	2542.405119
452.453954	2543.768751
452.827883	2543.602393
453.201752	2541.054090
453.575562	2538.735159
453.949311	2542.765562
454.323001	2544.194729
454.696632	2541.033925
455.070202	2542.987373
455.443713	2543.428473
455.817164	2539.042670
456.190556	2538.044521
456.563888	2540.146682
456.937160	2537.137113
457.310373	2542.687424
457.683526	2543.337733
458.056619	2542.619368
458.429653	2543.095757
458.802628	2542.773123
459.175542	2542.546272
459.548398	2542.621889
459.921194	2547.993238
460.293930	2542.006868
460.666607	2545.507949
461.039224	2543.075593
461.411782	2545.576005
461.784280	2543.607434
462.156719	2544.124153
462.529099	2546.468289
462.901419	2547.789072
463.273680	2545.132383
463.645882	2544.819832
464.018024	2543.937630
464.390106	2542.014430
464.762130	2545.223124
465.134094	2544.471992
465.505999	2547.673125
465.877845	2547.531973
466.249631	2543.350336
466.621358	2545.505429
466.993026	2547.380738
467.364634	2548.809905
467.736184	2549.402241
468.107674	2545.427291
468.479105	2544.678680
468.850477	2544.787064
469.221790	2545.568443
469.593043	2546.831252
469.964238	2545.323947
470.335373	2544.310675
470.706449	2545.056766
471.077467	2546.884184
471.448425	2546.412837
471.819324	2547.002652
472.190164	2545.021478
472.560945	2545.069369
472.931667	2547.642878
473.302330	2549.553475
473.672934	2547.579864
474.043479	2545.868392
474.413965	2546.934596
474.784393	2539.939995
475.154761	2544.325799
475.525070	2540.912938
475.895321	2542.773123
476.265513	2540.870088
476.635645	2546.798485
477.005719	2545.276056
477.375734	2547.511808
477.745691	2545.717157
478.115588	2546.702703
478.485427	2547.922662
478.855207	2547.663043
479.224928	2546.314534
479.594591	2548.177240
479.964194	2545.802857
480.333739	2548.472148
480.703226	2544.524924
481.072653	2549.382076
481.442022	2545.419729
481.811333	2548.273022
482.180584	2550.153373
482.549777	2546.359904
482.918912	2546.722867
483.287988	2548.923331
483.657005	2547.378218
484.025964	2547.501726
484.394864	2548.391489
484.763706	2549.601366
485.132489	2547.947868
485.501213	2547.055584
485.869879	2547.146324
486.238487	2547.602549
486.607036	2547.736139
486.975527	2548.595656
487.343959	2549.341747
487.712333	2550.297046
488.080648	2548.394010
488.448905	2547.915100
488.817104	2547.852086
489.185244	2547.748742
489.553326	2548.598177
489.921350	2548.315872
490.289315	2549.190512
490.657222	2550.866696
491.025070	2550.760832
491.392861	2550.566747
491.760593	2550.914587
492.128267	2547.842004
492.495883	2547.519370
492.863440	2548.278063
493.230939	2549.419885
493.598380	2546.160779
493.965763	2543.741025
494.333088	2546.279246
494.700354	2543.594832
495.067563	2549.077086
495.434713	2542.788247
495.801805	2552.084135
496.168839	2548.192364
496.535815	2548.998948
496.902733	2551.201933
497.269593	2548.570450
497.636395	2546.737991
498.003139	2547.375697
498.369825	2549.568599
498.736453	2549.245965
499.103023	2547.809236
499.469535	2549.064483
499.835989	2546.995090
500.202385	2549.845862
500.568723	2546.223793
500.935003	2548.651109
501.301226	2549.432488
501.667390	2546.208670
502.033497	2550.218908
502.399546	2549.452652
502.765537	2545.087013
503.131470	2549.858465
503.497345	2551.411141
503.863163	2551.267468
504.228923	2550.019782
504.594625	2548.232693
504.960269	2554.040102
505.325856	2551.096068
505.691385	2550.120605
506.056856	2545.167672
506.422270	2547.345450
506.787625	2549.959288
507.152924	2550.581871
507.518164	2548.963660
507.883347	2551.688404
508.248472	2553.727551
508.613540	2551.718651
508.978550	2550.160934
509.343503	2548.414175
509.708398	2551.302756
510.073236	2550.077755
510.438016	2549.276212
510.802738	2551.799309
511.167403	2548.083979
511.532010	2548.567930
511.896561	2550.450801
512.261053	2550.985163
512.625488	2546.299411
512.989866	2544.109029
513.354186	2548.572971
513.718449	2546.511139
514.082655	2552.074052
514.446803	2547.935265
514.810894	2552.583209
515.174927	2553.571275
515.538904	2548.152035
515.902822	2550.082797
516.266684	2550.702858
516.630488	2549.510626
516.994235	2550.037426
517.357925	2552.023641
517.721558	2552.444577
518.085133	2553.659495
518.448651	2551.464073
518.812112	2548.235214
519.175516	2551.199412
519.538863	2551.401058
519.902152	2549.843342
520.265385	2549.490461
520.628560	2552.048847
520.991678	2549.351829
521.354739	2551.239741
521.717743	2547.763866
522.080690	2551.433826
522.443580	2551.925338
522.806413	2553.790565
523.169189	2552.189999
523.531908	2549.084648
523.894569	2550.672612
524.257174	2554.014897
524.619722	2549.374514
524.982213	2554.811399
525.344647	2550.445760
525.707025	2550.128167
526.069345	2550.801161
526.431608	2551.857283
526.793815	2551.569937
527.155964	2552.764690
527.518057	2552.328631
527.880093	2552.310987
528.242072	2552.668908
528.603995	2553.029351
528.965860	2550.705379
529.327669	2551.529608
529.689421	2551.695966
530.051117	2553.077242
530.412755	2550.929710
530.774337	2550.569268
531.135862	2552.189999
531.497331	2549.833259
531.858743	2548.396531
532.220098	2547.678166
532.581396	2548.583053
532.942638	2550.849052
533.303824	2548.948537
533.664953	2551.320400
534.026025	2553.704866
534.387040	2551.453990
534.747999	2551.257385
535.108902	2549.974412
535.469748	2549.384597
535.830537	2551.806871
536.191270	2551.106151
536.551947	2551.237221
536.912567	2552.202602
537.273131	2553.616645
537.633638	2551.582540
537.994089	2552.187478
538.354483	2553.515822
538.714821	2551.748898
539.075103	2550.289484
539.435328	2553.200750
539.795497	2553.157900
540.155609	2550.511295
540.515665	2550.057591
540.875665	2548.875440
541.235609	2551.121274
541.595496	2552.336192
541.955328	2552.525236
542.315102	2551.015410
542.674821	2553.593960
543.034483	2555.436502
543.394090	2550.372663
543.753640	2552.376522
544.113134	2551.496840
544.472571	2552.832746
544.831953	2555.161759
545.191278	2552.174875
545.550548	2552.162272
545.909761	2553.510781
546.268918	2553.656975
546.628019	2552.437015
546.987064	2553.241079
547.346053	2553.810730
547.704986	2551.159083
548.063863	2552.265616
548.422684	2553.543549
548.781449	2553.372149
549.140158	2551.292673
549.498811	2553.228477
549.857408	2552.603373
550.215949	2552.043805
550.574434	2548.613300
550.932864	2549.853424
551.291237	2549.026675
551.649555	2550.866696
552.007817	2552.313507
552.366022	2552.719320
552.724173	2551.784186
553.082267	2552.379042
553.440305	2555.325597
553.798288	2553.306614
554.156215	2555.426420
554.514086	2554.566903
554.871902	2552.822664
555.229661	2553.256203
555.587365	2552.091696
555.945014	2554.592109
556.302606	2555.063457
556.660143	2554.014897
557.017625	2552.497509
557.375050	2554.224104
557.732421	2550.559186
558.089735	2553.026830
558.446994	2554.249310
558.804197	2554.899619
559.161345	2553.084804
559.518437	2553.581357
559.875474	2553.813250
560.232455	2552.394166
560.589381	2551.378373
560.946251	2555.416337
561.303065	2550.586912
561.659825	2552.643703
562.016528	2551.017931
562.373177	2550.992725
562.729770	2554.574465
563.086307	2553.014228
563.442789	2551.217056
563.799216	2553.299053
564.155587	2551.380894
564.511904	2552.263096
564.868164	2551.436346
565.224370	2552.661347
565.580520	2551.854762
565.936615	2551.690925
566.292654	2550.939793
566.648638	2552.805020
567.004567	2551.527087
567.360441	2554.824002
567.716260	2552.857952
568.072023	2554.493806
568.427732	2552.250493
568.783385	2551.292673
569.138982	2548.709082
569.494525	2550.470965
569.850013	2548.567930
570.205445	2554.924825
570.560823	2552.552962
570.916145	2553.132695
571.271412	2556.013714
571.626625	2555.234856
571.981782	2554.282078
572.336884	2553.372149
572.691931	2552.454659
573.046923	2553.878785
573.401860	2551.242262
573.756743	2552.626059
574.111570	2555.071018
574.466342	2555.353323
574.821059	2553.326779
575.175722	2554.813919
575.530330	2553.094886
575.884882	2551.133877
576.239380	2551.683363
576.593823	2556.159907
576.948211	2554.939948
577.302544	2551.801830
577.656823	2555.822150
578.011047	2553.425082
578.365216	2552.830225
578.719330	2553.220915
579.073389	2550.123126
579.427394	2550.869217
579.781344	2550.879299
580.135239	2551.630431
580.489080	2555.055895
580.842866	2553.636810
581.196597	2557.823488
581.550273	2552.547921
581.903895	2553.029351
582.257463	2553.881306
582.610975	2550.596994
582.964434	2553.414999
583.317837	2551.761501
583.671186	2552.799978
584.024481	2553.591440
584.377721	2554.977757
584.730906	2553.117571
585.084037	2556.109496
585.437113	2554.947510
585.790135	2551.648075
586.143103	2552.129505
586.496016	2556.369115
586.848874	2552.850390
587.201679	2550.355019
587.554428	2548.431819
587.907124	2551.539690
588.259765	2548.648588
588.612352	2555.396173
588.964884	2554.506409
589.317362	2555.197047
589.669786	2553.316697
590.022155	2555.512119
590.374470	2552.290822
590.726731	2552.782334
591.078937	2551.990873
591.431090	2552.220246
591.783188	2553.374670
592.135232	2554.982798
592.487222	2554.045143
592.839157	2554.219063
593.191038	2553.803168
593.542866	2553.588919
593.894639	2553.236038
594.246358	2552.331151
594.598022	2553.956923
594.949633	2553.223435
595.301190	2551.607746
595.652692	2553.036913
596.004141	2554.123281
596.355535	2554.022458
596.706876	2552.752087
597.058162	2553.036913
597.409395	2552.636141
597.760573	2554.834084
598.111698	2552.414330
598.462768	2554.589588
598.813785	2555.328117
599.164748	2552.497509
599.515657	2551.275029
599.866511	2553.009186
600.217312	2552.482386
600.568060	2555.928014
600.918753	2553.520863
601.269392	2554.481203
601.619978	2554.140925
601.970510	2552.895760
602.320988	2550.717982
602.671412	2555.312994
603.021783	2553.916594
603.372100	2553.447767
603.722363	2551.179248
604.072572	2553.490617
604.422728	2554.677808
604.772830	2550.619679
605.122878	2551.514484
605.472872	2550.284443
605.822813	2547.710934
606.172701	2549.429967
606.522534	2554.760987
606.872314	2552.575647
607.222041	2553.069680
607.571714	2551.262427
607.921333	2552.754608
608.270899	2552.200081
608.620411	2556.427089
608.969870	2555.978426
609.319276	2554.647561
609.668627	2559.262738
610.017926	2556.482541
610.367171	2559.688715
610.716362	2560.076884
611.065500	2558.191493
611.414585	2557.710062
611.763616	2556.003632
612.112594	2554.549259
612.461518	2554.755946
612.810389	2556.858107
613.159207	2554.849208
613.507971	2554.458518
613.856682	2556.316183
614.205340	2552.341233
614.553945	2557.241235
614.902496	2553.198230
615.250994	2553.727551
615.599439	2553.911553
615.947830	2554.002294
616.296169	2554.481203
616.644454	2554.259392
616.992686	2554.193857
617.340864	2552.837787
617.688990	2553.833415
618.037063	2554.024979
618.385082	2552.777293
618.733048	2554.690411
619.080961	2554.410627
619.428821	2553.858621
619.776628	2553.039433
620.124382	2554.488765
620.472083	2552.671429
620.819731	2556.422048
621.167326	2551.181768
621.514868	2553.069680
621.862357	2551.920297
622.209793	2553.102448
622.557176	2554.037582
622.904506	2552.094217
623.251783	2551.461552
623.599007	2551.955585
623.946179	2548.451983
624.293297	2550.531459
624.640363	2553.541028
624.987376	2553.031872
625.334336	2550.297046
625.681243	2553.498178
626.028097	2553.530946
626.374899	2551.277550
626.721647	2554.768549
627.068343	2554.531615
627.414987	2553.346944
627.761577	2553.906512
628.108115	2552.016079
628.454600	2554.755946
628.801032	2552.104299
629.147412	2552.668908
629.493739	2550.944834
629.840014	2554.176213
630.186236	2555.547407
630.532405	2550.624721
630.878521	2552.852911
631.224585	2552.089176
631.570597	2550.382745
631.916556	2552.358877
632.262462	2552.968857
632.608316	2554.849207
632.954117	2553.846018
633.299866	2552.676470
633.645562	2555.486913
633.991206	2550.549103
634.336797	2551.645554
634.682336	2554.224104
635.027823	2552.303425
635.373257	2552.794937
635.718639	2554.014897
636.063968	2552.898281
636.409245	2550.912066
636.754470	2552.379042
637.099642	2552.724361
637.444762	2553.611604
637.789829	2553.848538
638.134845	2549.021634
638.479808	2553.694783
638.824719	2552.936090
639.169577	2553.052036
639.514383	2553.898950
639.859137	2553.795606
640.203839	2554.524053
640.548489	2553.495658
640.893086	2549.578681
641.237632	2550.690256
641.582125	2551.489278
641.926566	2546.536345
642.270955	2552.752088
642.615292	2552.633620
642.959576	2552.900802
643.303809	2551.179248
643.647990	2553.147818
643.992118	2552.621017
644.336195	2552.137067
644.680219	2554.007335
645.024192	2555.403734
645.368112	2553.120092
645.711981	2554.138405
646.055797	2552.615976
646.399562	2551.176727
646.743274	2552.434495
647.086935	2555.474311
647.430544	2551.411141
647.774101	2555.043292
648.117606	2551.716130
648.461059	2554.007335
648.804460	2552.963816
649.147810	2554.569423
649.491108	2553.281409
649.834354	2552.038764
650.177548	2553.969526
650.520690	2553.074721
650.863781	2551.983312
651.206820	2554.695452
651.549807	2552.137067
651.892742	2552.815102
652.235626	2552.454659
652.578458	2550.818805
652.921238	2551.212015
653.263967	2554.604712
653.606644	2550.092879
653.949269	2552.535318
654.291843	2553.672098
654.634365	2551.287632
654.976836	2552.358878
655.319255	2553.200750
655.661622	2550.009700
656.003938	2552.255534
656.346203	2550.589432
656.688416	2553.762839
657.030577	2548.762014
657.372687	2551.794268
657.714746	2554.014897
658.056753	2551.771583
658.398708	2548.726726
658.740612	2550.682694
659.082465	2547.925183
659.424266	2549.714792
659.766016	2547.650440
660.107715	2552.484906
660.449362	2550.370142
660.790958	2552.520194
661.132503	2548.797302
661.473996	2553.155380
661.815438	2551.217056
662.156829	2551.620348
662.498168	2553.672098
662.839456	2550.307128
663.180693	2550.745708
663.521879	2552.000956
663.863013	2551.025492
664.204097	2552.394166
664.545129	2551.509443
664.886110	2553.031872
665.227040	2550.218908
665.567918	2550.591953
665.908746	2554.798796
666.249522	2552.295863
666.590248	2552.709238
666.930922	2552.220246
667.271545	2551.995914
667.612118	2553.472973
667.952639	2553.843497
668.293109	2553.430123
668.633528	2548.527601
668.973896	2551.103630
669.314213	2551.491799
669.654480	2553.016748
669.994695	2553.543549
670.334859	2553.185627
670.674973	2552.646223
671.015035	2551.653116
671.355047	2550.231511
671.695008	2552.104299
672.034918	2549.984494
672.374777	2551.448949
672.714585	2551.421223
673.054342	2552.079093
673.394049	2551.597663
673.733705	2552.250493
674.073310	2553.223435
674.412864	2555.418858
674.752368	2550.846531
675.091820	2557.011862
675.431223	2550.158414
675.770574	2551.043136
676.109875	2548.620862
676.449125	2549.384597
676.788324	2551.214536
677.127473	2548.693959
677.466571	2548.822508
677.805619	2552.255534
678.144616	2552.217725
678.483562	2551.196892
678.822458	2552.275698
679.161303	2553.145297
679.500098	2551.726213
679.838842	2551.239741
680.177535	2550.216387
680.516179	2555.605381
680.854771	2549.177909
681.193314	2551.758980
681.531805	2553.596481
681.870247	2549.346788
682.208638	2552.540359
682.546978	2550.907025
682.885268	2552.142108
683.223508	2551.101110
683.561697	2552.106820
683.899836	2553.316697
684.237925	2550.344937
684.575963	2554.763508
684.913951	2550.528939
685.251889	2551.093548
685.589776	2551.166645
685.927614	2553.777962
686.265401	2548.696479
686.603137	2551.580019
686.940824	2553.581357
687.278460	2553.150339
687.616046	2552.063970
687.953582	2549.566078
688.291068	2551.675801
688.628504	2550.339895
688.965889	2552.343754
689.303224	2547.418547
689.640510	2550.677653
689.977745	2550.029864
690.314930	2552.782334
690.652065	2552.207643
690.989150	2551.645554
691.326185	2553.480534
691.663170	2552.457180
692.000105	2554.297201
692.336990	2552.391645
692.673825	2553.452808
693.010610	2552.631100
693.347345	2548.245296
693.684030	2548.310831
694.020665	2549.145142
694.357251	2548.630944
694.693786	2549.838301
695.030272	2551.539690
695.366707	2551.149001
695.703093	2551.073383
696.039429	2553.798127
696.375716	2552.225287
696.711952	2550.730585
697.048139	2551.721172
697.384276	2551.302756
697.720363	2550.057591
698.056400	2552.580688
698.392388	2548.668753
698.728326	2554.813919
699.064214	2552.081614
699.400053	2552.699155
699.735842	2550.259237
700.071581	2554.340051
700.407270	2549.374514
700.742910	2553.488096
701.078501	2550.536500
701.414042	2551.602704
701.749533	2551.239741
702.084974	2550.491130
702.420366	2551.953065
702.755709	2552.454659
703.091002	2552.104299
703.426246	2551.872406
703.761440	2550.009700
704.096584	2552.870555
704.431679	2550.249155
704.766725	2553.586398
705.101721	2552.016079
705.436668	2552.353836
705.771565	2549.984494
706.106413	2551.975750
706.441212	2552.442057
706.775961	2553.165462
707.110661	2549.263609
707.445311	2549.835780
707.779913	2552.076573
708.114465	2551.834597
708.448967	2549.687066
708.783421	2550.415513
709.117825	2551.101110
709.452180	2551.428785
709.786485	2551.088507
710.120742	2553.152859
710.454949	2555.446584
710.789107	2549.669422
711.123216	2546.246478
711.457275	2549.855945
711.791286	2546.372507
712.125247	2551.063301
712.459159	2550.468445
712.793023	2550.856614
713.126837	2550.907025
713.460602	2553.001625
713.794318	2549.818136
714.127985	2550.970040
714.461602	2550.828887
714.795171	2550.521377
715.128691	2549.619010
715.462162	2550.334854
715.795584	2552.192519
716.128957	2550.362581
716.462281	2551.537169
716.795556	2552.313507
717.128782	2554.314845
717.461960	2551.721172
717.795088	2553.440205
718.128167	2549.843342
718.461198	2554.967675
718.794180	2552.789896
719.127113	2551.615307
719.459997	2549.848383
719.792833	2550.397869
720.125619	2551.718651
720.458357	2551.010369
720.791046	2552.903322
721.123686	2552.295863
721.456278	2552.752088
721.788821	2552.099258
722.121315	2551.637992
722.453761	2548.409133
722.786158	2551.806871
723.118506	2551.950544
723.450805	2548.840152
723.783056	2552.021120
724.115259	2549.301418
724.447412	2551.166645
724.779518	2551.229659
725.111574	2550.362581
725.443582	2551.015410
725.775542	2552.699155
726.107453	2549.276212
726.439315	2550.165976
726.771129	2555.237376
727.102895	2547.932744
727.434612	2550.357539
727.766281	2549.213198
728.097901	2549.003990
728.429473	2546.218752
728.760996	2551.592622
729.092471	2545.190357
729.423897	2552.459701
729.755276	2550.599515
730.086606	2552.709238
730.417887	2549.160265
730.749120	2551.370811
731.080305	2549.651778
731.411442	2550.085317
731.742530	2548.865358
732.073570	2551.761501
732.404562	2550.130687
732.735506	2549.745039
733.066401	2547.640358
733.397249	2549.833259
733.728048	2548.083979
734.058798	2553.427602
734.389501	2548.693959
734.720156	2549.251006
735.050762	2551.917777
735.381320	2549.808054
735.711831	2549.639175
736.042293	2552.361398
736.372707	2547.388300
736.703073	2550.309648
737.033391	2549.891233
737.363661	2549.818136
737.693883	2552.817622
738.024056	2554.181255
738.354182	2547.912580
738.684260	2549.258568
739.014290	2549.548434
739.344272	2548.356201
739.674207	2548.368804
740.004093	2551.048177
740.333931	2550.181099
740.663722	2551.539690
740.993464	2550.256716
741.323159	2551.842159
741.652806	2550.682694
741.982405	2551.511964
742.311956	2548.361243
742.641460	2552.164793
742.970915	2549.639175
743.300323	2549.508105
743.629683	2551.060780
743.958996	2550.707900
744.288260	2550.415513
744.617477	2553.233518
744.946647	2545.271015
745.275768	2550.274360
745.604842	2546.795964
745.933869	2545.651622
746.262847	2547.214380
746.591778	2549.084648
746.920662	2549.833259
747.249498	2552.510112
747.578286	2551.272509
747.907027	2550.118085
748.235720	2552.386604
748.564365	2549.293856
748.892963	2550.828887
749.221514	2550.123126
749.550017	2550.004659
749.878473	2550.516336
750.206881	2549.601366
750.535242	2552.101779
750.863555	2550.002138
751.191821	2550.319731
751.520039	2548.928372
751.848210	2549.634134
752.176334	2550.952396
752.504411	2553.445246
752.832440	2549.679504
753.160421	2549.243444
753.488356	2549.855945
753.816243	2550.894422
754.144082	2551.698486
754.471875	2550.811243
754.799620	2551.479196
755.127318	2549.016593
755.454969	2549.671943
755.782572	2550.584391
756.110129	2551.307797
756.437638	2549.331665
756.765100	2550.385266
757.092515	2550.894422
757.419882	2551.199412
757.747203	2549.064483
758.074477	2551.695966
758.401703	2548.910728
758.728882	2550.110523
759.056014	2547.920142
759.383099	2548.648588
759.710138	2551.156562
760.037129	2550.319731
760.364073	2547.970553
760.690970	2548.555327
761.017820	2552.109340
761.344623	2548.802343
761.671379	2547.620193
761.998088	2545.308824
762.324751	2543.216745
762.651366	2547.209339
762.977935	2548.134391
763.304456	2543.778834
763.630931	2551.224618
763.957359	2548.744370
764.283740	2548.237734
764.610074	2549.011551
764.936362	2551.020451
765.262602	2548.308310
765.588796	2548.560368
765.914943	2548.840152
766.241044	2551.781665
766.567097	2549.220759
766.893104	2549.621531
767.219064	2549.790410
767.544978	2550.518856
767.870845	2549.029195
768.196665	2552.109340
768.522438	2550.869217
768.848165	2548.320913
769.173846	2549.316541
769.499479	2550.153373
769.825066	2545.936448
770.150607	2549.440049
770.476101	2547.257230
770.801548	2550.176058
771.126949	2549.593805
771.452303	2552.056408
771.777611	2547.234545
772.102872	2550.226469
772.428087	2546.312013
772.753256	2549.712272
773.078378	2549.122457
773.403453	2551.973229
773.728482	2548.368804
774.053465	2548.404092
774.378401	2550.254196
774.703291	2549.359391
775.028135	2546.450645
775.352932	2547.839483
775.677683	2551.824515
776.002388	2550.634803
776.327046	2546.700182
776.651658	2550.541542
776.976224	2549.361912
777.300743	2550.438198
777.625216	2549.717313
777.949643	2548.666232
778.274024	2551.113712
778.598359	2546.175902
778.922647	2546.405275
779.246889	2547.509288
779.571086	2544.797147
779.895236	2547.816798
780.219339	2550.425595
780.543397	2550.092879
780.867409	2548.426777
781.191374	2549.152704
781.515294	2549.815615
781.839167	2550.695297
782.162995	2549.535831
782.486776	2551.146480
782.810511	2549.089689
783.134201	2548.152035
783.457844	2549.981973
783.781441	2547.710934
784.104993	2550.312169
784.428498	2551.637992
784.751958	2545.840666
785.075372	2550.062632
785.398739	2549.447611
785.722061	2547.857127
786.045337	2550.665050
786.368568	2552.280740
786.691752	2549.112374
787.014891	2549.976932
787.337983	2548.880481
787.661030	2548.114226
787.984031	2549.321582
788.306987	2549.334185
788.629897	2548.464586
788.952760	2548.333516
789.275579	2547.925183
789.598351	2550.667570
789.921078	2546.309493
790.243759	2548.986346
790.566395	2550.309648
790.888984	2548.285625
791.211529	2548.134391
791.534027	2550.730585
791.856480	2547.526932
792.178888	2549.061963
792.501249	2549.636654
792.823566	2550.102961
793.145836	2546.561551
793.468062	2549.422405
793.790241	2546.180943
794.112375	2548.320913
794.434464	2546.163299
794.756507	2550.738147
795.078505	2549.447611
795.400457	2546.942158
795.722364	2545.286139
796.044226	2549.538352
796.366042	2546.803526
796.687812	2548.696479
797.009538	2548.406613
797.331218	2548.759494
797.652852	2547.385779
797.974442	2548.167158
798.295986	2548.116747
798.617484	2551.053219
798.938938	2547.554658
799.260346	2548.328475
799.581709	2551.161603
799.903026	2549.916438
800.224299	2549.956768
800.545526	2548.522559
800.866708	2548.303269
801.187845	2546.745553
801.508936	2549.419885
801.829983	2548.625903
802.150984	2547.257230
802.471940	2551.834597
802.792851	2550.599515
803.113717	2550.733105
803.434538	2549.072045
803.755314	2548.603218
804.076045	2549.142621
804.396731	2550.864175
804.717372	2547.315203
805.037967	2548.537683
805.358518	2547.831921
805.679024	2546.909390
805.999485	2547.998279
806.319901	2548.086500
806.640272	2548.809905
806.960598	2547.317724
807.280879	2544.507280
807.601115	2550.760832
807.921306	2550.954916
808.241453	2548.414175
808.561554	2546.160779
808.881611	2549.629093
809.201623	2548.497354
809.521590	2549.230842
809.841513	2547.484082
810.161390	2548.068856
810.481223	2548.590615
810.801011	2545.979297
811.120755	2546.758156
811.440453	2549.102292
811.760107	2550.841490
812.079716	2546.271684
812.399281	2543.476364
812.718801	2544.000644
813.038276	2544.149358
813.357707	2549.092210
813.677093	2547.642878
813.996434	2550.823846
814.315731	2547.153886
814.634983	2549.815615
814.954191	2549.424926
815.273354	2548.399051
815.592473	2546.758156
815.911547	2549.629093
816.230577	2548.875440
816.549562	2547.562220
816.868502	2546.546427
817.187399	2548.222611
817.506250	2547.405944
817.825058	2547.705892
818.143821	2546.911911
818.462539	2546.022147
818.781213	2548.099103
819.099843	2545.639019
819.418429	2549.462735
819.736970	2546.599359
820.055466	2544.487116
820.373919	2544.522404
820.692327	2551.789227
821.010691	2548.525080
821.329011	2548.467107
821.647286	2551.338044
821.965517	2548.023485
822.283704	2549.906356
822.601847	2549.107333
822.919945	2546.884184
823.237999	2549.137580
823.556010	2546.339740
823.873976	2549.177909
824.191897	2549.445091
824.509775	2547.799154
824.827609	2546.659853
825.145398	2548.953578
825.463144	2547.378217
825.780845	2550.838970
826.098502	2547.962991
826.416116	2549.586243
826.733685	2550.407951
827.051210	2548.865358
827.368692	2547.239586
827.686129	2548.517518
828.003522	2547.809236
828.320872	2544.368649
828.638177	2544.348484
828.955439	2546.410316
829.272656	2543.390665
829.589830	2541.858154
829.906960	2546.266643
830.224046	2546.692621
830.541088	2549.588763
830.858086	2547.511808
831.175041	2547.239586
831.491952	2547.297559
831.808819	2546.309493
832.125642	2548.149514
832.442421	2548.426778
832.759157	2547.068187
833.075849	2548.799823
833.392497	2548.000800
833.709101	2548.613300
834.025662	2545.717157
834.342179	2547.040460
834.658653	2549.185471
834.975083	2548.875440
835.291469	2550.579350
835.607811	2546.044832
835.924110	2546.884184
836.240366	2546.433001
836.556578	2545.787733
836.872746	2549.283774
837.188871	2547.577343
837.504952	2543.914945
837.820990	2548.091541
838.136984	2545.754966
838.452935	2547.085831
838.768842	2548.643547
839.084706	2545.049204
839.400526	2548.832590
839.716303	2542.785726
840.032037	2545.606252
840.347727	2548.578012
840.663373	2548.114226
840.978977	2544.146838
841.294537	2546.682538
841.610054	2549.298897
841.925527	2546.773279
842.240957	2547.733619
842.556344	2550.556665
842.871687	2548.630944
843.186987	2549.782848
843.502244	2543.105840
843.817458	2547.542055
844.132629	2544.124153
844.447756	2547.005172
844.762840	2543.667928
845.077881	2544.464431
845.392879	2543.735984
845.707833	2545.573484
846.022745	2545.495347
846.337613	2547.660522
846.652438	2546.599359
846.967221	2548.819987
847.281960	2546.667415
847.596656	2547.355532
847.911309	2546.521221
848.225919	2545.374359
848.540485	2548.081458
848.855009	2546.196067
849.169490	2547.181613
849.483928	2547.912580
849.798323	2548.124308
850.112675	2546.758156
850.426984	2547.053063
850.741251	2546.453166
851.055474	2546.102806
851.369654	2545.719678
851.683792	2545.765048
851.997887	2546.743032
852.311938	2549.258568
852.625947	2547.133722
852.939914	2549.823177
853.253837	2546.012065
853.567718	2545.538196
853.881555	2547.302600
854.195350	2546.049873
854.509103	2547.950388
854.822812	2546.695141
855.136479	2547.277394
855.450103	2544.335881
855.763685	2546.788402
856.077224	2547.342929
856.390720	2544.766900
856.704173	2545.618855
857.017584	2548.842673
857.330953	2547.161448
857.644278	2544.852599
857.957561	2547.612631
858.270802	2547.635316
858.584000	2544.489636
858.897155	2547.179092
859.210268	2545.671787
859.523339	2547.428629
859.836367	2545.782692
860.149352	2548.404092
860.462295	2548.280584
860.775195	2539.819007
861.088054	2545.558361
861.400869	2542.054759
861.713642	2542.190870
862.026373	2544.167002
862.339062	2549.558517
862.651708	2547.650440
862.964312	2545.560882
863.276873	2547.393341
863.589392	2546.024668
863.901869	2545.271015
864.214303	2547.899977
864.526696	2546.906870
864.839045	2547.607590
865.151353	2545.253371
865.463619	2546.276725
865.775842	2546.281767
866.088023	2544.308155
866.400162	2545.384441
866.712258	2545.757487
867.024313	2544.517363
867.336325	2545.449976
867.648296	2547.224462
867.960224	2542.422763
868.272110	2548.167158
868.583954	2546.758156
868.895755	2547.189174
869.207515	2546.364946
869.519233	2546.160779
869.830909	2544.807229
870.142542	2544.277908
870.454134	2544.343443
870.765684	2548.043650
871.077191	2547.045501
871.388657	2547.617672
871.700081	2543.133566
872.011463	2548.988866
872.322803	2546.377548
872.634101	2547.214380
872.945357	2545.956612
873.256571	2546.851417
873.567744	2545.248330
873.878874	2547.499205
874.189963	2544.441745
874.501010	2544.960984
874.812015	2546.591797
875.122979	2546.634647
875.433900	2547.569781
875.744780	2548.734288
876.055618	2545.754966
876.366415	2548.890564
876.677169	2548.361242
876.987882	2544.845038
877.298554	2541.202804
877.609183	2543.725902
877.919771	2542.606765
878.230317	2543.103319
878.540822	2548.792261
878.851285	2546.188505
879.161707	2547.839483
879.472087	2547.650440
879.782425	2546.490974
880.092722	2547.642878
880.402977	2547.809236
880.713191	2545.394523
881.023363	2547.058104
881.333494	2548.656150
881.643583	2545.339071
881.953631	2545.732281
882.263637	2545.563402
882.573602	2546.836293
882.883526	2547.806716
883.193408	2546.599359
883.503248	2546.135573
883.813048	2547.005172
884.122806	2546.155738
884.432522	2546.289328
884.742197	2544.240099
885.051831	2547.219421
885.361424	2546.548948
885.670975	2544.504760
885.980485	2544.600542
886.289954	2543.763710
886.599382	2543.625078
886.908768	2548.782179
887.218113	2544.696324
887.527417	2547.615152
887.836680	2546.801005
888.145901	2545.828063
888.455082	2546.125491
888.764221	2548.509957
889.073319	2545.341591
889.382376	2546.352343
889.691392	2545.986859
890.000366	2548.018444
890.309300	2546.246478
890.618193	2543.851930
890.927044	2548.434339
891.235855	2544.071221
891.544625	2544.086344
891.853353	2545.268495
892.162041	2545.457538
892.470687	2546.763197
892.779293	2545.230686
893.087858	2542.649615
893.396381	2544.378731
893.704864	2542.992414
894.013306	2539.546785
894.321707	2543.153731
894.630068	2543.458720
894.938387	2550.105482
895.246665	2546.586756
895.554903	2547.158927
895.863100	2544.832435
896.171256	2546.725388
896.479371	2544.862682
896.787446	2543.710778
897.095480	2545.893598
897.403473	2547.176571
897.711425	2543.975439
898.019336	2546.435522
898.327207	2546.269164
898.635038	2545.661705
898.942827	2546.034750
899.250576	2547.184133
899.558284	2544.287990
899.865952	2546.710265
900.173579	2543.216745
900.481165	2543.977959
900.788711	2546.284287
901.096216	2547.889895
901.403681	2545.134904
901.711105	2544.303114
902.018489	2543.776313
902.325832	2548.620862
902.633135	2545.747404
902.940397	2548.860317
903.247619	2544.998793
903.554800	2543.955274
903.861941	2544.850079
904.169041	2545.369318
904.476101	2543.189019
904.783121	2544.524924
905.090100	2543.367980
905.397039	2545.054246
905.703938	2545.603731
906.010796	2546.294369
906.317614	2544.484595
906.624391	2547.214380
906.931129	2543.811601
907.237826	2545.795295
907.544483	2545.563402
907.851099	2544.724050
908.157675	2546.067518
908.464211	2544.361087
908.770707	2539.526620
909.077163	2544.716488
909.383578	2539.251878
909.689954	2541.354039
909.996289	2539.927392
910.302584	2544.555171
910.608839	2544.323278
910.915054	2546.254040
911.221229	2544.330840
911.527363	2547.111036
911.833458	2546.559030
912.139513	2544.613145
912.445527	2544.018288
912.751502	2545.447456
913.057436	2545.807898
913.363331	2543.304965
913.669186	2544.913093
913.975000	2542.455531
914.280775	2543.945192
914.586510	2545.490305
914.892205	2545.651622
915.197859	2545.583567
915.503475	2543.811601
915.809050	2544.552651
916.114585	2546.163299
916.420081	2545.109698
916.725536	2546.932075
917.030952	2543.806560
917.336328	2544.754297
917.641665	2549.432488
917.946961	2546.339740
918.252218	2544.829914
918.557435	2543.965356
918.862612	2546.720347
919.167750	2543.859492
919.472848	2544.197249
919.777906	2542.218597
920.082925	2544.948381
920.387904	2541.734646
920.692843	2545.223124
920.997743	2543.483926
921.302603	2543.299924
921.607423	2543.635161
921.912204	2543.952753
922.216946	2544.058618
922.521647	2546.120450
922.826310	2547.249668
923.130932	2544.948381
923.435516	2543.856972
923.740059	2545.079451
924.044564	2540.214738
924.349028	2544.325799
924.653454	2541.091899
924.957840	2541.381765
925.262186	2542.432846
925.566493	2545.190357
925.870761	2539.473688
926.174989	2543.645243
926.479178	2541.820345
926.783328	2546.947199
927.087438	2542.957126
927.391509	2545.747404
927.695541	2542.483257
927.999533	2544.227496
928.303486	2544.083823
928.607400	2543.065510
928.911275	2542.195911
929.215110	2543.494008
929.518906	2542.475695
929.822663	2545.719678
930.126381	2543.524255
930.430060	2543.199101
930.733699	2546.639688
931.037299	2543.922507
931.340861	2545.601211
931.644383	2543.380582
931.947866	2543.194060
932.251309	2544.144317
932.554714	2544.610624
932.858080	2544.746735
933.161407	2546.007024
933.464694	2545.538196
933.767943	2541.797660
934.071153	2544.083823
934.374323	2542.957126
934.677455	2543.730943
934.980548	2545.112219
935.283602	2542.357228
935.586617	2543.257074
935.889593	2542.304296
936.192530	2544.779503
936.495428	2545.465100
936.798287	2544.093906
937.101108	2544.494677
937.403890	2543.572146
937.706632	2545.918803
938.009336	2544.938299
938.312002	2546.995090
938.614628	2543.693134
938.917216	2545.137425
939.219765	2545.087013
939.522275	2544.124153
939.824747	2545.190357
940.127179	2538.306661
940.429573	2540.181970
940.731929	2540.093750
941.034246	2537.555529
941.336524	2544.020809
941.638763	2545.681869
941.940964	2543.725902
942.243126	2546.115408
942.545250	2545.666746
942.847335	2544.076262
943.149381	2544.789585
943.451389	2542.132897
943.753359	2542.296734
944.055290	2544.156920
944.357182	2542.763041
944.659036	2543.423432
944.960851	2547.053063
945.262628	2545.301262
945.564367	2543.259595
945.866067	2543.133566
946.167729	2543.042825
946.469352	2542.674821
946.770937	2544.255223
947.072484	2543.191539
947.373992	2543.836807
947.675462	2542.606765
947.976893	2545.144986
948.278286	2542.079965
948.579641	2543.428473
948.880958	2542.412681
949.182236	2542.768082
949.483476	2543.047866
949.784678	2544.003165
950.085841	2543.892260
950.386967	2547.002652
950.688054	2542.458051
950.989103	2544.542568
951.290114	2544.908052
951.591087	2542.674821
951.892021	2542.211035
952.192917	2542.417722
952.493776	2542.276570
952.794596	2544.734132
953.095378	2546.034750
953.396122	2543.264636
953.696828	2543.758669
953.997496	2542.528627
954.298126	2544.345963
954.598718	2545.291180
954.899272	2545.240768
955.199788	2544.411498
955.500266	2543.262115
955.800706	2543.919986
956.101108	2539.110725
956.401472	2543.909904
956.701798	2538.029398
957.002087	2542.659697
957.302337	2542.140459
957.602550	2544.678680
957.902724	2542.689944
958.202861	2544.199770
958.502960	2544.091385
958.803022	2543.302445
959.103045	2542.546272
959.403031	2542.463092
959.702979	2542.563916
960.002889	2542.747918
960.302762	2544.585418
960.602596	2542.987372
960.902393	2546.369987
961.202153	2541.225489
961.501875	2544.829914
961.801559	2543.806560
962.101205	2541.530479
962.400814	2544.320758
962.700385	2544.892929
962.999918	2546.158258
963.299414	2544.046015
963.598873	2542.183308
963.898293	2545.328988
964.197677	2541.921168
964.497022	2542.894111
964.796331	2544.540048
965.095601	2544.600542
965.394835	2542.579039
965.694030	2545.253371
965.993189	2546.276725
966.292309	2545.366797
966.591393	2541.104502
966.890439	2543.221786
967.189447	2541.512835
967.488419	2542.044677
967.787353	2543.587270
968.086249	2544.691282
968.385108	2541.767413
968.683930	2543.904863
968.982714	2543.756148
969.281462	2542.805891
969.580172	2542.168185
969.878844	2542.856302
970.177480	2541.979142
970.476078	2539.871939
970.774639	2543.884698
971.073162	2543.730943
971.371649	2540.587783
971.670098	2538.924202
971.968510	2542.079965
972.266885	2540.507125
972.565223	2542.357228
972.863524	2542.752959
973.161788	2543.277239
973.460014	2542.016950
973.758204	2545.810419
974.056356	2542.573998
974.354471	2546.642209
974.652550	2543.178936
974.950591	2544.850079
975.248595	2543.725902
975.546563	2541.207845
975.844493	2541.835469
976.142386	2543.642723
976.440243	2543.173895
976.738062	2542.813453
977.035845	2541.717002
977.333590	2541.986703
977.631299	2545.507949
977.928971	2545.147507
978.226606	2543.977959
978.524204	2546.556509
978.821765	2542.717671
979.119290	2542.949564
979.416777	2542.871426
979.714228	2543.042825
980.011642	2541.938812
980.309020	2546.682538
980.606360	2543.521735
980.903664	2541.913607
981.200931	2539.919830
981.498162	2542.982331
981.795356	2542.977290
982.092513	2543.660367
982.389633	2541.971580
982.686717	2539.992927
982.983764	2540.297917
983.280775	2542.526107
983.577749	2544.053577
983.874686	2543.970397
984.171587	2543.108360
984.468451	2544.474513
984.765279	2544.688762
985.062070	2541.250695
985.358824	2543.090716
985.655543	2540.464275
985.952224	2545.581046
986.248869	2543.002496
986.545478	2540.607948
986.842050	2540.756662
987.138586	2540.958308
987.435086	2539.819007
987.731549	2537.774819
988.027975	2544.224976
988.324366	2542.173226
988.620719	2543.665408
988.917037	2541.873277
989.213318	2542.984852
989.509563	2543.428473
989.805772	2542.621889
990.101944	2543.410829
990.398080	2542.256405
990.694180	2543.274718
990.990244	2543.466282
991.286271	2540.854964
991.582262	2544.046015
991.878217	2542.523586
992.174136	2542.984852
992.470019	2544.421581
992.765865	2544.812270
993.061676	2542.553833
993.357450	2542.662218
993.653188	2540.441590
993.948890	2542.921838
994.244556	2541.923689
994.540186	2545.424770
994.835780	2540.786909
995.131337	2544.918134
995.426859	2543.148689
995.722345	2540.655839
996.017795	2542.914276
996.313208	2542.367311
996.608586	2541.374203
996.903928	2540.930582
997.199234	2542.765562
997.494504	2543.201622
997.789738	2540.570139
998.084936	2544.421581
998.380099	2542.490819
998.675225	2544.903011
998.970316	2543.254554
999.265371	2542.621889
999.560390	2542.886549
999.855373	2542.969728
1000.150320	2542.722712
1000.445232	2543.887218
1000.740108	2541.913607
1001.034948	2541.167516
1001.329752	2542.599204
1001.624521	2543.065510
1001.919254	2538.525951
1002.213951	2539.768596
1002.508613	2538.712474
1002.803239	2542.203473
1003.097829	2538.122659
1003.392384	2543.073072
1003.686903	2540.045859
1003.981386	2541.984183
1004.275834	2542.957126
1004.570246	2545.351674
1004.864623	2542.299255
1005.158964	2541.752290
1005.453270	2540.920499
1005.747540	2541.432177
1006.041775	2542.344625
1006.335974	2542.054759
1006.630138	2541.815304
1006.924266	2540.854964
1007.218359	2540.517207
1007.512416	2542.100129
1007.806438	2541.958977
1008.100425	2543.667928
1008.394376	2540.892773
1008.688292	2542.851261
1008.982172	2539.433359
1009.276017	2542.533669
1009.569827	2544.872764
1009.863602	2543.584749
1010.157341	2542.445448
1010.451045	2540.978473
1010.744714	2542.793288
1011.038347	2543.214224
1011.331945	2541.656508
1011.625508	2541.648946
1011.919036	2541.391847
1012.212528	2543.710778
1012.505986	2543.587270
1012.799408	2540.106353
1013.092795	2541.467465
1013.386147	2541.717002
1013.679464	2542.188350
1013.972745	2540.854964
1014.265992	2541.976621
1014.559204	2542.349667
1014.852380	2541.107022
1015.145521	2541.699358
1015.438628	2542.077444
1015.731699	2543.249512
1016.024736	2542.339584
1016.317737	2541.943854
1016.610703	2543.955274
1016.903635	2540.446631
1017.196531	2538.548637
1017.489393	2540.320602
1017.782219	2537.442103
1018.075011	2542.737835
1018.367768	2543.496529
1018.660490	2543.960315
1018.953177	2543.960315
1019.245829	2543.960315
