Dividing Wavelength (nm)	Counts (n)	Blue Motor Position (mm): 24.800000	Red Motor Position (mm): 0.000000	
326.493990	2057.078115
326.888308	2057.078115
327.282561	2057.078115
327.676750	2031.305216
328.070874	2035.491894
328.464933	2039.827287
328.858929	2048.112423
329.252859	2060.672458
329.646726	2071.203428
330.040528	2089.369226
330.434265	2105.390013
330.827938	2128.957407
331.221547	2148.524646
331.615091	2169.778150
332.008571	2189.042920
332.401986	2209.837679
332.795338	2231.446585
333.188625	2249.307393
333.581847	2269.729108
333.975006	2286.458177
334.368100	2304.318985
334.761129	2322.409165
335.154095	2335.664879
335.546996	2385.899978
335.939833	2485.896305
336.332606	2494.062974
336.725315	2506.968328
337.117960	2518.242869
337.510540	2529.217461
337.903056	2537.686599
338.295508	2542.379913
338.687896	2552.910884
339.080220	2552.903322
339.472480	2561.548901
339.864676	2565.879252
340.256807	2567.079047
340.648875	2571.069120
341.040879	2568.157854
341.432818	2575.152455
341.824694	2573.375448
342.216506	2573.178843
342.608253	2571.021229
342.999937	2570.391085
343.391557	2569.949984
343.783113	2569.481157
344.174605	2566.532082
344.566033	2565.818758
344.957397	2564.954200
345.348697	2561.042265
345.739934	2561.125444
346.131106	2559.431616
346.522215	2558.841801
346.913260	2555.315514
347.304241	2553.505740
347.695159	2550.922149
348.086012	2549.339226
348.476802	2550.105482
348.867528	2545.913762
349.258191	2542.120294
349.648789	2542.188350
350.039324	2538.389840
350.429796	2543.173895
350.820203	2544.809750
351.210548	2546.097764
351.600828	2540.640715
351.991045	2540.098791
352.381198	2538.984696
352.771288	2539.191384
353.161314	2536.489325
353.551276	2541.306148
353.941175	2537.142155
354.331010	2535.957483
354.720782	2542.916796
355.110490	2545.407126
355.500135	2541.036446
355.889717	2540.244985
356.279235	2540.635674
356.668689	2542.019471
357.058080	2540.502084
357.447408	2543.138607
357.836672	2543.171375
358.225873	2540.436549
358.615010	2542.599204
359.004084	2544.214893
359.393095	2547.799154
359.782043	2545.379400
360.170927	2543.400747
360.559748	2545.195398
360.948505	2545.424770
361.337199	2545.719678
361.725830	2547.058104
362.114398	2548.169679
362.502903	2547.282436
362.891344	2548.744370
363.279722	2548.578012
363.668037	2552.172355
364.056289	2548.114226
364.444478	2548.252858
364.832603	2551.607746
365.220665	2548.051212
365.608665	2552.431974
365.996601	2553.730071
366.384474	2551.078424
366.772284	2552.220246
367.160031	2554.801317
367.547715	2552.482386
367.935336	2554.632438
368.322893	2549.717313
368.710388	2552.328631
369.097820	2551.401058
369.485189	2551.000287
369.872495	2555.345761
370.259738	2551.199412
370.646918	2554.587067
371.034035	2553.772921
371.421090	2554.113199
371.808081	2554.922304
372.195010	2557.488252
372.581875	2554.226625
372.968678	2556.064126
373.355418	2554.216543
373.742096	2559.073694
374.128710	2556.505227
374.515262	2558.138560
374.901751	2557.838612
375.288177	2561.475804
375.674540	2557.188303
376.060841	2560.031514
376.447079	2558.609908
376.833254	2560.258366
377.219367	2558.065464
377.605417	2558.476318
377.991404	2560.903633
378.377329	2561.019580
378.763191	2561.253993
379.148991	2563.625856
379.534727	2563.305743
379.920402	2560.149981
380.306013	2558.347768
380.691563	2562.640311
381.077049	2565.017215
381.462474	2564.382029
381.847835	2562.912533
382.233134	2562.970506
382.618371	2565.274314
383.003545	2564.802966
383.388657	2565.811197
383.773706	2565.039900
384.158693	2564.876062
384.543618	2568.825807
384.928480	2564.775239
385.313280	2565.392781
385.698017	2564.928995
386.082692	2565.632236
386.467305	2565.049982
386.851856	2568.891342
387.236344	2565.861608
387.620770	2562.660475
388.005133	2565.728017
388.389435	2568.578790
388.773674	2564.228274
389.157851	2569.768502
389.541965	2567.774726
389.926018	2569.203893
390.310008	2568.684654
390.693936	2569.561815
391.077802	2570.398647
391.461606	2570.186918
391.845348	2574.086251
392.229027	2572.468040
392.612645	2570.128945
392.996200	2570.126424
393.379694	2572.014336
393.763125	2573.405695
394.146494	2572.641960
394.529801	2570.393605
394.913047	2573.166240
395.296230	2573.635067
395.679351	2571.590879
396.062410	2574.527352
396.445408	2572.120201
396.828343	2573.801425
397.211217	2573.559450
397.594028	2576.581622
397.976778	2572.195818
398.359466	2578.066242
398.742092	2574.663463
399.124656	2575.084399
399.507158	2574.955850
399.889598	2578.474575
400.271977	2579.157651
400.654294	2575.850654
401.036549	2576.193453
401.418742	2574.020716
401.800874	2576.483319
402.182944	2576.256467
402.564952	2577.365521
402.946898	2579.344174
403.328783	2579.868454
403.710606	2579.613876
404.092367	2579.339133
404.474067	2578.479616
404.855705	2580.947261
405.237282	2582.172261
405.618797	2581.892477
406.000250	2582.910790
406.381642	2582.721747
406.762972	2579.684452
407.144240	2578.204873
407.525447	2581.766448
407.906593	2577.869637
408.287677	2582.789803
408.668700	2581.070769
409.049661	2582.953640
409.430560	2583.911459
409.811399	2582.744432
410.192176	2583.644278
410.572891	2586.013621
410.953545	2584.481110
411.334138	2585.489341
411.714669	2581.169072
412.095139	2586.852973
412.475547	2584.942375
412.855894	2584.103023
413.236180	2583.840883
413.616405	2587.099989
413.996568	2584.629824
414.376670	2587.651996
414.756711	2585.517067
415.136691	2584.806264
415.516609	2588.100658
415.896466	2587.924218
416.276262	2589.585278
416.655997	2585.322982
417.035670	2585.007910
417.415283	2590.974116
417.794834	2586.729464
418.174324	2587.251224
418.553753	2589.066039
418.933121	2585.754001
419.312428	2587.727613
419.691674	2587.594022
420.070859	2591.132912
420.449983	2586.996646
420.829045	2586.956316
421.208047	2591.153077
421.586988	2589.663416
421.965867	2588.405648
422.344686	2590.908581
422.723444	2587.962027
423.102141	2590.069229
423.480777	2589.907912
423.859352	2589.756677
424.237866	2592.163828
424.616319	2591.838674
424.994712	2593.240115
425.373044	2593.298088
425.751314	2590.722058
426.129524	2587.921697
426.507673	2589.348344
426.885762	2588.004876
427.263789	2595.884200
427.641756	2595.445619
428.019662	2593.824888
428.397508	2593.744230
428.775292	2595.085177
429.153016	2597.265476
429.530679	2595.286823
429.908282	2594.994436
430.285824	2595.697677
430.663305	2596.297574
431.040726	2594.225660
431.418086	2596.864704
431.795385	2599.407966
432.172624	2595.367482
432.549802	2596.232039
432.926920	2596.431165
433.303977	2595.639704
433.680974	2600.806887
434.057910	2597.331011
434.434786	2600.680858
434.811601	2599.806217
435.188355	2601.003492
435.565050	2598.888727
435.941683	2599.685230
436.318257	2601.600868
436.694770	2603.067844
437.071222	2604.665890
437.447614	2603.072885
437.823946	2604.018102
438.200218	2603.337546
438.576429	2602.420056
438.952580	2604.499532
439.328670	2605.931219
439.704700	2605.653956
440.080670	2603.327463
440.456580	2608.688731
440.832429	2607.902311
441.208218	2607.816611
441.583947	2608.272835
441.959616	2612.620831
442.335224	2609.757455
442.710773	2609.633947
443.086261	2612.182250
443.461689	2611.955398
443.837057	2613.094699
444.212365	2615.441356
444.587612	2613.150152
444.962800	2610.259050
445.337927	2612.381376
445.712995	2611.554627
446.088002	2617.510750
446.462949	2620.091821
446.837837	2619.073507
447.212664	2620.011162
447.587431	2623.247583
447.962139	2627.764457
448.336786	2629.417955
448.711374	2634.073461
449.085901	2632.530868
449.460369	2632.437606
449.834776	2632.982051
450.209124	2638.050931
450.583412	2638.766775
450.957640	2641.292393
451.331808	2640.606796
451.705917	2641.110912
452.079965	2642.484626
452.453954	2649.169196
452.827883	2648.854124
453.201752	2656.650268
453.575562	2660.020280
453.949311	2661.106648
454.323001	2667.050169
454.696632	2673.875891
455.070202	2683.393589
455.443713	2686.098168
455.817164	2694.416072
456.190556	2706.686241
456.563888	2709.206818
456.937160	2719.210987
457.310373	2721.076214
457.683526	2728.741289
458.056619	2739.052969
458.429653	2754.315062
458.802628	2763.734458
459.175542	2777.567384
459.548398	2799.347690
459.921194	2824.664364
460.293930	2851.495906
460.666607	2892.278840
461.039224	2927.216557
461.411782	2953.531380
461.784280	2961.120837
462.156719	2979.828559
462.529099	2996.567710
462.901419	3000.885459
463.273680	3012.991790
463.645882	3041.839792
464.018024	3071.401119
464.390106	3116.176647
464.762130	3208.205431
465.134094	3334.342662
465.505999	3497.671006
465.877845	3649.286228
466.249631	3740.042121
466.621358	3746.562853
466.993026	3745.418511
467.364634	3756.199019
467.736184	3761.421654
468.107674	3782.783544
468.479105	3822.918690
468.850477	3858.789020
469.221790	3880.765930
469.593043	3881.610324
469.964238	3912.505035
470.335373	3976.595744
470.706449	4114.287300
471.077467	4298.743119
471.448425	4608.716107
471.819324	4831.802289
472.190164	4846.187221
472.560945	4738.177979
472.931667	4651.989372
473.302330	4694.463614
473.672934	4718.570412
474.043479	4849.907593
474.413965	4901.949944
474.784393	4958.962874
475.154761	5123.291886
475.525070	5228.246189
475.895321	5284.482781
476.265513	5452.023008
476.635645	5638.570906
477.005719	5739.577985
477.375734	5906.329272
477.745691	6114.196210
478.115588	6344.027455
478.485427	6692.386309
478.855207	7187.725045
479.224928	7677.576485
479.594591	8054.624545
479.964194	8086.325841
480.333739	8288.433261
480.703226	8507.355449
481.072653	8794.479407
481.442022	9072.559536
481.811333	9306.537130
482.180584	9346.790743
482.549777	9469.462181
482.918912	9587.836035
483.287988	9752.805274
483.657005	9875.683399
484.025964	9955.459659
484.394864	10173.701291
484.763706	10333.412607
485.132489	10368.483914
485.501213	10565.721579
485.869879	10807.616305
486.238487	10982.516617
486.607036	11242.902295
486.975527	11344.597492
487.343959	11647.240643
487.712333	11954.070471
488.080648	12134.087555
488.448905	12487.991678
488.817104	12680.654496
489.185244	13246.803799
489.553326	13933.174539
489.921350	14942.204331
490.289315	16164.053995
490.657222	16706.865276
491.025070	17137.732696
491.392861	17230.280718
491.760593	17127.138711
492.128267	16925.444666
492.495883	16744.474805
492.863440	16609.455061
493.230939	16428.018892
493.598380	16422.823983
493.965763	16602.160511
494.333088	16607.214268
494.700354	16739.627735
495.067563	16963.626365
495.434713	17156.122825
495.801805	17533.932100
496.168839	17703.377883
496.535815	17872.838791
496.902733	18183.741872
497.269593	18302.148493
497.636395	18627.542371
498.003139	19033.216624
498.369825	19121.676271
498.736453	19596.565566
499.103023	19733.964735
499.469535	20015.838332
499.835989	20328.440282
500.202385	20472.559308
500.568723	20737.436655
500.935003	21174.623161
501.301226	21337.601144
501.667390	22003.230057
502.033497	22360.602494
502.399546	22458.141259
502.765537	22401.493813
503.131470	22952.933030
503.497345	23488.482529
503.863163	22967.794351
504.228923	23740.217587
504.594625	24236.602363
504.960269	24082.267438
505.325856	24786.156188
505.691385	24739.081893
506.056856	25190.101325
506.422270	25781.204339
506.787625	25622.523940
507.152924	26175.528434
507.518164	26532.043876
507.883347	26382.601390
508.248472	26702.881018
508.613540	27431.340351
508.978550	27819.557088
509.343503	27882.591676
509.708398	28366.678557
510.073236	29054.430573
510.438016	29318.037549
510.802738	29239.420754
511.167403	29882.714835
511.532010	30264.017630
511.896561	30852.055623
512.261053	31653.634372
512.625488	31637.527886
512.989866	31737.551940
513.354186	31942.716819
513.718449	32064.881621
514.082655	32996.227232
514.446803	32902.305495
514.810894	33584.418981
515.174927	33745.209103
515.538904	33881.534506
515.902822	34617.026249
516.266684	34474.275896
516.630488	34921.413639
516.994235	35063.634672
517.357925	35730.544037
517.721558	36081.920022
518.085133	36536.979939
518.448651	36842.932607
518.812112	36854.885182
519.175516	37100.727132
519.538863	37618.811554
519.902152	37786.800444
520.265385	38411.306144
520.628560	38521.369656
520.991678	38575.007533
521.354739	38892.005369
521.717743	39322.598046
522.080690	39348.428918
522.443580	40067.867107
522.806413	40179.611844
523.169189	40393.921376
523.531908	40685.564729
523.894569	40634.888530
524.257174	40908.983626
524.619722	41286.419856
524.982213	41488.960814
525.344647	41594.462082
525.707025	41788.793522
526.069345	42285.296764
526.431608	42250.865683
526.793815	42686.933053
527.155964	42294.519555
527.518057	42610.413378
527.880093	42519.493648
528.242072	43201.342473
528.603995	42980.313083
528.965860	42944.089872
529.327669	43216.501223
529.689421	43298.518276
530.051117	43284.876913
530.412755	43606.618475
530.774337	43715.315834
531.135862	43694.768091
531.497331	43883.551741
531.858743	43906.826748
532.220098	44342.178274
532.581396	44115.127225
532.942638	43899.451540
533.303824	44172.392212
533.664953	44247.722174
534.026025	43966.599710
534.387040	44561.234053
534.747999	44654.956664
535.108902	44981.683927
535.469748	44346.034757
535.830537	44631.716945
536.191270	44887.341254
536.551947	44634.920598
536.912567	44930.715342
537.273131	45106.591117
537.633638	44724.796810
537.994089	44961.446215
538.354483	44723.188682
538.714821	45378.783178
539.075103	45667.515264
539.435328	45535.368978
539.795497	45293.675898
540.155609	45436.937928
540.515665	46026.223607
540.875665	45357.650661
541.235609	45644.542726
541.595496	45781.417615
541.955328	46360.210132
542.315102	45806.104145
542.674821	45691.632144
543.034483	45603.424555
543.394090	45614.247912
543.753640	45617.955681
544.113134	46677.588575
544.472571	45789.861548
544.831953	46921.746779
545.191278	46196.236521
545.550548	45886.641619
545.909761	46521.537137
546.268918	46680.215016
546.628019	47105.905171
546.987064	46548.910603
547.346053	45830.021900
547.704986	46751.622961
548.063863	46395.861172
548.422684	46620.346273
548.781449	46201.048302
549.140158	46745.278668
549.498811	46513.680499
549.857408	45912.187666
550.215949	46758.241996
550.574434	46591.193281
550.932864	46520.405398
551.291237	47250.165350
551.649555	46997.457348
552.007817	47188.244857
552.366022	46852.907303
552.724173	46916.246881
553.082267	47333.825818
553.440305	47678.169393
553.798288	46942.012218
554.156215	47328.346084
554.514086	47530.710602
554.871902	47160.679828
555.229661	47325.860795
555.587365	47012.732045
555.945014	47152.603899
556.302606	47167.644182
556.660143	47265.445087
557.017625	47488.380033
557.375050	47189.137141
557.732421	47591.595138
558.089735	47647.370464
558.446994	47524.575518
558.804197	48007.162655
559.161345	47872.463024
559.518437	47228.364880
559.875474	47469.841190
560.232455	47715.050475
560.589381	47778.349723
560.946251	47562.583298
561.303065	48239.022965
561.659825	47910.768232
562.016528	47717.631546
562.373177	47317.026173
562.729770	47930.229606
563.086307	47465.825911
563.442789	47993.972476
563.799216	47869.823980
564.155587	47745.494003
564.511904	47716.371257
564.868164	47761.696272
565.224370	48094.203217
565.580520	47819.384716
565.936615	48006.814816
566.292654	47664.936365
566.648638	48039.519301
567.004567	47983.824633
567.360441	48072.369980
567.716260	47807.142273
568.072023	48160.907765
568.427732	48096.776727
568.783385	47625.499418
569.138982	48031.060245
569.494525	48160.595214
569.850013	47765.893032
570.205445	47899.471006
570.560823	47685.849591
570.916145	47545.098055
571.271412	47778.216133
571.626625	47437.608053
571.981782	47522.755662
572.336884	47108.292157
572.691931	47428.476002
573.046923	47097.925024
573.401860	46949.447920
573.756743	46952.265925
574.111570	47111.601674
574.466342	47009.069646
574.821059	47156.634302
575.175722	46669.638676
575.530330	46766.229704
575.884882	46406.621515
576.239380	46299.370967
576.593823	46405.036072
576.948211	46323.346694
577.302544	45868.911881
577.656823	45873.116203
578.011047	46142.618808
578.365216	45953.565457
578.719330	45672.795873
579.073389	45657.992525
579.427394	45721.274129
579.781344	45627.307021
580.135239	45397.621970
580.489080	45463.703935
580.842866	44947.081447
581.196597	45441.432117
581.550273	45422.966371
581.903895	45366.215581
582.257463	45800.168187
582.610975	45244.537251
582.964434	45579.295072
583.317837	45079.754534
583.671186	45031.477925
584.024481	45307.924719
584.377721	44856.837232
584.730906	45076.177836
585.084037	45186.674887
585.437113	44890.917953
585.790135	45009.349780
586.143103	44573.587400
586.496016	44741.263739
586.848874	44842.177557
587.201679	44874.274583
587.554428	44382.346188
587.907124	44656.189227
588.259765	44426.617601
588.612352	44578.169809
588.964884	44030.579514
589.317362	44341.192728
589.669786	44348.741856
590.022155	44195.909195
590.374470	44649.557589
590.726731	44229.233743
591.078937	43553.782142
591.431090	43902.395574
591.783188	43443.453969
592.135232	43208.891601
592.487222	43487.957275
592.839157	43647.489630
593.191038	43286.621153
593.542866	43095.828603
593.894639	42502.217614
594.246358	42778.911425
594.598022	42779.672639
594.949633	42370.275494
595.301190	42341.581247
595.652692	42280.555559
596.004141	42760.213786
596.355535	41678.137674
596.706876	41691.620240
597.058162	41398.053687
597.409395	41899.015830
597.760573	42120.826599
598.111698	41716.982285
598.462768	41639.681232
598.813785	41652.891576
599.164748	41254.027922
599.515657	41534.278267
599.866511	41038.894161
600.217312	41724.758265
600.568060	40652.217496
600.918753	41495.612617
601.269392	41413.000708
601.619978	41132.314303
601.970510	41333.862155
602.320988	41464.463327
602.671412	41739.120512
603.021783	41594.424273
603.372100	41175.239728
603.722363	41297.586012
604.072572	41312.288537
604.422728	41292.360856
604.772830	41093.464651
605.122878	41240.641138
605.472872	41094.727460
605.822813	41359.975332
606.172701	41092.605134
606.522534	41436.076590
606.872314	41650.355875
607.222041	41466.714203
607.571714	41805.270533
607.921333	41299.584829
608.270899	41505.805830
608.620411	41909.723241
608.969870	41630.728143
609.319276	41651.643890
609.668627	41683.325022
610.017926	42087.744027
610.367171	42213.288922
610.716362	42246.321083
611.065500	42144.300732
611.414585	42382.976682
611.763616	42538.377811
612.112594	42436.458283
612.461518	42580.352978
612.810389	42961.824651
613.159207	42738.836773
613.507971	42734.355187
613.856682	43231.712905
614.205340	43064.699478
614.553945	43744.501595
614.902496	43066.975559
615.250994	43508.741953
615.599439	43546.084300
615.947830	43669.779092
616.296169	43674.006099
616.644454	43699.438720
616.992686	43854.260117
617.340864	44316.037371
617.688990	43836.381665
618.037063	44519.730233
618.385082	44341.041494
618.733048	44683.164441
619.080961	44546.077824
619.428821	44564.306636
619.776628	44587.178351
620.124382	44389.229883
620.472083	44502.015618
620.819731	44609.175426
621.167326	44150.652237
621.514868	44150.042257
621.862357	43612.420843
622.209793	43701.031725
622.557176	43271.260757
622.904506	43030.565825
623.251783	42656.270234
623.599007	42357.450799
623.946179	42263.975204
624.293297	41996.045439
624.640363	41467.704789
624.987376	41308.540439
625.334336	41108.189862
625.681243	40692.302231
626.028097	40608.228388
626.374899	40428.092837
626.721647	40382.553574
627.068343	40186.926558
627.414987	39882.133355
627.761577	39632.994491
628.108115	39956.702103
628.454600	39200.629849
628.801032	39443.505080
629.147412	39331.833440
629.493739	39252.906614
629.840014	38808.743152
630.186236	39224.046009
630.532405	38678.540230
630.878521	38898.805886
631.224585	38685.018113
631.570597	38342.474230
631.916556	38512.741722
632.262462	38410.610465
632.608316	38330.751027
632.954117	38198.418217
633.299866	38156.611929
633.645562	38068.953825
633.991206	37529.883080
634.336797	37117.728423
634.682336	37018.052209
635.027823	36782.852135
635.373257	36649.163256
635.718639	36329.231468
636.063968	36215.286268
636.409245	35563.603707
636.754470	35525.174991
637.099642	35290.622706
637.444762	34734.361626
637.789829	34871.070156
638.134845	34494.526211
638.479808	34418.011578
638.824719	34370.740678
639.169577	33839.271993
639.514383	33941.970379
639.859137	33553.771286
640.203839	33732.202926
640.548489	33431.634211
640.893086	33421.136008
641.237632	33151.272960
641.582125	33260.754219
641.926566	33047.755386
642.270955	33084.112188
642.615292	33019.686242
642.959576	32893.922056
643.303809	32908.710281
643.647990	32998.432737
643.992118	32952.149904
644.336195	32790.848104
644.680219	32879.564850
645.024192	33075.022988
645.368112	33613.450986
645.711981	33624.801144
646.055797	34353.686455
646.399562	34167.085625
646.743274	35048.823762
647.086935	35434.376249
647.430544	35389.762037
647.774101	35439.971930
648.117606	35718.904013
648.461059	35857.281166
648.804460	35450.540709
649.147810	34946.085046
649.491108	34581.037452
649.834354	34432.499854
650.177548	33613.788743
650.520690	33117.051087
650.863781	33112.123359
651.206820	32933.802624
651.549807	32513.826618
651.892742	31947.455504
652.235626	31838.291838
652.578458	31708.232589
652.921238	31020.067198
653.263967	31332.049086
653.606644	31031.951718
653.949269	30947.552721
654.291843	30547.171679
654.634365	30918.245973
654.976836	30464.736211
655.319255	30540.600535
655.661622	30410.185885
656.003938	30271.723033
656.346203	30081.384187
656.688416	30334.407261
657.030577	30095.199470
657.372687	29922.313098
657.714746	30088.000702
658.056753	30279.670412
658.398708	29648.399484
658.740612	29717.249042
659.082465	29928.307030
659.424266	29827.746093
659.766016	29816.320318
660.107715	29690.866164
660.449362	29789.385433
660.790958	29763.022719
661.132503	29712.928773
661.473996	29775.315573
661.815438	29864.339829
662.156829	29970.020058
662.498168	29780.081984
662.839456	29748.395811
663.180693	29879.052437
663.521879	29968.406889
663.863013	29932.639902
664.204097	29902.309800
664.545129	30317.128706
664.886110	30243.275802
665.227040	30352.772184
665.567918	30352.928460
665.908746	30424.117114
666.249522	30523.087567
666.590248	30539.657840
666.930922	30640.780865
667.271545	30638.189712
667.612118	30697.287159
667.952639	30487.131537
668.293109	30532.779185
668.633528	30388.970189
668.973896	30357.309223
669.314213	30335.526397
669.654480	30133.857558
669.994695	30121.632760
670.334859	30052.110207
670.674973	29882.961852
671.015035	30073.242724
671.355047	30003.097589
671.695008	29941.875296
672.034918	29845.243938
672.374777	29941.771952
672.714585	29800.176023
673.054342	29946.992067
673.394049	29799.288780
673.733705	30015.902120
674.073310	29736.047505
674.412864	29792.135383
674.752368	29484.935029
675.091820	29718.153929
675.431223	29308.466918
675.770574	29122.287024
676.109875	28960.435739
676.449125	28740.059178
676.788324	28646.192893
677.127473	28166.227156
677.466571	28064.726044
677.805619	27787.144990
678.144616	27723.439929
678.483562	27671.100149
678.822458	27337.842071
679.161303	27281.073637
679.500098	27208.647380
679.838842	27141.597513
680.177535	27218.754894
680.516179	27467.601371
680.854771	27598.946114
681.193314	28370.252735
681.531805	29393.060000
681.870247	30129.912855
682.208638	30874.554293
682.546978	31133.079785
682.885268	31260.406728
683.223508	30820.755099
683.561697	30558.075695
683.899836	30392.297351
684.237925	29981.392901
684.575963	29834.455869
684.913951	29467.132194
685.251889	29630.954571
685.589776	29658.764096
685.927614	29677.658341
686.265401	29865.852175
686.603137	29966.771034
686.940824	30468.630503
687.278460	30805.243468
687.616046	30983.813740
687.953582	31641.250778
688.291068	31554.981512
688.628504	31896.754099
688.965889	31894.810734
689.303224	31612.163320
689.640510	31326.599599
689.977745	30693.191221
690.314930	29966.196343
690.652065	29516.041469
690.989150	28857.384472
691.326185	28012.378703
691.663170	27365.202933
692.000105	26618.771886
692.336990	26026.839602
692.673825	25594.333807
693.010610	25107.202070
693.347345	24613.930208
693.684030	23980.547035
694.020665	23781.050934
694.357251	23110.237194
694.693786	23103.166976
695.030272	22876.983006
695.366707	22381.435062
695.703093	22110.306685
696.039429	22181.507942
696.375716	21945.902055
696.711952	21942.106066
697.048139	21804.674130
697.384276	21640.342597
697.720363	21761.824322
698.056400	21658.518477
698.392388	21495.091831
698.728326	21493.214001
699.064214	21326.303918
699.400053	21335.642656
699.735842	20958.859255
700.071581	20752.426526
700.407270	20500.754482
700.742910	20331.659058
701.078501	20081.544731
701.414042	19870.821980
701.749533	19565.839734
702.084974	19249.416589
702.420366	19481.476024
702.755709	19076.973839
703.091002	18772.117622
703.426246	18845.620166
703.761440	18780.816133
704.096584	18540.988280
704.431679	18467.881467
704.766725	18417.699301
705.101721	18342.056788
705.436668	18461.368296
705.771565	18191.003654
706.106413	18507.046191
706.441212	18575.061439
706.775961	18685.810548
707.110661	18764.240819
707.445311	19127.042579
707.779913	19002.914248
708.114465	19296.800915
708.448967	19612.034347
708.783421	20237.081971
709.117825	20609.252716
709.452180	20840.538333
709.786485	21287.786982
710.120742	22054.009599
710.454949	22147.449906
710.789107	22673.804341
711.123216	23382.434296
711.457275	23591.649743
711.791286	24156.780733
712.125247	24322.964890
712.459159	24043.604308
712.793023	24790.746158
713.126837	23770.598101
713.460602	24016.387119
713.794318	23675.854656
714.127985	23404.517071
714.461602	22514.821472
714.795171	22496.002845
715.128691	21511.989779
715.462162	20990.595839
715.795584	20564.330994
716.128957	20296.116403
716.462281	19925.647048
716.795556	19635.253902
717.128782	19152.923863
717.461960	18558.652483
717.795088	18517.612450
718.128167	18174.395573
718.461198	17712.063792
718.794180	17594.095750
719.127113	17258.067558
719.459997	17067.358188
719.792833	16699.255655
720.125619	16741.455153
720.458357	16409.154895
720.791046	16269.688853
721.123686	16119.361645
721.456278	15889.860596
721.788821	15894.700104
722.121315	15628.398631
722.453761	15726.098713
722.786158	15610.973883
723.118506	15695.115782
723.450805	15581.004223
723.783056	15752.975625
724.115259	15645.137782
724.447412	15637.598737
724.779518	15862.121647
725.111574	15912.021508
725.443582	16173.533885
725.775542	16130.217770
726.107453	16652.839231
726.439315	16570.890234
726.771129	16985.888101
727.102895	17410.461639
727.434612	17683.006581
727.766281	17846.929780
728.097901	18169.014141
728.429473	18258.313140
728.760996	18266.066435
729.092471	18397.844717
729.423897	18277.262837
729.755276	18150.129978
730.086606	18268.642464
730.417887	18847.641669
730.749120	19402.171112
731.080305	19614.496951
731.411442	20013.501757
731.742530	20131.074068
732.073570	20293.018614
732.404562	20603.543609
732.735506	20459.689243
733.066401	20242.327292
733.397249	19746.592825
733.728048	19121.940932
734.058798	18261.751207
734.389501	17507.264396
734.720156	16992.779358
735.050762	16413.651604
735.381320	16027.547110
735.711831	15748.781385
736.042293	15389.447939
736.372707	15415.800571
736.703073	15215.881012
737.033391	15425.134267
737.363661	15415.785447
737.693883	15533.813982
738.024056	15724.714917
738.354182	15956.121522
738.684260	16320.586863
739.014290	16589.431598
739.344272	16807.703477
739.674207	17166.162283
740.004093	17340.044282
740.333931	17396.540493
740.663722	17473.082852
740.993464	17516.414090
741.323159	17366.656533
741.652806	17065.644196
741.982405	16894.106333
742.311956	16541.510389
742.641460	16429.455621
742.970915	16090.690083
743.300323	15746.202835
743.629683	15535.719538
743.958996	15218.497371
744.288260	14908.345422
744.617477	14601.566004
744.946647	14566.310695
745.275768	14250.157252
745.604842	14030.433520
745.933869	13868.829252
746.262847	13845.768493
746.591778	13758.725410
746.920662	13637.321823
747.249498	13650.053257
747.578286	13802.200321
747.907027	13989.035565
748.235720	14249.723713
748.564365	14318.313652
748.892963	14245.486623
749.221514	14350.705586
749.550017	14206.586559
749.878473	14173.395602
750.206881	13959.950628
750.535242	13889.084608
750.863555	13804.040342
751.191821	13701.026884
751.520039	13714.360736
751.848210	13645.463286
752.176334	13681.936034
752.504411	13617.411786
752.832440	13434.312037
753.160421	13552.610274
753.488356	13442.834107
753.816243	13345.401207
754.144082	13190.615098
754.471875	13144.599446
754.799620	13098.893825
755.127318	13081.474118
755.454969	13067.381572
755.782572	13034.251109
756.110129	13054.766084
756.437638	12956.922329
756.765100	12963.826190
757.092515	12991.005571
757.419882	13026.074357
757.747203	13039.090617
758.074477	13132.326757
758.401703	13105.386831
758.728882	13309.036843
759.056014	13351.327083
759.383099	13516.160211
759.710138	13649.521415
760.037129	13762.236574
760.364073	13824.991378
760.690970	13848.430223
761.017820	13868.375548
761.344623	14100.046814
761.671379	14478.455986
761.998088	15175.950032
762.324751	16956.132690
762.651366	20367.635253
762.977935	24831.554298
763.304456	27782.222303
763.630931	28824.306941
763.957359	27628.799827
764.283740	25370.438521
764.610074	23103.066153
764.936362	20468.425562
765.262602	18601.986242
765.588796	16674.513672
765.914943	15393.695111
766.241044	14294.859684
766.567097	13504.489940
766.893104	12795.123976
767.219064	12321.331132
767.544978	11853.829648
767.870845	11458.068824
768.196665	11243.872717
768.522438	11003.326500
768.848165	10806.189658
769.173846	10602.448905
769.499479	10469.967382
769.825066	10304.378081
770.150607	10077.710160
770.476101	9991.148507
770.801548	9868.562769
771.126949	9703.374240
771.452303	9597.091593
771.777611	9397.088856
772.102872	9384.974963
772.428087	9246.507070
772.753256	9088.844983
773.078378	8997.655551
773.403453	8813.706368
773.728482	8704.918268
774.053465	8627.912123
774.378401	8527.769601
774.703291	8402.050786
775.028135	8285.907643
775.352932	8249.790296
775.677683	8137.561608
776.002388	8040.738687
776.327046	8046.823360
776.651658	7944.994573
776.976224	7849.888164
777.300743	7851.007300
777.625216	7762.000688
777.949643	7714.177782
778.274024	7731.864670
778.598359	7644.284705
778.922647	7660.834813
779.246889	7609.480578
779.571086	7618.179089
779.895236	7625.201417
780.219339	7634.204918
780.543397	7637.395968
780.867409	7718.896302
781.191374	7728.466933
781.515294	7695.344031
781.839167	7787.019935
782.162995	7759.775019
782.486776	7702.520114
782.810511	7659.322467
783.134201	7572.985145
783.457844	7568.788385
783.781441	7511.500712
784.104993	7443.044364
784.428498	7419.567710
784.751958	7409.457676
785.075372	7380.957513
785.398739	7322.336455
785.722061	7369.471244
786.045337	7373.920062
786.368568	7532.955863
786.691752	7557.992754
787.014891	7892.896768
787.337983	8253.530832
787.661030	8842.314916
787.984031	9470.951842
788.306987	9876.968893
788.629897	10077.947094
788.952760	10029.357933
789.275579	9804.421648
789.598351	9406.311647
789.921078	9053.922390
790.243759	8639.433680
790.566395	8350.575564
790.888984	8095.064682
791.211529	7890.560193
791.534027	7669.356883
791.856480	7468.363559
792.178888	7396.406129
792.501249	7302.633106
792.823566	7143.788868
793.145836	7140.194526
793.468062	7118.129395
793.790241	7068.320275
794.112375	7132.395861
794.434464	7282.710466
794.756507	7326.976837
795.078505	7488.933987
795.400457	7803.615413
795.722364	8150.935790
796.044226	8435.370293
796.366042	8710.413126
796.687812	8665.927464
797.009538	8747.730267
797.331218	8627.634859
797.652852	8545.252323
797.974442	8396.576093
798.295986	8309.147362
798.617484	8119.007642
798.938938	7977.681414
799.260346	7870.934982
799.581709	7677.112698
799.903026	7589.608350
800.224299	7489.733010
800.545526	7320.342679
800.866708	7222.786270
801.187845	7151.632904
801.508936	7049.325207
801.829983	7011.085535
802.150984	6858.678851
802.471940	6813.550442
802.792851	6797.474202
803.113717	6768.464882
803.434538	6731.084727
803.755314	6676.264699
804.076045	6677.119175
804.396731	6625.500280
804.717372	6657.342728
805.037967	6657.541854
805.358518	6700.835283
805.679024	6782.000380
805.999485	6793.111083
806.319901	6836.994328
806.640272	6857.216916
806.960598	6939.954854
807.280879	6936.123577
807.601115	7017.329004
807.921306	6962.491332
808.241453	6973.458362
808.561554	6996.017526
808.881611	6961.306661
809.201623	6972.553475
809.521590	6912.087355
809.841513	6895.353245
810.161390	6938.011489
810.481223	6806.664226
810.801011	6782.857377
811.120755	6764.628564
811.440453	6685.943714
811.760107	6657.965311
812.079716	6626.695033
812.399281	6558.168108
812.718801	6544.128495
813.038276	6507.789337
813.357707	6450.239525
813.677093	6487.503734
813.996434	6390.393467
814.315731	6431.161278
814.634983	6425.323622
814.954191	6434.228821
815.273354	6546.144957
815.592473	6606.696776
815.911547	6731.165385
816.230577	6815.874414
816.549562	6961.687268
816.868502	7061.844913
817.187399	7163.111611
817.506250	7312.251627
817.825058	7345.750094
818.143821	7614.922504
818.462539	7882.454018
818.781213	8254.760874
819.099843	8802.658679
819.418429	9799.960227
819.736970	10766.354461
820.055466	11943.829367
820.373919	13476.796361
820.692327	15822.702344
821.010691	19959.967224
821.329011	28928.951213
821.647286	41884.126782
821.965517	55305.326778
822.283704	60701.103112
822.601847	62690.511298
822.919945	59980.341620
823.237999	55779.931248
823.556010	49606.423342
823.873976	42906.863472
824.191897	36407.623931
824.509775	31585.921594
824.827609	27066.869969
825.145398	24489.010415
825.463144	23123.205563
825.780845	23426.665380
826.098502	25217.258020
826.416116	28971.826226
826.733685	32597.386263
827.051210	33743.439658
827.368692	31960.365899
827.686129	28022.897070
828.003522	23903.803030
828.320872	20208.201201
828.638177	17376.766567
828.955439	15242.286576
829.272656	13423.707970
829.589830	11955.499638
829.906960	10686.842862
830.224046	9745.677082
830.541088	8996.962393
830.858086	8539.601189
831.175041	8156.899475
831.491952	8048.242445
831.808819	8092.430679
832.125642	8491.969847
832.442421	9373.718067
832.759157	11165.654174
833.075849	14072.741404
833.392497	17282.925488
833.709101	19460.401480
834.025662	19300.886770
834.342179	17606.857431
834.658653	15421.141673
834.975083	13501.319054
835.291469	11887.333156
835.607811	10581.245812
835.924110	9669.343931
836.240366	8798.212382
836.556578	7997.538519
836.872746	7360.538319
837.188871	6863.682196
837.504952	6445.014369
837.820990	6135.429550
838.136984	5913.205406
838.452935	5819.956663
838.768842	5853.298854
839.084706	6272.778307
839.400526	7480.648851
839.716303	9060.828771
840.032037	10150.264967
840.347727	10074.070447
840.663373	9098.619781
840.978977	8062.287099
841.294537	7254.807679
841.610054	6658.865157
841.925527	6223.669907
842.240957	5862.294793
842.556344	5532.711717
842.871687	5245.807048
843.186987	4968.936797
843.502244	4745.454885
843.817458	4579.880707
844.132629	4437.694963
844.447756	4355.103219
844.762840	4271.714973
845.077881	4196.616904
845.392879	4135.031648
845.707833	4088.317796
846.022745	4043.234757
846.337613	4016.221734
846.652438	3968.950835
846.967221	3955.559009
847.281960	3923.872837
847.596656	3903.125968
847.911309	3882.200139
848.225919	3859.595605
848.540485	3845.223275
848.855009	3831.118127
849.169490	3811.379489
849.483928	3798.050678
849.798323	3787.474337
850.112675	3770.783077
850.426984	3778.838841
850.741251	3760.489041
851.055474	3755.578957
851.369654	3762.243362
851.683792	3755.357146
851.997887	3765.661265
852.311938	3767.707973
852.625947	3768.756533
852.939914	3760.312600
853.253837	3770.793159
853.567718	3768.602778
853.881555	3754.399327
854.195350	3773.979168
854.509103	3764.983229
854.822812	3768.015483
855.136479	3759.392590
855.450103	3767.632356
855.763685	3751.314141
856.077224	3755.924276
856.390720	3774.369858
856.704173	3795.739309
857.017584	3807.124755
857.330953	3818.321158
857.644278	3836.045855
857.957561	3845.155220
858.270802	3843.784026
858.584000	3847.428780
858.897155	3839.892255
859.210268	3822.480110
859.523339	3800.450267
859.836367	3799.794917
860.149352	3793.463228
860.462295	3787.386117
860.775195	3773.515382
861.088054	3772.628139
861.400869	3770.631842
861.713642	3767.844084
862.026373	3778.049900
862.339062	3784.905869
862.651708	3803.222902
862.964312	3840.996268
863.276873	3850.874409
863.589392	3907.955394
863.901869	3955.927014
864.214303	4001.710773
864.526696	4031.650186
864.839045	4073.353131
865.151353	4103.055609
865.463619	4113.783185
865.775842	4119.938433
866.088023	4135.631545
866.400162	4126.260040
866.712258	4134.799755
867.024313	4140.173625
867.336325	4136.445692
867.648296	4136.705311
867.960224	4141.413749
868.272110	4153.525121
868.583954	4153.814987
868.895755	4169.737472
869.207515	4169.162780
869.519233	4206.737020
869.830909	4221.374011
870.142542	4244.565839
870.454134	4258.083693
870.765684	4287.342550
871.077191	4320.616686
871.388657	4343.891693
871.700081	4384.409967
872.011463	4428.474693
872.322803	4461.600115
872.634101	4495.882482
872.945357	4536.504099
873.256571	4588.589301
873.567744	4612.670893
873.878874	4634.841887
874.189963	4673.883103
874.501010	4682.470709
874.812015	4677.505172
875.122979	4725.688521
875.433900	4725.194488
875.744780	4734.699583
876.055618	4763.018265
876.366415	4763.103965
876.677169	4781.100884
876.987882	4830.335313
877.298554	4882.113004
877.609183	4960.218121
877.919771	5068.300460
878.230317	5212.560639
878.540822	5430.351088
878.851285	5747.200210
879.161707	6206.414037
879.472087	6962.879501
879.782425	8194.040176
880.092722	10363.717503
880.402977	13653.234225
880.713191	17381.858132
881.023363	21069.394115
881.333494	23271.518829
881.643583	24492.153575
881.953631	24488.511341
882.263637	23644.004646
882.573602	22180.877797
882.883526	20641.785802
883.193408	18965.360173
883.503248	17277.483562
883.813048	15748.773823
884.122806	14326.019056
884.432522	12860.033873
884.742197	11610.682195
885.051831	10522.420588
885.361424	9526.495275
885.670975	8713.672232
885.980485	8022.335955
886.289954	7448.307328
886.599382	6976.891388
886.908768	6601.829542
887.218113	6242.302011
887.527417	5956.599658
887.836680	5691.124935
888.145901	5469.803158
888.455082	5308.082942
888.764221	5157.438142
889.073319	5024.785220
889.382376	4950.193787
889.691392	4892.094489
890.000366	4871.145974
890.309300	4849.736193
890.618193	4851.674517
890.927044	4838.305377
891.235855	4858.696844
891.544625	4894.758738
891.853353	4957.674859
892.162041	5069.490172
892.470687	5257.842803
892.779293	5504.783724
893.087858	5876.334407
893.396381	6454.206913
893.704864	7251.256186
894.013306	8394.670537
894.321707	9561.654802
894.630068	10375.536488
894.938387	10583.537016
895.246665	10346.280152
895.554903	9741.455116
895.863100	9047.540289
896.171256	8491.498499
896.479371	7991.174062
896.787446	7497.440934
897.095480	7068.738691
897.403473	6751.657675
897.711425	6435.408451
898.019336	6172.471948
898.327207	5899.957254
898.635038	5671.650958
898.942827	5427.691879
899.250576	5235.984360
899.558284	5042.739289
899.865952	4920.824024
900.173579	4774.186941
900.481165	4666.187782
900.788711	4575.530192
901.096216	4506.060571
901.403681	4437.062298
901.711105	4412.368206
902.018489	4401.375970
902.325832	4469.396259
902.633135	4589.050566
902.940397	4932.708545
903.247619	5718.868925
903.554800	7154.672720
903.861941	9057.738543
904.169041	10566.719727
904.476101	11188.399861
904.783121	10835.047743
905.090100	10112.123597
905.397039	9274.611502
905.703938	8527.479735
906.010796	7832.982655
906.317614	7286.874459
906.624391	6756.103973
906.931129	6329.524055
907.237826	5934.484116
907.544483	5558.698865
907.851099	5187.622051
908.157675	4838.615408
908.464211	4516.228578
908.770707	4279.551447
909.077163	4082.230603
909.383578	3939.424797
909.689954	3823.402641
909.996289	3755.974688
910.302584	3687.263761
910.608839	3656.490037
910.915054	3625.915439
911.221229	3614.151906
911.527363	3624.569451
911.833458	3636.527068
912.139513	3664.303825
912.445527	3695.296839
912.751502	3776.938326
913.057436	3879.087226
913.363331	4014.195190
913.669186	4213.073751
913.975000	4470.888441
914.280775	4891.789499
914.586510	5469.858610
914.892205	6264.387306
915.197859	7290.914943
915.503475	8499.846650
915.809050	9546.780878
916.114585	10196.242810
916.420081	10449.802767
916.725536	10413.730790
917.030952	9982.807918
917.336328	9567.731913
917.641665	9158.609511
917.946961	8677.912807
918.252218	8261.175742
918.557435	7759.969103
918.862612	7333.666449
919.167750	6958.360107
919.472848	6541.270161
919.777906	6172.298028
920.082925	5812.092463
920.387904	5451.755827
920.692843	5185.154406
920.997743	4939.569555
921.302603	4709.531623
921.607423	4545.595820
921.912204	4384.972056
922.216946	4268.816309
922.521647	4145.277793
922.826310	4043.116290
923.130932	3947.553657
923.435516	3853.546220
923.740059	3781.185498
924.044564	3705.757233
924.349028	3645.570898
924.653454	3581.913727
924.957840	3516.547606
925.262186	3465.694967
925.566493	3405.669948
925.870761	3350.612986
926.174989	3313.666370
926.479178	3279.378962
926.783328	3237.887745
927.087438	3209.289279
927.391509	3175.931964
927.695541	3144.853251
927.999533	3118.099847
928.303486	3095.729727
928.607400	3079.973601
928.911275	3066.853998
929.215110	3048.118550
929.518906	3045.376162
929.822663	3042.296017
930.126381	3038.994061
930.430060	3047.672408
930.733699	3048.942778
931.037299	3059.221691
931.340861	3058.145405
931.644383	3066.730490
931.947866	3064.207392
932.251309	3056.859910
932.554714	3056.512071
932.858080	3053.777245
933.161407	3042.124618
933.464694	3034.764533
933.767943	3028.024510
934.071153	3024.346989
934.374323	3014.610000
934.677455	3012.507839
934.980548	3000.406549
935.283602	2996.063595
935.586617	2992.275168
935.889593	2999.771364
936.192530	3007.723784
936.495428	3021.438243
936.798287	3038.358876
937.101108	3075.499577
937.403890	3125.870786
937.706632	3180.920186
938.009336	3266.292126
938.312002	3338.582273
938.614628	3398.579565
938.917216	3452.262812
939.219765	3482.534941
939.522275	3514.586597
939.824747	3521.089686
940.127179	3520.686393
940.429573	3512.875126
940.731929	3507.521420
941.034246	3494.472393
941.336524	3482.182060
941.638763	3470.042962
941.940964	3452.625775
942.243126	3412.606576
942.545250	3390.317114
942.847335	3351.354036
943.149381	3316.721309
943.451389	3284.248716
943.753359	3251.395517
944.055290	3225.985581
944.357182	3202.738300
944.659036	3187.980322
944.960851	3179.586801
945.262628	3164.617094
945.564367	3166.230264
945.866067	3161.668019
946.167729	3155.490085
946.469352	3156.896567
946.770937	3150.756442
947.072484	3134.017291
947.373992	3141.710091
947.675462	3131.085860
947.976893	3112.567181
948.278286	3108.559464
948.579641	3100.279368
948.880958	3094.529933
949.182236	3094.653441
949.483476	3087.046340
949.784678	3087.018613
950.085841	3090.507092
950.386967	3100.246601
950.688054	3118.331740
950.989103	3135.728762
951.290114	3158.305570
951.591087	3185.479910
951.892021	3211.981255
952.192917	3239.800863
952.493776	3264.305912
952.794596	3275.698919
953.095378	3281.304683
953.396122	3276.097171
953.696828	3269.720111
953.997496	3255.342740
954.298126	3232.009760
954.598718	3212.107284
954.899272	3186.735157
955.199788	3158.424037
955.500266	3129.210550
955.800706	3091.792586
956.101108	3053.845300
956.401472	3027.122144
956.701798	2994.442864
957.002087	2954.980712
957.302337	2922.082142
957.602550	2895.157339
957.902724	2866.571476
958.202861	2844.219000
958.502960	2822.673108
958.803022	2801.555715
959.103045	2783.384876
959.403031	2762.827051
959.702979	2749.213415
960.002889	2735.819069
960.302762	2725.701473
960.602596	2714.101778
960.902393	2707.586087
961.202153	2699.973944
961.501875	2686.710669
961.801559	2681.419978
962.101205	2676.686334
962.400814	2670.326919
962.700385	2662.888696
962.999918	2656.662871
963.299414	2648.254227
963.598873	2649.713641
963.898293	2643.830614
964.197677	2644.110398
964.497022	2642.832466
964.796331	2638.436579
965.095601	2637.297279
965.394835	2635.449696
965.694030	2634.202010
965.993189	2632.009108
966.292309	2631.492390
966.591393	2631.585651
966.890439	2629.276803
967.189447	2628.210599
967.488419	2629.493572
967.787353	2630.335445
968.086249	2632.377112
968.385108	2634.590179
968.683930	2634.716208
968.982714	2640.384985
969.281462	2640.803401
969.580172	2647.311531
969.878844	2651.891419
970.177480	2662.997081
970.476078	2669.288441
970.774639	2675.935202
971.073162	2684.893333
971.371649	2691.507327
971.670098	2696.132585
971.968510	2702.827237
972.266885	2709.806715
972.565223	2708.506097
972.863524	2709.484081
973.161788	2715.901470
973.460014	2716.697972
973.758204	2722.873386
974.056356	2725.288098
974.354471	2725.242728
974.652550	2724.640310
974.950591	2723.100238
975.248595	2722.530587
975.546563	2720.430947
975.844493	2719.362222
976.142386	2711.760162
976.440243	2705.105839
976.738062	2702.050900
977.035845	2697.392874
977.333590	2689.866431
977.631299	2685.717561
977.928971	2676.472085
978.226606	2669.162412
978.524204	2666.667041
978.821765	2664.527071
979.119290	2668.426404
979.416777	2666.505724
979.714228	2669.754748
980.011642	2670.934378
980.309020	2678.148269
980.606360	2695.000846
980.903664	2714.701675
981.200931	2752.326327
981.498162	2800.088739
981.795356	2876.235368
982.092513	2961.244345
982.389633	3068.114286
982.686717	3166.058864
982.983764	3234.878176
983.280775	3283.948768
983.577749	3291.167700
983.874686	3279.603293
984.171587	3242.545771
984.468451	3203.376006
984.765279	3163.465191
985.062070	3115.523818
985.358824	3070.171077
985.655543	3015.492202
985.952224	2966.930767
986.248869	2897.776218
986.545478	2842.068948
986.842050	2789.162038
987.138586	2744.444483
987.435086	2707.422249
987.731549	2676.779596
988.027975	2654.994249
988.324366	2635.006074
988.620719	2620.691718
988.917037	2610.921962
989.213318	2597.845209
989.509563	2593.416555
989.805772	2588.246852
990.101944	2584.808785
990.398080	2583.162848
990.694180	2580.274267
990.990244	2581.988259
991.286271	2579.291242
991.582262	2583.223342
991.878217	2583.856007
992.174136	2586.858014
992.470019	2589.660895
992.765865	2595.198603
993.061676	2597.331011
993.357450	2606.349635
993.653188	2615.043105
993.948890	2631.847791
994.244556	2649.277581
994.540186	2672.471930
994.835780	2701.851774
995.131337	2740.058679
995.426859	2781.958229
995.722345	2827.439519
996.017795	2879.101264
996.313208	2914.210380
996.608586	2942.284566
996.903928	2955.124385
997.199234	2952.934003
997.494504	2951.643468
997.789738	2936.467074
998.084936	2913.025709
998.380099	2881.289125
998.675225	2854.840711
998.970316	2824.704693
999.265371	2786.553241
999.560390	2752.437232
999.855373	2721.484548
1000.150320	2695.870445
1000.445232	2667.768533
1000.740108	2650.293373
1001.034948	2628.790332
1001.329752	2618.806326
1001.624521	2601.129520
1001.919254	2593.938314
1002.213951	2585.907756
1002.508613	2575.437280
1002.803239	2570.834706
1003.097829	2563.464539
1003.392384	2559.633263
1003.686903	2554.188816
1003.981386	2550.987684
1004.275834	2547.426108
1004.570246	2543.531817
1004.864623	2544.582898
1005.158964	2539.813966
1005.453270	2537.384130
1005.747540	2535.496218
1006.041775	2533.227699
1006.335974	2534.765251
1006.630138	2534.039324
1006.924266	2532.204344
1007.218359	2531.133099
1007.512416	2528.937677
1007.806438	2523.321831
1008.100425	2526.694363
1008.394376	2525.983561
1008.688292	2528.728469
1008.982172	2528.201668
1009.276017	2524.458612
1009.569827	2524.347706
1009.863602	2526.606143
1010.157341	2524.584640
1010.451045	2524.776204
1010.744714	2521.607839
1011.038347	2523.379805
1011.331945	2520.700431
1011.625508	2521.297808
1011.919036	2519.661954
1012.212528	2521.542304
1012.505986	2519.954341
1012.799408	2518.104237
1013.092795	2517.012827
1013.386147	2516.518794
1013.679464	2517.837056
1013.972745	2516.060049
1014.265992	2517.804288
1014.559204	2516.526356
1014.852380	2516.397807
1015.145521	2515.477796
1015.438628	2515.994514
1015.731699	2518.477282
1016.024736	2517.632889
1016.317737	2518.094155
1016.610703	2519.528363
1016.903635	2520.087931
1017.196531	2524.869466
1017.489393	2522.608508
1017.782219	2523.432737
1018.075011	2525.721421
1018.367768	2524.516585
1018.660490	2527.664785
1018.953177	2527.664785
1019.245829	2527.664785
