Dividing Wavelength (nm)	Counts (n)	Blue Motor Position (mm): 44.000000	Red Motor Position (mm): 0.000000	
326.493990	2156.658548
326.888308	2156.658548
327.282561	2156.658548
327.676750	2128.521347
328.070874	2129.154012
328.464933	2137.088788
328.858929	2142.918883
329.252859	2155.269710
329.646726	2169.954591
330.040528	2184.057219
330.434265	2204.073120
330.827938	2222.972406
331.221547	2241.375138
331.615091	2261.577562
332.008571	2281.706889
332.401986	2301.236319
332.795338	2322.540235
333.188625	2339.672597
333.581847	2361.911647
333.975006	2380.324461
334.368100	2399.349776
334.761129	2416.167065
335.154095	2431.038469
335.546996	2459.881431
335.939833	2488.454691
336.332606	2502.214520
336.725315	2512.233813
337.117960	2523.657068
337.510540	2530.956659
337.903056	2541.202804
338.295508	2543.990562
338.687896	2553.840977
339.080220	2564.692060
339.472480	2567.943605
339.864676	2571.840417
340.256807	2574.794533
340.648875	2575.585994
341.040879	2580.911973
341.432818	2580.143197
341.824694	2578.794688
342.216506	2582.804926
342.608253	2579.908783
342.999937	2577.683114
343.391557	2578.038515
343.783113	2578.328382
344.174605	2578.769482
344.566033	2573.758576
344.957397	2575.021385
345.348697	2569.687844
345.739934	2568.235992
346.131106	2568.641804
346.522215	2567.472257
346.913260	2563.363716
347.304241	2564.805486
347.695159	2561.332131
348.086012	2559.476987
348.476802	2558.287274
348.867528	2555.123950
349.258191	2553.515822
349.648789	2553.775442
350.039324	2552.361398
350.429796	2554.319886
350.820203	2549.944165
351.210548	2546.571633
351.600828	2551.874927
351.991045	2547.232024
352.381198	2549.772766
352.771288	2549.162786
353.161314	2549.346788
353.551276	2549.548434
353.941175	2546.536345
354.331010	2548.764535
354.720782	2546.077600
355.110490	2548.073897
355.500135	2549.934082
355.889717	2548.852755
356.279235	2548.958619
356.668689	2549.845862
357.058080	2548.953578
357.447408	2546.581715
357.836672	2547.000131
358.225873	2550.002138
358.615010	2549.780327
359.004084	2552.807540
359.393095	2552.084135
359.782043	2551.612787
360.170927	2552.457180
360.559748	2552.558003
360.948505	2555.930535
361.337199	2552.865513
361.725830	2556.618652
362.114398	2556.442212
362.502903	2556.278375
362.891344	2557.692418
363.279722	2556.764846
363.668037	2558.133519
364.056289	2558.320042
364.444478	2561.185938
364.832603	2557.757953
365.220665	2561.659806
365.608665	2559.822306
365.996601	2560.349106
366.384474	2561.226267
366.772284	2557.694939
367.160031	2560.122254
367.547715	2562.489076
367.935336	2560.780125
368.322893	2563.015877
368.710388	2560.545711
369.097820	2565.564180
369.485189	2565.980075
369.872495	2564.071998
370.259738	2563.787173
370.646918	2565.360013
371.034035	2565.145764
371.421090	2564.934036
371.808081	2564.056875
372.195010	2565.019735
372.581875	2563.525033
372.968678	2565.927143
373.355418	2563.968655
373.742096	2567.557956
374.128710	2568.178018
374.515262	2569.501321
374.901751	2568.150292
375.288177	2567.973852
375.674540	2566.547205
376.060841	2568.505693
376.447079	2569.113152
376.833254	2569.309757
377.219367	2564.059396
377.605417	2566.153995
377.991404	2563.235167
378.377329	2568.460323
378.763191	2565.233984
379.148991	2573.670355
379.534727	2572.697413
379.920402	2571.560632
380.306013	2572.886456
380.691563	2575.031467
381.077049	2575.452403
381.462474	2573.730849
381.847835	2574.136662
382.233134	2576.382496
382.618371	2576.611869
383.003545	2575.548185
383.388657	2578.693865
383.773706	2578.285532
384.158693	2579.392065
384.543618	2584.980184
384.928480	2580.183526
385.313280	2586.585792
385.698017	2588.093097
386.082692	2593.436720
386.467305	2593.971082
386.851856	2597.202462
387.236344	2599.372678
387.620770	2603.292175
388.005133	2609.253340
388.389435	2614.831377
388.773674	2616.663836
389.157851	2619.801954
389.541965	2628.336628
389.926018	2632.276289
390.310008	2637.141003
390.693936	2646.598207
391.077802	2652.259423
391.461606	2657.272851
391.845348	2666.455312
392.229027	2672.900428
392.612645	2683.070956
392.996200	2690.559590
393.379694	2701.153574
393.763125	2713.380893
394.146494	2719.730226
394.529801	2736.887793
394.913047	2747.408682
395.296230	2754.123498
395.679351	2761.244128
396.062410	2779.394803
396.445408	2783.631892
396.828343	2796.224695
397.211217	2809.240954
397.594028	2814.927376
397.976778	2825.264262
398.359466	2844.193794
398.742092	2844.670183
399.124656	2867.521734
399.507158	2881.881460
399.889598	2891.724313
400.271977	2909.219638
400.654294	2922.445105
401.036549	2940.472271
401.418742	2950.942748
401.800874	2973.769092
402.182944	2990.304077
402.564952	3016.255937
402.946898	3016.986904
403.328783	3027.918646
403.710606	3048.544527
404.092367	3075.933116
404.474067	3105.996037
404.855705	3103.271293
405.237282	3108.763630
405.618797	3141.276552
406.000250	3167.745130
406.381642	3201.709904
406.762972	3212.669373
407.144240	3206.556974
407.525447	3230.999008
407.906593	3237.549988
408.287677	3258.279212
408.668700	3278.698406
409.049661	3283.991618
409.430560	3300.342600
409.811399	3307.135555
410.192176	3330.771005
410.572891	3342.985720
410.953545	3383.758573
411.334138	3350.028212
411.714669	3403.598034
412.095139	3354.751773
412.475547	3407.946029
412.855894	3399.053433
413.236180	3429.975871
413.616405	3410.958118
413.996568	3437.530040
414.376670	3441.845268
414.756711	3437.272941
415.136691	3462.778659
415.516609	3485.579798
415.896466	3493.726303
416.276262	3519.100951
416.655997	3552.334757
417.035670	3557.088565
417.415283	3624.541724
417.794834	3645.293634
418.174324	3629.822333
418.553753	3630.833084
418.933121	3677.400743
419.312428	3664.422292
419.691674	3661.954648
420.070859	3696.554607
420.449983	3677.925023
420.829045	3722.977815
421.208047	3711.950291
421.586988	3760.484000
421.965867	3790.612456
422.344686	3799.343734
422.723444	3836.466791
423.102141	3739.205289
423.480777	3845.283769
423.859352	3813.065755
424.237866	3909.094694
424.616319	3895.912077
424.994712	3956.030357
425.373044	3942.333542
425.751314	4009.315353
426.129524	3944.017288
426.507673	4043.287689
426.885762	4019.175850
427.263789	4045.460427
427.641756	4042.302144
428.019662	4075.251125
428.397508	4078.225406
428.775292	4115.842496
429.153016	4125.655102
429.530679	4134.678767
429.908282	4143.828462
430.285824	4120.888691
430.663305	4194.809650
431.040726	4151.206190
431.418086	4139.646824
431.795385	4218.412333
432.172624	4251.457096
432.549802	4219.836459
432.926920	4236.983943
433.303977	4232.162080
433.680974	4273.968369
434.057910	4296.703973
434.434786	4303.567503
434.811601	4292.729023
435.188355	4403.009304
435.565050	4374.335221
435.941683	4371.222309
436.318257	4464.009786
436.694770	4461.595074
437.071222	4518.688662
437.447614	4455.283549
437.823946	4461.690856
438.200218	4475.095284
438.576429	4458.948468
438.952580	4480.854802
439.328670	4486.906707
439.704700	4532.299777
440.080670	4498.256865
440.456580	4559.579981
440.832429	4592.344960
441.208218	4491.421060
441.583947	4546.548598
441.959616	4560.520156
442.335224	4589.111060
442.710773	4611.045121
443.086261	4663.755425
443.461689	4619.095843
443.837057	4628.651350
444.212365	4703.641034
444.587612	4706.615315
444.962800	4674.382177
445.337927	4718.547726
445.712995	4600.864510
446.088002	4794.550682
446.462949	4817.792922
446.837837	4835.237835
447.212664	4821.730063
447.587431	5049.013005
447.962139	5351.953584
448.336786	5684.137896
448.711374	5669.952089
449.085901	5312.176359
449.460369	5248.294858
449.834776	5187.216238
450.209124	5424.634419
450.583412	5436.680256
450.957640	5558.154420
451.331808	5417.105456
451.705917	5267.708341
452.079965	5257.215179
452.453954	5296.463083
452.827883	5266.574082
453.201752	5267.060553
453.575562	5299.865862
453.949311	5435.324186
454.323001	5439.977171
454.696632	5437.660761
455.070202	5589.757413
455.443713	5618.166836
455.817164	5711.458429
456.190556	5783.430983
456.563888	5759.722436
456.937160	5831.626934
457.310373	5672.732285
457.683526	5737.679991
458.056619	5730.178754
458.429653	5707.125557
458.802628	5759.838383
459.175542	5788.419204
459.548398	5928.948929
459.921194	6117.115038
460.293930	6174.291805
460.666607	6430.130362
461.039224	6643.439226
461.411782	6769.856241
461.784280	6680.960534
462.156719	6687.077974
462.529099	6647.522560
462.901419	6508.265727
463.273680	6378.554317
463.645882	6367.088213
464.018024	6366.294231
464.390106	6433.770076
464.762130	6699.643050
465.134094	7091.827175
465.505999	7729.076912
465.877845	8436.101260
466.249631	8780.928786
466.621358	8707.038073
466.993026	8508.093978
467.364634	8293.166904
467.736184	8007.724171
468.107674	7858.311932
468.479105	7765.925226
468.850477	7704.586987
469.221790	7528.542333
469.593043	7313.733726
469.964238	7207.335133
470.335373	7189.000457
470.706449	7337.142324
471.077467	7536.575412
471.448425	8198.352883
471.819324	8777.838558
472.190164	8803.364441
472.560945	8320.873086
472.931667	7853.376643
473.302330	7659.851788
473.672934	7538.816204
474.043479	7619.081456
474.413965	7518.712083
474.784393	7473.326575
475.154761	7624.296530
475.525070	7636.662480
475.895321	7593.424503
476.265513	7691.311108
476.635645	7854.831016
477.005719	7847.264244
477.375734	7932.489991
477.745691	8036.688120
478.115588	8243.186384
478.485427	8482.805030
478.855207	8963.995767
479.224928	9396.466273
479.594591	9780.087999
479.964194	9787.380028
480.333739	9862.183189
480.703226	9866.677378
481.072653	9968.392739
481.442022	10082.900028
481.811333	10233.378470
482.180584	10076.936343
482.549777	10013.639615
482.918912	9951.615779
483.287988	9940.164798
483.657005	9842.673924
484.025964	9757.478424
484.394864	9825.478548
484.763706	9784.362897
485.132489	9698.239825
485.501213	9691.477117
485.869879	9748.590869
486.238487	9686.118370
486.607036	9758.789124
486.975527	9707.797853
487.343959	9760.707283
487.712333	9810.995313
488.080648	9846.101908
488.448905	9958.622983
488.817104	9951.305748
489.185244	10126.614393
489.553326	10337.858904
489.921350	10815.868674
490.289315	11447.852926
490.657222	11735.538973
491.025070	11908.790827
491.392861	11825.866367
491.760593	11666.132367
492.128267	11409.525033
492.495883	11169.130050
492.863440	10935.517940
493.230939	10708.630728
493.598380	10530.882164
493.965763	10501.827474
494.333088	10372.166477
494.700354	10296.312235
495.067563	10277.319688
495.434713	10281.231623
495.801805	10325.881123
496.168839	10286.847468
496.535815	10249.013609
496.902733	10298.966402
497.269593	10251.098126
497.636395	10258.954764
498.003139	10366.911074
498.369825	10298.358943
498.736453	10391.562316
499.103023	10341.871663
499.469535	10343.996509
499.835989	10393.609025
500.202385	10367.374860
500.568723	10382.634433
500.935003	10443.405542
501.301226	10417.093240
501.667390	10586.728067
502.033497	10682.336070
502.399546	10606.323032
502.765537	10517.218117
503.131470	10616.896852
503.497345	10711.365554
503.863163	10481.554474
504.228923	10621.978335
504.594625	10731.033616
504.960269	10643.730914
505.325856	10789.301793
505.691385	10668.548514
506.056856	10742.557694
506.422270	10845.961842
506.787625	10776.328383
507.152924	10833.303504
507.518164	10895.617207
507.883347	10759.914387
508.248472	10829.235293
508.613540	10939.588671
508.978550	11020.219407
509.343503	10996.442804
509.708398	11047.373582
510.073236	11177.306802
510.438016	11198.928310
510.802738	11103.784093
511.167403	11230.894267
511.532010	11291.312496
511.896561	11392.485933
512.261053	11585.584810
512.625488	11506.814261
512.989866	11496.812612
513.354186	11467.790689
513.718449	11478.409880
514.082655	11615.045313
514.446803	11576.719941
514.810894	11680.897906
515.174927	11682.344717
515.538904	11665.224959
515.902822	11819.146509
516.266684	11689.669514
516.630488	11798.011472
516.994235	11792.065431
517.357925	11901.203891
517.721558	11962.592542
518.085133	12027.164682
518.448651	12063.685321
518.812112	12006.727844
519.175516	12032.856144
519.538863	12118.298661
519.902152	12124.267387
520.265385	12228.563819
520.628560	12255.707912
520.991678	12191.516379
521.354739	12247.803382
521.717743	12322.099908
522.080690	12295.674179
522.443580	12431.918924
522.806413	12445.898043
523.169189	12436.839090
523.531908	12507.327024
523.894569	12461.555867
524.257174	12474.567085
524.619722	12585.414497
524.982213	12557.473902
525.344647	12552.586503
525.707025	12559.573542
526.069345	12668.580932
526.431608	12644.408600
526.793815	12730.607289
527.155964	12619.868263
527.518057	12650.062254
527.880093	12604.356632
528.242072	12723.524468
528.603995	12647.753405
528.965860	12665.405005
529.327669	12692.221423
529.689421	12639.458187
530.051117	12656.257832
530.412755	12699.072351
530.774337	12695.911548
531.135862	12652.577789
531.497331	12705.887991
531.858743	12666.836693
532.220098	12757.703491
532.581396	12685.236905
532.942638	12606.151283
533.303824	12679.084176
533.664953	12659.466526
534.026025	12603.424019
534.387040	12716.560114
534.747999	12689.226978
535.108902	12730.143503
535.469748	12605.911828
535.830537	12629.572484
536.191270	12674.847087
536.551947	12605.803443
536.912567	12664.850478
537.273131	12711.186244
537.633638	12579.476017
537.994089	12633.713792
538.354483	12553.652707
538.714821	12684.387470
539.075103	12763.783123
539.435328	12699.573946
539.795497	12670.907425
540.155609	12671.446828
540.515665	12771.549020
540.875665	12631.064665
541.235609	12721.313922
541.595496	12677.251717
541.955328	12856.313502
542.315102	12719.466339
542.674821	12657.563491
543.034483	12657.737410
543.394090	12660.242864
543.753640	12631.107515
544.113134	12881.448695
544.472571	12634.449800
544.831953	12914.624528
545.191278	12742.138929
545.550548	12678.338086
545.909761	12792.812607
546.268918	12835.501098
546.628019	12891.772978
546.987064	12788.492338
547.346053	12635.712609
547.704986	12835.937158
548.063863	12705.651057
548.422684	12763.886466
548.781449	12712.018034
549.140158	12810.131491
549.498811	12762.984100
549.857408	12635.712609
550.215949	12835.682579
550.574434	12801.695120
550.932864	12749.375505
551.291237	12952.281947
551.649555	12840.096110
552.007817	12903.498702
552.366022	12815.311277
552.724173	12859.658307
553.082267	12954.794962
553.440305	13036.378476
553.798288	12856.603368
554.156215	12939.578240
554.514086	12975.680463
554.871902	12925.357145
555.229661	12949.516874
555.587365	12907.309814
555.945014	12916.237697
556.302606	12898.888566
556.660143	12955.238584
557.017625	12991.368534
557.375050	12953.264972
557.732421	13054.882031
558.089735	13047.557234
558.446994	13022.343903
558.804197	13143.714723
559.161345	13127.358700
559.518437	12944.163169
559.875474	13041.979198
560.232455	13058.118452
560.589381	13098.664452
560.946251	13044.845094
561.303065	13220.327659
561.659825	13168.527283
562.016528	13090.563318
562.373177	13028.370603
562.729770	13164.305316
563.086307	13047.330383
563.442789	13149.353254
563.799216	13185.546218
564.155587	13131.636119
564.511904	13152.539263
564.868164	13156.042865
565.224370	13219.016959
565.580520	13174.238910
565.936615	13237.938930
566.292654	13178.337368
566.648638	13247.338161
567.004567	13248.308583
567.360441	13257.254111
567.716260	13217.295405
568.072023	13294.737610
568.427732	13276.397893
568.783385	13172.643385
569.138982	13291.410449
569.494525	13289.063792
569.850013	13240.272984
570.205445	13225.814955
570.560823	13247.756577
570.916145	13193.138196
571.271412	13197.927292
571.626625	13161.063854
571.981782	13157.958504
572.336884	13105.240637
572.691931	13205.103374
573.046923	13089.267741
573.401860	13071.154876
573.756743	13064.651787
574.111570	13083.571238
574.466342	13060.311354
574.821059	13116.416875
575.175722	12985.929129
575.530330	13004.788085
575.884882	12928.376796
576.239380	12940.437756
576.593823	12919.869849
576.948211	12922.665168
577.302544	12791.471660
577.656823	12815.306236
578.011047	12877.390566
578.365216	12811.905977
578.719330	12753.287440
579.073389	12719.915002
579.427394	12738.421078
579.781344	12737.052404
580.135239	12664.845437
580.489080	12670.315089
580.842866	12547.023590
581.196597	12652.073674
581.550273	12644.252324
581.903895	12594.939757
582.257463	12712.050802
582.610975	12557.148747
582.964434	12618.698715
583.317837	12539.865151
583.671186	12498.628513
584.024481	12554.121534
584.377721	12445.343517
584.730906	12512.516892
585.084037	12537.026982
585.437113	12446.109772
585.790135	12468.457207
586.143103	12385.416800
586.496016	12394.944581
586.848874	12410.337744
587.201679	12408.906057
587.554428	12284.094649
587.907124	12332.562823
588.259765	12272.295828
588.612352	12332.308244
588.964884	12206.486086
589.317362	12240.486148
589.669786	12237.622772
590.022155	12194.336905
590.374470	12297.564612
590.726731	12182.991788
591.078937	12072.892988
591.431090	12093.302099
591.783188	12025.556553
592.135232	11939.307452
592.487222	12003.541835
592.839157	12018.393074
593.191038	11948.341200
593.542866	11896.881102
593.894639	11747.725962
594.246358	11807.781228
594.598022	11814.901858
594.949633	11712.901671
595.301190	11703.583098
595.652692	11661.706233
596.004141	11753.162847
596.355535	11541.061340
596.706876	11513.559325
597.058162	11483.088070
597.409395	11571.668705
597.760573	11601.514857
598.111698	11492.300779
598.462768	11502.607418
598.813785	11509.627225
599.164748	11377.677543
599.515657	11460.297014
599.866511	11333.189361
600.217312	11464.367746
600.568060	11224.693648
600.918753	11396.178578
601.269392	11395.886191
601.619978	11297.082096
601.970510	11331.790441
602.320988	11373.705114
602.671412	11448.631784
603.021783	11367.244876
603.372100	11299.292642
603.722363	11313.692698
604.072572	11310.357975
604.422728	11320.649491
604.772830	11262.532548
605.122878	11283.092894
605.472872	11256.586507
605.822813	11313.007101
606.172701	11263.790316
606.522534	11303.060905
606.872314	11361.301355
607.222041	11294.039760
607.571714	11374.105886
607.921333	11242.173849
608.270899	11293.465068
608.620411	11348.272493
608.969870	11305.052161
609.319276	11285.598348
609.668627	11295.499174
610.017926	11382.184335
610.367171	11407.206102
610.716362	11402.258210
611.065500	11372.293591
611.414585	11386.749100
611.763616	11447.071547
612.112594	11409.963613
612.461518	11437.604260
612.810389	11482.687299
613.159207	11422.256467
613.507971	11416.083574
613.856682	11523.649194
614.205340	11481.837864
614.553945	11623.711057
614.902496	11502.851914
615.250994	11565.717623
615.599439	11553.644060
615.947830	11585.620098
616.296169	11556.399050
616.644454	11571.293139
616.992686	11575.691546
617.340864	11665.923159
617.688990	11552.845037
618.037063	11701.455732
618.385082	11668.262254
618.733048	11716.392670
619.080961	11697.997500
619.428821	11678.258862
619.776628	11677.497648
620.124382	11623.791715
620.472083	11648.760550
620.819731	11671.105465
621.167326	11596.115781
621.514868	11576.150291
621.862357	11483.355252
622.209793	11470.028961
622.557176	11389.904862
622.904506	11330.462097
623.251783	11246.904972
623.599007	11184.699654
623.946179	11135.936572
624.293297	11108.343817
624.640363	10972.104114
624.987376	10957.225148
625.334336	10894.566126
625.681243	10815.903962
626.028097	10785.447831
626.374899	10756.120918
626.721647	10723.028264
627.068343	10686.847903
627.414987	10614.449372
627.761577	10556.806298
628.108115	10602.819430
628.454600	10480.684875
628.801032	10491.568726
629.147412	10474.078443
629.493739	10444.965779
629.840014	10364.619869
630.186236	10414.086192
630.532405	10317.154885
630.878521	10352.153096
631.224585	10303.357247
631.570597	10220.957067
631.916556	10232.771011
632.262462	10211.598165
632.608316	10197.918994
632.954117	10173.126599
633.299866	10160.904322
633.645562	10131.151432
633.991206	10029.511688
634.336797	9931.136091
634.682336	9923.163507
635.027823	9867.241987
635.373257	9822.279936
635.718639	9766.733982
636.063968	9726.707221
636.409245	9608.903017
636.754470	9602.294064
637.099642	9543.259632
637.444762	9442.945712
637.789829	9450.759500
638.134845	9372.460299
638.479808	9355.852217
638.824719	9331.936983
639.169577	9240.034228
639.514383	9242.746369
639.859137	9176.210700
640.203839	9205.393940
640.548489	9130.701684
640.893086	9134.979103
641.237632	9064.622239
641.582125	9072.163805
641.926566	9056.052278
642.270955	9046.159013
642.615292	9040.573415
642.959576	9018.324282
643.303809	9007.435390
643.647990	9027.373153
643.992118	9007.841203
644.336195	8975.534968
644.680219	8979.020926
645.024192	9010.177778
645.368112	9088.411444
645.711981	9058.590498
646.055797	9200.395636
646.399562	9154.087596
646.743274	9319.686980
647.086935	9386.908246
647.430544	9357.944296
647.774101	9383.984376
648.117606	9409.162419
648.461059	9477.812852
648.804460	9406.558663
649.147810	9292.545407
649.491108	9260.163556
649.834354	9199.982261
650.177548	9049.418119
650.520690	8958.594171
650.863781	8952.905229
651.206820	8933.653062
651.549807	8838.652518
651.892742	8742.600893
652.235626	8702.440541
652.578458	8663.240529
652.921238	8560.968120
653.263967	8595.580682
653.606644	8528.805558
653.949269	8504.739090
654.291843	8431.657483
654.634365	8503.579625
654.976836	8429.018439
655.319255	8422.485103
655.661622	8412.100326
656.003938	8364.055610
656.346203	8334.106115
656.688416	8364.741207
657.030577	8321.777973
657.372687	8284.274309
657.714746	8316.051222
658.056753	8331.845157
658.398708	8231.735403
658.740612	8228.887152
659.082465	8272.198225
659.424266	8224.639979
659.766016	8233.550219
660.107715	8213.158752
660.449362	8225.287768
660.790958	8223.011687
661.132503	8222.094197
661.473996	8219.762663
661.815438	8233.963593
662.156829	8266.847040
662.498168	8210.050880
662.839456	8202.625261
663.180693	8223.450267
663.521879	8247.753670
663.863013	8230.543171
664.204097	8223.142757
664.545129	8297.005743
664.886110	8293.076163
665.227040	8294.646483
665.567918	8306.203328
665.908746	8323.096235
666.249522	8341.725819
666.590248	8342.499636
666.930922	8356.667799
667.271545	8341.425870
667.612118	8358.286009
667.952639	8320.794948
668.293109	8327.565218
668.633528	8301.537740
668.973896	8290.111965
669.314213	8292.967779
669.654480	8257.473014
669.994695	8243.851817
670.334859	8219.185451
670.674973	8201.178449
671.015035	8226.744661
671.355047	8217.166469
671.695008	8205.239099
672.034918	8181.838063
672.374777	8185.031634
672.714585	8161.612953
673.054342	8193.304167
673.394049	8162.298550
673.733705	8207.013585
674.073310	8147.593505
674.412864	8161.323087
674.752368	8098.303623
675.091820	8149.950244
675.431223	8078.504491
675.770574	8033.731483
676.109875	8007.706527
676.449125	7961.002757
676.788324	7945.821322
677.127473	7860.550205
677.466571	7845.025971
677.805619	7783.743185
678.144616	7783.309645
678.483562	7765.607634
678.822458	7712.136115
679.161303	7700.249074
679.500098	7674.995414
679.838842	7658.220974
680.177535	7677.505908
680.516179	7705.769138
680.854771	7725.636325
681.193314	7842.855755
681.531805	7991.048034
681.870247	8122.304556
682.208638	8268.901310
682.546978	8343.646498
682.885268	8375.264615
683.223508	8306.455386
683.561697	8260.280937
683.899836	8227.815906
684.237925	8143.079151
684.575963	8114.785675
684.913951	8031.909106
685.251889	8049.280922
685.589776	8051.952734
685.927614	8029.106225
686.265401	8047.786220
686.603137	8046.974594
686.940824	8122.188610
687.278460	8174.593925
687.616046	8183.191612
687.953582	8296.178994
688.291068	8280.175851
688.628504	8343.003751
688.965889	8344.637085
689.303224	8300.965569
689.640510	8263.300588
689.977745	8149.841859
690.314930	8030.774847
690.652065	7960.533929
690.989150	7845.154521
691.326185	7698.265380
691.663170	7582.013852
692.000105	7459.695295
692.336990	7342.801019
692.673825	7268.277642
693.010610	7175.159969
693.347345	7082.609425
693.684030	6963.857485
694.020665	6918.497183
694.357251	6806.583567
694.693786	6795.437576
695.030272	6755.226812
695.366707	6654.267624
695.703093	6604.450942
696.039429	6599.810560
696.375716	6555.745834
696.711952	6547.248969
697.048139	6517.816193
697.384276	6485.777139
697.720363	6505.810685
698.056400	6481.552652
698.392388	6448.260872
698.728326	6441.500685
699.064214	6415.831130
699.400053	6413.232415
699.735842	6347.142888
700.071581	6312.658875
700.407270	6262.199446
700.742910	6229.855403
701.078501	6189.412746
701.414042	6149.680892
701.749533	6092.630154
702.084974	6035.793665
702.420366	6071.109468
702.755709	6003.749570
703.091002	5948.377536
703.426246	5955.314164
703.761440	5936.757677
704.096584	5896.037757
704.431679	5886.918309
704.766725	5868.868458
705.101721	5856.348752
705.436668	5864.457448
705.771565	5811.038862
706.106413	5869.768304
706.441212	5868.134970
706.775961	5884.667434
707.110661	5895.500874
707.445311	5958.260718
707.779913	5921.566160
708.114465	5961.577798
708.448967	6007.084293
708.783421	6123.867663
709.117825	6163.314692
709.452180	6204.112750
709.786485	6259.031080
710.120742	6396.160547
710.454949	6398.522328
710.789107	6473.491847
711.123216	6600.755776
711.457275	6625.812831
711.791286	6727.432411
712.125247	6752.101297
712.459159	6718.426389
712.793023	6852.422779
713.126837	6676.899884
713.460602	6736.498926
713.794318	6691.907399
714.127985	6638.788761
714.461602	6491.788715
714.795171	6493.001113
715.128691	6325.304609
715.462162	6239.085755
715.795584	6169.086813
716.128957	6124.160050
716.462281	6058.090688
716.795556	6024.083064
717.128782	5936.256082
717.461960	5837.963664
717.795088	5825.010419
718.128167	5755.142548
718.461198	5675.270506
718.794180	5650.311753
719.127113	5590.712712
719.459997	5558.376231
719.792833	5492.546323
720.125619	5488.354604
720.458357	5430.827477
720.791046	5399.146345
721.123686	5372.937387
721.456278	5326.079862
721.788821	5319.801104
722.121315	5282.914982
722.453761	5286.506804
722.786158	5273.873672
723.118506	5268.792189
723.450805	5256.448924
723.783056	5277.828457
724.115259	5260.832207
724.447412	5248.602368
724.779518	5292.450324
725.111574	5298.759328
725.443582	5332.487168
725.775542	5321.411753
726.107453	5405.863683
726.439315	5380.153798
726.771129	5448.408501
727.102895	5516.390981
727.434612	5557.995624
727.766281	5587.345221
728.097901	5644.597606
728.429473	5655.730994
728.760996	5668.417057
729.092471	5694.187436
729.423897	5672.626421
729.755276	5644.690867
730.086606	5662.055121
730.417887	5748.233646
730.749120	5843.496331
731.080305	5880.740375
731.411442	5954.409277
731.742530	5972.121371
732.073570	5996.505432
732.404562	6061.344753
732.735506	6058.872067
733.066401	6032.587491
733.397249	5970.087265
733.728048	5875.825250
734.058798	5733.778138
734.389501	5603.504640
734.720156	5520.683523
735.050762	5413.924488
735.381320	5336.283157
735.711831	5284.815497
736.042293	5202.944638
736.372707	5203.947827
736.703073	5155.817411
737.033391	5187.833779
737.363661	5169.506664
737.693883	5185.643398
738.024056	5208.870514
738.354182	5234.593002
738.684260	5283.650990
739.014290	5316.315147
739.344272	5354.138924
739.674207	5411.267800
740.004093	5444.599909
740.333931	5450.644253
740.663722	5467.955575
740.993464	5480.734900
741.323159	5455.914779
741.652806	5413.463222
741.982405	5386.510693
742.311956	5336.598229
742.641460	5323.604655
742.970915	5273.971975
743.300323	5211.118869
743.629683	5177.698539
743.958996	5127.473523
744.288260	5078.602058
744.617477	5015.111245
744.946647	5005.056664
745.275768	4949.293941
745.604842	4913.920164
745.933869	4878.493456
746.262847	4868.572465
746.591778	4860.060477
746.920662	4834.940407
747.249498	4829.291794
747.578286	4847.248384
747.907027	4871.821488
748.235720	4917.680865
748.564365	4929.031023
748.892963	4914.386471
749.221514	4930.626548
749.550017	4905.483793
749.878473	4901.186210
750.206881	4863.906877
750.535242	4849.771482
750.863555	4832.233307
751.191821	4812.439217
751.520039	4815.365607
751.848210	4796.052946
752.176334	4806.162980
752.504411	4785.413591
752.832440	4755.733798
753.160421	4769.758288
753.488356	4746.657200
753.816243	4728.078028
754.144082	4696.291032
754.471875	4681.558260
754.799620	4674.220861
755.127318	4664.725847
755.454969	4664.718286
755.782572	4651.543230
756.110129	4653.426101
756.437638	4638.663082
756.765100	4640.321622
757.092515	4638.771467
757.419882	4641.662568
757.747203	4640.445130
758.074477	4651.775123
758.401703	4643.308505
758.728882	4669.661137
759.056014	4686.402809
759.383099	4707.686560
759.710138	4734.502978
760.037129	4754.367645
760.364073	4767.139408
760.690970	4763.487092
761.017820	4767.469604
761.344623	4799.932114
761.671379	4862.966702
761.998088	4951.922903
762.324751	5180.236760
762.651366	5645.893182
762.977935	6336.697617
763.304456	6902.400778
763.630931	7206.367232
763.957359	7144.232490
764.283740	6849.869435
764.610074	6527.094436
764.936362	6128.538292
765.262602	5807.608356
765.588796	5457.338905
765.914943	5205.049319
766.241044	4982.878108
766.567097	4806.803207
766.893104	4656.733098
767.219064	4560.469745
767.544978	4458.983756
767.870845	4376.616343
768.196665	4328.843849
768.522438	4281.295686
768.848165	4241.105087
769.173846	4200.564128
769.499479	4170.496165
769.825066	4135.152636
770.150607	4092.232252
770.476101	4080.435952
770.801548	4061.309814
771.126949	4025.817571
771.452303	4008.793594
771.777611	3969.195331
772.102872	3970.455619
772.428087	3946.636167
772.753256	3912.976383
773.078378	3898.783014
773.403453	3864.908981
773.728482	3836.519723
774.053465	3824.088238
774.378401	3804.931853
774.703291	3781.742545
775.028135	3757.822270
775.352932	3755.281529
775.677683	3731.842684
776.002388	3713.097153
776.327046	3712.872822
776.651658	3691.178217
776.976224	3676.329498
777.300743	3671.923529
777.625216	3655.012979
777.949643	3645.102070
778.274024	3653.684635
778.598359	3631.932056
778.922647	3633.091521
779.246889	3618.731795
779.571086	3619.039305
779.895236	3621.438894
780.219339	3623.407465
780.543397	3621.695993
780.867409	3638.046976
781.191374	3636.491780
781.515294	3630.465080
781.839167	3646.513593
782.162995	3642.752893
782.486776	3635.407932
782.810511	3626.094400
783.134201	3613.766258
783.457844	3613.289869
783.781441	3604.195627
784.104993	3595.771859
784.428498	3590.113164
784.751958	3588.706682
785.075372	3580.406422
785.398739	3573.497521
785.722061	3581.964139
786.045337	3579.241916
786.368568	3604.170422
786.691752	3599.482149
787.014891	3644.776916
787.337983	3688.932382
787.661030	3774.337090
787.984031	3877.017832
788.306987	3950.366621
788.629897	4002.522399
788.952760	4008.309643
789.275579	3992.442612
789.598351	3943.132565
789.921078	3889.650964
790.243759	3826.442457
790.566395	3782.380251
790.888984	3731.260431
791.211529	3695.400183
791.534027	3651.340498
791.856480	3613.804067
792.178888	3594.650203
792.501249	3572.106163
792.823566	3541.150958
793.145836	3532.633928
793.468062	3531.270296
793.790241	3513.321268
794.112375	3519.219418
794.434464	3541.224054
794.756507	3540.581307
795.078505	3558.021179
795.400457	3596.742282
795.722364	3646.899242
796.044226	3691.939431
796.366042	3742.872729
796.687812	3735.343765
797.009538	3761.391407
797.331218	3750.411774
797.652852	3742.391298
797.974442	3720.263154
798.295986	3716.436918
798.617484	3681.670600
798.938938	3660.323834
799.260346	3646.047287
799.581709	3607.784929
799.903026	3596.313783
800.224299	3578.145465
800.545526	3545.496432
800.866708	3525.876261
801.187845	3511.980321
801.508936	3491.359481
801.829983	3483.429746
802.150984	3455.302628
802.471940	3444.590176
802.792851	3438.994495
803.113717	3433.267745
803.434538	3423.893719
803.755314	3414.249992
804.076045	3409.710433
804.396731	3397.725089
804.717372	3400.086870
805.037967	3395.063360
805.358518	3398.304822
805.679024	3411.555495
805.999485	3407.804877
806.319901	3415.104467
806.640272	3414.754107
806.960598	3427.609049
807.280879	3426.323555
807.601115	3440.562294
807.921306	3431.052158
808.241453	3432.370419
808.561554	3441.217644
808.881611	3436.191614
809.201623	3438.848302
809.521590	3427.180551
809.841513	3426.631066
810.161390	3435.652210
810.481223	3412.546082
810.801011	3410.766554
811.120755	3409.765885
811.440453	3396.447157
811.760107	3390.853997
812.079716	3380.620454
812.399281	3371.926985
812.718801	3370.157540
813.038276	3363.888865
813.357707	3361.585058
813.677093	3366.480018
813.996434	3351.099458
814.315731	3357.668081
814.634983	3358.772094
814.954191	3356.727906
815.273354	3372.947818
815.592473	3386.284191
815.911547	3402.877149
816.230577	3415.779982
816.549562	3448.055969
816.868502	3462.529122
817.187399	3485.635251
817.506250	3510.175588
817.825058	3521.039274
818.143821	3567.322108
818.462539	3610.471864
818.781213	3666.587468
819.099843	3748.498656
819.418429	3903.259559
819.736970	4056.538362
820.055466	4246.839399
820.373919	4480.126355
820.692327	4824.285928
821.010691	5334.871634
821.329011	6415.816006
821.647286	8167.919437
821.965517	10359.412357
822.283704	11988.635143
822.601847	13079.104775
822.919945	12667.252588
823.237999	11974.245169
823.556010	11079.026987
823.873976	10125.081883
824.191897	9144.809353
824.509775	8371.801343
824.827609	7567.868374
825.145398	7015.476380
825.463144	6631.242154
825.780845	6497.044118
826.098502	6558.392440
826.416116	6939.544000
826.733685	7446.613501
827.051210	7736.081596
827.368692	7647.367370
827.686129	7202.735080
828.003522	6644.679350
828.320872	6073.413275
828.638177	5614.476711
828.955439	5241.975771
829.272656	4900.374584
829.589830	4620.577943
829.906960	4354.110112
830.224046	4147.299296
830.541088	3973.175322
830.858086	3856.580995
831.175041	3761.217488
831.491952	3713.651680
831.808819	3700.148950
832.125642	3730.111048
832.442421	3836.287830
832.759157	4052.318916
833.075849	4429.245989
833.392497	4894.587339
833.709101	5287.835148
834.025662	5397.553341
834.342179	5273.848467
834.658653	4998.548534
834.975083	4727.793202
835.291469	4480.638032
835.607811	4255.139659
835.924110	4096.615535
836.240366	3937.743572
836.556578	3778.117956
836.872746	3640.270124
837.188871	3523.673277
837.504952	3428.763474
837.820990	3353.161289
838.136984	3299.611633
838.452935	3270.312447
838.768842	3255.103285
839.084706	3286.108902
839.400526	3423.185437
839.716303	3649.886125
840.032037	3859.167107
840.347727	3928.067077
840.663373	3837.467460
840.978977	3686.341229
841.294537	3555.016651
841.610054	3451.168882
841.925527	3371.309443
842.240957	3303.175728
842.556344	3242.686923
842.871687	3183.690300
843.186987	3120.033130
843.502244	3069.692167
843.817458	3029.582227
844.132629	2996.592916
844.447756	2975.785554
844.762840	2953.793520
845.077881	2935.990685
845.392879	2921.603232
845.707833	2911.324319
846.022745	2896.725138
846.337613	2895.517782
846.652438	2886.937738
846.967221	2883.373642
847.281960	2875.706047
847.596656	2872.388968
847.911309	2867.720859
848.225919	2860.648120
848.540485	2857.542770
848.855009	2854.513036
849.169490	2846.825277
849.483928	2848.624968
849.798323	2846.248064
850.112675	2838.651046
850.426984	2839.815552
850.741251	2837.357990
851.055474	2835.439831
851.369654	2833.935046
851.683792	2835.749862
851.997887	2835.833041
852.311938	2835.467557
852.625947	2833.246929
852.939914	2834.872701
853.253837	2838.172136
853.567718	2838.479646
853.881555	2833.725838
854.195350	2836.380006
854.509103	2834.000581
854.822812	2832.609223
855.136479	2831.046465
855.450103	2833.057885
855.763685	2828.409942
856.077224	2829.766012
856.390720	2834.797083
856.704173	2837.017712
857.017584	2837.582321
857.330953	2840.743124
857.644278	2841.050635
857.957561	2845.030626
858.270802	2846.227900
858.584000	2846.129597
858.897155	2841.093485
859.210268	2840.417970
859.523339	2836.987465
859.836367	2836.145592
860.149352	2837.047959
860.462295	2838.935871
860.775195	2832.732731
861.088054	2828.220898
861.400869	2828.614108
861.713642	2828.054540
862.026373	2831.691733
862.339062	2834.938236
862.651708	2837.383195
862.964312	2845.449042
863.276873	2840.715398
863.589392	2851.954651
863.901869	2858.845908
864.214303	2864.169366
864.526696	2867.927547
864.839045	2875.844679
865.151353	2882.118395
865.463619	2888.044271
865.775842	2889.785990
866.088023	2895.162380
866.400162	2895.192627
866.712258	2894.547359
867.024313	2895.389232
867.336325	2897.627504
867.648296	2900.664800
867.960224	2900.352248
868.272110	2904.362486
868.583954	2902.489697
868.895755	2904.387692
869.207515	2903.757548
869.519233	2910.941192
869.830909	2912.607293
870.142542	2919.649785
870.454134	2919.450659
870.765684	2925.187493
871.077191	2930.213523
871.388657	2940.023608
871.700081	2943.600307
872.011463	2945.972170
872.322803	2954.169086
872.634101	2958.091104
872.945357	2965.360448
873.256571	2978.283445
873.567744	2983.155721
873.878874	2985.678818
874.189963	2991.370281
874.501010	2996.136692
874.812015	2994.931856
875.122979	3004.179853
875.433900	3006.599607
875.744780	3009.183198
876.055618	3018.204343
876.366415	3018.227028
876.677169	3022.945548
876.987882	3029.317566
877.298554	3036.191180
877.609183	3051.478479
877.919771	3071.834658
878.230317	3092.163111
878.540822	3131.476549
878.851285	3181.573015
879.161707	3249.799992
879.472087	3359.341744
879.782425	3522.319727
880.092722	3797.402890
880.402977	4220.882498
880.713191	4773.395480
881.023363	5379.596751
881.333494	5820.349873
881.643583	6110.183451
881.953631	6185.732703
882.263637	6137.814016
882.573602	5990.287169
882.883526	5827.649463
883.193408	5618.837309
883.503248	5405.437705
883.813048	5185.403943
884.122806	4965.150890
884.432522	4719.003951
884.742197	4493.361905
885.051831	4279.647228
885.361424	4075.546033
885.670975	3910.455806
885.980485	3760.090790
886.289954	3635.418014
886.599382	3527.325593
886.908768	3445.681586
887.218113	3368.824154
887.527417	3302.790080
887.836680	3243.259094
888.145901	3196.560366
888.455082	3157.632576
888.764221	3123.791310
889.073319	3094.686208
889.382376	3074.461099
889.691392	3059.572051
890.000366	3051.743139
890.309300	3042.790050
890.618193	3040.574463
890.927044	3033.116076
891.235855	3034.144471
891.544625	3036.486087
891.853353	3044.531769
892.162041	3059.456105
892.470687	3082.486616
892.779293	3116.108592
893.087858	3163.712207
893.396381	3242.482757
893.704864	3350.781865
894.013306	3511.342615
894.321707	3694.099565
894.630068	3849.581353
894.938387	3927.918363
895.246665	3932.208385
895.554903	3875.515569
895.863100	3789.760501
896.171256	3717.026733
896.479371	3643.262049
896.787446	3564.178948
897.095480	3494.429544
897.403473	3435.241356
897.711425	3381.147255
898.019336	3330.216478
898.327207	3275.746810
898.635038	3229.103534
898.942827	3174.737211
899.250576	3133.717342
899.558284	3091.248141
899.865952	3066.291909
900.173579	3038.953732
900.481165	3015.973632
900.788711	2995.244407
901.096216	2979.216059
901.403681	2968.354893
901.711105	2960.624283
902.018489	2952.477779
902.325832	2960.047071
902.633135	2969.244657
902.940397	3008.288393
903.247619	3097.559666
903.554800	3274.189094
903.861941	3554.220149
904.169041	3824.907425
904.476101	3990.993280
904.783121	4014.142258
905.090100	3948.380406
905.397039	3842.475846
905.703938	3732.238415
906.010796	3628.506592
906.317614	3544.268911
906.624391	3461.215902
906.931129	3383.733367
907.237826	3320.471927
907.544483	3252.212184
907.851099	3183.302131
908.157675	3101.141406
908.464211	3034.938453
908.770707	2975.551140
909.077163	2928.744027
909.383578	2891.545352
909.689954	2861.353882
909.996289	2843.971983
910.302584	2831.716938
910.608839	2820.253355
910.915054	2812.837817
911.221229	2806.443114
911.527363	2806.901859
911.833458	2808.331026
912.139513	2810.362611
912.445527	2810.944864
912.751502	2823.159580
913.057436	2839.976869
913.363331	2858.571165
913.669186	2887.240207
913.975000	2926.485590
914.280775	2985.918273
914.586510	3067.572362
914.892205	3177.852644
915.197859	3328.250428
915.503475	3508.149044
915.809050	3685.673277
916.114585	3820.274605
916.420081	3897.477355
916.725536	3931.248045
917.030952	3892.456366
917.336328	3851.270139
917.641665	3805.738438
917.946961	3744.979931
918.252218	3686.704193
918.557435	3611.079323
918.862612	3545.758572
919.167750	3485.121053
919.472848	3410.121287
919.777906	3342.816842
920.082925	3268.898403
920.387904	3197.404759
920.692843	3141.422746
920.997743	3086.791761
921.302603	3041.116387
921.607423	3003.322857
921.912204	2970.754482
922.216946	2940.353804
922.521647	2918.752460
922.826310	2895.051475
923.130932	2877.586397
923.435516	2855.894312
923.740059	2843.364524
924.044564	2828.283913
924.349028	2812.873105
924.653454	2799.410704
924.957840	2786.712037
925.262186	2778.053856
925.566493	2769.357865
925.870761	2753.334558
926.174989	2746.624782
926.479178	2742.362487
926.783328	2732.282699
927.087438	2729.331104
927.391509	2722.187789
927.695541	2715.704865
927.999533	2706.497197
928.303486	2704.132896
928.607400	2702.436548
928.911275	2697.410518
929.215110	2692.802903
929.518906	2690.902388
929.822663	2690.589837
930.126381	2687.061029
930.430060	2690.630166
930.733699	2689.984898
931.037299	2691.003211
931.340861	2687.943231
931.644383	2691.071267
931.947866	2689.208560
932.251309	2688.384332
932.554714	2690.463808
932.858080	2692.578572
933.161407	2691.255269
933.464694	2685.770493
933.767943	2685.384845
934.071153	2687.943231
934.374323	2683.408713
934.677455	2684.956347
934.980548	2682.385359
935.283602	2680.205060
935.586617	2679.169102
935.889593	2682.143383
936.192530	2681.203208
936.495428	2681.162879
936.798287	2683.118847
937.101108	2687.847449
937.403890	2695.525126
937.706632	2705.456199
938.009336	2715.578836
938.312002	2725.179714
938.614628	2740.451889
938.917216	2749.236100
939.219765	2757.801020
939.522275	2762.887544
939.824747	2768.452978
940.127179	2762.597678
940.429573	2765.824017
940.731929	2764.720004
941.034246	2764.909047
941.336524	2765.965169
941.638763	2765.095570
941.940964	2763.285796
942.243126	2759.300763
942.545250	2755.484610
942.847335	2748.361460
943.149381	2743.000192
943.451389	2738.211096
943.753359	2730.107442
944.055290	2725.711555
944.357182	2722.641493
944.659036	2718.774928
944.960851	2717.088662
945.262628	2713.683362
945.564367	2710.363762
945.866067	2709.085830
946.167729	2710.131869
946.469352	2707.311344
946.770937	2708.236396
947.072484	2706.814790
947.373992	2704.667259
947.675462	2702.963349
947.976893	2699.668955
948.278286	2697.791125
948.579641	2697.586958
948.880958	2697.223995
949.182236	2697.947401
949.483476	2696.919005
949.784678	2692.996987
950.085841	2694.544622
950.386967	2694.365661
950.688054	2696.364478
950.989103	2701.546784
951.290114	2704.226158
951.591087	2707.807897
951.892021	2712.619679
952.192917	2714.069011
952.493776	2720.632593
952.794596	2724.166442
953.095378	2723.899261
953.396122	2726.011504
953.696828	2725.877913
953.997496	2724.947821
954.298126	2720.650237
954.598718	2717.320555
954.899272	2714.600852
955.199788	2711.699668
955.500266	2704.967207
955.800706	2695.812472
956.101108	2691.182172
956.401472	2684.366532
956.701798	2680.719257
957.002087	2668.693585
957.302337	2669.991682
957.602550	2662.692091
957.902724	2656.849394
958.202861	2654.248158
958.502960	2649.930410
958.803022	2642.716519
959.103045	2640.682413
959.403031	2634.454068
959.702979	2631.769653
960.002889	2630.605147
960.302762	2626.912502
960.602596	2624.712038
960.902393	2620.943776
961.202153	2619.013014
961.501875	2619.128960
961.801559	2619.013014
962.101205	2616.008486
962.400814	2612.698968
962.700385	2613.354318
962.999918	2613.296345
963.299414	2610.929523
963.598873	2609.704523
963.898293	2606.757969
964.197677	2609.119749
964.497022	2607.700664
964.796331	2606.256374
965.095601	2608.310644
965.394835	2608.703854
965.694030	2606.145468
965.993189	2605.142279
966.292309	2604.852412
966.591393	2603.519027
966.890439	2606.468102
967.189447	2603.337546
967.488419	2601.127000
967.787353	2605.515324
968.086249	2602.704881
968.385108	2605.938781
968.683930	2603.987855
968.982714	2602.583893
969.281462	2607.075561
969.580172	2607.410798
969.878844	2608.918103
970.177480	2611.801643
970.476078	2610.990017
970.774639	2613.394648
971.073162	2612.146962
971.371649	2611.325254
971.670098	2611.315172
971.968510	2613.742487
972.266885	2612.502363
972.565223	2618.690380
972.863524	2618.425719
973.161788	2621.904115
973.460014	2621.087448
973.758204	2623.177007
974.056356	2620.066615
974.354471	2621.652058
974.652550	2623.171966
974.950591	2621.347068
975.248595	2620.043930
975.546563	2622.181379
975.844493	2622.264558
976.142386	2620.779938
976.440243	2618.070318
976.738062	2619.391100
977.035845	2617.019237
977.333590	2618.178703
977.631299	2615.706017
977.928971	2615.242231
978.226606	2613.059411
978.524204	2611.985645
978.821765	2613.800461
979.119290	2615.774072
979.416777	2612.724174
979.714228	2613.384565
980.011642	2611.481530
980.309020	2615.736264
980.606360	2616.689042
980.903664	2620.265740
981.200931	2624.853190
981.498162	2631.769653
981.795356	2647.165337
982.092513	2658.480207
982.389633	2676.953515
982.686717	2695.439427
982.983764	2711.734956
983.280775	2726.054354
983.577749	2729.043758
983.874686	2734.011815
984.171587	2728.358161
984.468451	2721.610577
984.765279	2713.998434
985.062070	2710.643547
985.358824	2701.791280
985.655543	2690.758715
985.952224	2682.939886
986.248869	2669.268276
986.545478	2655.878972
986.842050	2642.923206
987.138586	2634.570014
987.435086	2622.829167
987.731549	2616.336161
988.027975	2610.740480
988.324366	2606.135386
988.620719	2603.884511
988.917037	2600.776640
989.213318	2598.240939
989.509563	2597.343614
989.805772	2596.703387
990.101944	2596.037955
990.398080	2596.854622
990.694180	2592.393201
990.990244	2594.134919
991.286271	2592.282295
991.582262	2595.594333
991.878217	2594.573500
992.174136	2595.024683
992.470019	2595.375043
992.765865	2596.983171
993.061676	2596.582400
993.357450	2598.135075
993.653188	2601.169850
993.948890	2601.154726
994.244556	2606.800818
994.540186	2611.216869
994.835780	2614.707868
995.131337	2622.216667
995.426859	2631.182359
995.722345	2636.851137
996.017795	2647.455204
996.313208	2655.442912
996.608586	2661.492297
996.903928	2667.350117
997.199234	2668.761640
997.494504	2670.095026
997.789738	2667.748368
998.084936	2665.152174
998.380099	2660.680671
998.675225	2652.019968
998.970316	2649.804381
999.265371	2639.951446
999.560390	2634.138996
999.855373	2626.574744
1000.150320	2619.285236
1000.445232	2616.968826
1000.740108	2609.502877
1001.034948	2603.342587
1001.329752	2603.496342
1001.624521	2599.370158
1001.919254	2594.840681
1002.213951	2594.134919
1002.508613	2590.051585
1002.803239	2590.122161
1003.097829	2588.244331
1003.392384	2591.180803
1003.686903	2588.597212
1003.981386	2588.534198
1004.275834	2583.505647
1004.570246	2587.750298
1004.864623	2584.198805
1005.158964	2586.600915
1005.453270	2582.741912
1005.747540	2585.244845
1006.041775	2585.426326
1006.335974	2584.423137
1006.630138	2582.716706
1006.924266	2583.041860
1007.218359	2585.070925
1007.512416	2581.602611
1007.806438	2583.987077
1008.100425	2580.002045
1008.394376	2583.518249
1008.688292	2583.994638
1008.982172	2580.740574
1009.276017	2581.998342
1009.569827	2582.772159
1009.863602	2584.402972
1010.157341	2579.989442
1010.451045	2582.973805
1010.744714	2579.308886
1011.038347	2584.110585
1011.331945	2577.834348
1011.625508	2582.008424
1011.919036	2579.318968
1012.212528	2578.860223
1012.505986	2581.690831
1012.799408	2580.785944
1013.092795	2579.540779
1013.386147	2581.499267
1013.679464	2581.204360
1013.972745	2579.931468
1014.265992	2578.759400
1014.559204	2579.127404
1014.852380	2581.600090
1015.145521	2581.446335
1015.438628	2579.974318
1015.731699	2579.737384
1016.024736	2580.377611
1016.317737	2579.666808
1016.610703	2579.051787
1016.903635	2578.277970
1017.196531	2578.330902
1017.489393	2579.102199
1017.782219	2574.943247
1018.075011	2578.986252
1018.367768	2579.197981
1018.660490	2581.930286
1018.953177	2581.930286
1019.245829	2581.930286
