Dividing Wavelength (nm)	Counts (n)	Blue Motor Position (mm): 25.900000	Red Motor Position (mm): 0.000000	
326.493990	2131.455299
326.888308	2131.455299
327.282561	2131.455299
327.676750	2100.883221
328.070874	2099.398602
328.464933	2102.791298
328.858929	2106.879674
329.252859	2116.936776
329.646726	2130.300875
330.040528	2140.370579
330.434265	2162.022335
330.827938	2175.673780
331.221547	2192.082736
331.615091	2212.307845
332.008571	2233.369786
332.401986	2252.790831
332.795338	2269.630805
333.188625	2292.510082
333.581847	2310.499439
333.975006	2329.333190
334.368100	2346.460510
334.761129	2362.110773
335.154095	2381.272198
335.546996	2400.201731
335.939833	2424.706780
336.332606	2439.285797
336.725315	2453.668209
337.117960	2462.729683
337.510540	2473.101857
337.903056	2483.892447
338.295508	2489.679691
338.687896	2495.640856
339.080220	2504.714933
339.472480	2512.654750
339.864676	2515.868485
340.256807	2521.570030
340.648875	2520.743281
341.040879	2524.561955
341.432818	2525.965917
341.824694	2530.031607
342.216506	2529.915661
342.608253	2528.375588
342.999937	2530.240815
343.391557	2527.548839
343.783113	2528.693181
344.174605	2529.245187
344.566033	2523.657068
344.957397	2522.966430
345.348697	2525.038344
345.739934	2521.663292
346.131106	2519.664474
346.522215	2521.456604
346.913260	2513.599966
347.304241	2513.247085
347.695159	2509.241889
348.086012	2511.596107
348.476802	2508.455469
348.867528	2503.414315
349.258191	2503.706702
349.648789	2504.296517
350.039324	2500.039262
350.429796	2500.767709
350.820203	2498.562204
351.210548	2501.924654
351.600828	2499.648573
351.991045	2496.417193
352.381198	2495.058602
352.771288	2496.649086
353.161314	2497.438027
353.551276	2498.254694
353.941175	2494.930053
354.331010	2494.294868
354.720782	2494.867038
355.110490	2494.925012
355.500135	2495.968531
355.889717	2496.016422
356.279235	2496.061792
356.668689	2496.276041
357.058080	2496.855774
357.447408	2495.880310
357.836672	2493.062305
358.225873	2495.487100
358.615010	2493.321925
359.004084	2498.481546
359.393095	2498.191679
359.782043	2500.634118
360.170927	2500.165291
360.559748	2500.162771
360.948505	2499.837616
361.337199	2504.541013
361.725830	2502.249808
362.114398	2500.896258
362.502903	2504.228461
362.891344	2502.380878
363.279722	2503.356342
363.668037	2504.208297
364.056289	2506.431445
364.444478	2504.848523
364.832603	2508.163082
365.220665	2503.845333
365.608665	2504.972031
365.996601	2506.996055
366.384474	2507.376662
366.772284	2505.466064
367.160031	2506.116373
367.547715	2508.231137
367.935336	2510.996210
368.322893	2508.208452
368.710388	2508.599142
369.097820	2510.973525
369.485189	2507.469923
369.872495	2511.442352
370.259738	2511.618793
370.646918	2510.454286
371.034035	2512.168278
371.421090	2512.148114
371.808081	2511.941427
372.195010	2508.669718
372.581875	2513.315141
372.968678	2513.060563
373.355418	2513.073166
373.742096	2513.720954
374.128710	2512.463186
374.515262	2512.145593
374.901751	2513.975532
375.288177	2513.418485
375.674540	2514.948475
376.060841	2514.419154
376.447079	2512.914369
376.833254	2517.617766
377.219367	2509.612413
377.605417	2514.661129
377.991404	2510.794564
378.377329	2513.579802
378.763191	2511.255830
379.148991	2515.092148
379.534727	2515.354288
379.920402	2513.252127
380.306013	2517.547190
380.691563	2517.219515
381.077049	2520.100534
381.462474	2517.753877
381.847835	2520.095493
382.233134	2518.109278
382.618371	2517.206912
383.003545	2518.605832
383.388657	2519.571213
383.773706	2519.293949
384.158693	2519.488034
384.543618	2520.834022
384.928480	2519.568692
385.313280	2517.801768
385.698017	2517.343023
386.082692	2522.031296
386.467305	2521.048271
386.851856	2521.081038
387.236344	2520.710514
387.620770	2523.654547
388.005133	2519.740092
388.389435	2521.781759
388.773674	2519.881244
389.157851	2520.672705
389.541965	2520.755884
389.926018	2523.379805
390.310008	2521.209588
390.693936	2522.961389
391.077802	2520.150946
391.461606	2520.745802
391.845348	2521.776718
392.229027	2523.127747
392.612645	2522.069105
392.996200	2524.083046
393.379694	2523.599095
393.763125	2523.462984
394.146494	2521.184382
394.529801	2523.921729
394.913047	2524.478776
395.296230	2525.071112
395.679351	2523.556245
396.062410	2525.769312
396.445408	2525.149250
396.828343	2527.778211
397.211217	2516.506191
397.594028	2526.167563
397.976778	2523.785618
398.359466	2525.638242
398.742092	2521.023065
399.124656	2528.438602
399.507158	2526.573376
399.889598	2526.999353
400.271977	2523.284023
400.654294	2528.821730
401.036549	2526.215454
401.418742	2528.252080
401.800874	2526.729651
402.182944	2530.011443
402.564952	2528.310053
402.946898	2529.429189
403.328783	2527.818541
403.710606	2528.476411
404.092367	2531.100332
404.474067	2529.978675
404.855705	2529.280475
405.237282	2529.668644
405.618797	2529.351051
406.000250	2531.586803
406.381642	2532.660569
406.762972	2529.305681
407.144240	2529.567821
407.525447	2530.094622
407.906593	2532.330373
408.287677	2532.345497
408.668700	2531.533871
409.049661	2533.336083
409.430560	2531.972451
409.811399	2533.888090
410.192176	2532.116124
410.572891	2533.114273
410.953545	2532.310209
411.334138	2531.180990
411.714669	2535.095446
412.095139	2530.664272
412.475547	2534.256094
412.855894	2531.266690
413.236180	2535.188707
413.616405	2534.465302
413.996568	2533.464633
414.376670	2533.363810
414.756711	2535.763399
415.136691	2536.068389
415.516609	2532.315250
415.896466	2537.343801
416.276262	2535.665097
416.655997	2532.867256
417.035670	2530.833151
417.415283	2537.336239
417.794834	2532.993285
418.174324	2536.723739
418.553753	2536.779192
418.933121	2536.943029
419.312428	2535.256763
419.691674	2537.598379
420.070859	2537.363965
420.449983	2538.410005
420.829045	2538.296579
421.208047	2540.446631
421.586988	2539.912269
421.965867	2538.651980
422.344686	2538.755324
422.723444	2540.650798
423.102141	2538.803215
423.480777	2540.446631
423.859352	2539.133410
424.237866	2539.423277
424.616319	2540.549975
424.994712	2537.800025
425.373044	2537.568132
425.751314	2539.105684
426.129524	2540.887732
426.507673	2539.292207
426.885762	2542.453010
427.263789	2541.505273
427.641756	2540.192053
428.019662	2544.580377
428.397508	2541.258257
428.775292	2541.777496
429.153016	2543.360418
429.530679	2542.841179
429.908282	2542.606765
430.285824	2541.666590
430.663305	2544.741694
431.040726	2540.003009
431.418086	2544.850079
431.795385	2543.229348
432.172624	2544.648433
432.549802	2543.494008
432.926920	2544.046015
433.303977	2548.492312
433.680974	2544.870243
434.057910	2542.997455
434.434786	2543.425953
434.811601	2546.962322
435.188355	2546.483413
435.565050	2547.373176
435.941683	2547.479041
436.318257	2545.611293
436.694770	2543.373021
437.071222	2542.841179
437.447614	2544.199770
437.823946	2545.152548
438.200218	2545.633978
438.576429	2547.864689
438.952580	2547.042981
439.328670	2551.038095
439.704700	2549.823177
440.080670	2548.111705
440.456580	2550.811243
440.832429	2550.980122
441.208218	2549.719833
441.583947	2551.925338
441.959616	2552.583209
442.335224	2551.993394
442.710773	2555.103786
443.086261	2557.543704
443.461689	2557.253838
443.837057	2560.649055
444.212365	2560.303736
444.587612	2563.335990
444.962800	2563.923284
445.337927	2569.692885
445.712995	2567.353790
446.088002	2575.550706
446.462949	2577.617579
446.837837	2582.522622
447.212664	2584.619742
447.587431	2592.166349
447.962139	2601.454675
448.336786	2621.954527
448.711374	2621.223560
449.085901	2615.706017
449.460369	2617.341871
449.834776	2624.112141
450.209124	2640.243833
450.583412	2655.997439
450.957640	2665.366423
451.331808	2667.834068
451.705917	2666.127637
452.079965	2676.772034
452.453954	2691.892975
452.827883	2694.589992
453.201752	2707.964173
453.575562	2715.067159
453.949311	2734.573904
454.323001	2738.836199
454.696632	2757.233890
455.070202	2782.152314
455.443713	2804.348514
455.817164	2826.877431
456.190556	2845.910307
456.563888	2871.910058
456.937160	2891.429406
457.310373	2889.049981
457.683526	2911.115112
458.056619	2924.201947
458.429653	2944.364042
458.802628	2959.353913
459.175542	2989.673933
459.548398	3054.903943
459.921194	3101.310284
460.293930	3134.828916
460.666607	3238.364134
461.039224	3322.528718
461.411782	3369.857591
461.784280	3403.797159
462.156719	3420.112854
462.529099	3437.880400
462.901419	3411.870567
463.273680	3430.903443
463.645882	3462.251859
464.018024	3490.873010
464.390106	3558.618556
464.762130	3678.585414
465.134094	3837.149867
465.505999	4138.552894
465.877845	4494.773428
466.249631	4700.427299
466.621358	4661.144107
466.993026	4578.940532
467.364634	4568.875869
467.736184	4543.246642
468.107674	4518.756717
468.479105	4614.127786
468.850477	4596.022482
469.221790	4598.301084
469.593043	4558.014703
469.964238	4589.413529
470.335373	4654.656142
470.706449	4739.725614
471.077467	4805.326149
471.448425	5358.098750
471.819324	5845.437175
472.190164	5925.697385
472.560945	5518.629253
472.931667	5286.272390
473.302330	5292.213390
473.672934	5214.751020
474.043479	5438.013642
474.413965	5478.478983
474.784393	5506.885885
475.154761	5642.805475
475.525070	5757.423670
475.895321	5743.457153
476.265513	5899.896760
476.635645	6054.292179
477.005719	6140.236290
477.375734	6268.760507
477.745691	6469.630323
478.115588	6622.997347
478.485427	6847.500092
478.855207	7222.791311
479.224928	7796.779608
479.594591	8254.370184
479.964194	8247.095799
480.333739	8297.477091
480.703226	8370.896455
481.072653	8509.724791
481.442022	8749.817305
481.811333	8953.888254
482.180584	8919.563037
482.549777	8825.129623
482.918912	8780.807798
483.287988	8880.461327
483.657005	8961.228174
484.025964	8821.086617
484.394864	8996.107917
484.763706	9061.857166
485.132489	8945.144372
485.501213	8994.928287
485.869879	9111.343653
486.238487	9073.789577
486.607036	9214.775527
486.975527	9117.327503
487.343959	9325.348195
487.712333	9426.080532
488.080648	9418.143235
488.448905	9528.940235
488.817104	9533.915853
489.185244	9809.535899
489.553326	9999.867183
489.921350	10501.441826
490.289315	11422.117835
490.657222	11761.362283
491.025070	11750.468350
491.392861	11701.543952
491.760593	11454.739142
492.128267	11219.097967
492.495883	10977.972017
492.863440	10726.403316
493.230939	10470.899995
493.598380	10445.270769
493.965763	10370.543225
494.333088	10308.978134
494.700354	10276.908834
495.067563	10358.875475
495.434713	10231.742616
495.801805	10382.891532
496.168839	10337.122896
496.535815	10309.285644
496.902733	10332.071660
497.269593	10301.857504
497.636395	10413.488815
498.003139	10427.488099
498.369825	10325.797944
498.736453	10494.800106
499.103023	10445.724473
499.469535	10492.239200
499.835989	10503.415438
500.202385	10480.137910
500.568723	10348.783085
500.935003	10577.727087
501.301226	10404.598740
501.667390	10665.299491
502.033497	10773.323856
502.399546	10646.725359
502.765537	10569.003370
503.131470	10645.270986
503.497345	10832.688483
503.863163	10453.651687
504.228923	10772.648341
504.594625	10840.759371
504.960269	10604.142733
505.325856	10823.279170
505.691385	10629.976126
506.056856	10787.350866
506.422270	10818.951339
506.787625	10712.283044
507.152924	10829.363842
507.518164	10813.963118
507.883347	10743.923847
508.248472	10667.744450
508.613540	10904.635831
508.978550	10790.902359
509.343503	10767.720613
509.708398	10883.873839
510.073236	10996.561272
510.438016	11011.815803
510.802738	10960.753956
511.167403	11018.886021
511.532010	10922.899932
511.896561	11142.648869
512.261053	11219.831455
512.625488	11093.376631
512.989866	11074.187479
513.354186	11071.883672
513.718449	10971.615122
514.082655	11166.727940
514.446803	11061.690459
514.810894	11180.437358
515.174927	11047.870135
515.538904	11077.565052
515.902822	11225.674152
516.266684	11120.523245
516.630488	11056.024202
516.994235	11115.144333
517.357925	11181.001967
517.721558	11267.772828
518.085133	11282.455188
518.448651	11296.850203
518.812112	11179.436689
519.175516	11194.474451
519.538863	11315.303347
519.902152	11235.411141
520.265385	11390.940819
520.628560	11303.713734
520.991678	11289.202773
521.354739	11343.871566
521.717743	11278.202975
522.080690	11261.257137
522.443580	11399.631768
522.806413	11347.947339
523.169189	11379.953624
523.531908	11438.821698
523.894569	11257.947619
524.257174	11269.882551
524.619722	11381.045034
524.982213	11320.977166
525.344647	11383.868080
525.707025	11333.602735
526.069345	11431.154103
526.431608	11338.409476
526.793815	11449.947525
527.155964	11245.380023
527.518057	11297.278701
527.880093	11241.785680
528.242072	11317.488687
528.603995	11216.864736
528.965860	11141.300360
529.327669	11187.701661
529.689421	11142.253138
530.051117	11117.153233
530.412755	11216.093439
530.774337	11109.936822
531.135862	11092.471744
531.497331	11114.423448
531.858743	10959.760848
532.220098	11135.649227
532.581396	11006.023517
532.942638	10988.147586
533.303824	10948.816503
533.664953	10970.110337
534.026025	10881.600279
534.387040	10976.358848
534.747999	10983.474436
535.108902	11035.990656
535.469748	10800.157918
535.830537	10905.712118
536.191270	10878.724300
536.551947	10899.345140
536.912567	10899.650130
537.273131	10830.966929
537.633638	10810.590586
537.994089	10794.960488
538.354483	10749.453992
538.714821	10883.833510
539.075103	10899.292208
539.435328	10865.829029
539.795497	10692.781341
540.155609	10845.543426
540.515665	10937.151273
540.875665	10668.916518
541.235609	10736.828422
541.595496	10735.747095
541.955328	10891.990097
542.315102	10774.919381
542.674821	10728.966743
543.034483	10721.067255
543.394090	10725.168234
543.753640	10659.214818
544.113134	10881.872501
544.472571	10729.790972
544.831953	10876.357479
545.191278	10681.284989
545.550548	10714.851512
545.909761	10844.252890
546.268918	10820.254478
546.628019	10900.028217
546.987064	10766.523339
547.346053	10689.449138
547.704986	10792.558378
548.063863	10778.980030
548.422684	10769.800089
548.781449	10684.594507
549.140158	10791.741711
549.498811	10663.512402
549.857408	10526.929900
550.215949	10751.374672
550.574434	10609.350245
550.932864	10699.841477
551.291237	10761.976218
551.649555	10704.887672
552.007817	10719.723788
552.366022	10689.675990
552.724173	10678.726604
553.082267	10670.423823
553.440305	10799.363936
553.798288	10604.931673
554.156215	10746.540205
554.514086	10733.972609
554.871902	10579.955277
555.229661	10619.505649
555.587365	10589.082286
555.945014	10493.438994
556.302606	10617.713519
556.660143	10509.437096
557.017625	10664.124902
557.375050	10558.701772
557.732421	10689.552482
558.089735	10608.878897
558.446994	10605.135840
558.804197	10648.570422
559.161345	10648.469598
559.518437	10489.998407
559.875474	10582.153220
560.232455	10618.091605
560.589381	10560.735877
560.946251	10556.778572
561.303065	10661.276650
561.659825	10597.687535
562.016528	10531.101455
562.373177	10408.230891
562.729770	10525.770434
563.086307	10445.953846
563.442789	10536.437516
563.799216	10413.370348
564.155587	10467.761877
564.511904	10415.265822
564.868164	10412.757848
565.224370	10427.919118
565.580520	10348.349545
565.936615	10352.145534
566.292654	10218.554957
566.648638	10350.812149
567.004567	10316.355862
567.360441	10298.227873
567.716260	10206.249501
568.072023	10295.437595
568.427732	10251.539227
568.783385	10161.410958
569.138982	10231.543490
569.494525	10247.193752
569.850013	10129.510536
570.205445	10203.814623
570.560823	10095.354198
570.916145	10018.156489
571.271412	10092.571482
571.626625	10032.528819
571.981782	10014.317650
572.336884	9987.445780
572.691931	9988.690945
573.046923	9935.773953
573.401860	9894.948168
573.756743	9834.769394
574.111570	9872.585610
574.466342	9854.762611
574.821059	9882.337722
575.175722	9774.588100
575.530330	9787.135532
575.884882	9780.889542
576.239380	9706.587976
576.593823	9690.184061
576.948211	9698.824599
577.302544	9581.665663
577.656823	9594.344165
578.011047	9606.425290
578.365216	9567.242922
578.719330	9494.947734
579.073389	9503.961317
579.427394	9450.875447
579.781344	9433.281820
580.135239	9382.945899
580.489080	9389.431343
580.842866	9291.040623
581.196597	9299.514803
581.550273	9337.895627
581.903895	9309.995361
582.257463	9370.388384
582.610975	9250.164427
582.964434	9281.795147
583.317837	9203.740441
583.671186	9177.828910
584.024481	9173.624588
584.377721	9095.048123
584.730906	9074.601203
585.084037	9098.710521
585.437113	9038.725832
585.790135	9060.682577
586.143103	8959.143657
586.496016	8937.839740
586.848874	8993.451229
587.201679	8981.453283
587.554428	8868.465902
587.907124	8908.275894
588.259765	8883.473417
588.612352	8886.455259
588.964884	8764.408925
589.317362	8783.313252
589.669786	8782.269733
590.022155	8823.541659
590.374470	8838.050100
590.726731	8783.535062
591.078937	8634.984861
591.431090	8744.834124
591.783188	8618.112119
592.135232	8611.062066
592.487222	8614.414433
592.839157	8659.802462
593.191038	8595.956248
593.542866	8538.202269
593.894639	8437.149820
594.246358	8492.108479
594.598022	8513.624124
594.949633	8408.153103
595.301190	8383.758959
595.652692	8408.090088
596.004141	8526.098459
596.355535	8298.770147
596.706876	8278.968494
597.058162	8219.311480
597.409395	8292.763612
597.760573	8355.798200
598.111698	8265.072554
598.462768	8246.773165
598.813785	8211.195222
599.164748	8188.472221
599.515657	8170.533275
599.866511	8085.615039
600.217312	8208.803195
600.568060	8068.845640
600.918753	8168.330291
601.269392	8140.974470
601.619978	8057.140081
601.970510	8117.139894
602.320988	8113.356508
602.671412	8160.529105
603.021783	8104.058100
603.372100	8080.594049
603.722363	8082.781910
604.072572	8059.942963
604.422728	8072.981907
604.772830	7993.387129
605.122878	8006.786516
605.472872	8007.230137
605.822813	8031.982203
606.172701	7973.673697
606.522534	8046.193216
606.872314	8047.234214
607.222041	8025.529526
607.571714	8066.657780
607.921333	8034.036473
608.270899	8035.460599
608.620411	8132.913665
608.969870	8037.378758
609.319276	8024.579268
609.668627	8040.748769
610.017926	8074.811846
610.367171	8126.768498
610.716362	8103.700178
611.065500	8094.172397
611.414585	8122.702808
611.763616	8106.941640
612.112594	8087.684432
612.461518	8098.890917
612.810389	8159.548601
613.159207	8107.657484
613.507971	8048.141622
613.856682	8169.247781
614.205340	8128.079198
614.553945	8205.029891
614.902496	8104.206814
615.250994	8159.004156
615.599439	8142.859861
615.947830	8149.211715
616.296169	8127.091132
616.644454	8139.961198
616.992686	8139.595714
617.340864	8194.912295
617.688990	8098.621216
618.037063	8188.845267
618.385082	8136.167729
618.733048	8223.087304
619.080961	8158.933580
619.428821	8183.451232
619.776628	8177.038884
620.124382	8132.890979
620.472083	8125.576265
620.819731	8142.985890
621.167326	8045.832773
621.514868	8042.571147
621.862357	7938.289838
622.209793	7950.895243
622.557176	7887.399390
622.904506	7860.492231
623.251783	7790.611757
623.599007	7748.714727
623.946179	7748.523163
624.293297	7709.270219
624.640363	7627.953887
624.987376	7611.560054
625.334336	7559.984009
625.681243	7510.091710
626.028097	7493.181159
626.374899	7474.176009
626.721647	7465.840461
627.068343	7394.982003
627.414987	7370.799588
627.761577	7321.272772
628.108115	7365.692899
628.454600	7260.869667
628.801032	7308.475803
629.147412	7271.453569
629.493739	7257.613081
629.840014	7200.600152
630.186236	7251.634273
630.532405	7137.696634
630.878521	7187.495672
631.224585	7143.282232
631.570597	7066.598721
631.916556	7100.941581
632.262462	7096.780109
632.608316	7057.312915
632.954117	7035.547734
633.299866	7026.829058
633.645562	7016.824888
633.991206	6936.715912
634.336797	6880.454115
634.682336	6838.146231
635.027823	6802.495191
635.373257	6802.081817
635.718639	6727.550878
636.063968	6743.049905
636.409245	6637.039481
636.754470	6630.675024
637.099642	6591.908551
637.444762	6537.393513
637.789829	6548.496655
638.134845	6487.120607
638.479808	6470.116795
638.824719	6480.955276
639.169577	6407.803092
639.514383	6426.208345
639.859137	6355.067582
640.203839	6367.551999
640.548489	6348.551890
640.893086	6328.780485
641.237632	6301.444828
641.582125	6318.400749
641.926566	6289.030987
642.270955	6308.242824
642.615292	6303.700745
642.959576	6315.267672
643.303809	6304.000693
643.647990	6311.721220
643.992118	6304.018337
644.336195	6252.064206
644.680219	6272.443070
645.024192	6264.568788
645.368112	6360.597727
645.711981	6378.009873
646.055797	6455.971317
646.399562	6410.774852
646.743274	6537.080962
647.086935	6594.892914
647.430544	6586.731286
647.774101	6609.807168
648.117606	6612.478979
648.461059	6604.534121
648.804460	6569.755201
649.147810	6476.960161
649.491108	6446.430933
649.834354	6419.675009
650.177548	6338.872875
650.520690	6253.513537
650.863781	6232.935547
651.206820	6252.890955
651.549807	6171.841804
651.892742	6115.058247
652.235626	6123.497139
652.578458	6107.557010
652.921238	6013.655438
653.263967	6056.175050
653.606644	6000.571123
653.949269	6002.005331
654.291843	5942.998625
654.634365	5988.863043
654.976836	5945.012566
655.319255	5941.345127
655.661622	5921.563639
656.003938	5919.128762
656.346203	5882.945880
656.688416	5910.251290
657.030577	5862.753538
657.372687	5834.278581
657.714746	5825.380944
658.056753	5866.857038
658.398708	5805.296987
658.740612	5791.126304
659.082465	5842.162945
659.424266	5837.716648
659.766016	5830.827911
660.107715	5810.882586
660.449362	5821.353062
660.790958	5817.988092
661.132503	5804.064425
661.473996	5843.624880
661.815438	5826.845399
662.156829	5827.057128
662.498168	5820.548998
662.839456	5794.282066
663.180693	5834.696997
663.521879	5830.747253
663.863013	5822.575542
664.204097	5839.728068
664.545129	5877.753492
664.886110	5879.265838
665.227040	5907.221556
665.567918	5876.810796
665.908746	5901.512450
666.249522	5903.428088
666.590248	5892.395523
666.930922	5920.104225
667.271545	5934.831956
667.612118	5939.200116
667.952639	5909.537967
668.293109	5926.093116
668.633528	5886.895624
668.973896	5891.394854
669.314213	5882.013267
669.654480	5869.344847
669.994695	5858.902097
670.334859	5850.332135
670.674973	5842.866186
671.015035	5847.874573
671.355047	5842.079766
671.695008	5834.137428
672.034918	5805.047450
672.374777	5816.470705
672.714585	5799.431605
673.054342	5802.957892
673.394049	5795.864988
673.733705	5829.270194
674.073310	5815.134799
674.412864	5776.325476
674.752368	5765.681080
675.091820	5771.438078
675.431223	5706.560948
675.770574	5705.555238
676.109875	5657.603782
676.449125	5665.404968
676.788324	5633.701152
677.127473	5579.561680
677.466571	5570.664043
677.805619	5553.957659
678.144616	5545.357451
678.483562	5522.329460
678.822458	5490.018185
679.161303	5488.468030
679.500098	5477.896730
679.838842	5462.473320
680.177535	5466.851562
680.516179	5477.271627
680.854771	5494.814842
681.193314	5572.945165
681.531805	5681.458522
681.870247	5826.535368
682.208638	5937.869251
682.546978	5943.197751
682.885268	5919.463998
683.223508	5837.106668
683.561697	5786.085150
683.899836	5747.626187
684.237925	5707.934662
684.575963	5673.642213
684.913951	5634.076717
685.251889	5696.415626
685.589776	5664.638713
685.927614	5640.138705
686.265401	5702.767480
686.603137	5688.795922
686.940824	5768.178972
687.278460	5788.177229
687.616046	5798.188960
687.953582	5864.893508
688.291068	5846.521023
688.628504	5909.096866
688.965889	5875.495055
689.303224	5816.455581
689.640510	5767.563951
689.977745	5696.445873
690.314930	5594.546510
690.652065	5544.003901
690.989150	5446.139982
691.326185	5376.814034
691.663170	5322.402340
692.000105	5245.118931
692.336990	5169.100851
692.673825	5144.618488
693.010610	5079.481739
693.347345	5002.586499
693.684030	4993.424202
694.020665	4950.125731
694.357251	4861.638358
694.693786	4869.439543
695.030272	4839.976520
695.366707	4804.401097
695.703093	4771.278196
696.039429	4791.609169
696.375716	4773.569400
696.711952	4753.394702
697.048139	4735.627156
697.384276	4719.097212
697.720363	4729.744129
698.056400	4741.789966
698.392388	4691.496895
698.728326	4669.620808
699.064214	4646.756654
699.400053	4642.978310
699.735842	4609.300881
700.071581	4584.543775
700.407270	4553.230648
700.742910	4536.720869
701.078501	4484.877643
701.414042	4486.889063
701.749533	4455.913693
702.084974	4386.834762
702.420366	4446.504380
702.755709	4387.890884
703.091002	4333.481710
703.426246	4380.467785
703.761440	4336.763502
704.096584	4302.249242
704.431679	4324.891584
704.766725	4308.938853
705.101721	4297.198006
705.436668	4324.062314
705.771565	4273.108852
706.106413	4296.643479
706.441212	4334.220239
706.775961	4340.995550
707.110661	4320.513342
707.445311	4348.947970
707.779913	4372.686764
708.114465	4382.721181
708.448967	4406.228081
708.783421	4465.791834
709.117825	4509.813710
709.452180	4513.977703
709.786485	4558.891863
710.120742	4642.759019
710.454949	4623.940392
710.789107	4694.143501
711.123216	4768.618987
711.457275	4757.909056
711.791286	4832.180375
712.125247	4850.066389
712.459159	4756.313530
712.793023	4826.251978
713.126837	4786.976349
713.460602	4781.529382
713.794318	4702.544583
714.127985	4709.670254
714.461602	4623.095999
714.795171	4592.423098
715.128691	4527.926576
715.462162	4471.710149
715.795584	4419.521604
716.128957	4403.281527
716.462281	4354.135318
716.795556	4329.383252
717.128782	4289.411943
717.461960	4221.260585
717.795088	4234.322214
718.128167	4192.452911
718.461198	4130.265237
718.794180	4129.259527
719.127113	4107.411166
719.459997	4085.101540
719.792833	4044.918502
720.125619	4035.226884
720.458357	4000.679857
720.791046	4002.535002
721.123686	3977.447699
721.456278	3936.702573
721.788821	3952.798978
722.121315	3928.316614
722.453761	3902.180752
722.786158	3913.740118
723.118506	3936.813479
723.450805	3886.742218
723.783056	3913.205755
724.115259	3929.738219
724.447412	3931.363992
724.779518	3925.581788
725.111574	3931.303498
725.443582	3959.586891
725.775542	3942.986372
726.107453	3998.285309
726.439315	3994.975791
726.771129	4010.217720
727.102895	4045.180642
727.434612	4092.615380
727.766281	4105.674489
728.097901	4106.153398
728.429473	4110.735807
728.760996	4116.061786
729.092471	4113.057258
729.423897	4099.264662
729.755276	4101.452522
730.086606	4105.006536
730.417887	4142.772340
730.749120	4204.914643
731.080305	4267.835805
731.411442	4295.267244
731.742530	4264.884209
732.073570	4267.639200
732.404562	4321.728260
732.735506	4312.840706
733.066401	4274.795118
733.397249	4214.732290
733.728048	4134.784632
734.058798	4051.376221
734.389501	3983.194615
734.720156	3921.874019
735.050762	3875.278634
735.381320	3872.856360
735.711831	3821.776869
736.042293	3789.493319
736.372707	3811.462668
736.703073	3783.317906
737.033391	3778.556536
737.363661	3796.331645
737.693883	3819.402485
738.024056	3825.587981
738.354182	3818.517763
738.684260	3886.603587
739.014290	3906.344745
739.344272	3900.799476
739.674207	3946.275725
740.004093	3946.976445
740.333931	3940.697688
740.663722	3946.147175
740.993464	3941.393367
741.323159	3919.421498
741.652806	3888.804050
741.982405	3861.783466
742.311956	3831.155935
742.641460	3819.059687
742.970915	3798.247283
743.300323	3754.863113
743.629683	3720.807598
743.958996	3711.731001
744.288260	3684.173533
744.617477	3651.809326
744.946647	3637.091677
745.275768	3613.632668
745.604842	3613.196608
745.933869	3564.012590
746.262847	3558.069070
746.591778	3596.021397
746.920662	3564.367992
747.249498	3532.875903
747.578286	3580.154365
747.907027	3598.791511
748.235720	3595.958382
748.564365	3624.728247
748.892963	3622.704224
749.221514	3605.413066
749.550017	3579.148655
749.878473	3579.148655
750.206881	3550.189746
750.535242	3545.740928
750.863555	3545.892163
751.191821	3543.996689
751.520039	3521.354346
751.848210	3499.009432
752.176334	3536.243394
752.504411	3542.565001
752.832440	3500.241994
753.160421	3486.575426
753.488356	3494.386694
753.816243	3508.028056
754.144082	3465.251345
754.471875	3448.242492
754.799620	3466.410811
755.127318	3459.751446
755.454969	3456.701548
755.782572	3465.889051
756.110129	3439.037345
756.437638	3431.011828
756.765100	3444.441462
757.092515	3455.821867
757.419882	3462.297229
757.747203	3434.170111
758.074477	3435.334618
758.401703	3453.394551
758.728882	3474.789208
759.056014	3479.817759
759.383099	3485.433605
759.710138	3478.398674
760.037129	3497.292919
760.364073	3524.076569
760.690970	3512.993593
761.017820	3491.969461
761.344623	3510.694827
761.671379	3556.193761
761.998088	3605.672686
762.324751	3732.717324
762.651366	3979.890138
762.977935	4453.302376
763.304456	4892.550713
763.630931	4981.945494
763.957359	4616.509731
764.283740	4282.230820
764.610074	4091.087910
764.936362	3898.004156
765.262602	3738.252511
765.588796	3624.957620
765.914943	3541.317316
766.241044	3453.321455
766.567097	3422.411620
766.893104	3373.973693
767.219064	3343.285669
767.544978	3318.841114
767.870845	3261.437495
768.196665	3246.326637
768.522438	3253.149838
768.848165	3250.795619
769.173846	3210.489074
769.499479	3193.364274
769.825066	3180.864733
770.150607	3163.747495
770.476101	3176.123528
770.801548	3172.599762
771.126949	3127.209212
771.452303	3110.404526
771.777611	3119.491206
772.102872	3119.778552
772.428087	3098.517485
772.753256	3087.767225
773.078378	3077.916810
773.403453	3044.559495
773.728482	3033.683206
774.053465	3056.101217
774.378401	3045.459341
774.703291	3014.549506
775.028135	3013.518590
775.352932	3008.185049
775.677683	2996.068636
776.002388	2995.665344
776.327046	2995.468739
776.651658	2985.797285
776.976224	2973.035604
777.300743	2972.072744
777.625216	2964.233750
777.949643	2958.756536
778.274024	2956.979529
778.598359	2949.314455
778.922647	2957.650003
779.246889	2954.494240
779.571086	2940.167281
779.895236	2933.321394
780.219339	2944.648867
780.543397	2956.316618
780.867409	2959.815178
781.191374	2951.593056
781.515294	2948.457459
781.839167	2948.341512
782.162995	2943.378496
782.486776	2952.694548
782.810511	2948.424691
783.134201	2934.039759
783.457844	2942.629885
783.781441	2933.097063
784.104993	2910.036305
784.428498	2911.306675
784.751958	2926.624221
785.075372	2919.516194
785.398739	2905.847106
785.722061	2919.178437
786.045337	2934.816096
786.368568	2920.375711
786.691752	2911.132756
787.014891	2959.484983
787.337983	2986.868530
787.661030	3012.893487
787.984031	3083.162131
788.306987	3126.122844
788.629897	3119.123202
788.952760	3102.683999
789.275579	3088.979622
789.598351	3029.126003
789.921078	2984.819301
790.243759	2976.582056
790.566395	2958.675878
790.888984	2935.395829
791.211529	2916.819177
791.534027	2909.494381
791.856480	2899.555746
792.178888	2885.523694
792.501249	2878.513970
792.823566	2874.183618
793.145836	2870.120448
793.468062	2866.465612
793.790241	2864.146681
794.112375	2867.854450
794.434464	2882.315000
794.756507	2885.904301
795.078505	2894.033162
795.400457	2909.867426
795.722364	2944.621141
796.044226	2966.479584
796.366042	2971.251036
796.687812	2957.657564
797.009538	2980.241934
797.331218	2966.381281
797.652852	2950.501647
797.974442	2934.082608
798.295986	2932.066147
798.617484	2924.519540
798.938938	2909.252405
799.260346	2895.790004
799.581709	2891.013511
799.903026	2883.479506
800.224299	2877.825852
800.545526	2867.030221
800.866708	2852.370546
801.187845	2842.497446
801.508936	2843.079699
801.829983	2850.323837
802.150984	2839.475274
802.471940	2825.029848
802.792851	2824.848366
803.113717	2825.440702
803.434538	2828.271310
803.755314	2821.947182
804.076045	2817.808395
804.396731	2817.480720
804.717372	2818.713282
805.037967	2813.672128
805.358518	2817.228662
805.679024	2831.721980
805.999485	2826.199396
806.319901	2829.473625
806.640272	2821.223777
806.960598	2827.263079
807.280879	2837.930161
807.601115	2844.750842
807.921306	2831.243070
808.241453	2826.317863
808.561554	2833.899758
808.881611	2836.506035
809.201623	2829.188800
809.521590	2828.896413
809.841513	2826.859787
810.161390	2827.517657
810.481223	2823.782162
810.801011	2814.236737
811.120755	2808.250367
811.440453	2811.025522
811.760107	2809.644246
812.079716	2810.763382
812.399281	2800.391208
812.718801	2791.405352
813.038276	2791.024745
813.357707	2794.992133
813.677093	2804.648463
813.996434	2794.992133
814.315731	2793.351237
814.634983	2786.941410
814.954191	2790.034158
815.273354	2802.400108
815.592473	2809.619041
815.911547	2811.396047
816.230577	2821.748057
816.549562	2832.969665
816.868502	2828.437668
817.187399	2839.997034
817.506250	2855.967409
817.825058	2847.389886
818.143821	2860.859849
818.462539	2875.597662
818.781213	2905.065727
819.099843	2940.996551
819.418429	2996.197186
819.736970	3057.822771
820.055466	3130.826240
820.373919	3234.757188
820.692327	3375.717932
821.010691	3542.459137
821.329011	3983.698730
821.647286	4883.529568
821.965517	6261.922182
822.283704	6997.232444
822.601847	6972.553475
822.919945	6337.242062
823.237999	5827.306665
823.556010	5252.700826
823.873976	4702.042989
824.191897	4297.331596
824.509775	4001.577182
824.827609	3737.256883
825.145398	3609.090588
825.463144	3604.787963
825.780845	3692.730892
826.098502	3798.980771
826.416116	4082.351590
826.733685	4396.249117
827.051210	4456.112819
827.368692	4344.509234
827.686129	4078.117021
828.003522	3751.523349
828.320872	3497.479442
828.638177	3302.653969
828.955439	3165.146416
829.272656	3081.362439
829.589830	3016.056811
829.906960	2968.745582
830.224046	2922.936617
830.541088	2888.603839
830.858086	2875.585059
831.175041	2854.094620
831.491952	2855.763242
831.808819	2872.671272
832.125642	2895.686660
832.442421	2941.987138
832.759157	3019.623428
833.075849	3194.100283
833.392497	3479.903459
833.709101	3680.571629
834.025662	3629.688742
834.342179	3468.588589
834.658653	3292.619552
834.975083	3144.124804
835.291469	3043.818445
835.607811	2965.264666
835.924110	2904.042373
836.240366	2856.262317
836.556578	2814.312355
836.872746	2790.926442
837.188871	2770.000612
837.504952	2752.346492
837.820990	2743.431211
838.136984	2729.633573
838.452935	2723.894219
838.768842	2721.194682
839.084706	2741.749986
839.400526	2818.005000
839.716303	2949.425360
840.032037	3031.767567
840.347727	3014.282325
840.663373	2957.662606
840.978977	2879.549927
841.294537	2806.362455
841.610054	2760.470311
841.925527	2739.756210
842.240957	2716.836604
842.556344	2693.642255
842.871687	2678.327230
843.186987	2669.966476
843.502244	2664.678306
843.817458	2662.346772
844.132629	2647.465286
844.447756	2640.954636
844.762840	2636.324336
845.077881	2637.493884
845.392879	2635.248050
845.707833	2632.798049
846.022745	2623.156842
846.337613	2627.119189
846.652438	2624.059209
846.967221	2624.661627
847.281960	2623.870165
847.596656	2621.450412
847.911309	2622.892182
848.225919	2617.621655
848.540485	2617.445215
848.855009	2618.755915
849.169490	2616.126953
849.483928	2616.154679
849.798323	2613.190481
850.112675	2609.979266
850.426984	2613.008999
850.741251	2612.285594
851.055474	2614.985132
851.369654	2616.011007
851.683792	2617.835904
851.997887	2612.492281
852.311938	2611.479009
852.625947	2614.793568
852.939914	2616.353805
853.253837	2615.227107
853.567718	2613.992024
853.881555	2613.321551
854.195350	2616.442025
854.509103	2613.664349
854.822812	2613.576129
855.136479	2612.756942
855.450103	2614.400358
855.763685	2615.731222
856.077224	2612.726695
856.390720	2609.109667
856.704173	2614.367590
857.017584	2618.554269
857.330953	2620.492592
857.644278	2620.106944
857.957561	2618.309773
858.270802	2617.127622
858.584000	2617.926645
858.897155	2617.465379
859.210268	2619.917901
859.523339	2615.272477
859.836367	2609.371807
860.149352	2613.402209
860.462295	2612.734257
860.775195	2611.557147
861.088054	2608.781992
861.400869	2609.956581
861.713642	2605.976590
862.026373	2607.153699
862.339062	2608.918103
862.651708	2612.817436
862.964312	2617.714917
863.276873	2615.050667
863.589392	2617.702314
863.901869	2620.860597
864.214303	2627.484673
864.526696	2627.824951
864.839045	2630.920219
865.151353	2632.220837
865.463619	2630.698408
865.775842	2633.581948
866.088023	2631.752009
866.400162	2634.701084
866.712258	2632.997174
867.024313	2633.410549
867.336325	2626.912502
867.648296	2630.274951
867.960224	2636.324336
868.272110	2632.873666
868.583954	2627.333438
868.895755	2630.469036
869.207515	2636.140334
869.519233	2638.867598
869.830909	2637.708133
870.142542	2633.763430
870.454134	2635.006074
870.765684	2641.443628
871.077191	2640.720222
871.388657	2644.775830
871.700081	2644.440594
872.011463	2642.091416
872.322803	2642.371200
872.634101	2647.795482
872.945357	2652.866882
873.256571	2662.031700
873.567744	2657.388797
873.878874	2653.577685
874.189963	2658.170176
874.501010	2663.196207
874.812015	2666.422545
875.122979	2665.366423
875.433900	2657.774446
875.744780	2656.549445
876.055618	2661.411638
876.366415	2668.726352
876.677169	2666.916578
876.987882	2660.365599
877.298554	2659.531288
877.609183	2671.100736
877.919771	2676.030984
878.230317	2684.585822
878.540822	2695.280630
878.851285	2710.114225
879.161707	2731.019890
879.472087	2771.946498
879.782425	2817.165648
880.092722	2931.879624
880.402977	3120.443984
880.713191	3376.958056
881.023363	3672.152902
881.333494	3861.533928
881.643583	4030.911657
881.953631	4032.683622
882.263637	3851.716281
882.573602	3632.935246
882.883526	3501.955986
883.193408	3387.496588
883.503248	3287.394396
883.813048	3176.494053
884.122806	3059.632545
884.432522	2973.706078
884.742197	2910.406829
885.051831	2871.289996
885.361424	2837.597444
885.670975	2801.006229
885.980485	2773.426077
886.289954	2754.471338
886.599382	2741.956674
886.908768	2728.378326
887.218113	2709.012733
887.527417	2695.361289
887.836680	2690.725948
888.145901	2684.732016
888.455082	2675.703309
888.764221	2663.410456
889.073319	2658.112203
889.382376	2658.636483
889.691392	2655.568941
890.000366	2656.370484
890.309300	2655.805875
890.618193	2660.206802
890.927044	2660.446257
891.235855	2660.884837
891.544625	2659.672440
891.853353	2658.946514
892.162041	2667.186280
892.470687	2685.894002
892.779293	2699.875642
893.087858	2709.521890
893.396381	2730.845971
893.704864	2774.157044
894.013306	2844.019874
894.321707	2934.243925
894.630068	2987.307111
894.938387	3001.046776
895.246665	2998.425376
895.554903	2953.357460
895.863100	2910.900863
896.171256	2855.221318
896.479371	2790.094652
896.787446	2754.297418
897.095480	2734.833523
897.403473	2728.579972
897.711425	2716.297201
898.019336	2694.932791
898.327207	2681.934175
898.635038	2683.857376
898.942827	2679.811850
899.250576	2667.438337
899.558284	2655.548776
899.865952	2654.671615
900.173579	2649.776655
900.481165	2649.761532
900.788711	2638.403812
901.096216	2633.133286
901.403681	2631.144550
901.711105	2628.266052
902.018489	2628.450054
902.325832	2635.563122
902.633135	2636.286527
902.940397	2646.757004
903.247619	2686.123374
903.554800	2755.293046
903.861941	2880.782489
904.169041	3004.968793
904.476101	3068.041190
904.783121	3062.334603
905.090100	3001.568535
905.397039	2932.877773
905.703938	2856.456401
906.010796	2794.036834
906.317614	2741.296282
906.624391	2709.196735
906.931129	2681.956861
907.237826	2661.109169
907.544483	2643.283649
907.851099	2627.144395
908.157675	2617.165431
908.464211	2611.650408
908.770707	2601.774788
909.077163	2596.922677
909.383578	2593.824888
909.689954	2595.173397
909.996289	2592.078129
910.302584	2590.376739
910.608839	2587.795668
910.915054	2587.747778
911.221229	2589.434043
911.527363	2593.522419
911.833458	2587.853642
912.139513	2592.983016
912.445527	2594.770105
912.751502	2599.488625
913.057436	2603.561877
913.363331	2610.538834
913.669186	2619.726337
913.975000	2634.539767
914.280775	2648.390338
914.586510	2668.413801
914.892205	2705.068030
915.197859	2772.982455
915.503475	2856.582430
915.809050	2920.927718
916.114585	2937.999585
916.420081	2949.727829
916.725536	2957.695373
917.030952	2933.946497
917.336328	2885.382542
917.641665	2836.183401
917.946961	2786.896040
918.252218	2753.664753
918.557435	2729.779767
918.862612	2705.763710
919.167750	2686.231759
919.472848	2672.819769
919.777906	2656.645227
920.082925	2642.829945
920.387904	2633.526496
920.692843	2629.148253
920.997743	2625.823612
921.302603	2617.009155
921.607423	2609.570932
921.912204	2605.348966
922.216946	2602.578852
922.521647	2601.464757
922.826310	2596.390836
923.130932	2594.061823
923.435516	2590.848087
923.740059	2584.463466
924.044564	2583.737540
924.349028	2580.516242
924.653454	2575.349060
924.957840	2570.285221
925.262186	2570.020560
925.566493	2569.758420
925.870761	2564.402194
926.174989	2569.521486
926.479178	2561.311967
926.783328	2563.731721
927.087438	2563.378840
927.391509	2561.891699
927.695541	2561.458160
927.999533	2560.263407
928.303486	2556.548076
928.607400	2559.648386
928.911275	2555.691080
929.215110	2559.096380
929.518906	2557.105124
929.822663	2556.623694
930.126381	2556.732078
930.430060	2555.219732
930.733699	2555.920453
931.037299	2556.386759
931.340861	2559.045968
931.644383	2558.589744
931.947866	2558.229301
932.251309	2558.309960
932.554714	2556.565720
932.858080	2558.526729
933.161407	2558.448591
933.464694	2554.181255
933.767943	2555.449105
934.071153	2556.137222
934.374323	2555.582695
934.677455	2557.427758
934.980548	2555.507078
935.283602	2552.215205
935.586617	2553.026830
935.889593	2554.526574
936.192530	2550.710420
936.495428	2555.270144
936.798287	2555.950700
937.101108	2556.928683
937.403890	2556.956410
937.706632	2563.852708
938.009336	2564.616443
938.312002	2568.440158
938.614628	2570.658266
938.917216	2574.739080
939.219765	2576.516087
939.522275	2576.180850
939.824747	2578.361149
940.127179	2571.462330
940.429573	2567.063923
940.731929	2569.589541
941.034246	2567.247925
941.336524	2569.650035
941.638763	2567.434448
941.940964	2566.118707
942.243126	2563.618295
942.545250	2563.933367
942.847335	2564.508058
943.149381	2561.344734
943.451389	2561.992522
943.753359	2559.784497
944.055290	2557.566389
944.357182	2559.814744
944.659036	2554.846687
944.960851	2560.679302
945.262628	2556.913560
945.564367	2558.884651
945.866067	2556.454815
946.167729	2558.872048
946.469352	2557.117727
946.770937	2557.415155
947.072484	2557.455484
947.373992	2557.301729
947.675462	2556.651420
947.976893	2555.648230
948.278286	2555.338199
948.579641	2553.288970
948.880958	2554.551779
949.182236	2555.822150
949.483476	2551.859803
949.784678	2554.357695
950.085841	2550.400389
950.386967	2555.073539
950.688054	2555.650751
950.989103	2554.453477
951.290114	2557.667212
951.591087	2556.885834
951.892021	2556.628735
952.192917	2560.936401
952.493776	2559.847512
952.794596	2565.163408
953.095378	2562.027811
953.396122	2563.041082
953.696828	2560.114693
953.997496	2560.434806
954.298126	2552.862993
954.598718	2557.883982
954.899272	2555.882644
955.199788	2555.280226
955.500266	2552.036244
955.800706	2546.271684
956.101108	2546.284287
956.401472	2549.112374
956.701798	2543.768751
957.002087	2544.681200
957.302337	2545.150028
957.602550	2548.182282
957.902724	2543.027702
958.202861	2544.587939
958.502960	2542.200953
958.803022	2547.035419
959.103045	2542.568957
959.403031	2543.499050
959.702979	2543.733463
960.002889	2543.234389
960.302762	2541.863195
960.602596	2544.204811
960.902393	2538.125180
961.202153	2540.865047
961.501875	2540.917979
961.801559	2542.468134
962.101205	2540.706250
962.400814	2538.999820
962.700385	2539.594676
962.999918	2541.316230
963.299414	2541.464944
963.598873	2540.953267
963.898293	2538.402443
964.197677	2543.395706
964.497022	2538.548637
964.796331	2540.829759
965.095601	2541.328833
965.394835	2539.244316
965.694030	2539.206507
965.993189	2539.725746
966.292309	2541.618699
966.591393	2538.629295
966.890439	2538.989738
967.189447	2537.673996
967.488419	2541.066693
967.787353	2538.659542
968.086249	2541.366642
968.385108	2538.359593
968.683930	2541.061652
968.982714	2541.006199
969.281462	2541.175078
969.580172	2542.208514
969.878844	2539.173740
970.177480	2541.454862
970.476078	2538.906558
970.774639	2544.083823
971.073162	2542.148020
971.371649	2537.280786
971.670098	2534.072092
971.968510	2537.812628
972.266885	2532.242153
972.565223	2540.121477
972.863524	2538.659542
973.161788	2540.940664
973.460014	2539.980324
973.758204	2539.135931
974.056356	2541.394368
974.354471	2540.376055
974.652550	2539.841693
974.950591	2539.456044
975.248595	2540.814635
975.546563	2544.600542
975.844493	2538.687268
976.142386	2541.117104
976.440243	2539.907228
976.738062	2538.475540
977.035845	2540.096271
977.333590	2538.901517
977.631299	2539.045190
977.928971	2539.458565
978.226606	2537.434542
978.524204	2539.198945
978.821765	2539.624923
979.119290	2535.982689
979.416777	2539.057793
979.714228	2538.808256
980.011642	2538.195756
980.309020	2541.762372
980.606360	2539.728267
980.903664	2539.463606
981.200931	2538.765406
981.498162	2540.970911
981.795356	2543.332692
982.092513	2547.083310
982.389633	2548.789741
982.686717	2550.097920
982.983764	2556.217881
983.280775	2551.539690
983.577749	2554.783673
983.874686	2555.106306
984.171587	2550.803682
984.468451	2545.719678
984.765279	2547.395862
985.062070	2543.370500
985.358824	2542.873947
985.655543	2540.333205
985.952224	2542.359749
986.248869	2538.599048
986.545478	2533.971269
986.842050	2536.867412
987.138586	2535.949922
987.435086	2535.486136
987.731549	2530.747451
988.027975	2533.893131
988.324366	2534.951773
988.620719	2536.113759
988.917037	2534.853471
989.213318	2538.346990
989.509563	2533.598223
989.805772	2535.607123
990.101944	2533.731814
990.398080	2534.679551
990.694180	2536.774150
990.990244	2534.929088
991.286271	2536.171732
991.582262	2537.048893
991.878217	2537.779861
992.174136	2536.466640
992.470019	2533.867925
992.765865	2534.077133
993.061676	2537.621064
993.357450	2535.576876
993.653188	2534.372041
993.948890	2534.926567
994.244556	2535.554191
994.540186	2538.422608
994.835780	2536.375899
995.131337	2538.011754
995.426859	2539.624923
995.722345	2535.279448
996.017795	2540.877650
996.313208	2542.810932
996.608586	2540.754141
996.903928	2540.683565
997.199234	2539.206507
997.494504	2539.680376
997.789738	2538.841023
998.084936	2540.260108
998.380099	2539.261960
998.675225	2536.927906
998.970316	2538.921682
999.265371	2537.185004
999.560390	2533.119314
999.855373	2534.344314
1000.150320	2536.650642
1000.445232	2538.914120
1000.740108	2536.418749
1001.034948	2536.917823
1001.329752	2534.906403
1001.624521	2536.559901
1001.919254	2531.216278
1002.213951	2528.806607
1002.508613	2533.883049
1002.803239	2534.414890
1003.097829	2528.783922
1003.392384	2535.763399
1003.686903	2533.986392
1003.981386	2535.513862
1004.275834	2535.087884
1004.570246	2535.055117
1004.864623	2533.431865
1005.158964	2535.521424
1005.453270	2534.402288
1005.747540	2536.527134
1006.041775	2534.372041
1006.335974	2535.418080
1006.630138	2533.537730
1006.924266	2535.627288
1007.218359	2532.481608
1007.512416	2534.041845
1007.806438	2534.228368
1008.100425	2533.371372
1008.394376	2536.214582
1008.688292	2531.964890
1008.982172	2533.008408
1009.276017	2537.895807
1009.569827	2533.207534
1009.863602	2534.692154
1010.157341	2531.818696
1010.451045	2533.396577
1010.744714	2532.161495
1011.038347	2532.055630
1011.331945	2532.902544
1011.625508	2532.831968
1011.919036	2533.333563
1012.212528	2531.435568
1012.505986	2532.116124
1012.799408	2532.194262
1013.092795	2531.939684
1013.386147	2532.831968
1013.679464	2534.624098
1013.972745	2532.963038
1014.265992	2534.704757
1014.559204	2532.612678
1014.852380	2534.253573
1015.145521	2532.801721
1015.438628	2534.722401
1015.731699	2535.536547
1016.024736	2533.172246
1016.317737	2534.677030
1016.610703	2533.852802
1016.903635	2528.746113
1017.196531	2527.387522
1017.489393	2531.133099
1017.782219	2528.879703
1018.075011	2530.366844
1018.367768	2536.237267
1018.660490	2532.302647
1018.953177	2532.302647
1019.245829	2532.302647
