Dividing Wavelength (nm)	Counts (n)	Blue Motor Position (mm): 20.600000	Red Motor Position (mm): 0.000000	
326.493990	2060.561552
326.888308	2060.561552
327.282561	2060.561552
327.676750	2034.080371
328.070874	2038.788809
328.464933	2043.081351
328.858929	2052.432692
329.252859	2061.925184
329.646726	2073.887843
330.040528	2093.966758
330.434265	2108.452514
330.827938	2130.678961
331.221547	2152.575213
331.615091	2171.562719
332.008571	2190.703980
332.401986	2213.381611
332.795338	2233.904148
333.188625	2251.699421
333.581847	2269.645929
333.975006	2290.806172
334.368100	2310.146559
334.761129	2325.146512
335.154095	2339.377689
335.546996	2387.939124
335.939833	2484.094093
336.332606	2491.504589
336.725315	2506.852382
337.117960	2518.288239
337.510540	2521.451563
337.903056	2532.995806
338.295508	2541.447300
338.687896	2546.745553
339.080220	2554.249310
339.472480	2557.258879
339.864676	2559.303067
340.256807	2561.869014
340.648875	2563.134344
341.040879	2565.367575
341.432818	2566.277503
341.824694	2567.991496
342.216506	2567.726835
342.608253	2564.906309
342.999937	2565.665003
343.391557	2564.064437
343.783113	2564.213151
344.174605	2559.764332
344.566033	2557.337017
344.957397	2560.598643
345.348697	2554.899619
345.739934	2555.744012
346.131106	2554.869372
346.522215	2551.963147
346.913260	2550.970040
347.304241	2546.773279
347.695159	2547.678166
348.086012	2546.833773
348.476802	2543.614996
348.867528	2541.500232
349.258191	2536.595189
349.648789	2534.823224
350.039324	2536.111239
350.429796	2538.309182
350.820203	2537.379089
351.210548	2535.660055
351.600828	2538.077289
351.991045	2533.439427
352.381198	2534.714839
352.771288	2534.891279
353.161314	2532.058151
353.551276	2533.497400
353.941175	2531.037317
354.331010	2532.610157
354.720782	2536.040663
355.110490	2536.927906
355.500135	2535.019829
355.889717	2532.721063
356.279235	2533.935981
356.668689	2533.449509
357.058080	2537.588297
357.447408	2534.916485
357.836672	2536.128883
358.225873	2537.590817
358.615010	2540.136600
359.004084	2534.631660
359.393095	2539.773637
359.782043	2537.119469
360.170927	2538.488143
360.559748	2540.723894
360.948505	2541.575849
361.337199	2541.906045
361.725830	2539.324974
362.114398	2542.644574
362.502903	2541.757331
362.891344	2542.165664
363.279722	2542.664739
363.668037	2545.265974
364.056289	2540.983514
364.444478	2544.948381
364.832603	2544.086344
365.220665	2546.294369
365.608665	2546.758156
365.996601	2548.542724
366.384474	2547.000131
366.772284	2548.562889
367.160031	2548.119267
367.547715	2549.180430
367.935336	2546.387631
368.322893	2544.782023
368.710388	2544.446787
369.097820	2547.645399
369.485189	2545.944009
369.872495	2548.641027
370.259738	2550.120605
370.646918	2550.798640
371.034035	2548.134391
371.421090	2550.811243
371.808081	2547.138763
372.195010	2549.412323
372.581875	2552.515153
372.968678	2552.673950
373.355418	2551.131357
373.742096	2552.989022
374.128710	2551.166645
374.515262	2554.186296
374.901751	2553.414999
375.288177	2554.004814
375.674540	2551.837118
376.060841	2552.883157
376.447079	2552.374001
376.833254	2555.905329
377.219367	2555.058415
377.605417	2555.045813
377.991404	2557.339538
378.377329	2551.978270
378.763191	2554.367777
379.148991	2556.419527
379.534727	2554.944989
379.920402	2555.053374
380.306013	2554.695452
380.691563	2560.132337
381.077049	2556.601008
381.462474	2556.238045
381.847835	2557.795762
382.233134	2556.419527
382.618371	2556.101934
383.003545	2556.681667
383.388657	2557.768036
383.773706	2556.958930
384.158693	2557.347099
384.543618	2558.987995
384.928480	2560.026473
385.313280	2555.552448
385.698017	2559.416493
386.082692	2560.976730
386.467305	2557.400031
386.851856	2559.867676
387.236344	2559.643345
387.620770	2558.146122
388.005133	2555.131512
388.389435	2558.204095
388.773674	2555.239897
389.157851	2563.058727
389.541965	2560.971689
389.926018	2559.887841
390.310008	2559.744168
390.693936	2562.605023
391.077802	2562.801628
391.461606	2564.429920
391.845348	2563.393963
392.229027	2561.274158
392.612645	2562.957903
392.996200	2562.161401
393.379694	2566.222051
393.763125	2565.362534
394.146494	2564.722307
394.529801	2564.074519
394.913047	2564.865980
395.296230	2564.659293
395.679351	2564.886145
396.062410	2567.822617
396.445408	2565.375137
396.828343	2566.690878
397.211217	2565.783470
397.594028	2567.552915
397.976778	2567.646177
398.359466	2566.683316
398.742092	2564.538305
399.124656	2566.612740
399.507158	2566.895045
399.889598	2569.498801
400.271977	2565.077709
400.654294	2566.446382
401.036549	2568.034345
401.418742	2569.065261
401.800874	2568.203224
402.182944	2569.692885
402.564952	2568.689695
402.946898	2569.183728
403.328783	2568.102401
403.710606	2568.591393
404.092367	2570.544840
404.474067	2571.948801
404.855705	2568.684654
405.237282	2572.188256
405.618797	2570.028122
406.000250	2569.082905
406.381642	2568.787998
406.762972	2571.938719
407.144240	2568.684654
407.525447	2570.595252
407.906593	2569.501321
408.287677	2572.737742
408.668700	2573.294789
409.049661	2572.667166
409.430560	2571.308575
409.811399	2573.851837
410.192176	2572.760427
410.572891	2572.914182
410.953545	2575.129769
411.334138	2572.790674
411.714669	2573.844275
412.095139	2575.412074
412.475547	2575.636405
412.855894	2574.174471
413.236180	2574.973494
413.616405	2577.012640
413.996568	2574.693710
414.376670	2575.399471
414.756711	2575.522979
415.136691	2576.982393
415.516609	2576.296797
415.896466	2577.121025
416.276262	2574.902917
416.655997	2577.093299
417.035670	2575.331416
417.415283	2579.013978
417.794834	2578.567836
418.174324	2578.729153
418.553753	2576.929461
418.933121	2576.339646
419.312428	2575.558268
419.691674	2576.755542
420.070859	2576.742939
420.449983	2576.765624
420.829045	2577.836869
421.208047	2578.255285
421.586988	2577.557085
421.965867	2577.390727
422.344686	2579.296283
422.723444	2578.149421
423.102141	2578.305696
423.480777	2575.848134
423.859352	2578.222517
424.237866	2578.444328
424.616319	2578.320820
424.994712	2576.432908
425.373044	2578.903073
425.751314	2577.035326
426.129524	2573.572053
426.507673	2572.611713
426.885762	2571.999213
427.263789	2576.609348
427.641756	2579.739905
428.019662	2577.998186
428.397508	2580.082703
428.775292	2580.034812
429.153016	2580.987590
429.530679	2581.267374
429.908282	2579.639082
430.285824	2580.362487
430.663305	2579.475244
431.040726	2579.460121
431.418086	2577.917527
431.795385	2583.087231
432.172624	2581.012796
432.549802	2580.927096
432.926920	2580.861561
433.303977	2581.000193
433.680974	2581.055646
434.057910	2578.998855
434.434786	2580.342323
434.811601	2585.179310
435.188355	2583.087231
435.565050	2579.273598
435.941683	2582.986408
436.318257	2578.807291
436.694770	2578.968608
437.071222	2581.910121
437.447614	2581.988259
437.823946	2582.981367
438.200218	2582.792323
438.576429	2584.019844
438.952580	2581.083372
439.328670	2583.982036
439.704700	2583.646799
440.080670	2582.963722
440.456580	2581.584967
440.832429	2583.707293
441.208218	2584.637386
441.583947	2584.894484
441.959616	2583.069587
442.335224	2584.138311
442.710773	2581.532035
443.086261	2582.048753
443.461689	2583.233424
443.837057	2587.573858
444.212365	2585.063363
444.587612	2583.601428
444.962800	2581.617734
445.337927	2581.925245
445.712995	2582.159658
446.088002	2588.758529
446.462949	2587.190730
446.837837	2584.700400
447.212664	2588.241811
447.587431	2588.566965
447.962139	2591.773139
448.336786	2587.523446
448.711374	2587.354567
449.085901	2589.625607
449.460369	2589.560072
449.834776	2591.528643
450.209124	2587.732654
450.583412	2590.835484
450.957640	2588.829105
451.331808	2588.231728
451.705917	2589.481934
452.079965	2591.483272
452.453954	2590.109558
452.827883	2590.880855
453.201752	2589.436564
453.575562	2591.216091
453.949311	2591.884044
454.323001	2590.137284
454.696632	2591.347161
455.070202	2591.329517
455.443713	2589.784404
455.817164	2592.413365
456.190556	2593.285485
456.563888	2595.687595
456.937160	2593.792121
457.310373	2594.097111
457.683526	2595.972420
458.056619	2596.451330
458.429653	2592.874631
458.802628	2596.007708
459.175542	2597.320929
459.548398	2600.499376
459.921194	2597.467122
460.293930	2598.782863
460.666607	2600.895107
461.039224	2603.582042
461.411782	2601.190014
461.784280	2604.323091
462.156719	2603.327463
462.529099	2604.340735
462.901419	2605.011209
463.273680	2602.409973
463.645882	2600.706063
464.018024	2604.141610
464.390106	2601.245467
464.762130	2607.854420
465.134094	2611.657970
465.505999	2618.723147
465.877845	2619.421347
466.249631	2623.222377
466.621358	2620.989146
466.993026	2622.665330
467.364634	2623.413941
467.736184	2622.874537
468.107674	2620.570730
468.479105	2620.951337
468.850477	2618.231635
469.221790	2619.252468
469.593043	2620.661471
469.964238	2621.475617
470.335373	2619.345730
470.706449	2622.166255
471.077467	2626.796555
471.448425	2631.048768
471.819324	2638.338277
472.190164	2635.159829
472.560945	2630.922740
472.931667	2631.068933
473.302330	2634.270066
473.672934	2630.791670
474.043479	2636.122690
474.413965	2634.411218
474.784393	2636.722587
475.154761	2639.197794
475.525070	2638.983545
475.895321	2641.221817
476.265513	2646.220121
476.635645	2646.946047
477.005719	2649.454021
477.375734	2653.439053
477.745691	2658.359219
478.115588	2664.832061
478.485427	2668.360869
478.855207	2682.319824
479.224928	2686.524146
479.594591	2695.416741
479.964194	2701.009902
480.333739	2705.501570
480.703226	2710.114225
481.072653	2719.571430
481.442022	2727.181052
481.811333	2735.531723
482.180584	2736.396281
482.549777	2742.826273
482.918912	2746.670152
483.287988	2762.441402
483.657005	2769.655293
484.025964	2777.537137
484.394864	2784.461162
484.763706	2796.486835
485.132489	2805.215593
485.501213	2815.902839
485.869879	2830.159222
486.238487	2844.846624
486.607036	2859.937318
486.975527	2874.707898
487.343959	2893.571896
487.712333	2915.349681
488.080648	2934.765685
488.448905	2957.728141
488.817104	2979.001810
489.185244	3013.148065
489.553326	3063.027762
489.921350	3128.172073
490.289315	3200.842826
490.657222	3248.577512
491.025070	3292.465797
491.392861	3317.585867
491.760593	3338.776357
492.128267	3348.581401
492.495883	3363.689739
492.863440	3382.853686
493.230939	3404.132396
493.598380	3431.493258
493.965763	3472.082109
494.333088	3509.225330
494.700354	3551.351732
495.067563	3598.320163
495.434713	3647.080723
495.801805	3710.390054
496.168839	3765.401645
496.535815	3817.532217
496.902733	3885.693658
497.269593	3936.261472
497.636395	4006.275538
498.003139	4087.314606
498.369825	4146.709481
498.736453	4235.965630
499.103023	4296.603149
499.469535	4384.346953
499.835989	4467.089931
500.202385	4534.908574
500.568723	4619.852016
500.935003	4726.759766
501.301226	4807.115758
501.667390	4947.529537
502.033497	5058.112288
502.399546	5133.104492
502.765537	5189.126835
503.131470	5324.680941
503.497345	5467.968178
503.863163	5479.446885
504.228923	5645.343696
504.594625	5798.642664
504.960269	5857.944278
505.325856	6038.848604
505.691385	6117.901458
506.056856	6270.726557
506.422270	6447.378670
506.787625	6516.054309
507.152924	6688.088725
507.518164	6845.768456
507.883347	6914.933087
508.248472	7065.993782
508.613540	7288.764891
508.978550	7470.959753
509.343503	7589.305881
509.708398	7788.353320
510.073236	8029.098663
510.438016	8198.390691
510.802738	8289.567520
511.167403	8540.427939
511.532010	8744.324968
511.896561	8990.439140
512.261053	9296.064133
512.625488	9416.754397
512.989866	9584.995345
513.354186	9761.425647
513.718449	9916.052959
514.082655	10275.104101
514.446803	10394.758408
514.810894	10709.732221
515.174927	10895.319779
515.538904	11080.141082
515.902822	11418.014336
516.266684	11532.703107
516.630488	11812.184676
516.994235	11999.904642
517.357925	12352.803055
517.721558	12628.982669
518.085133	12950.489817
518.448651	13211.364488
518.812112	13391.353844
519.175516	13644.018996
519.538863	13982.741684
519.902152	14202.856105
520.265385	14598.039717
520.628560	14834.578217
520.991678	15027.389749
521.354739	15317.079655
521.717743	15662.580175
522.080690	15854.307858
522.443580	16328.219170
522.806413	16552.724436
523.169189	16845.340731
523.531908	17166.361408
523.894569	17356.435593
524.257174	17665.181061
524.619722	18042.524029
524.982213	18333.754007
525.344647	18598.817877
525.707025	18893.362413
526.069345	19323.720676
526.431608	19514.475417
526.793815	19929.679971
527.155964	19983.307766
527.518057	20329.677885
527.880093	20501.356900
528.242072	21038.759023
528.603995	21171.280876
528.965860	21379.793081
529.327669	21728.683777
529.689421	21985.870843
530.051117	22205.029966
530.412755	22583.633222
530.774337	22879.274210
531.135862	23082.437751
531.497331	23406.208378
531.858743	23644.438185
532.220098	24105.272743
532.581396	24199.015520
532.942638	24321.203007
533.303824	24699.546644
533.664953	24968.156965
534.026025	25030.468147
534.387040	25584.730409
534.747999	25869.122062
535.108902	26287.210157
535.469748	26148.351574
535.830537	26514.573757
536.191270	26896.350420
536.551947	26982.496178
536.912567	27373.576290
537.273131	27711.855357
537.633638	27696.789869
537.994089	28056.385455
538.354483	28105.637528
538.714821	28766.391645
539.075103	29175.476238
539.435328	29313.755088
539.795497	29377.709687
540.155609	29676.839153
540.515665	30294.299841
540.875665	30065.325592
541.235609	30472.219804
541.595496	30764.455492
541.955328	31380.839894
542.315102	31216.168083
542.674821	31341.347495
543.034483	31472.293986
543.394090	31699.087936
543.753640	31905.046797
544.113134	32865.099259
544.472571	32425.694646
544.831953	33465.336845
545.191278	33134.533809
545.550548	33093.599639
545.909761	33781.255874
546.268918	34094.293884
546.628019	34602.958910
546.987064	34374.075402
547.346053	34019.778068
547.704986	34922.212662
548.063863	34835.043550
548.422684	35200.930497
548.781449	35073.628759
549.140158	35665.530797
549.498811	35680.432447
549.857408	35387.080143
550.215949	36230.722281
550.574434	36283.929139
550.932864	36399.064052
551.291237	37161.790629
551.649555	37130.555639
552.007817	37459.422872
552.366022	37353.856070
552.724173	37578.598270
553.082267	38090.655992
553.440305	38553.133967
553.798288	38092.551466
554.156215	38583.065818
554.514086	38901.533150
554.871902	38743.797967
555.229661	39060.062315
555.587365	38947.735325
555.945014	39207.246363
556.302606	39385.607428
556.660143	39611.204103
557.017625	39949.629364
557.375050	39852.839210
557.732421	40355.860664
558.089735	40545.312267
558.446994	40557.690820
558.804197	41150.417087
559.161345	41142.144553
559.518437	40700.189116
559.875474	41073.912536
560.232455	41432.938472
560.589381	41618.944446
560.946251	41549.784856
561.303065	42289.899338
561.659825	42137.379228
562.016528	42074.790782
562.373177	41812.418889
562.729770	42524.300388
563.086307	42203.821636
563.442789	42813.339985
563.799216	42807.693893
564.155587	42811.381497
564.511904	42897.701174
564.868164	43060.348962
565.224370	43466.146723
565.580520	43318.672809
565.936615	43601.776447
566.292654	43377.044329
566.648638	43819.221577
567.004567	43870.227972
567.360441	44055.268565
567.716260	43874.447417
568.072023	44317.141383
568.427732	44361.271644
568.783385	44001.275286
569.138982	44478.412936
569.494525	44692.372108
569.850013	44375.719591
570.205445	44570.189662
570.560823	44457.978619
570.916145	44435.621102
571.271412	44724.522067
571.626625	44487.239997
571.981782	44615.446621
572.336884	44297.937108
572.691931	44685.390110
573.046923	44442.812308
573.401860	44337.769785
573.756743	44439.795177
574.111570	44642.759593
574.466342	44616.911076
574.821059	44830.774467
575.175722	44397.978806
575.530330	44564.465432
575.884882	44269.603303
576.239380	44243.454838
576.593823	44372.173139
576.948211	44373.173808
577.302544	43998.548022
577.656823	44027.378381
578.011047	44345.157596
578.365216	44210.258840
578.719330	44002.157488
579.073389	44021.782700
579.427394	44097.606695
579.781344	44075.269342
580.135239	43889.603646
580.489080	43987.245755
580.842866	43532.823545
581.196597	44052.972319
581.550273	44081.180095
581.903895	44051.003748
582.257463	44517.040778
582.610975	43987.341537
582.964434	44359.968506
583.317837	43909.879167
583.671186	43897.843412
584.024481	44205.310947
584.377721	43767.985810
584.730906	44031.771747
585.084037	44161.210933
585.437113	43933.575111
585.790135	44071.962346
586.143103	43657.599664
586.496016	43846.665618
586.848874	43966.216582
587.201679	44021.455025
587.554428	43559.672730
587.907124	43864.158422
588.259765	43637.195594
588.612352	43816.345599
588.964884	43316.452180
589.317362	43629.308709
589.669786	43654.562369
590.022155	43518.496585
590.374470	43992.402856
590.726731	43597.549439
591.078937	42969.494767
591.431090	43291.369919
591.783188	42866.226730
592.135232	42670.443438
592.487222	42964.015033
592.839157	43111.630100
593.191038	42789.467601
593.542866	42599.799229
593.894639	42029.077599
594.246358	42344.527801
594.598022	42346.788759
594.949633	41947.960393
595.301190	41938.069649
595.652692	41893.621795
596.004141	42373.895043
596.355535	41293.459827
596.706876	41328.957112
597.058162	41052.795142
597.409395	41587.676689
597.760573	41808.174238
598.111698	41402.845304
598.462768	41328.647081
598.813785	41364.265353
599.164748	40975.955355
599.515657	41249.001891
599.866511	40771.526484
600.217312	41476.262148
600.568060	40425.804153
600.918753	41257.642429
601.269392	41187.056193
601.619978	40921.117683
601.970510	41120.855761
602.320988	41270.530139
602.671412	41530.961188
603.021783	41390.529765
603.372100	40972.605508
603.722363	41107.612649
604.072572	41124.918931
604.422728	41128.001596
604.772830	40936.997318
605.122878	41074.998905
605.472872	40952.453496
605.822813	41215.291696
606.172701	40979.232105
606.522534	41317.846409
606.872314	41517.733200
607.222041	41348.380678
607.571714	41681.414424
607.921333	41181.924298
608.270899	41414.150091
608.620411	41788.289406
608.969870	41520.984744
609.319276	41568.658936
609.668627	41580.183014
610.017926	42000.345543
610.367171	42118.179993
610.716362	42176.180989
611.065500	42064.232086
611.414585	42314.147287
611.763616	42470.362563
612.112594	42373.476627
612.461518	42503.654343
612.810389	42880.364646
613.159207	42688.707539
613.507971	42647.967454
613.856682	43159.727748
614.205340	42999.419056
614.553945	43676.937530
614.902496	43001.203625
615.250994	43419.054785
615.599439	43500.930685
615.947830	43608.287097
616.296169	43631.078154
616.644454	43662.454295
616.992686	43831.458978
617.340864	44289.135253
617.688990	43805.854957
618.037063	44484.603473
618.385082	44304.152851
618.733048	44643.298996
619.080961	44534.689857
619.428821	44544.537751
619.776628	44564.641873
620.124382	44363.877921
620.472083	44492.719731
620.819731	44593.883086
621.167326	44169.375082
621.514868	44149.858255
621.862357	43617.973674
622.209793	43692.330693
622.557176	43268.783030
622.904506	43044.068556
623.251783	42668.190043
623.599007	42347.066022
623.946179	42261.870522
624.293297	42009.573375
624.640363	41483.770947
624.987376	41316.379433
625.334336	41120.817952
625.681243	40707.541639
626.028097	40623.124997
626.374899	40459.335388
626.721647	40416.072206
627.068343	40197.946520
627.414987	39898.786807
627.761577	39660.050364
628.108115	39995.728195
628.454600	39254.832335
628.801032	39476.519596
629.147412	39366.090601
629.493739	39291.088314
629.840014	38837.170218
630.186236	39261.945403
630.532405	38713.898883
630.878521	38954.422416
631.224585	38722.819205
631.570597	38392.714369
631.916556	38548.685148
632.262462	38430.754916
632.608316	38372.998416
632.954117	38231.722600
633.299866	38196.920995
633.645562	38107.891697
633.991206	37593.066381
634.336797	37169.909407
634.682336	37059.162819
635.027823	36840.754828
635.373257	36703.900104
635.718639	36373.938941
636.063968	36267.767200
636.409245	35619.868025
636.754470	35578.197848
637.099642	35357.725505
637.444762	34790.091582
637.789829	34933.315803
638.134845	34551.829007
638.479808	34476.471318
638.824719	34422.969553
639.169577	33902.331786
639.514383	34011.878580
639.859137	33619.288642
640.203839	33785.606390
640.548489	33506.109697
640.893086	33488.243848
641.237632	33215.983731
641.582125	33309.754234
641.926566	33104.841412
642.270955	33134.105311
642.615292	33077.667073
642.959576	32968.430310
643.303809	32964.946873
643.647990	33057.285688
643.992118	33009.593852
644.336195	32858.291181
644.680219	32951.842393
645.024192	33155.610873
645.368112	33679.699309
645.711981	33685.436142
646.055797	34420.227165
646.399562	34212.350145
646.743274	35093.760607
647.086935	35487.797356
647.430544	35442.719358
647.774101	35483.892983
648.117606	35783.208972
648.461059	35922.869098
648.804460	35513.262745
649.147810	34997.300649
649.491108	34671.425341
649.834354	34506.405690
650.177548	33700.357958
650.520690	33193.540514
650.863781	33170.830116
651.206820	33007.484129
651.549807	32598.129834
651.892742	32010.737108
652.235626	31908.908321
652.578458	31775.037960
652.921238	31091.742324
653.263967	31405.264284
653.606644	31114.992125
653.949269	31027.714629
654.291843	30620.409563
654.634365	30987.796252
654.976836	30542.561544
655.319255	30601.429618
655.661622	30482.017287
656.003938	30350.917040
656.346203	30166.380562
656.688416	30421.783060
657.030577	30177.624856
657.372687	30010.455153
657.714746	30161.500725
658.056753	30363.802229
658.398708	29736.917104
658.740612	29812.312601
659.082465	30003.384935
659.424266	29902.161086
659.766016	29902.604708
660.107715	29771.015469
660.449362	29869.247392
660.790958	29844.969196
661.132503	29778.405800
661.473996	29852.568735
661.815438	29935.795664
662.156829	30062.071527
662.498168	29860.924448
662.839456	29836.865541
663.180693	29960.615785
663.521879	30068.309955
663.863013	30011.155873
664.204097	29997.575005
664.545129	30404.572561
664.886110	30334.974391
665.227040	30444.306935
665.567918	30433.750759
665.908746	30512.521308
666.249522	30593.560377
666.590248	30619.524840
666.930922	30732.179505
667.271545	30729.038866
667.612118	30781.590374
667.952639	30590.311353
668.293109	30627.550357
668.633528	30488.505252
668.973896	30443.868355
669.314213	30432.487950
669.654480	30242.653220
669.994695	30221.019108
670.334859	30144.449022
670.674973	29981.085391
671.015035	30160.973924
671.355047	30101.412692
671.695008	30024.288079
672.034918	29935.392372
672.374777	30052.843695
672.714585	29906.221735
673.054342	30035.824760
673.394049	29889.124662
673.733705	30108.230852
674.073310	29828.030919
674.412864	29872.597239
674.752368	29576.109338
675.091820	29812.937704
675.431223	29394.957995
675.770574	29206.338182
676.109875	29053.029132
676.449125	28843.211268
676.788324	28742.914992
677.127473	28254.180167
677.466571	28170.597837
677.805619	27881.016316
678.144616	27823.965577
678.483562	27761.019210
678.822458	27442.272093
679.161303	27386.869813
679.500098	27301.775136
679.838842	27233.621256
680.177535	27314.602352
680.516179	27547.831334
680.854771	27697.326752
681.193314	28451.369941
681.531805	29487.379989
681.870247	30219.199251
682.208638	30946.698245
682.546978	31225.259804
682.885268	31356.007170
683.223508	30906.873130
683.561697	30638.303138
683.899836	30477.639044
684.237925	30064.866847
684.575963	29916.261193
684.913951	29560.017974
685.251889	29718.148888
685.589776	29744.836757
685.927614	29750.313970
686.265401	29937.665932
686.603137	30049.135926
686.940824	30550.163604
687.278460	30874.317358
687.616046	31052.139019
687.953582	31704.005582
688.291068	31628.022790
688.628504	31944.367797
688.965889	31952.078242
689.303224	31679.392148
689.640510	31403.356207
689.977745	30766.320719
690.314930	30030.433246
690.652065	29588.175339
690.989150	28917.545602
691.326185	28058.222956
691.663170	27435.292616
692.000105	26703.039814
692.336990	26090.416113
692.673825	25675.773648
693.010610	25192.833630
693.347345	24690.898544
693.684030	24039.094996
694.020665	23846.981664
694.357251	23172.308922
694.693786	23179.346372
695.030272	22954.304223
695.366707	22456.447431
695.703093	22180.529958
696.039429	22249.742480
696.375716	22008.853464
696.711952	22003.562773
697.048139	21860.817460
697.384276	21706.006146
697.720363	21814.219555
698.056400	21707.775591
698.392388	21554.650543
698.728326	21542.534130
699.064214	21383.639481
699.400053	21395.617263
699.735842	21005.537819
700.071581	20807.276800
700.407270	20549.978829
700.742910	20376.855523
701.078501	20139.225613
701.414042	19923.602860
701.749533	19627.840885
702.084974	19306.943716
702.420366	19541.755621
702.755709	19125.444534
703.091002	18823.247525
703.426246	18895.247805
703.761440	18838.509618
704.096584	18589.534592
704.431679	18512.634310
704.766725	18462.918451
705.101721	18396.917144
705.436668	18509.566768
705.771565	18240.961488
706.106413	18559.706084
706.441212	18634.277353
706.775961	18732.463906
707.110661	18803.380338
707.445311	19179.379839
707.779913	19058.687054
708.114465	19355.137147
708.448967	19664.974024
708.783421	20297.941301
709.117825	20663.790438
709.452180	20900.928836
709.786485	21339.370589
710.120742	22100.247062
710.454949	22211.769988
710.789107	22717.213717
711.123216	23431.199898
711.457275	23649.489421
711.791286	24190.803480
712.125247	24348.173180
712.459159	24081.934722
712.793023	24838.135525
713.126837	23812.031345
713.460602	24065.389655
713.794318	23728.612851
714.127985	23462.785247
714.461602	22568.267785
714.795171	22549.542419
715.128691	21563.127243
715.462162	21051.654295
715.795584	20609.678693
716.128957	20338.149544
716.462281	19958.850608
716.795556	19686.114103
717.128782	19206.410506
717.461960	18609.323641
717.795088	18569.614472
718.128167	18218.951811
718.461198	17765.482378
718.794180	17636.887585
719.127113	17317.759861
719.459997	17120.633102
719.792833	16746.955052
720.125619	16791.349974
720.458357	16442.192097
720.791046	16309.962631
721.123686	16153.717109
721.456278	15924.516008
721.788821	15928.266627
722.121315	15655.641027
722.453761	15765.860814
722.786158	15639.148892
723.118506	15727.389249
723.450805	15606.754437
723.783056	15785.105419
724.115259	15693.444639
724.447412	15676.526527
724.779518	15890.468055
725.111574	15947.175995
725.443582	16214.888990
725.775542	16167.502144
726.107453	16692.306424
726.439315	16599.501302
726.771129	17025.947630
727.102895	17442.919108
727.434612	17718.236684
727.766281	17875.122433
728.097901	18199.664356
728.429473	18279.891799
728.760996	18306.073032
729.092471	18418.611750
729.423897	18318.585175
729.755276	18187.787398
730.086606	18293.104663
730.417887	18882.430671
730.749120	19444.110992
731.080305	19658.392798
731.411442	20055.245031
731.742530	20186.304949
732.073570	20337.983186
732.404562	20664.496200
732.735506	20502.531489
733.066401	20303.849533
733.397249	19793.785587
733.728048	19178.462349
734.058798	18309.659812
734.389501	17539.101803
734.720156	17030.517436
735.050762	16457.534848
735.381320	16083.108187
735.711831	15801.259797
736.042293	15430.586275
736.372707	15459.424195
736.703073	15250.980046
737.033391	15451.580160
737.363661	15451.849862
737.693883	15574.612040
738.024056	15770.349962
738.354182	15989.035216
738.684260	16351.859661
739.014290	16625.226310
739.344272	16854.041763
739.674207	17199.859876
740.004093	17372.572327
740.333931	17424.692817
740.663722	17501.603180
740.993464	17552.526396
741.323159	17401.584167
741.652806	17098.935976
741.982405	16933.830625
742.311956	16579.145123
742.641460	16465.318390
742.970915	16141.363761
743.300323	15795.442305
743.629683	15573.760085
743.958996	15264.545791
744.288260	14948.662049
744.617477	14634.799811
744.946647	14603.098515
745.275768	14290.922543
745.604842	14085.155245
745.933869	13906.090940
746.262847	13878.646899
746.591778	13794.497438
746.920662	13674.767514
747.249498	13685.154811
747.578286	13849.009955
747.907027	14010.808308
748.235720	14282.173620
748.564365	14351.560062
748.892963	14267.801290
749.221514	14379.583836
749.550017	14234.801897
749.878473	14217.853538
750.206881	13987.908867
750.535242	13914.759204
750.863555	13830.067820
751.191821	13726.134351
751.520039	13755.874638
751.848210	13678.591229
752.176334	13727.689547
752.504411	13646.111075
752.832440	13478.762411
753.160421	13590.933125
753.488356	13480.957833
753.816243	13386.668092
754.144082	13219.831105
754.471875	13172.350998
754.799620	13134.643167
755.127318	13096.748814
755.454969	13104.368518
755.782572	13064.470306
756.110129	13089.093822
756.437638	12987.862411
756.765100	12995.575377
757.092515	13024.889686
757.419882	13061.001992
757.747203	13074.585381
758.074477	13158.838185
758.401703	13140.042243
758.728882	13335.875946
759.056014	13386.042989
759.383099	13546.379408
759.710138	13671.894056
760.037129	13794.046255
760.364073	13850.610522
760.690970	13879.123288
761.017820	13905.390220
761.344623	14131.410353
761.671379	14507.661911
761.998088	15220.879316
762.324751	16997.139956
762.651366	20415.369939
762.977935	24900.577777
763.304456	27856.964971
763.630931	28902.986750
763.957359	27694.291977
764.283740	25431.925475
764.610074	23165.737777
764.936362	20535.205727
765.262602	18664.615017
765.588796	16725.041157
765.914943	15441.752431
766.241044	14329.121886
766.567097	13548.514336
766.893104	12820.128099
767.219064	12358.431504
767.544978	11874.813451
767.870845	11495.370842
768.196665	11266.822570
768.522438	11029.558144
768.848165	10836.118989
769.173846	10628.849428
769.499479	10492.511422
769.825066	10326.213839
770.150607	10096.001987
770.476101	10018.743783
770.801548	9890.307786
771.126949	9734.001770
771.452303	9618.917269
771.777611	9419.932844
772.102872	9415.042925
772.428087	9269.507334
772.753256	9106.645298
773.078378	9028.083956
773.403453	8838.009771
773.728482	8726.010456
774.053465	8655.018407
774.378401	8551.679794
774.703291	8423.931914
775.028135	8304.501939
775.352932	8271.542875
775.677683	8158.850401
776.002388	8062.639980
776.327046	8071.784633
776.651658	7972.254612
776.976224	7873.528655
777.300743	7868.679065
777.625216	7783.712938
777.949643	7737.104950
778.274024	7749.906960
778.598359	7663.342787
778.922647	7681.624531
779.246889	7625.264431
779.571086	7635.802963
779.895236	7647.168245
780.219339	7648.912484
780.543397	7654.936663
780.867409	7736.883139
781.191374	7749.569203
781.515294	7716.491672
781.839167	7807.338305
782.162995	7779.468286
782.486776	7722.987198
782.810511	7674.730753
783.134201	7587.075170
783.457844	7588.849656
783.781441	7529.490070
784.104993	7462.765357
784.428498	7441.980680
784.751958	7432.069772
785.075372	7402.581542
785.398739	7341.994435
785.722061	7390.792804
786.045337	7394.432517
786.368568	7553.059985
786.691752	7573.814415
787.014891	7919.894668
787.337983	8273.350128
787.661030	8871.107466
787.984031	9495.545111
788.306987	9901.426051
788.629897	10109.945818
788.952760	10054.868692
789.275579	9839.339200
789.598351	9431.502292
789.921078	9081.689065
790.243759	8670.893000
790.566395	8381.314000
790.888984	8131.179508
791.211529	7916.290243
791.534027	7697.594907
791.856480	7491.648648
792.178888	7415.675939
792.501249	7323.959707
792.823566	7166.509349
793.145836	7166.910121
793.468062	7138.432642
793.790241	7092.119562
794.112375	7159.928122
794.434464	7316.196330
794.756507	7353.044644
795.078505	7514.447267
795.400457	7825.216757
795.722364	8176.333123
796.044226	8462.602606
796.366042	8740.276921
796.687812	8683.135442
797.009538	8766.727855
797.331218	8663.769850
797.652852	8570.717712
797.974442	8419.094927
798.295986	8334.703491
798.617484	8140.034294
798.938938	7997.185638
799.260346	7898.376502
799.581709	7699.006430
799.903026	7619.946014
800.224299	7511.299066
800.545526	7339.665422
800.866708	7243.606235
801.187845	7176.783220
801.508936	7068.980666
801.829983	7032.903648
802.150984	6879.899588
802.471940	6829.230951
802.792851	6828.603327
803.113717	6793.257277
803.434538	6752.181955
803.755314	6695.484098
804.076045	6697.099788
804.396731	6642.327651
804.717372	6673.550038
805.037967	6677.235121
805.358518	6717.937397
805.679024	6803.059801
805.999485	6809.399052
806.319901	6847.878179
806.640272	6872.819288
806.960598	6956.111752
807.280879	6953.109745
807.601115	7036.046808
807.921306	6980.079918
808.241453	6996.874522
808.561554	7013.288519
808.881611	6973.924669
809.201623	6988.733058
809.521590	6935.536282
809.841513	6913.032572
810.161390	6957.417411
810.481223	6828.893193
810.801011	6809.497354
811.120755	6781.997860
811.440453	6706.622527
811.760107	6678.419792
812.079716	6644.268496
812.399281	6583.946049
812.718801	6569.931641
813.038276	6522.370875
813.357707	6464.856351
813.677093	6504.968812
813.996434	6411.440285
814.315731	6451.797242
814.634983	6443.582682
814.954191	6461.632533
815.273354	6562.581639
815.592473	6633.949254
815.911547	6750.634321
816.230577	6838.708320
816.549562	6986.880434
816.868502	7084.202430
817.187399	7184.455857
817.506250	7340.335895
817.825058	7371.144907
818.143821	7639.730022
818.462539	7916.524656
818.781213	8284.448229
819.099843	8837.898865
819.418429	9841.043110
819.736970	10803.729575
820.055466	12001.830363
820.373919	13540.335064
820.692327	15903.678399
821.010691	20069.640046
821.329011	29090.000954
821.647286	42082.901999
821.965517	55477.124260
822.283704	60831.124552
822.601847	62819.695907
822.919945	60137.262657
823.237999	55984.344995
823.556010	49843.788592
823.873976	43136.513235
824.191897	36587.983813
824.509775	31739.583525
824.827609	27220.698258
825.145398	24620.619819
825.463144	23241.448347
825.780845	23564.316606
826.098502	25341.489695
826.416116	29116.537588
826.733685	32751.781682
827.051210	33919.133952
827.368692	32117.113016
827.686129	28145.931471
828.003522	24030.164592
828.320872	20317.443005
828.638177	17460.548023
828.955439	15298.230781
829.272656	13486.606446
829.589830	11996.421205
829.906960	10727.625796
830.224046	9787.760635
830.541088	9039.164412
830.858086	8578.377745
831.175041	8195.567645
831.491952	8081.438443
831.808819	8131.260166
832.125642	8528.762709
832.442421	9432.785266
832.759157	11226.052239
833.075849	14155.338189
833.392497	17378.311681
833.709101	19556.019566
834.025662	19383.624707
834.342179	17688.234257
834.658653	15488.834287
834.975083	13568.936050
835.291469	11938.362236
835.607811	10622.807605
835.924110	9709.363131
836.240366	8835.209410
836.556578	8033.618057
836.872746	7385.474387
837.188871	6885.071812
837.504952	6465.310055
837.820990	6155.216079
838.136984	5934.274908
838.452935	5845.417010
838.768842	5880.750458
839.084706	6297.505167
839.400526	7513.305445
839.716303	9090.710210
840.032037	10188.134114
840.347727	10112.985634
840.663373	9138.029001
840.978977	8094.989064
841.294537	7275.330216
841.610054	6676.587333
841.925527	6249.150419
842.240957	5879.419593
842.556344	5550.151588
842.871687	5266.080048
843.186987	4981.658148
843.502244	4757.989714
843.817458	4592.226493
844.132629	4453.584680
844.447756	4368.573182
844.762840	4285.429432
845.077881	4211.364800
845.392879	4146.805263
845.707833	4094.147890
846.022745	4055.094072
846.337613	4022.233310
846.652438	3978.660097
846.967221	3964.340699
847.281960	3929.748302
847.596656	3916.117022
847.911309	3894.893764
848.225919	3873.814179
848.540485	3852.134697
848.855009	3841.424766
849.169490	3819.979697
849.483928	3805.042758
849.798323	3800.833395
850.112675	3779.370682
850.426984	3785.392341
850.741251	3770.372223
851.055474	3770.311729
851.369654	3772.439096
851.683792	3767.443313
851.997887	3772.645783
852.311938	3775.438582
852.625947	3779.983183
852.939914	3768.449023
853.253837	3776.509828
853.567718	3774.790794
853.881555	3763.289402
854.195350	3779.141310
854.509103	3775.806587
854.822812	3772.739045
855.136479	3765.346193
855.450103	3775.264663
855.763685	3760.365533
856.077224	3766.427520
856.390720	3780.106691
856.704173	3801.201399
857.017584	3815.389727
857.330953	3828.000173
857.644278	3847.481712
857.957561	3850.392978
858.270802	3852.795088
858.584000	3858.161397
858.897155	3846.949870
859.210268	3832.759022
859.523339	3808.306906
859.836367	3812.843944
860.149352	3800.679640
860.462295	3792.817960
860.775195	3781.266156
861.088054	3778.838841
861.400869	3778.387658
861.713642	3780.696506
862.026373	3786.070376
862.339062	3792.830563
862.651708	3812.521310
862.964312	3845.949201
863.276873	3861.591902
863.589392	3917.175664
863.901869	3962.399855
864.214303	4009.953059
864.526696	4045.498235
864.839045	4085.958536
865.151353	4115.378710
865.463619	4124.851038
865.775842	4129.108292
866.088023	4149.078823
866.400162	4140.715549
866.712258	4145.802073
867.024313	4144.864419
867.336325	4145.640756
867.648296	4157.928569
867.960224	4151.095285
868.272110	4163.743540
868.583954	4165.349147
868.895755	4180.384389
869.207515	4177.689892
869.519233	4217.797312
869.830909	4233.732399
870.142542	4259.059156
870.454134	4268.642390
870.765684	4303.411228
871.077191	4336.884489
871.388657	4361.374415
871.700081	4395.941607
872.011463	4442.521868
872.322803	4477.996468
872.634101	4509.052496
872.945357	4548.144123
873.256571	4602.205457
873.567744	4632.359119
873.878874	4647.923682
874.189963	4686.201163
874.501010	4696.568296
874.812015	4696.379252
875.122979	4738.291405
875.433900	4737.167228
875.744780	4750.843878
876.055618	4779.707005
876.366415	4782.048621
876.677169	4798.268533
876.987882	4844.165718
877.298554	4902.239811
877.609183	4980.060103
877.919771	5086.614972
878.230317	5234.915635
878.540822	5450.767761
878.851285	5775.619715
879.161707	6233.467389
879.472087	6997.113977
879.782425	8237.467195
880.092722	10425.640516
880.402977	13731.619126
880.713191	17492.360225
881.023363	21195.455729
881.333494	23402.195619
881.643583	24617.824499
881.953631	24619.341886
882.263637	23790.346821
882.573602	22307.630049
882.883526	20752.905436
883.193408	19081.049612
883.503248	17389.104791
883.813048	15839.106259
884.122806	14408.993927
884.432522	12937.408023
884.742197	11670.679487
885.051831	10576.834802
885.361424	9572.989837
885.670975	8758.747709
885.980485	8058.692757
886.289954	7482.935014
886.599382	7008.353229
886.908768	6637.344471
887.218113	6270.048522
887.527417	5979.216795
887.836680	5712.176793
888.145901	5486.872505
888.455082	5328.882743
888.764221	5179.780536
889.073319	5041.544536
889.382376	4966.716168
889.691392	4910.540071
890.000366	4890.173809
890.309300	4866.435016
890.618193	4870.011714
890.927044	4858.890929
891.235855	4884.978900
891.544625	4910.993774
891.853353	4973.466273
892.162041	5090.519345
892.470687	5280.422131
892.779293	5525.780130
893.087858	5901.545217
893.396381	6483.433003
893.704864	7282.692822
894.013306	8439.486395
894.321707	9606.049724
894.630068	10427.813253
894.938387	10630.611311
895.246665	10396.825281
895.554903	9785.499677
895.863100	9094.949821
896.171256	8535.439717
896.479371	8032.577059
896.787446	7529.744648
897.095480	7103.643640
897.403473	6780.969464
897.711425	6464.657225
898.019336	6194.456420
898.327207	5921.861067
898.635038	5694.048804
898.942827	5444.791473
899.250576	5250.974231
899.558284	5059.165889
899.865952	4939.897230
900.173579	4790.648829
900.481165	4683.504145
900.788711	4586.252726
901.096216	4518.421480
901.403681	4456.652222
901.711105	4430.561731
902.018489	4416.544802
902.325832	4484.040811
902.633135	4608.834575
902.940397	4955.101350
903.247619	5748.228605
903.554800	7192.267124
903.861941	9113.022357
904.169041	10633.275561
904.476101	11253.229099
904.783121	10891.609490
905.090100	10164.927163
905.397039	9326.424482
905.703938	8565.258142
906.010796	7873.067390
906.317614	7320.587175
906.624391	6787.870804
906.931129	6361.006061
907.237826	5959.889011
907.544483	5581.119396
907.851099	5209.125092
908.157675	4856.970249
908.464211	4529.391031
908.770707	4294.014517
909.077163	4097.540587
909.383578	3950.790078
909.689954	3836.993592
909.996289	3763.798558
910.302584	3701.696584
910.608839	3668.036800
910.915054	3635.753251
911.221229	3622.074080
911.527363	3632.330307
911.833458	3649.175323
912.139513	3672.742717
912.445527	3706.568859
912.751502	3787.439049
913.057436	3890.553331
913.363331	4025.746994
913.669186	4231.778952
913.975000	4489.707068
914.280775	4910.769443
914.586510	5494.688814
914.892205	6291.032325
915.197859	7329.789801
915.503475	8545.774082
915.809050	9604.250032
916.114585	10244.342980
916.420081	10500.844449
916.725536	10471.678854
917.030952	10029.662923
917.336328	9620.222928
917.641665	9213.227893
917.946961	8731.996826
918.252218	8310.634502
918.557435	7801.631719
918.862612	7371.896039
919.167750	6988.629715
919.472848	6568.593215
919.777906	6200.157965
920.082925	5835.964847
920.387904	5471.388601
920.692843	5206.783476
920.997743	4961.551506
921.302603	4729.000559
921.607423	4564.633738
921.912204	4400.899581
922.216946	4282.588742
922.521647	4159.007376
922.826310	4052.850758
923.130932	3961.555462
923.435516	3859.948486
923.740059	3790.430974
924.044564	3716.320971
924.349028	3656.739574
924.653454	3594.561982
924.957840	3523.668236
925.262186	3474.511945
925.566493	3416.947009
925.870761	3358.762011
926.174989	3320.998728
926.479178	3286.547483
926.783328	3243.362438
927.087438	3216.258674
927.391509	3179.627130
927.695541	3153.876916
927.999533	3127.085704
928.303486	3102.162239
928.607400	3089.667740
928.911275	3073.896490
929.215110	3059.975343
929.518906	3050.288766
929.822663	3049.729198
930.126381	3043.084958
930.430060	3053.368911
930.733699	3057.245559
931.037299	3062.647155
931.340861	3062.470715
931.644383	3069.987075
931.947866	3068.641087
932.251309	3063.715880
932.554714	3061.830488
932.858080	3059.652710
933.161407	3047.664846
933.464694	3039.515821
933.767943	3035.419883
934.071153	3034.222609
934.374323	3017.533869
934.677455	3015.124198
934.980548	3007.418794
935.283602	3003.519462
935.586617	2996.819768
935.889593	3007.600276
936.192530	3011.003054
936.495428	3026.607946
936.798287	3047.627037
937.101108	3079.580391
937.403890	3130.879172
937.706632	3191.919984
938.009336	3274.156326
938.312002	3345.039991
938.614628	3408.556008
938.917216	3461.876293
939.219765	3493.570027
939.522275	3522.405427
939.824747	3529.009338
940.127179	3530.867004
940.429573	3520.847710
940.731929	3518.637164
941.034246	3504.733662
941.336524	3492.985253
941.638763	3478.159220
941.940964	3461.462918
942.243126	3419.722164
942.545250	3401.503434
942.847335	3361.312835
943.149381	3328.643638
943.451389	3294.419244
943.753359	3259.859614
944.055290	3238.023856
944.357182	3213.256667
944.659036	3195.993236
944.960851	3183.052594
945.262628	3171.684792
945.564367	3172.566994
945.866067	3166.099194
946.167729	3164.019718
946.469352	3164.170952
946.770937	3158.270282
947.072484	3143.214876
947.373992	3146.257212
947.675462	3138.420738
947.976893	3119.894498
948.278286	3110.338991
948.579641	3105.575101
948.880958	3096.932042
949.182236	3100.909513
949.483476	3093.118409
949.784678	3094.693770
950.085841	3097.426075
950.386967	3102.260542
950.688054	3123.519088
950.989103	3139.907879
951.290114	3166.222702
951.591087	3191.869572
951.892021	3219.268243
952.192917	3249.890732
952.493776	3271.824793
952.794596	3279.484826
953.095378	3283.674025
953.396122	3279.774692
953.696828	3275.797222
953.997496	3263.806837
954.298126	3236.821541
954.598718	3219.800085
954.899272	3193.394521
955.199788	3165.383350
955.500266	3132.744399
955.800706	3101.481684
956.101108	3061.316290
956.401472	3030.706404
956.701798	2998.322032
957.002087	2957.718058
957.302337	2928.991043
957.602550	2900.493400
957.902724	2870.352342
958.202861	2847.125225
958.502960	2825.861638
958.803022	2805.240798
959.103045	2786.021399
959.403031	2766.469284
959.702979	2755.325814
960.002889	2741.591190
960.302762	2727.211299
960.602596	2716.803837
960.902393	2709.743701
961.202153	2700.757844
961.501875	2691.000691
961.801559	2686.017510
962.101205	2679.297652
962.400814	2676.240192
962.700385	2667.609737
962.999918	2662.147647
963.299414	2655.516009
963.598873	2655.032058
963.898293	2646.630975
964.197677	2650.709268
964.497022	2646.436891
964.796331	2641.234420
965.095601	2640.175777
965.394835	2637.859367
965.694030	2636.125210
965.993189	2635.885756
966.292309	2633.294602
966.591393	2631.494911
966.890439	2633.224026
967.189447	2633.128244
967.488419	2631.071454
967.787353	2633.420631
968.086249	2634.443986
968.385108	2638.270221
968.683930	2638.338277
968.982714	2644.589308
969.281462	2646.794812
969.580172	2650.210194
969.878844	2656.340237
970.177480	2663.957421
970.476078	2671.680468
970.774639	2679.985769
971.073162	2689.385001
971.371649	2694.458922
971.670098	2697.937318
971.968510	2702.676003
972.266885	2707.979297
972.565223	2714.031202
972.863524	2715.883826
973.161788	2719.069835
973.460014	2722.323900
973.758204	2725.157028
974.056356	2726.608881
974.354471	2730.495610
974.652550	2729.341186
974.950591	2726.578634
975.248595	2726.707183
975.546563	2724.272306
975.844493	2719.873899
976.142386	2715.518342
976.440243	2708.193546
976.738062	2705.887218
977.035845	2700.233564
977.333590	2694.423634
977.631299	2687.509692
977.928971	2681.977025
978.226606	2674.730367
978.524204	2674.571570
978.821765	2667.279541
979.119290	2671.682989
979.416777	2669.795077
979.714228	2672.260201
980.011642	2673.888494
980.309020	2682.178671
980.606360	2698.970755
980.903664	2720.594784
981.200931	2756.533170
981.498162	2806.561581
981.795356	2880.805174
982.092513	2968.319605
982.389633	3074.065368
982.686717	3169.486849
982.983764	3243.793457
983.280775	3293.060653
983.577749	3301.350831
983.874686	3287.701907
984.171587	3250.936772
984.468451	3213.904456
984.765279	3169.970800
985.062070	3119.508850
985.358824	3077.354721
985.655543	3019.658716
985.952224	2969.867239
986.248869	2908.070255
986.545478	2846.908456
986.842050	2791.269241
987.138586	2748.071593
987.435086	2710.714123
987.731549	2679.506860
988.027975	2653.555000
988.324366	2638.008081
988.620719	2623.923097
988.917037	2611.191663
989.213318	2603.040118
989.509563	2596.214395
989.805772	2590.933787
990.101944	2588.534197
990.398080	2586.696697
990.694180	2584.221490
990.990244	2585.670822
991.286271	2584.876840
991.582262	2585.542273
991.878217	2588.531677
992.174136	2591.894127
992.470019	2593.759353
992.765865	2597.572986
993.061676	2601.789912
993.357450	2613.066973
993.653188	2616.744494
993.948890	2633.309726
994.244556	2653.118940
994.540186	2674.412774
994.835780	2707.646581
995.131337	2746.526480
995.426859	2786.223046
995.722345	2835.293637
996.017795	2883.396327
996.313208	2920.932759
996.608586	2947.590380
996.903928	2960.820888
997.199234	2961.206537
997.494504	2956.596402
997.789738	2939.789195
998.084936	2917.345978
998.380099	2887.267933
998.675225	2856.161493
998.970316	2831.505210
999.265371	2790.533232
999.560390	2757.027203
999.855373	2724.315156
1000.150320	2698.196938
1000.445232	2671.370437
1000.740108	2654.313693
1001.034948	2633.813841
1001.329752	2622.998046
1001.624521	2605.626230
1001.919254	2593.812286
1002.213951	2587.699887
1002.508613	2580.004565
1002.803239	2575.535582
1003.097829	2564.752554
1003.392384	2564.145095
1003.686903	2557.694939
1003.981386	2556.346430
1004.275834	2550.753270
1004.570246	2548.386448
1004.864623	2544.812270
1005.158964	2545.424770
1005.453270	2540.423946
1005.747540	2539.103163
1006.041775	2539.924872
1006.335974	2534.883718
1006.630138	2535.808769
1006.924266	2534.669469
1007.218359	2532.821886
1007.512416	2534.331711
1007.806438	2527.742923
1008.100425	2534.172915
1008.394376	2527.251411
1008.688292	2530.281144
1008.982172	2532.960517
1009.276017	2531.796011
1009.569827	2531.642256
1009.863602	2533.255425
1010.157341	2528.567152
1010.451045	2527.490866
1010.744714	2525.716379
1011.038347	2525.716379
1011.331945	2522.684125
1011.625508	2524.156142
1011.919036	2522.943745
1012.212528	2522.873169
1012.505986	2522.391738
1012.799408	2522.497603
1013.092795	2520.639937
1013.386147	2521.038189
1013.679464	2520.612211
1013.972745	2520.244207
1014.265992	2520.103055
1014.559204	2517.864782
1014.852380	2519.757736
1015.145521	2519.767818
1015.438628	2517.519463
1015.731699	2519.258661
1016.024736	2520.879392
1016.317737	2520.100534
1016.610703	2521.658251
1016.903635	2523.115144
1017.196531	2527.954652
1017.489393	2526.971627
1017.782219	2528.020187
1018.075011	2529.285516
1018.367768	2527.619415
1018.660490	2529.204858
1018.953177	2529.204858
1019.245829	2529.204858
