Dividing Wavelength (nm)	Counts (n)	Blue Motor Position (mm): 5.900000	Red Motor Position (mm): 0.000000	
326.493990	2134.928654
326.888308	2134.928654
327.282561	2134.928654
327.676750	2084.517115
328.070874	2079.475962
328.464933	2099.640577
328.858929	2104.681731
329.252859	2026.543846
329.646726	2039.146731
330.040528	2122.325769
330.434265	2132.408077
330.827938	2139.969808
331.221547	2243.313462
331.615091	2258.436923
332.008571	2205.504808
332.401986	2195.422500
332.795338	2233.231154
333.188625	2331.533654
333.581847	2238.272308
333.975006	2326.492500
334.368100	2326.492500
334.761129	2386.986346
335.154095	2318.930769
335.546996	2374.383462
335.939833	2381.945192
336.332606	2397.068654
336.725315	2361.780577
337.117960	2334.054231
337.510540	2407.150962
337.903056	2404.630385
338.295508	2477.727115
338.687896	2414.712692
339.080220	2381.945192
339.472480	2366.821731
339.864676	2487.809423
340.256807	2432.356731
340.648875	2381.945192
341.040879	2394.548077
341.432818	2452.521346
341.824694	2513.015192
342.216506	2439.918462
342.608253	2465.124231
342.999937	2492.850577
343.391557	2520.576923
343.783113	2490.330000
344.174605	2505.453462
344.566033	2402.109808
344.957397	2530.659231
345.348697	2409.671538
345.739934	2500.412308
346.131106	2386.986346
346.522215	2439.918462
346.913260	2515.535769
347.304241	2475.206538
347.695159	2439.918462
348.086012	2407.150962
348.476802	2424.795000
348.867528	2538.220962
349.258191	2422.274423
349.648789	2455.041923
350.039324	2437.397885
350.429796	2417.233269
350.820203	2432.356731
351.210548	2490.330000
351.600828	2427.315577
351.991045	2497.891731
352.381198	2422.274423
352.771288	2349.177692
353.161314	2455.041923
353.551276	2427.315577
353.941175	2432.356731
354.331010	2374.383462
354.720782	2480.247692
355.110490	2447.480192
355.500135	2482.768269
355.889717	2444.959615
356.279235	2507.974038
356.668689	2424.795000
357.058080	2457.562500
357.447408	2520.576923
357.836672	2422.274423
358.225873	2477.727115
358.615010	2386.986346
359.004084	2523.097500
359.393095	2450.000769
359.782043	2480.247692
360.170927	2487.809423
360.559748	2452.521346
360.948505	2465.124231
361.337199	2510.494615
361.725830	2455.041923
362.114398	2462.603654
362.502903	2404.630385
362.891344	2376.904038
363.279722	2399.589231
363.668037	2482.768269
364.056289	2510.494615
364.444478	2472.685962
364.832603	2467.644808
365.220665	2480.247692
365.608665	2434.877308
365.996601	2409.671538
366.384474	2470.165385
366.772284	2477.727115
367.160031	2379.424615
367.547715	2477.727115
367.935336	2429.836154
368.322893	2460.083077
368.710388	2462.603654
369.097820	2485.288846
369.485189	2402.109808
369.872495	2439.918462
370.259738	2450.000769
370.646918	2480.247692
371.034035	2472.685962
371.421090	2465.124231
371.808081	2475.206538
372.195010	2460.083077
372.581875	2490.330000
372.968678	2374.383462
373.355418	2472.685962
373.742096	2487.809423
374.128710	2439.918462
374.515262	2460.083077
374.901751	2437.397885
375.288177	2424.795000
375.674540	2427.315577
376.060841	2460.083077
376.447079	2470.165385
376.833254	2477.727115
377.219367	2442.439038
377.605417	2533.179808
377.991404	2434.877308
378.377329	2455.041923
378.763191	2452.521346
379.148991	2384.465769
379.534727	2485.288846
379.920402	2442.439038
380.306013	2462.603654
380.691563	2424.795000
381.077049	2513.015192
381.462474	2467.644808
381.847835	2465.124231
382.233134	2439.918462
382.618371	2472.685962
383.003545	2535.700385
383.388657	2588.632500
383.773706	2472.685962
384.158693	2500.412308
384.543618	2470.165385
384.928480	2513.015192
385.313280	2417.233269
385.698017	2424.795000
386.082692	2515.535769
386.467305	2444.959615
386.851856	2450.000769
387.236344	2467.644808
387.620770	2487.809423
388.005133	2477.727115
388.389435	2457.562500
388.773674	2429.836154
389.157851	2497.891731
389.541965	2386.986346
389.926018	2553.344423
390.310008	2497.891731
390.693936	2465.124231
391.077802	2523.097500
391.461606	2437.397885
391.845348	2450.000769
392.229027	2417.233269
392.612645	2392.027500
392.996200	2470.165385
393.379694	2407.150962
393.763125	2470.165385
394.146494	2452.521346
394.529801	2490.330000
394.913047	2424.795000
395.296230	2513.015192
395.679351	2505.453462
396.062410	2475.206538
396.445408	2419.753846
396.828343	2518.056346
397.211217	2399.589231
397.594028	2518.056346
397.976778	2437.397885
398.359466	2475.206538
398.742092	2417.233269
399.124656	2535.700385
399.507158	2497.891731
399.889598	2447.480192
400.271977	2492.850577
400.654294	2462.603654
401.036549	2502.932885
401.418742	2437.397885
401.800874	2507.974038
402.182944	2424.795000
402.564952	2465.124231
402.946898	2520.576923
403.328783	2472.685962
403.710606	2497.891731
404.092367	2543.262115
404.474067	2447.480192
404.855705	2475.206538
405.237282	2455.041923
405.618797	2523.097500
406.000250	2450.000769
406.381642	2528.138654
406.762972	2492.850577
407.144240	2507.974038
407.525447	2404.630385
407.906593	2485.288846
408.287677	2497.891731
408.668700	2439.918462
409.049661	2502.932885
409.430560	2533.179808
409.811399	2513.015192
410.192176	2381.945192
410.572891	2540.741538
410.953545	2515.535769
411.334138	2429.836154
411.714669	2500.412308
412.095139	2374.383462
412.475547	2495.371154
412.855894	2442.439038
413.236180	2384.465769
413.616405	2540.741538
413.996568	2553.344423
414.376670	2482.768269
414.756711	2434.877308
415.136691	2427.315577
415.516609	2419.753846
415.896466	2485.288846
416.276262	2520.576923
416.655997	2437.397885
417.035670	2513.015192
417.415283	2470.165385
417.794834	2402.109808
418.174324	2404.630385
418.553753	2477.727115
418.933121	2434.877308
419.312428	2470.165385
419.691674	2424.795000
420.070859	2497.891731
420.449983	2467.644808
420.829045	2432.356731
421.208047	2576.029615
421.586988	2417.233269
421.965867	2402.109808
422.344686	2487.809423
422.723444	2439.918462
423.102141	2462.603654
423.480777	2502.932885
423.859352	2444.959615
424.237866	2407.150962
424.616319	2399.589231
424.994712	2500.412308
425.373044	2470.165385
425.751314	2528.138654
426.129524	2482.768269
426.507673	2490.330000
426.885762	2500.412308
427.263789	2530.659231
427.641756	2432.356731
428.019662	2495.371154
428.397508	2505.453462
428.775292	2460.083077
429.153016	2470.165385
429.530679	2455.041923
429.908282	2528.138654
430.285824	2447.480192
430.663305	2465.124231
431.040726	2500.412308
431.418086	2437.397885
431.795385	2513.015192
432.172624	2412.192115
432.549802	2462.603654
432.926920	2485.288846
433.303977	2472.685962
433.680974	2530.659231
434.057910	2480.247692
434.434786	2565.947308
434.811601	2507.974038
435.188355	2520.576923
435.565050	2505.453462
435.941683	2475.206538
436.318257	2492.850577
436.694770	2513.015192
437.071222	2565.947308
437.447614	2482.768269
437.823946	2487.809423
438.200218	2540.741538
438.576429	2520.576923
438.952580	2477.727115
439.328670	2540.741538
439.704700	2487.809423
440.080670	2500.412308
440.456580	2394.548077
440.832429	2482.768269
441.208218	2480.247692
441.583947	2447.480192
441.959616	2465.124231
442.335224	2492.850577
442.710773	2510.494615
443.086261	2490.330000
443.461689	2467.644808
443.837057	2487.809423
444.212365	2414.712692
444.587612	2475.206538
444.962800	2349.177692
445.337927	2376.904038
445.712995	2507.974038
446.088002	2442.439038
446.462949	2502.932885
446.837837	2455.041923
447.212664	2477.727115
447.587431	2497.891731
447.962139	2439.918462
448.336786	2550.823846
448.711374	2442.439038
449.085901	2462.603654
449.460369	2487.809423
449.834776	2444.959615
450.209124	2490.330000
450.583412	2495.371154
450.957640	2480.247692
451.331808	2472.685962
451.705917	2543.262115
452.079965	2500.412308
452.453954	2462.603654
452.827883	2545.782692
453.201752	2480.247692
453.575562	2424.795000
453.949311	2565.947308
454.323001	2444.959615
454.696632	2513.015192
455.070202	2434.877308
455.443713	2432.356731
455.817164	2523.097500
456.190556	2432.356731
456.563888	2480.247692
456.937160	2442.439038
457.310373	2535.700385
457.683526	2470.165385
458.056619	2419.753846
458.429653	2515.535769
458.802628	2495.371154
459.175542	2502.932885
459.548398	2455.041923
459.921194	2520.576923
460.293930	2477.727115
460.666607	2538.220962
461.039224	2520.576923
461.411782	2457.562500
461.784280	2510.494615
462.156719	2538.220962
462.529099	2442.439038
462.901419	2560.906154
463.273680	2507.974038
463.645882	2530.659231
464.018024	2457.562500
464.390106	2470.165385
464.762130	2394.548077
465.134094	2397.068654
465.505999	2429.836154
465.877845	2497.891731
466.249631	2545.782692
466.621358	2558.385577
466.993026	2492.850577
467.364634	2505.453462
467.736184	2477.727115
468.107674	2513.015192
468.479105	2482.768269
468.850477	2455.041923
469.221790	2497.891731
469.593043	2477.727115
469.964238	2550.823846
470.335373	2450.000769
470.706449	2492.850577
471.077467	2518.056346
471.448425	2467.644808
471.819324	2555.865000
472.190164	2429.836154
472.560945	2500.412308
472.931667	2492.850577
473.302330	2447.480192
473.672934	2487.809423
474.043479	2455.041923
474.413965	2505.453462
474.784393	2480.247692
475.154761	2533.179808
475.525070	2457.562500
475.895321	2578.550192
476.265513	2487.809423
476.635645	2540.741538
477.005719	2505.453462
477.375734	2523.097500
477.745691	2472.685962
478.115588	2482.768269
478.485427	2510.494615
478.855207	2482.768269
479.224928	2470.165385
479.594591	2540.741538
479.964194	2520.576923
480.333739	2540.741538
480.703226	2520.576923
481.072653	2409.671538
481.442022	2520.576923
481.811333	2550.823846
482.180584	2560.906154
482.549777	2565.947308
482.918912	2439.918462
483.287988	2460.083077
483.657005	2485.288846
484.025964	2439.918462
484.394864	2452.521346
484.763706	2540.741538
485.132489	2455.041923
485.501213	2513.015192
485.869879	2485.288846
486.238487	2550.823846
486.607036	2475.206538
486.975527	2538.220962
487.343959	2475.206538
487.712333	2497.891731
488.080648	2505.453462
488.448905	2457.562500
488.817104	2507.974038
489.185244	2497.891731
489.553326	2538.220962
489.921350	2467.644808
490.289315	2487.809423
490.657222	2502.932885
491.025070	2507.974038
491.392861	2447.480192
491.760593	2497.891731
492.128267	2507.974038
492.495883	2505.453462
492.863440	2462.603654
493.230939	2422.274423
493.598380	2528.138654
493.965763	2533.179808
494.333088	2462.603654
494.700354	2591.153077
495.067563	2384.465769
495.434713	2543.262115
495.801805	2404.630385
496.168839	2515.535769
496.535815	2505.453462
496.902733	2528.138654
497.269593	2465.124231
497.636395	2538.220962
498.003139	2447.480192
498.369825	2457.562500
498.736453	2472.685962
499.103023	2548.303269
499.469535	2457.562500
499.835989	2452.521346
500.202385	2487.809423
500.568723	2505.453462
500.935003	2462.603654
501.301226	2462.603654
501.667390	2495.371154
502.033497	2518.056346
502.399546	2417.233269
502.765537	2540.741538
503.131470	2510.494615
503.497345	2507.974038
503.863163	2543.262115
504.228923	2457.562500
504.594625	2500.412308
504.960269	2444.959615
505.325856	2538.220962
505.691385	2505.453462
506.056856	2538.220962
506.422270	2535.700385
506.787625	2513.015192
507.152924	2548.303269
507.518164	2467.644808
507.883347	2397.068654
508.248472	2487.809423
508.613540	2495.371154
508.978550	2568.467885
509.343503	2533.179808
509.708398	2507.974038
510.073236	2513.015192
510.438016	2492.850577
510.802738	2472.685962
511.167403	2460.083077
511.532010	2497.891731
511.896561	2434.877308
512.261053	2520.576923
512.625488	2480.247692
512.989866	2460.083077
513.354186	2437.397885
513.718449	2502.932885
514.082655	2424.795000
514.446803	2505.453462
514.810894	2520.576923
515.174927	2518.056346
515.538904	2515.535769
515.902822	2533.179808
516.266684	2497.891731
516.630488	2485.288846
516.994235	2467.644808
517.357925	2502.932885
517.721558	2555.865000
518.085133	2462.603654
518.448651	2487.809423
518.812112	2523.097500
519.175516	2485.288846
519.538863	2482.768269
519.902152	2510.494615
520.265385	2477.727115
520.628560	2480.247692
520.991678	2452.521346
521.354739	2450.000769
521.717743	2545.782692
522.080690	2422.274423
522.443580	2505.453462
522.806413	2535.700385
523.169189	2424.795000
523.531908	2497.891731
523.894569	2525.618077
524.257174	2477.727115
524.619722	2578.550192
524.982213	2462.603654
525.344647	2523.097500
525.707025	2518.056346
526.069345	2583.591346
526.431608	2432.356731
526.793815	2460.083077
527.155964	2439.918462
527.518057	2502.932885
527.880093	2424.795000
528.242072	2525.618077
528.603995	2555.865000
528.965860	2465.124231
529.327669	2399.589231
529.689421	2563.426731
530.051117	2507.974038
530.412755	2442.439038
530.774337	2407.150962
531.135862	2581.070769
531.497331	2545.782692
531.858743	2467.644808
532.220098	2475.206538
532.581396	2507.974038
532.942638	2500.412308
533.303824	2543.262115
533.664953	2518.056346
534.026025	2477.727115
534.387040	2578.550192
534.747999	2409.671538
535.108902	2515.535769
535.469748	2477.727115
535.830537	2583.591346
536.191270	2492.850577
536.551947	2510.494615
536.912567	2507.974038
537.273131	2442.439038
537.633638	2550.823846
537.994089	2465.124231
538.354483	2576.029615
538.714821	2502.932885
539.075103	2540.741538
539.435328	2470.165385
539.795497	2427.315577
540.155609	2523.097500
540.515665	2505.453462
540.875665	2520.576923
541.235609	2570.988462
541.595496	2447.480192
541.955328	2450.000769
542.315102	2472.685962
542.674821	2530.659231
543.034483	2505.453462
543.394090	2528.138654
543.753640	2475.206538
544.113134	2470.165385
544.472571	2500.412308
544.831953	2472.685962
545.191278	2386.986346
545.550548	2507.974038
545.909761	2555.865000
546.268918	2419.753846
546.628019	2455.041923
546.987064	2513.015192
547.346053	2482.768269
547.704986	2513.015192
548.063863	2465.124231
548.422684	2553.344423
548.781449	2450.000769
549.140158	2475.206538
549.498811	2525.618077
549.857408	2507.974038
550.215949	2414.712692
550.574434	2490.330000
550.932864	2492.850577
551.291237	2502.932885
551.649555	2502.932885
552.007817	2482.768269
552.366022	2480.247692
552.724173	2530.659231
553.082267	2429.836154
553.440305	2460.083077
553.798288	2460.083077
554.156215	2550.823846
554.514086	2475.206538
554.871902	2480.247692
555.229661	2515.535769
555.587365	2480.247692
555.945014	2500.412308
556.302606	2548.303269
556.660143	2394.548077
557.017625	2497.891731
557.375050	2550.823846
557.732421	2480.247692
558.089735	2507.974038
558.446994	2523.097500
558.804197	2523.097500
559.161345	2520.576923
559.518437	2465.124231
559.875474	2538.220962
560.232455	2444.959615
560.589381	2545.782692
560.946251	2495.371154
561.303065	2568.467885
561.659825	2558.385577
562.016528	2457.562500
562.373177	2492.850577
562.729770	2437.397885
563.086307	2523.097500
563.442789	2533.179808
563.799216	2528.138654
564.155587	2455.041923
564.511904	2593.673654
564.868164	2560.906154
565.224370	2530.659231
565.580520	2432.356731
565.936615	2548.303269
566.292654	2555.865000
566.648638	2535.700385
567.004567	2510.494615
567.360441	2530.659231
567.716260	2492.850577
568.072023	2462.603654
568.427732	2507.974038
568.783385	2485.288846
569.138982	2465.124231
569.494525	2444.959615
569.850013	2384.465769
570.205445	2543.262115
570.560823	2507.974038
570.916145	2573.509038
571.271412	2518.056346
571.626625	2477.727115
571.981782	2429.836154
572.336884	2457.562500
572.691931	2470.165385
573.046923	2472.685962
573.401860	2558.385577
573.756743	2439.918462
574.111570	2513.015192
574.466342	2429.836154
574.821059	2510.494615
575.175722	2502.932885
575.530330	2520.576923
575.884882	2475.206538
576.239380	2450.000769
576.593823	2500.412308
576.948211	2500.412308
577.302544	2495.371154
577.656823	2376.904038
578.011047	2581.070769
578.365216	2444.959615
578.719330	2490.330000
579.073389	2462.603654
579.427394	2507.974038
579.781344	2495.371154
580.135239	2507.974038
580.489080	2460.083077
580.842866	2485.288846
581.196597	2487.809423
581.550273	2538.220962
581.903895	2507.974038
582.257463	2520.576923
582.610975	2548.303269
582.964434	2518.056346
583.317837	2568.467885
583.671186	2543.262115
584.024481	2444.959615
584.377721	2507.974038
584.730906	2472.685962
585.084037	2442.439038
585.437113	2460.083077
585.790135	2507.974038
586.143103	2548.303269
586.496016	2581.070769
586.848874	2505.453462
587.201679	2505.453462
587.554428	2502.932885
587.907124	2513.015192
588.259765	2429.836154
588.612352	2447.480192
588.964884	2548.303269
589.317362	2540.741538
589.669786	2485.288846
590.022155	2500.412308
590.374470	2427.315577
590.726731	2518.056346
591.078937	2439.918462
591.431090	2543.262115
591.783188	2495.371154
592.135232	2538.220962
592.487222	2477.727115
592.839157	2450.000769
593.191038	2500.412308
593.542866	2452.521346
593.894639	2502.932885
594.246358	2628.961731
594.598022	2495.371154
594.949633	2565.947308
595.301190	2434.877308
595.652692	2470.165385
596.004141	2472.685962
596.355535	2523.097500
596.706876	2533.179808
597.058162	2407.150962
597.409395	2495.371154
597.760573	2490.330000
598.111698	2429.836154
598.462768	2586.111923
598.813785	2568.467885
599.164748	2492.850577
599.515657	2555.865000
599.866511	2520.576923
600.217312	2563.426731
600.568060	2523.097500
600.918753	2460.083077
601.269392	2533.179808
601.619978	2545.782692
601.970510	2450.000769
602.320988	2550.823846
602.671412	2550.823846
603.021783	2505.453462
603.372100	2452.521346
603.722363	2560.906154
604.072572	2550.823846
604.422728	2555.865000
604.772830	2543.262115
605.122878	2470.165385
605.472872	2485.288846
605.822813	2520.576923
606.172701	2487.809423
606.522534	2520.576923
606.872314	2434.877308
607.222041	2457.562500
607.571714	2520.576923
607.921333	2457.562500
608.270899	2560.906154
608.620411	2507.974038
608.969870	2507.974038
609.319276	2470.165385
609.668627	2497.891731
610.017926	2535.700385
610.367171	2553.344423
610.716362	2533.179808
611.065500	2505.453462
611.414585	2528.138654
611.763616	2553.344423
612.112594	2520.576923
612.461518	2596.194231
612.810389	2457.562500
613.159207	2507.974038
613.507971	2525.618077
613.856682	2439.918462
614.205340	2523.097500
614.553945	2392.027500
614.902496	2497.891731
615.250994	2437.397885
615.599439	2565.947308
615.947830	2490.330000
616.296169	2530.659231
616.644454	2477.727115
616.992686	2407.150962
617.340864	2558.385577
617.688990	2576.029615
618.037063	2485.288846
618.385082	2472.685962
618.733048	2548.303269
619.080961	2472.685962
619.428821	2487.809423
619.776628	2492.850577
620.124382	2505.453462
620.472083	2442.439038
620.819731	2520.576923
621.167326	2558.385577
621.514868	2490.330000
621.862357	2553.344423
622.209793	2439.918462
622.557176	2490.330000
622.904506	2492.850577
623.251783	2530.659231
623.599007	2409.671538
623.946179	2399.589231
624.293297	2455.041923
624.640363	2500.412308
624.987376	2490.330000
625.334336	2535.700385
625.681243	2525.618077
626.028097	2422.274423
626.374899	2515.535769
626.721647	2409.671538
627.068343	2543.262115
627.414987	2492.850577
627.761577	2520.576923
628.108115	2432.356731
628.454600	2515.535769
628.801032	2404.630385
629.147412	2475.206538
629.493739	2475.206538
629.840014	2510.494615
630.186236	2608.797115
630.532405	2507.974038
630.878521	2497.891731
631.224585	2437.397885
631.570597	2545.782692
631.916556	2462.603654
632.262462	2497.891731
632.608316	2447.480192
632.954117	2457.562500
633.299866	2563.426731
633.645562	2475.206538
633.991206	2518.056346
634.336797	2462.603654
634.682336	2467.644808
635.027823	2530.659231
635.373257	2487.809423
635.718639	2518.056346
636.063968	2500.412308
636.409245	2543.262115
636.754470	2460.083077
637.099642	2548.303269
637.444762	2472.685962
637.789829	2515.535769
638.134845	2555.865000
638.479808	2591.153077
638.824719	2558.385577
639.169577	2535.700385
639.514383	2492.850577
639.859137	2447.480192
640.203839	2535.700385
640.548489	2482.768269
640.893086	2492.850577
641.237632	2505.453462
641.582125	2507.974038
641.926566	2477.727115
642.270955	2535.700385
642.615292	2500.412308
642.959576	2442.439038
643.303809	2417.233269
643.647990	2447.480192
643.992118	2573.509038
644.336195	2460.083077
644.680219	2570.988462
645.024192	2417.233269
645.368112	2513.015192
645.711981	2455.041923
646.055797	2465.124231
646.399562	2434.877308
646.743274	2497.891731
647.086935	2465.124231
647.430544	2477.727115
647.774101	2457.562500
648.117606	2467.644808
648.461059	2523.097500
648.804460	2397.068654
649.147810	2543.262115
649.491108	2472.685962
649.834354	2518.056346
650.177548	2450.000769
650.520690	2432.356731
650.863781	2495.371154
651.206820	2560.906154
651.549807	2528.138654
651.892742	2439.918462
652.235626	2520.576923
652.578458	2452.521346
652.921238	2525.618077
653.263967	2553.344423
653.606644	2525.618077
653.949269	2500.412308
654.291843	2545.782692
654.634365	2507.974038
654.976836	2485.288846
655.319255	2548.303269
655.661622	2565.947308
656.003938	2523.097500
656.346203	2568.467885
656.688416	2523.097500
657.030577	2467.644808
657.372687	2487.809423
657.714746	2555.865000
658.056753	2437.397885
658.398708	2525.618077
658.740612	2538.220962
659.082465	2452.521346
659.424266	2543.262115
659.766016	2477.727115
660.107715	2492.850577
660.449362	2442.439038
660.790958	2515.535769
661.132503	2510.494615
661.473996	2573.509038
661.815438	2460.083077
662.156829	2525.618077
662.498168	2442.439038
662.839456	2485.288846
663.180693	2434.877308
663.521879	2490.330000
663.863013	2497.891731
664.204097	2500.412308
664.545129	2442.439038
664.886110	2457.562500
665.227040	2530.659231
665.567918	2457.562500
665.908746	2495.371154
666.249522	2394.548077
666.590248	2492.850577
666.930922	2570.988462
667.271545	2487.809423
667.612118	2447.480192
667.952639	2477.727115
668.293109	2485.288846
668.633528	2555.865000
668.973896	2518.056346
669.314213	2462.603654
669.654480	2462.603654
669.994695	2457.562500
670.334859	2442.439038
670.674973	2518.056346
671.015035	2505.453462
671.355047	2485.288846
671.695008	2523.097500
672.034918	2485.288846
672.374777	2558.385577
672.714585	2437.397885
673.054342	2533.179808
673.394049	2515.535769
673.733705	2513.015192
674.073310	2482.768269
674.412864	2513.015192
674.752368	2495.371154
675.091820	2502.932885
675.431223	2500.412308
675.770574	2444.959615
676.109875	2465.124231
676.449125	2568.467885
676.788324	2500.412308
677.127473	2510.494615
677.466571	2467.644808
677.805619	2528.138654
678.144616	2573.509038
678.483562	2475.206538
678.822458	2510.494615
679.161303	2472.685962
679.500098	2497.891731
679.838842	2444.959615
680.177535	2422.274423
680.516179	2520.576923
680.854771	2485.288846
681.193314	2452.521346
681.531805	2497.891731
681.870247	2419.753846
682.208638	2490.330000
682.546978	2467.644808
682.885268	2394.548077
683.223508	2497.891731
683.561697	2530.659231
683.899836	2530.659231
684.237925	2513.015192
684.575963	2452.521346
684.913951	2467.644808
685.251889	2480.247692
685.589776	2525.618077
685.927614	2576.029615
686.265401	2490.330000
686.603137	2518.056346
686.940824	2555.865000
687.278460	2492.850577
687.616046	2397.068654
687.953582	2510.494615
688.291068	2487.809423
688.628504	2407.150962
688.965889	2500.412308
689.303224	2482.768269
689.640510	2545.782692
689.977745	2457.562500
690.314930	2452.521346
690.652065	2581.070769
690.989150	2490.330000
691.326185	2442.439038
691.663170	2472.685962
692.000105	2515.535769
692.336990	2480.247692
692.673825	2606.276538
693.010610	2429.836154
693.347345	2485.288846
693.684030	2518.056346
694.020665	2485.288846
694.357251	2518.056346
694.693786	2424.795000
695.030272	2467.644808
695.366707	2432.356731
695.703093	2543.262115
696.039429	2507.974038
696.375716	2568.467885
696.711952	2543.262115
697.048139	2525.618077
697.384276	2470.165385
697.720363	2558.385577
698.056400	2452.521346
698.392388	2470.165385
698.728326	2588.632500
699.064214	2485.288846
699.400053	2462.603654
699.735842	2485.288846
700.071581	2520.576923
700.407270	2613.838269
700.742910	2553.344423
701.078501	2535.700385
701.414042	2462.603654
701.749533	2535.700385
702.084974	2636.523462
702.420366	2495.371154
702.755709	2533.179808
703.091002	2450.000769
703.426246	2487.809423
703.761440	2492.850577
704.096584	2457.562500
704.431679	2475.206538
704.766725	2490.330000
705.101721	2472.685962
705.436668	2500.412308
705.771565	2467.644808
706.106413	2528.138654
706.441212	2540.741538
706.775961	2465.124231
707.110661	2475.206538
707.445311	2573.509038
707.779913	2507.974038
708.114465	2530.659231
708.448967	2543.262115
708.783421	2558.385577
709.117825	2450.000769
709.452180	2568.467885
709.786485	2540.741538
710.120742	2510.494615
710.454949	2402.109808
710.789107	2444.959615
711.123216	2437.397885
711.457275	2429.836154
711.791286	2495.371154
712.125247	2586.111923
712.459159	2523.097500
712.793023	2452.521346
713.126837	2550.823846
713.460602	2573.509038
713.794318	2447.480192
714.127985	2636.523462
714.461602	2515.535769
714.795171	2465.124231
715.128691	2515.535769
715.462162	2472.685962
715.795584	2518.056346
716.128957	2588.632500
716.462281	2437.397885
716.795556	2513.015192
717.128782	2500.412308
717.461960	2497.891731
717.795088	2573.509038
718.128167	2462.603654
718.461198	2591.153077
718.794180	2424.795000
719.127113	2578.550192
719.459997	2515.535769
719.792833	2606.276538
720.125619	2500.412308
720.458357	2472.685962
720.791046	2528.138654
721.123686	2513.015192
721.456278	2462.603654
721.788821	2520.576923
722.121315	2495.371154
722.453761	2507.974038
722.786158	2500.412308
723.118506	2455.041923
723.450805	2485.288846
723.783056	2462.603654
724.115259	2513.015192
724.447412	2530.659231
724.779518	2518.056346
725.111574	2518.056346
725.443582	2495.371154
725.775542	2480.247692
726.107453	2510.494615
726.439315	2513.015192
726.771129	2502.932885
727.102895	2457.562500
727.434612	2490.330000
727.766281	2480.247692
728.097901	2505.453462
728.429473	2505.453462
728.760996	2507.974038
729.092471	2439.918462
729.423897	2470.165385
729.755276	2492.850577
730.086606	2528.138654
730.417887	2427.315577
730.749120	2565.947308
731.080305	2525.618077
731.411442	2460.083077
731.742530	2502.932885
732.073570	2472.685962
732.404562	2492.850577
732.735506	2523.097500
733.066401	2500.412308
733.397249	2530.659231
733.728048	2500.412308
734.058798	2555.865000
734.389501	2641.564615
734.720156	2555.865000
735.050762	2525.618077
735.381320	2505.453462
735.711831	2472.685962
736.042293	2530.659231
736.372707	2452.521346
736.703073	2543.262115
737.033391	2442.439038
737.363661	2520.576923
737.693883	2520.576923
738.024056	2480.247692
738.354182	2485.288846
738.684260	2450.000769
739.014290	2560.906154
739.344272	2480.247692
739.674207	2465.124231
740.004093	2447.480192
740.333931	2495.371154
740.663722	2485.288846
740.993464	2505.453462
741.323159	2502.932885
741.652806	2427.315577
741.982405	2492.850577
742.311956	2568.467885
742.641460	2543.262115
742.970915	2530.659231
743.300323	2533.179808
743.629683	2470.165385
743.958996	2467.644808
744.288260	2485.288846
744.617477	2465.124231
744.946647	2465.124231
745.275768	2495.371154
745.604842	2492.850577
745.933869	2507.974038
746.262847	2397.068654
746.591778	2543.262115
746.920662	2442.439038
747.249498	2591.153077
747.578286	2452.521346
747.907027	2528.138654
748.235720	2455.041923
748.564365	2520.576923
748.892963	2444.959615
749.221514	2550.823846
749.550017	2381.945192
749.878473	2442.439038
750.206881	2576.029615
750.535242	2482.768269
750.863555	2525.618077
751.191821	2490.330000
751.520039	2510.494615
751.848210	2482.768269
752.176334	2495.371154
752.504411	2568.467885
752.832440	2510.494615
753.160421	2495.371154
753.488356	2525.618077
753.816243	2447.480192
754.144082	2492.850577
754.471875	2460.083077
754.799620	2518.056346
755.127318	2492.850577
755.454969	2523.097500
755.782572	2555.865000
756.110129	2434.877308
756.437638	2482.768269
756.765100	2455.041923
757.092515	2419.753846
757.419882	2523.097500
757.747203	2437.397885
758.074477	2500.412308
758.401703	2452.521346
758.728882	2576.029615
759.056014	2510.494615
759.383099	2563.426731
759.710138	2450.000769
760.037129	2505.453462
760.364073	2507.974038
760.690970	2586.111923
761.017820	2530.659231
761.344623	2540.741538
761.671379	2482.768269
761.998088	2528.138654
762.324751	2447.480192
762.651366	2465.124231
762.977935	2545.782692
763.304456	2470.165385
763.630931	2477.727115
763.957359	2497.891731
764.283740	2543.262115
764.610074	2477.727115
764.936362	2495.371154
765.262602	2497.891731
765.588796	2507.974038
765.914943	2404.630385
766.241044	2487.809423
766.567097	2497.891731
766.893104	2442.439038
767.219064	2502.932885
767.544978	2513.015192
767.870845	2543.262115
768.196665	2442.439038
768.522438	2419.753846
768.848165	2460.083077
769.173846	2540.741538
769.499479	2581.070769
769.825066	2510.494615
770.150607	2485.288846
770.476101	2480.247692
770.801548	2475.206538
771.126949	2505.453462
771.452303	2515.535769
771.777611	2407.150962
772.102872	2475.206538
772.428087	2452.521346
772.753256	2528.138654
773.078378	2457.562500
773.403453	2568.467885
773.728482	2467.644808
774.053465	2429.836154
774.378401	2452.521346
774.703291	2432.356731
775.028135	2457.562500
775.352932	2457.562500
775.677683	2434.877308
776.002388	2495.371154
776.327046	2525.618077
776.651658	2497.891731
776.976224	2497.891731
777.300743	2462.603654
777.625216	2507.974038
777.949643	2452.521346
778.274024	2467.644808
778.598359	2623.920577
778.922647	2576.029615
779.246889	2487.809423
779.571086	2520.576923
779.895236	2467.644808
780.219339	2515.535769
780.543397	2472.685962
780.867409	2528.138654
781.191374	2419.753846
781.515294	2492.850577
781.839167	2502.932885
782.162995	2560.906154
782.486776	2533.179808
782.810511	2470.165385
783.134201	2535.700385
783.457844	2475.206538
783.781441	2515.535769
784.104993	2515.535769
784.428498	2429.836154
784.751958	2497.891731
785.075372	2442.439038
785.398739	2452.521346
785.722061	2593.673654
786.045337	2490.330000
786.368568	2487.809423
786.691752	2465.124231
787.014891	2434.877308
787.337983	2596.194231
787.661030	2606.276538
787.984031	2518.056346
788.306987	2472.685962
788.629897	2427.315577
788.952760	2452.521346
789.275579	2477.727115
789.598351	2386.986346
789.921078	2596.194231
790.243759	2452.521346
790.566395	2560.906154
790.888984	2603.755962
791.211529	2497.891731
791.534027	2543.262115
791.856480	2465.124231
792.178888	2439.918462
792.501249	2495.371154
792.823566	2553.344423
793.145836	2525.618077
793.468062	2452.521346
793.790241	2450.000769
794.112375	2422.274423
794.434464	2535.700385
794.756507	2477.727115
795.078505	2515.535769
795.400457	2560.906154
795.722364	2495.371154
796.044226	2492.850577
796.366042	2553.344423
796.687812	2528.138654
797.009538	2520.576923
797.331218	2472.685962
797.652852	2510.494615
797.974442	2500.412308
798.295986	2462.603654
798.617484	2455.041923
798.938938	2570.988462
799.260346	2470.165385
799.581709	2490.330000
799.903026	2450.000769
800.224299	2523.097500
800.545526	2520.576923
800.866708	2465.124231
801.187845	2510.494615
801.508936	2470.165385
801.829983	2450.000769
802.150984	2429.836154
802.471940	2462.603654
802.792851	2525.618077
803.113717	2450.000769
803.434538	2485.288846
803.755314	2394.548077
804.076045	2485.288846
804.396731	2487.809423
804.717372	2510.494615
805.037967	2457.562500
805.358518	2467.644808
805.679024	2502.932885
805.999485	2427.315577
806.319901	2475.206538
806.640272	2381.945192
806.960598	2497.891731
807.280879	2434.877308
807.601115	2497.891731
807.921306	2573.509038
808.241453	2535.700385
808.561554	2457.562500
808.881611	2492.850577
809.201623	2518.056346
809.521590	2475.206538
809.841513	2553.344423
810.161390	2447.480192
810.481223	2409.671538
810.801011	2467.644808
811.120755	2422.274423
811.440453	2535.700385
811.760107	2452.521346
812.079716	2576.029615
812.399281	2538.220962
812.718801	2515.535769
813.038276	2437.397885
813.357707	2444.959615
813.677093	2417.233269
813.996434	2548.303269
814.315731	2417.233269
814.634983	2492.850577
814.954191	2422.274423
815.273354	2417.233269
815.592473	2386.986346
815.911547	2578.550192
816.230577	2525.618077
816.549562	2515.535769
816.868502	2558.385577
817.187399	2507.974038
817.506250	2513.015192
817.825058	2422.274423
818.143821	2543.262115
818.462539	2513.015192
818.781213	2442.439038
819.099843	2480.247692
819.418429	2596.194231
819.736970	2560.906154
820.055466	2505.453462
820.373919	2475.206538
820.692327	2475.206538
821.010691	2487.809423
821.329011	2545.782692
821.647286	2432.356731
821.965517	2563.426731
822.283704	2518.056346
822.601847	2533.179808
822.919945	2482.768269
823.237999	2424.795000
823.556010	2495.371154
823.873976	2558.385577
824.191897	2495.371154
824.509775	2560.906154
824.827609	2482.768269
825.145398	2523.097500
825.463144	2578.550192
825.780845	2538.220962
826.098502	2485.288846
826.416116	2520.576923
826.733685	2535.700385
827.051210	2462.603654
827.368692	2507.974038
827.686129	2502.932885
828.003522	2475.206538
828.320872	2497.891731
828.638177	2470.165385
828.955439	2482.768269
829.272656	2465.124231
829.589830	2437.397885
829.906960	2518.056346
830.224046	2495.371154
830.541088	2470.165385
830.858086	2452.521346
831.175041	2548.303269
831.491952	2472.685962
831.808819	2482.768269
832.125642	2560.906154
832.442421	2490.330000
832.759157	2573.509038
833.075849	2500.412308
833.392497	2409.671538
833.709101	2485.288846
834.025662	2500.412308
834.342179	2510.494615
834.658653	2540.741538
834.975083	2510.494615
835.291469	2457.562500
835.607811	2444.959615
835.924110	2581.070769
836.240366	2485.288846
836.556578	2480.247692
836.872746	2412.192115
837.188871	2528.138654
837.504952	2419.753846
837.820990	2422.274423
838.136984	2525.618077
838.452935	2455.041923
838.768842	2467.644808
839.084706	2510.494615
839.400526	2576.029615
839.716303	2518.056346
840.032037	2457.562500
840.347727	2497.891731
840.663373	2470.165385
840.978977	2497.891731
841.294537	2477.727115
841.610054	2472.685962
841.925527	2457.562500
842.240957	2510.494615
842.556344	2502.932885
842.871687	2467.644808
843.186987	2434.877308
843.502244	2513.015192
843.817458	2455.041923
844.132629	2525.618077
844.447756	2558.385577
844.762840	2518.056346
845.077881	2475.206538
845.392879	2442.439038
845.707833	2492.850577
846.022745	2482.768269
846.337613	2558.385577
846.652438	2407.150962
846.967221	2530.659231
847.281960	2505.453462
847.596656	2490.330000
847.911309	2457.562500
848.225919	2487.809423
848.540485	2565.947308
848.855009	2618.879423
849.169490	2409.671538
849.483928	2528.138654
849.798323	2407.150962
850.112675	2523.097500
850.426984	2427.315577
850.741251	2485.288846
851.055474	2497.891731
851.369654	2452.521346
851.683792	2475.206538
851.997887	2528.138654
852.311938	2553.344423
852.625947	2472.685962
852.939914	2470.165385
853.253837	2553.344423
853.567718	2513.015192
853.881555	2555.865000
854.195350	2505.453462
854.509103	2581.070769
854.822812	2480.247692
855.136479	2525.618077
855.450103	2492.850577
855.763685	2477.727115
856.077224	2480.247692
856.390720	2475.206538
856.704173	2477.727115
857.017584	2424.795000
857.330953	2497.891731
857.644278	2545.782692
857.957561	2462.603654
858.270802	2513.015192
858.584000	2447.480192
858.897155	2487.809423
859.210268	2457.562500
859.523339	2409.671538
859.836367	2510.494615
860.149352	2538.220962
860.462295	2467.644808
860.775195	2492.850577
861.088054	2500.412308
861.400869	2525.618077
861.713642	2533.179808
862.026373	2427.315577
862.339062	2515.535769
862.651708	2450.000769
862.964312	2563.426731
863.276873	2500.412308
863.589392	2447.480192
863.901869	2513.015192
864.214303	2444.959615
864.526696	2465.124231
864.839045	2530.659231
865.151353	2462.603654
865.463619	2444.959615
865.775842	2492.850577
866.088023	2412.192115
866.400162	2520.576923
866.712258	2460.083077
867.024313	2487.809423
867.336325	2460.083077
867.648296	2475.206538
867.960224	2520.576923
868.272110	2495.371154
868.583954	2528.138654
868.895755	2480.247692
869.207515	2437.397885
869.519233	2465.124231
869.830909	2442.439038
870.142542	2492.850577
870.454134	2419.753846
870.765684	2487.809423
871.077191	2543.262115
871.388657	2465.124231
871.700081	2414.712692
872.011463	2500.412308
872.322803	2477.727115
872.634101	2424.795000
872.945357	2356.739423
873.256571	2523.097500
873.567744	2465.124231
873.878874	2402.109808
874.189963	2568.467885
874.501010	2533.179808
874.812015	2510.494615
875.122979	2442.439038
875.433900	2475.206538
875.744780	2487.809423
876.055618	2444.959615
876.366415	2465.124231
876.677169	2545.782692
876.987882	2533.179808
877.298554	2523.097500
877.609183	2492.850577
877.919771	2608.797115
878.230317	2513.015192
878.540822	2495.371154
878.851285	2545.782692
879.161707	2535.700385
879.472087	2487.809423
879.782425	2550.823846
880.092722	2492.850577
880.402977	2538.220962
880.713191	2492.850577
881.023363	2502.932885
881.333494	2560.906154
881.643583	2495.371154
881.953631	2432.356731
882.263637	2480.247692
882.573602	2450.000769
882.883526	2470.165385
883.193408	2487.809423
883.503248	2455.041923
883.813048	2530.659231
884.122806	2450.000769
884.432522	2460.083077
884.742197	2533.179808
885.051831	2507.974038
885.361424	2591.153077
885.670975	2525.618077
885.980485	2581.070769
886.289954	2475.206538
886.599382	2492.850577
886.908768	2520.576923
887.218113	2487.809423
887.527417	2545.782692
887.836680	2417.233269
888.145901	2520.576923
888.455082	2460.083077
888.764221	2427.315577
889.073319	2407.150962
889.382376	2523.097500
889.691392	2455.041923
890.000366	2510.494615
890.309300	2553.344423
890.618193	2497.891731
890.927044	2510.494615
891.235855	2402.109808
891.544625	2444.959615
891.853353	2399.589231
892.162041	2437.397885
892.470687	2429.836154
892.779293	2439.918462
893.087858	2523.097500
893.396381	2510.494615
893.704864	2427.315577
894.013306	2475.206538
894.321707	2490.330000
894.630068	2510.494615
894.938387	2500.412308
895.246665	2462.603654
895.554903	2538.220962
895.863100	2480.247692
896.171256	2545.782692
896.479371	2535.700385
896.787446	2399.589231
897.095480	2487.809423
897.403473	2525.618077
897.711425	2507.974038
898.019336	2487.809423
898.327207	2576.029615
898.635038	2487.809423
898.942827	2502.932885
899.250576	2472.685962
899.558284	2558.385577
899.865952	2452.521346
900.173579	2497.891731
900.481165	2490.330000
900.788711	2550.823846
901.096216	2477.727115
901.403681	2500.412308
901.711105	2482.768269
902.018489	2465.124231
902.325832	2470.165385
902.633135	2457.562500
902.940397	2510.494615
903.247619	2535.700385
903.554800	2477.727115
903.861941	2414.712692
904.169041	2507.974038
904.476101	2550.823846
904.783121	2477.727115
905.090100	2518.056346
905.397039	2558.385577
905.703938	2533.179808
906.010796	2500.412308
906.317614	2447.480192
906.624391	2477.727115
906.931129	2472.685962
907.237826	2570.988462
907.544483	2434.877308
907.851099	2497.891731
908.157675	2467.644808
908.464211	2485.288846
908.770707	2434.877308
909.077163	2487.809423
909.383578	2523.097500
909.689954	2452.521346
909.996289	2432.356731
910.302584	2518.056346
910.608839	2492.850577
910.915054	2465.124231
911.221229	2460.083077
911.527363	2444.959615
911.833458	2467.644808
912.139513	2490.330000
912.445527	2462.603654
912.751502	2480.247692
913.057436	2507.974038
913.363331	2523.097500
913.669186	2414.712692
913.975000	2540.741538
914.280775	2525.618077
914.586510	2472.685962
914.892205	2540.741538
915.197859	2528.138654
915.503475	2444.959615
915.809050	2457.562500
916.114585	2450.000769
916.420081	2510.494615
916.725536	2482.768269
917.030952	2513.015192
917.336328	2538.220962
917.641665	2470.165385
917.946961	2480.247692
918.252218	2419.753846
918.557435	2444.959615
918.862612	2487.809423
919.167750	2500.412308
919.472848	2611.317692
919.777906	2490.330000
920.082925	2548.303269
920.387904	2533.179808
920.692843	2439.918462
920.997743	2470.165385
921.302603	2550.823846
921.607423	2437.397885
921.912204	2444.959615
922.216946	2490.330000
922.521647	2500.412308
922.826310	2530.659231
923.130932	2432.356731
923.435516	2432.356731
923.740059	2465.124231
924.044564	2470.165385
924.349028	2414.712692
924.653454	2515.535769
924.957840	2490.330000
925.262186	2543.262115
925.566493	2480.247692
925.870761	2518.056346
926.174989	2513.015192
926.479178	2460.083077
926.783328	2480.247692
927.087438	2455.041923
927.391509	2427.315577
927.695541	2550.823846
927.999533	2455.041923
928.303486	2500.412308
928.607400	2432.356731
928.911275	2538.220962
929.215110	2530.659231
929.518906	2442.439038
929.822663	2455.041923
930.126381	2555.865000
930.430060	2502.932885
930.733699	2525.618077
931.037299	2540.741538
931.340861	2437.397885
931.644383	2507.974038
931.947866	2510.494615
932.251309	2412.192115
932.554714	2500.412308
932.858080	2407.150962
933.161407	2427.315577
933.464694	2520.576923
933.767943	2349.177692
934.071153	2570.988462
934.374323	2477.727115
934.677455	2477.727115
934.980548	2591.153077
935.283602	2455.041923
935.586617	2475.206538
935.889593	2558.385577
936.192530	2477.727115
936.495428	2495.371154
936.798287	2502.932885
937.101108	2447.480192
937.403890	2518.056346
937.706632	2472.685962
938.009336	2523.097500
938.312002	2485.288846
938.614628	2497.891731
938.917216	2462.603654
939.219765	2530.659231
939.522275	2500.412308
939.824747	2492.850577
940.127179	2467.644808
940.429573	2540.741538
940.731929	2490.330000
941.034246	2530.659231
941.336524	2450.000769
941.638763	2507.974038
941.940964	2535.700385
942.243126	2414.712692
942.545250	2470.165385
942.847335	2545.782692
943.149381	2477.727115
943.451389	2513.015192
943.753359	2618.879423
944.055290	2444.959615
944.357182	2467.644808
944.659036	2502.932885
944.960851	2515.535769
945.262628	2513.015192
945.564367	2487.809423
945.866067	2553.344423
946.167729	2490.330000
946.469352	2427.315577
946.770937	2439.918462
947.072484	2538.220962
947.373992	2485.288846
947.675462	2439.918462
947.976893	2487.809423
948.278286	2530.659231
948.579641	2432.356731
948.880958	2432.356731
949.182236	2470.165385
949.483476	2427.315577
949.784678	2465.124231
950.085841	2505.453462
950.386967	2384.465769
950.688054	2505.453462
950.989103	2502.932885
951.290114	2492.850577
951.591087	2487.809423
951.892021	2553.344423
952.192917	2492.850577
952.493776	2530.659231
952.794596	2455.041923
953.095378	2548.303269
953.396122	2465.124231
953.696828	2490.330000
953.997496	2535.700385
954.298126	2598.714808
954.598718	2528.138654
954.899272	2593.673654
955.199788	2455.041923
955.500266	2492.850577
955.800706	2447.480192
956.101108	2502.932885
956.401472	2510.494615
956.701798	2563.426731
957.002087	2384.465769
957.302337	2497.891731
957.602550	2490.330000
957.902724	2500.412308
958.202861	2455.041923
958.502960	2518.056346
958.803022	2538.220962
959.103045	2540.741538
959.403031	2510.494615
959.702979	2492.850577
960.002889	2452.521346
960.302762	2492.850577
960.602596	2434.877308
960.902393	2434.877308
961.202153	2520.576923
961.501875	2409.671538
961.801559	2515.535769
962.101205	2492.850577
962.400814	2533.179808
962.700385	2460.083077
962.999918	2515.535769
963.299414	2523.097500
963.598873	2530.659231
963.898293	2480.247692
964.197677	2455.041923
964.497022	2452.521346
964.796331	2485.288846
965.095601	2460.083077
965.394835	2460.083077
965.694030	2513.015192
965.993189	2500.412308
966.292309	2452.521346
966.591393	2555.865000
966.890439	2515.535769
967.189447	2470.165385
967.488419	2429.836154
967.787353	2565.947308
968.086249	2492.850577
968.385108	2518.056346
968.683930	2475.206538
968.982714	2525.618077
969.281462	2452.521346
969.580172	2490.330000
969.878844	2507.974038
970.177480	2417.233269
970.476078	2533.179808
970.774639	2439.918462
971.073162	2525.618077
971.371649	2462.603654
971.670098	2462.603654
971.968510	2424.795000
972.266885	2439.918462
972.565223	2437.397885
972.863524	2515.535769
973.161788	2460.083077
973.460014	2482.768269
973.758204	2525.618077
974.056356	2402.109808
974.354471	2477.727115
974.652550	2434.877308
974.950591	2460.083077
975.248595	2528.138654
975.546563	2470.165385
975.844493	2513.015192
976.142386	2613.838269
976.440243	2525.618077
976.738062	2452.521346
977.035845	2424.795000
977.333590	2570.988462
977.631299	2515.535769
977.928971	2518.056346
978.226606	2505.453462
978.524204	2457.562500
978.821765	2555.865000
979.119290	2472.685962
979.416777	2447.480192
979.714228	2477.727115
980.011642	2412.192115
980.309020	2437.397885
980.606360	2444.959615
980.903664	2513.015192
981.200931	2507.974038
981.498162	2535.700385
981.795356	2447.480192
982.092513	2412.192115
982.389633	2465.124231
982.686717	2523.097500
982.983764	2482.768269
983.280775	2558.385577
983.577749	2490.330000
983.874686	2462.603654
984.171587	2470.165385
984.468451	2455.041923
984.765279	2492.850577
985.062070	2505.453462
985.358824	2485.288846
985.655543	2550.823846
985.952224	2437.397885
986.248869	2525.618077
986.545478	2417.233269
986.842050	2487.809423
987.138586	2374.383462
987.435086	2437.397885
987.731549	2487.809423
988.027975	2386.986346
988.324366	2462.603654
988.620719	2442.439038
988.917037	2477.727115
989.213318	2543.262115
989.509563	2457.562500
989.805772	2495.371154
990.101944	2465.124231
990.398080	2477.727115
990.694180	2500.412308
990.990244	2422.274423
991.286271	2518.056346
991.582262	2492.850577
991.878217	2568.467885
992.174136	2555.865000
992.470019	2485.288846
992.765865	2528.138654
993.061676	2581.070769
993.357450	2437.397885
993.653188	2558.385577
993.948890	2487.809423
994.244556	2518.056346
994.540186	2535.700385
994.835780	2563.426731
995.131337	2432.356731
995.426859	2487.809423
995.722345	2487.809423
996.017795	2462.603654
996.313208	2545.782692
996.608586	2520.576923
996.903928	2447.480192
997.199234	2492.850577
997.494504	2520.576923
997.789738	2487.809423
998.084936	2555.865000
998.380099	2523.097500
998.675225	2414.712692
998.970316	2550.823846
999.265371	2497.891731
999.560390	2543.262115
999.855373	2434.877308
1000.150320	2457.562500
1000.445232	2490.330000
1000.740108	2497.891731
1001.034948	2434.877308
1001.329752	2472.685962
1001.624521	2442.439038
1001.919254	2455.041923
1002.213951	2492.850577
1002.508613	2608.797115
1002.803239	2495.371154
1003.097829	2369.342308
1003.392384	2492.850577
1003.686903	2520.576923
1003.981386	2467.644808
1004.275834	2477.727115
1004.570246	2530.659231
1004.864623	2404.630385
1005.158964	2495.371154
1005.453270	2523.097500
1005.747540	2543.262115
1006.041775	2480.247692
1006.335974	2492.850577
1006.630138	2397.068654
1006.924266	2525.618077
1007.218359	2455.041923
1007.512416	2495.371154
1007.806438	2525.618077
1008.100425	2583.591346
1008.394376	2457.562500
1008.688292	2457.562500
1008.982172	2492.850577
1009.276017	2548.303269
1009.569827	2485.288846
1009.863602	2492.850577
1010.157341	2492.850577
1010.451045	2460.083077
1010.744714	2513.015192
1011.038347	2447.480192
1011.331945	2475.206538
1011.625508	2545.782692
1011.919036	2505.453462
1012.212528	2500.412308
1012.505986	2533.179808
1012.799408	2568.467885
1013.092795	2422.274423
1013.386147	2432.356731
1013.679464	2520.576923
1013.972745	2475.206538
1014.265992	2487.809423
1014.559204	2480.247692
1014.852380	2555.865000
1015.145521	2444.959615
1015.438628	2477.727115
1015.731699	2457.562500
1016.024736	2485.288846
1016.317737	2407.150962
1016.610703	2472.685962
1016.903635	2432.356731
1017.196531	2477.727115
1017.489393	2492.850577
1017.782219	2543.262115
1018.075011	2530.659231
1018.367768	2505.453462
1018.660490	2492.850577
1018.953177	2492.850577
1019.245829	2492.850577
