Dividing Wavelength (nm)	Counts (n)	Blue Motor Position (mm): 6.900000	Red Motor Position (mm): 0.000000	
326.493990	2155.352889
326.888308	2155.352889
327.282561	2155.352889
327.676750	2114.350664
328.070874	2115.812598
328.464933	2115.681528
328.858929	2119.812754
329.252859	2122.592950
329.646726	2132.163581
330.040528	2143.649850
330.434265	2156.280461
330.827938	2175.285611
331.221547	2191.613908
331.615091	2211.231558
332.008571	2228.406770
332.401986	2244.840931
332.795338	2266.570825
333.188625	2284.179575
333.581847	2300.938891
333.975006	2319.170224
334.368100	2336.146310
334.761129	2355.156501
335.154095	2376.357073
335.546996	2389.310318
335.939833	2409.560633
336.332606	2424.384146
336.725315	2437.327308
337.117960	2447.104626
337.510540	2459.894034
337.903056	2471.345015
338.295508	2479.317599
338.687896	2490.816471
339.080220	2497.133037
339.472480	2503.689058
339.864676	2506.696106
340.256807	2513.970491
340.648875	2515.321520
341.040879	2522.162366
341.432818	2522.071625
341.824694	2528.095804
342.216506	2526.737213
342.608253	2527.916843
342.999937	2528.388191
343.391557	2529.651000
343.783113	2527.740403
344.174605	2525.159332
344.566033	2526.933818
344.957397	2523.888961
345.348697	2523.899043
345.739934	2521.708662
346.131106	2519.135153
346.522215	2517.612725
346.913260	2513.650378
347.304241	2513.973012
347.695159	2508.959584
348.086012	2512.478309
348.476802	2506.844820
348.867528	2504.586383
349.258191	2500.213182
349.648789	2500.492966
350.039324	2497.110352
350.429796	2501.627226
350.820203	2498.973058
351.210548	2499.885507
351.600828	2496.207985
351.991045	2496.722183
352.381198	2494.594816
352.771288	2492.051554
353.161314	2495.794611
353.551276	2494.236894
353.941175	2494.272182
354.331010	2491.229846
354.720782	2491.968375
355.110490	2493.682367
355.500135	2490.836636
355.889717	2495.169508
356.279235	2489.798158
356.668689	2491.239928
357.058080	2492.089363
357.447408	2491.794455
357.836672	2493.858808
358.225873	2494.529281
358.615010	2495.230002
359.004084	2493.488283
359.393095	2496.578510
359.782043	2493.720176
360.170927	2496.258397
360.559748	2496.336535
360.948505	2499.330980
361.337199	2497.611947
361.725830	2497.553973
362.114398	2495.860146
362.502903	2497.899292
362.891344	2501.564211
363.279722	2499.641011
363.668037	2500.336690
364.056289	2502.958090
364.444478	2502.242247
364.832603	2501.493635
365.220665	2503.789881
365.608665	2503.421877
365.996601	2501.405415
366.384474	2501.493635
366.772284	2503.799963
367.160031	2504.341887
367.547715	2505.531599
367.935336	2506.524707
368.322893	2502.975734
368.710388	2500.102277
369.097820	2503.028667
369.485189	2502.781650
369.872495	2508.566374
370.259738	2508.742814
370.646918	2504.694768
371.034035	2507.273318
371.421090	2508.097547
371.808081	2507.404388
372.195010	2505.602176
372.581875	2507.296003
372.968678	2508.952022
373.355418	2510.406395
373.742096	2507.510252
374.128710	2509.032681
374.515262	2509.206601
374.901751	2507.401867
375.288177	2509.153668
375.674540	2509.987979
376.060841	2511.023937
376.447079	2511.510408
376.833254	2511.089472
377.219367	2512.294307
377.605417	2510.734070
377.991404	2511.601149
378.377329	2511.079389
378.763191	2511.086951
379.148991	2511.676766
379.534727	2512.029647
379.920402	2511.407064
380.306013	2513.063083
380.691563	2515.881088
381.077049	2514.386386
381.462474	2513.983094
381.847835	2513.478978
382.233134	2511.868330
382.618371	2511.981756
383.003545	2513.877230
383.388657	2515.145080
383.773706	2512.818587
384.158693	2514.487209
384.543618	2512.942096
384.928480	2516.914525
385.313280	2514.620800
385.698017	2511.482682
386.082692	2513.917559
386.467305	2516.480986
386.851856	2520.128260
387.236344	2516.337313
387.620770	2512.995028
388.005133	2513.451252
388.389435	2513.098371
388.773674	2512.596777
389.157851	2517.809330
389.541965	2518.817560
389.926018	2519.082221
390.310008	2517.484175
390.693936	2518.683970
391.077802	2518.736902
391.461606	2519.820750
391.845348	2518.615914
392.229027	2517.718589
392.612645	2519.931655
392.996200	2520.173631
393.379694	2519.304032
393.763125	2518.144566
394.146494	2519.203209
394.529801	2520.236645
394.913047	2521.620442
395.296230	2520.758405
395.679351	2518.182375
396.062410	2518.517612
396.445408	2522.071625
396.828343	2521.370905
397.211217	2521.489372
397.594028	2521.607839
397.976778	2519.692201
398.359466	2524.254445
398.742092	2522.187572
399.124656	2523.130267
399.507158	2522.747140
399.889598	2522.157325
400.271977	2523.347037
400.654294	2522.719413
401.036549	2523.778056
401.418742	2522.079187
401.800874	2526.664116
402.182944	2520.811337
402.564952	2523.422654
402.946898	2523.883920
403.328783	2522.283354
403.710606	2522.535411
404.092367	2525.131606
404.474067	2524.380474
404.855705	2524.032634
405.237282	2522.545494
405.618797	2524.869466
406.000250	2525.910464
406.381642	2524.806451
406.762972	2525.111441
407.144240	2520.642458
407.525447	2522.230422
407.906593	2520.486182
408.287677	2524.342665
408.668700	2526.142357
409.049661	2526.936339
409.430560	2527.521112
409.811399	2529.008253
410.192176	2524.193951
410.572891	2528.277286
410.953545	2528.746113
411.334138	2526.109589
411.714669	2527.856349
412.095139	2529.540095
412.475547	2526.144878
412.855894	2527.503468
413.236180	2527.432892
413.616405	2528.718387
413.996568	2526.172604
414.376670	2528.821730
414.756711	2529.320804
415.136691	2529.106555
415.516609	2530.437420
415.896466	2532.348017
416.276262	2525.857532
416.655997	2531.107893
417.035670	2527.276617
417.415283	2531.443130
417.794834	2529.371216
418.174324	2532.214427
418.553753	2529.005732
418.933121	2528.899868
419.312428	2530.795342
419.691674	2528.657893
420.070859	2530.954138
420.449983	2528.670496
420.829045	2533.487318
421.208047	2531.617050
421.586988	2531.153264
421.965867	2528.252080
422.344686	2531.299457
422.723444	2533.086546
423.102141	2528.423479
423.480777	2530.528161
423.859352	2533.701567
424.237866	2534.664428
424.616319	2532.355579
424.994712	2534.732483
425.373044	2533.159643
425.751314	2529.318284
426.129524	2527.541277
426.507673	2532.985723
426.885762	2529.850126
427.263789	2532.627801
427.641756	2531.856505
428.019662	2532.282482
428.397508	2531.740558
428.775292	2533.091587
429.153016	2534.999664
429.530679	2533.812472
429.908282	2533.313398
430.285824	2531.508665
430.663305	2535.977648
431.040726	2533.938501
431.418086	2535.362627
431.795385	2535.700385
432.172624	2533.003367
432.549802	2534.540919
432.926920	2531.614529
433.303977	2537.336239
433.680974	2532.411032
434.057910	2535.607123
434.434786	2535.476053
434.811601	2536.464119
435.188355	2535.697864
435.565050	2534.409849
435.941683	2536.073430
436.318257	2536.116280
436.694770	2536.088553
437.071222	2536.305323
437.447614	2535.720549
437.823946	2535.029911
438.200218	2535.634850
438.576429	2534.770292
438.952580	2535.108049
439.328670	2535.423121
439.704700	2537.023687
440.080670	2536.527134
440.456580	2536.297761
440.832429	2537.978986
441.208218	2535.390354
441.583947	2540.300438
441.959616	2535.344983
442.335224	2539.017464
442.710773	2537.414377
443.086261	2539.471168
443.461689	2537.832793
443.837057	2539.745911
444.212365	2535.980169
444.587612	2535.740714
444.962800	2532.564787
445.337927	2535.080323
445.712995	2532.118645
446.088002	2540.015612
446.462949	2537.999151
446.837837	2538.178112
447.212664	2536.519572
447.587431	2538.866229
447.962139	2538.105015
448.336786	2538.057124
448.711374	2536.625436
449.085901	2542.044677
449.460369	2536.680889
449.834776	2539.002340
450.209124	2538.606610
450.583412	2539.140972
450.957640	2536.988399
451.331808	2539.690458
451.705917	2540.650798
452.079965	2539.206507
452.453954	2540.547454
452.827883	2536.194418
453.201752	2540.744059
453.575562	2540.093750
453.949311	2539.186343
454.323001	2538.780530
454.696632	2538.755324
455.070202	2541.215407
455.443713	2538.465457
455.817164	2538.730118
456.190556	2538.147865
456.563888	2538.326826
456.937160	2537.759696
457.310373	2540.597866
457.683526	2537.621064
458.056619	2540.718853
458.429653	2541.492670
458.802628	2540.257588
459.175542	2540.365973
459.548398	2542.541230
459.921194	2544.504760
460.293930	2539.612320
460.666607	2544.441745
461.039224	2541.951415
461.411782	2538.362114
461.784280	2542.122815
462.156719	2540.169368
462.529099	2541.737166
462.901419	2540.204656
463.273680	2539.191384
463.645882	2536.025539
464.018024	2542.425284
464.390106	2533.777184
464.762130	2540.562578
465.134094	2542.004347
465.505999	2542.087527
465.877845	2544.900490
466.249631	2542.752959
466.621358	2542.997455
466.993026	2541.502753
467.364634	2543.882177
467.736184	2543.040305
468.107674	2543.783875
468.479105	2543.960315
468.850477	2542.521066
469.221790	2543.955274
469.593043	2545.218083
469.964238	2540.045859
470.335373	2541.409491
470.706449	2541.918648
471.077467	2543.521735
471.448425	2543.927548
471.819324	2544.033412
472.190164	2542.619368
472.560945	2545.313865
472.931667	2542.379913
473.302330	2543.456200
473.672934	2542.412681
474.043479	2542.095088
474.413965	2542.947043
474.784393	2543.572146
475.154761	2542.379913
475.525070	2542.621889
475.895321	2541.989224
476.265513	2543.017619
476.635645	2543.113401
477.005719	2543.307486
477.375734	2541.427135
477.745691	2542.821014
478.115588	2543.277239
478.485427	2545.318906
478.855207	2543.204142
479.224928	2541.989224
479.594591	2545.215562
479.964194	2543.889739
480.333739	2545.480223
480.703226	2545.137425
481.072653	2547.668084
481.442022	2544.608103
481.811333	2543.783875
482.180584	2541.308668
482.549777	2541.079296
482.918912	2541.588452
483.287988	2543.264636
483.657005	2547.297559
484.025964	2546.009544
484.394864	2542.518545
484.763706	2546.279246
485.132489	2545.064328
485.501213	2543.083154
485.869879	2544.139276
486.238487	2547.073228
486.607036	2542.541230
486.975527	2546.241437
487.343959	2543.516694
487.712333	2543.678011
488.080648	2543.947712
488.448905	2543.778834
488.817104	2546.294369
489.185244	2547.307641
489.553326	2545.213042
489.921350	2547.489123
490.289315	2547.922662
490.657222	2547.592467
491.025070	2547.005172
491.392861	2545.071890
491.760593	2546.490974
492.128267	2546.034750
492.495883	2543.458720
492.863440	2545.717157
493.230939	2546.435522
493.598380	2549.346788
493.965763	2545.392003
494.333088	2546.743032
494.700354	2545.765048
495.067563	2546.518701
495.434713	2548.502395
495.801805	2546.228834
496.168839	2547.395862
496.535815	2544.371169
496.902733	2543.544420
497.269593	2548.099102
497.636395	2546.838814
498.003139	2546.841335
498.369825	2546.680018
498.736453	2543.337733
499.103023	2544.986190
499.469535	2548.164638
499.835989	2547.121119
500.202385	2543.708258
500.568723	2544.230017
500.935003	2547.937786
501.301226	2541.313709
501.667390	2547.385779
502.033497	2547.272353
502.399546	2546.594318
502.765537	2548.421736
503.131470	2543.219266
503.497345	2547.587425
503.863163	2546.301931
504.228923	2547.441232
504.594625	2547.993238
504.960269	2548.628424
505.325856	2545.457538
505.691385	2548.179761
506.056856	2549.281253
506.422270	2546.627086
506.787625	2549.550955
507.152924	2548.353681
507.518164	2548.608259
507.883347	2548.184802
508.248472	2545.507949
508.613540	2548.865358
508.978550	2547.496685
509.343503	2546.221273
509.708398	2549.750080
510.073236	2545.565923
510.438016	2547.973074
510.802738	2547.201777
511.167403	2549.079607
511.532010	2548.484751
511.896561	2548.033568
512.261053	2546.617003
512.625488	2547.579864
512.989866	2548.663712
513.354186	2548.240255
513.718449	2548.358722
514.082655	2549.016592
514.446803	2548.998948
514.810894	2549.014072
515.174927	2550.717982
515.538904	2547.950388
515.902822	2547.007693
516.266684	2548.658671
516.630488	2548.837632
516.994235	2546.274205
517.357925	2550.685214
517.721558	2550.670091
518.085133	2549.674463
518.448651	2546.642209
518.812112	2544.711447
519.175516	2546.120450
519.538863	2546.647250
519.902152	2549.981973
520.265385	2548.830070
520.628560	2549.838301
520.991678	2549.089689
521.354739	2551.272509
521.717743	2548.305790
522.080690	2549.578681
522.443580	2548.487271
522.806413	2550.415513
523.169189	2548.865358
523.531908	2548.867878
523.894569	2548.983825
524.257174	2548.325954
524.619722	2549.467776
524.982213	2546.470810
525.344647	2547.148845
525.707025	2551.688404
526.069345	2550.367622
526.431608	2549.513146
526.793815	2546.972405
527.155964	2549.003990
527.518057	2547.824360
527.880093	2549.268650
528.242072	2549.944165
528.603995	2552.628579
528.965860	2550.642365
529.327669	2549.520708
529.689421	2549.054401
530.051117	2549.981973
530.412755	2549.077086
530.774337	2549.994576
531.135862	2549.717313
531.497331	2545.780172
531.858743	2548.328475
532.220098	2549.603887
532.581396	2550.254196
532.942638	2550.549103
533.303824	2552.883157
533.664953	2549.808054
534.026025	2550.652447
534.387040	2548.383928
534.747999	2549.253527
535.108902	2547.584905
535.469748	2551.333003
535.830537	2550.090358
536.191270	2550.221428
536.551947	2546.553989
536.912567	2545.150027
537.273131	2546.901828
537.633638	2548.232693
537.994089	2551.438867
538.354483	2550.959957
538.714821	2548.915769
539.075103	2550.962478
539.435328	2552.230328
539.795497	2551.965667
540.155609	2554.929866
540.515665	2552.152190
540.875665	2553.457849
541.235609	2553.225956
541.595496	2554.672767
541.955328	2552.923487
542.315102	2555.106306
542.674821	2553.137736
543.034483	2553.654454
543.394090	2553.672098
543.753640	2555.749053
544.113134	2553.299053
544.472571	2555.391132
544.831953	2555.532284
545.191278	2556.900957
545.550548	2555.204609
545.909761	2557.228632
546.268918	2555.794424
546.628019	2555.726368
546.987064	2555.479352
547.346053	2556.490103
547.704986	2554.342572
548.063863	2559.015721
548.422684	2556.936245
548.781449	2558.662840
549.140158	2557.730227
549.498811	2559.842470
549.857408	2557.397511
550.215949	2557.851215
550.574434	2559.492110
550.932864	2559.045968
551.291237	2558.972871
551.649555	2560.457491
552.007817	2560.989333
552.366022	2560.704508
552.724173	2559.600495
553.082267	2559.784497
553.440305	2563.335990
553.798288	2561.942111
554.156215	2558.443550
554.514086	2560.233160
554.871902	2559.600495
555.229661	2558.073025
555.587365	2555.953220
555.945014	2559.300546
556.302606	2563.081412
556.660143	2563.749365
557.017625	2564.208110
557.375050	2565.788511
557.732421	2561.692574
558.089735	2564.908830
558.446994	2560.379353
558.804197	2565.392781
559.161345	2560.601164
559.518437	2562.400856
559.875474	2563.782132
560.232455	2562.859601
560.589381	2563.396484
560.946251	2565.080229
561.303065	2564.061916
561.659825	2563.953531
562.016528	2563.794735
562.373177	2569.009809
562.729770	2563.570404
563.086307	2563.973696
563.442789	2564.011505
563.799216	2566.494273
564.155587	2564.366906
564.511904	2562.748696
564.868164	2564.165260
565.224370	2565.085270
565.580520	2564.843295
565.936615	2565.302040
566.292654	2563.043603
566.648638	2564.808007
567.004567	2563.913202
567.360441	2565.740620
567.716260	2562.325239
568.072023	2566.905127
568.427732	2566.227092
568.783385	2564.220712
569.138982	2561.926988
569.494525	2563.630898
569.850013	2565.140723
570.205445	2563.222564
570.560823	2565.453275
570.916145	2564.336659
571.271412	2563.731721
571.626625	2566.093501
571.981782	2565.024777
572.336884	2561.211144
572.691931	2559.267779
573.046923	2558.856925
573.401860	2558.947666
573.756743	2564.291289
574.111570	2561.823644
574.466342	2562.685681
574.821059	2560.354148
575.175722	2563.023438
575.530330	2563.096535
575.884882	2563.388922
576.239380	2563.635939
576.593823	2565.725497
576.948211	2563.736762
577.302544	2562.262224
577.656823	2561.800959
578.011047	2561.853891
578.365216	2562.068140
578.719330	2563.797256
579.073389	2561.344734
579.427394	2563.371278
579.781344	2563.661144
580.135239	2563.840105
580.489080	2560.412121
580.842866	2562.184086
581.196597	2566.073337
581.550273	2559.325752
581.903895	2562.284909
582.257463	2561.478325
582.610975	2562.983109
582.964434	2560.981771
583.317837	2559.492110
583.671186	2563.366237
584.024481	2560.515464
584.377721	2560.379353
584.730906	2559.449260
585.084037	2559.749209
585.437113	2561.831206
585.790135	2558.030176
586.143103	2562.400856
586.496016	2562.368088
586.848874	2562.287430
587.201679	2561.412790
587.554428	2563.260373
587.907124	2560.069322
588.259765	2559.444219
588.612352	2561.969837
588.964884	2559.398849
589.317362	2557.838612
589.669786	2559.706359
590.022155	2556.961451
590.374470	2553.276368
590.726731	2555.388611
591.078937	2553.092365
591.431090	2557.548745
591.783188	2559.572769
592.135232	2559.842470
592.487222	2557.654610
592.839157	2556.984136
593.191038	2558.052861
593.542866	2560.207954
593.894639	2557.573951
594.246358	2555.887685
594.598022	2555.000442
594.949633	2560.044117
595.301190	2556.474980
595.652692	2556.958930
596.004141	2556.558159
596.355535	2556.197716
596.706876	2557.946997
597.058162	2556.381718
597.409395	2555.330638
597.760573	2558.146122
598.111698	2557.029507
598.462768	2559.965979
598.813785	2555.534804
599.164748	2557.223591
599.515657	2559.363561
599.866511	2555.965823
600.217312	2557.694939
600.568060	2554.198899
600.918753	2559.262738
601.269392	2554.904660
601.619978	2557.473128
601.970510	2556.643858
602.320988	2555.582695
602.671412	2555.421378
603.021783	2556.719476
603.372100	2558.120916
603.722363	2556.280895
604.072572	2556.757284
604.422728	2556.449774
604.772830	2555.315514
605.122878	2553.989691
605.472872	2558.347768
605.822813	2555.575134
606.172701	2554.950031
606.522534	2557.604198
606.872314	2555.822150
607.222041	2556.981616
607.571714	2555.151677
607.921333	2555.050854
608.270899	2559.093859
608.620411	2553.833415
608.969870	2560.187789
609.319276	2561.443037
609.668627	2566.065775
610.017926	2567.769685
610.367171	2570.081054
610.716362	2571.326219
611.065500	2569.609706
611.414585	2568.041907
611.763616	2565.077709
612.112594	2565.591906
612.461518	2561.775753
612.810389	2563.663665
613.159207	2560.994374
613.507971	2562.274827
613.856682	2559.885320
614.205340	2560.233160
614.553945	2560.346586
614.902496	2560.734755
615.250994	2561.276679
615.599439	2559.358520
615.947830	2559.106462
616.296169	2559.300546
616.644454	2560.407080
616.992686	2556.606050
617.340864	2557.707542
617.688990	2560.124775
618.037063	2558.801472
618.385082	2558.982954
618.733048	2557.846173
619.080961	2557.838612
619.428821	2555.560010
619.776628	2558.178890
620.124382	2558.259548
620.472083	2558.751061
620.819731	2559.761812
621.167326	2560.165104
621.514868	2559.355999
621.862357	2557.261400
622.209793	2560.384394
622.557176	2560.454971
622.904506	2559.111503
623.251783	2560.034034
623.599007	2559.212326
623.946179	2560.452450
624.293297	2560.356668
624.640363	2561.138047
624.987376	2557.962120
625.334336	2556.515309
625.681243	2557.899106
626.028097	2553.646892
626.374899	2561.324570
626.721647	2560.729713
627.068343	2562.468912
627.414987	2560.754919
627.761577	2560.923798
628.108115	2557.165618
628.454600	2559.671071
628.801032	2559.333314
629.147412	2559.660989
629.493739	2560.951524
629.840014	2559.628221
630.186236	2561.526216
630.532405	2562.962945
630.878521	2560.817934
631.224585	2562.542008
631.570597	2561.853891
631.916556	2558.743499
632.262462	2561.173335
632.608316	2559.963458
632.954117	2559.303067
633.299866	2558.272151
633.645562	2561.127965
633.991206	2558.612429
634.336797	2561.090156
634.682336	2558.985474
635.027823	2558.919939
635.373257	2562.506720
635.718639	2560.517985
636.063968	2559.383725
636.409245	2562.199210
636.754470	2558.531770
637.099642	2559.242573
637.444762	2559.179559
637.789829	2561.430434
638.134845	2563.966134
638.479808	2559.166956
638.824719	2558.519167
639.169577	2560.114693
639.514383	2560.460012
639.859137	2560.359189
640.203839	2559.388767
640.548489	2562.731052
640.893086	2559.320711
641.237632	2559.131668
641.582125	2560.860783
641.926566	2560.225598
642.270955	2559.338355
642.615292	2556.187634
642.959576	2560.517985
643.303809	2558.481359
643.647990	2560.770043
643.992118	2561.571586
644.336195	2561.294323
644.680219	2561.773232
645.024192	2562.297512
645.368112	2562.463870
645.711981	2563.542677
646.055797	2562.310115
646.399562	2563.368757
646.743274	2564.515620
647.086935	2566.136351
647.430544	2565.982596
647.774101	2563.688871
648.117606	2565.032338
648.461059	2567.762123
648.804460	2566.955538
649.147810	2566.975703
649.491108	2566.141392
649.834354	2566.053172
650.177548	2563.235167
650.520690	2567.489901
650.863781	2564.359344
651.206820	2564.606361
651.549807	2563.028480
651.892742	2565.518810
652.235626	2565.322205
652.578458	2565.412945
652.921238	2563.073850
653.263967	2565.191135
653.606644	2568.672051
653.949269	2563.756926
654.291843	2563.996381
654.634365	2568.961918
654.976836	2565.576783
655.319255	2566.159036
655.661622	2568.120045
656.003938	2566.370765
656.346203	2565.291958
656.688416	2566.877401
657.030577	2569.100549
657.372687	2567.237843
657.714746	2567.187432
658.056753	2568.480488
658.398708	2567.101732
658.740612	2566.320353
659.082465	2568.160374
659.424266	2566.728687
659.766016	2565.009653
660.107715	2569.602144
660.449362	2565.806155
660.790958	2571.452248
661.132503	2571.248081
661.473996	2570.023081
661.815438	2572.470561
662.156829	2573.960222
662.498168	2572.208421
662.839456	2572.591548
663.180693	2571.764799
663.521879	2572.810839
663.863013	2573.408215
664.204097	2575.482650
664.545129	2575.160016
664.886110	2573.211610
665.227040	2574.877712
665.567918	2577.259657
665.908746	2578.439287
666.249522	2576.407702
666.590248	2577.957857
666.930922	2579.114802
667.271545	2581.272415
667.612118	2581.635378
667.952639	2580.314596
668.293109	2581.448856
668.633528	2582.565471
668.973896	2580.150759
669.314213	2583.969433
669.654480	2582.835173
669.994695	2582.953640
670.334859	2585.602767
670.674973	2583.084710
671.015035	2587.344485
671.355047	2586.560586
671.695008	2585.343147
672.034918	2584.523960
672.374777	2590.921184
672.714585	2587.180648
673.054342	2589.673498
673.394049	2591.137953
673.733705	2590.464959
674.073310	2594.351689
674.412864	2596.098449
674.752368	2594.344127
675.091820	2593.277923
675.431223	2594.092070
675.770574	2591.813468
676.109875	2595.506113
676.449125	2594.346648
676.788324	2590.099476
677.127473	2593.167018
677.466571	2592.156267
677.805619	2597.061309
678.144616	2595.516196
678.483562	2597.953593
678.822458	2595.433017
679.161303	2597.046186
679.500098	2601.132041
679.838842	2599.793615
680.177535	2600.385950
680.516179	2602.059613
680.854771	2602.737648
681.193314	2604.761672
681.531805	2609.734770
681.870247	2613.273660
682.208638	2615.035543
682.546978	2621.218518
682.885268	2625.155660
683.223508	2623.562655
683.561697	2622.025103
683.899836	2622.758591
684.237925	2624.001235
684.575963	2623.507202
684.913951	2631.867956
685.251889	2625.453088
685.589776	2630.837040
685.927614	2632.984572
686.265401	2627.978706
686.603137	2637.408184
686.940824	2639.258287
687.278460	2645.562250
687.616046	2648.851603
687.953582	2652.216573
688.291068	2654.152377
688.628504	2658.225629
688.965889	2662.104797
689.303224	2667.299706
689.640510	2665.595796
689.977745	2662.308963
690.314930	2662.056906
690.652065	2662.840805
690.989150	2655.115237
691.326185	2656.105824
691.663170	2654.374187
692.000105	2651.460400
692.336990	2656.904847
692.673825	2649.247334
693.010610	2650.159783
693.347345	2645.156438
693.684030	2639.553195
694.020665	2642.277939
694.357251	2642.449338
694.693786	2652.070380
695.030272	2641.468833
695.366707	2648.150883
695.703093	2645.012765
696.039429	2646.663742
696.375716	2651.397386
696.711952	2644.100316
697.048139	2650.830256
697.384276	2653.953251
697.720363	2653.058446
698.056400	2653.408806
698.392388	2656.647748
698.728326	2657.396359
699.064214	2656.614980
699.400053	2666.215858
699.735842	2658.283602
700.071581	2659.329642
700.407270	2655.513488
700.742910	2655.389980
701.078501	2659.627070
701.414042	2654.916111
701.749533	2658.069353
702.084974	2653.214722
702.420366	2658.097079
702.755709	2658.170176
703.091002	2654.333858
703.426246	2656.488951
703.761440	2658.724703
704.096584	2660.156391
704.431679	2655.929383
704.766725	2659.259065
705.101721	2658.407110
705.436668	2660.153870
705.771565	2662.986999
706.106413	2667.387926
706.441212	2669.759789
706.775961	2667.768533
707.110661	2667.894562
707.445311	2679.209432
707.779913	2676.182219
708.114465	2683.945596
708.448967	2682.987777
708.783421	2685.833508
709.117825	2700.553677
709.452180	2701.529140
709.786485	2698.302802
710.120742	2715.331820
710.454949	2715.241079
710.789107	2723.206102
711.123216	2729.603326
711.457275	2747.696027
711.791286	2756.659199
712.125247	2752.137284
712.459159	2765.778646
712.793023	2773.053031
713.126837	2762.489293
713.460602	2771.301230
713.794318	2755.250196
714.127985	2768.160591
714.461602	2760.039292
714.795171	2754.766246
715.128691	2752.631317
715.462162	2736.882752
715.795584	2744.885584
716.128957	2740.968607
716.462281	2721.872717
716.795556	2740.638412
717.128782	2728.829509
717.461960	2713.247302
717.795088	2724.910012
718.128167	2725.933366
718.461198	2719.586553
718.794180	2716.395503
719.127113	2725.605691
719.459997	2722.979250
719.792833	2708.380068
720.125619	2715.296532
720.458357	2707.833103
720.791046	2708.337219
721.123686	2719.155535
721.456278	2709.519369
721.788821	2710.855275
722.121315	2707.386961
722.453761	2713.806871
722.786158	2716.629917
723.118506	2714.515153
723.450805	2720.819116
723.783056	2720.118395
724.115259	2716.065307
724.447412	2719.405072
724.779518	2722.737275
725.111574	2724.935218
725.443582	2730.730024
725.775542	2729.131978
726.107453	2745.719895
726.439315	2740.814852
726.771129	2745.528331
727.102895	2753.760535
727.434612	2762.471649
727.766281	2762.020466
728.097901	2770.640839
728.429473	2768.997423
728.760996	2770.817279
729.092471	2772.374996
729.423897	2773.489091
729.755276	2776.886829
730.086606	2773.131169
730.417887	2773.289965
730.749120	2780.720626
731.080305	2808.210038
731.411442	2817.876451
731.742530	2807.789102
732.073570	2824.762667
732.404562	2834.562670
732.735506	2816.268322
733.066401	2838.928309
733.397249	2836.470747
733.728048	2820.422233
734.058798	2799.158646
734.389501	2798.253759
734.720156	2789.290588
735.050762	2771.543206
735.381320	2765.065323
735.711831	2769.804007
736.042293	2764.402411
736.372707	2769.473812
736.703073	2760.188007
737.033391	2762.728748
737.363661	2763.908378
737.693883	2768.886517
738.024056	2781.605349
738.354182	2784.529218
738.684260	2788.471400
739.014290	2797.737041
739.344272	2806.281797
739.674207	2806.138124
740.004093	2817.803354
740.333931	2818.680515
740.663722	2818.819146
740.993464	2836.032166
741.323159	2849.174454
741.652806	2814.047694
741.982405	2808.278094
742.311956	2837.388237
742.641460	2822.937769
742.970915	2800.479429
743.300323	2808.131900
743.629683	2802.934471
743.958996	2791.828809
744.288260	2786.800258
744.617477	2794.180507
744.946647	2801.724594
745.275768	2780.929834
745.604842	2781.065945
745.933869	2784.022582
746.262847	2775.997065
746.591778	2781.940585
746.920662	2782.543003
747.249498	2781.403702
747.578286	2785.935700
747.907027	2796.330559
748.235720	2804.968576
748.564365	2796.519602
748.892963	2799.546815
749.221514	2827.772236
749.550017	2812.353867
749.878473	2791.244035
750.206881	2807.650470
750.535242	2799.385498
750.863555	2789.477110
751.191821	2800.360962
751.520039	2807.794143
751.848210	2792.705969
752.176334	2794.563635
752.504411	2811.262457
752.832440	2803.070582
753.160421	2791.808644
753.488356	2800.696198
753.816243	2821.682522
754.144082	2802.531178
754.471875	2792.519447
754.799620	2805.051755
755.127318	2808.825059
755.454969	2803.826755
755.782572	2801.391877
756.110129	2808.784730
756.437638	2819.383756
756.765100	2806.506128
757.092515	2807.156437
757.419882	2812.472334
757.747203	2809.291366
758.074477	2826.053202
758.401703	2833.420848
758.728882	2808.084009
759.056014	2811.706078
759.383099	2844.339988
759.710138	2843.694720
760.037129	2831.762309
760.364073	2833.418328
760.690970	2848.861903
761.017820	2858.929087
761.344623	2843.861078
761.671379	2859.317256
761.998088	2867.100797
762.324751	2890.010321
762.651366	2950.713375
762.977935	3066.291909
763.304456	3205.810883
763.630931	3293.995787
763.957359	3264.890686
764.283740	3197.966848
764.610074	3153.221566
764.936362	3056.403686
765.262602	2995.461177
765.588796	2928.181938
765.914943	2888.039230
766.241044	2891.182389
766.567097	2880.021275
766.893104	2845.464165
767.219064	2818.093220
767.544978	2822.035402
767.870845	2818.705720
768.196665	2801.575880
768.522438	2797.071609
768.848165	2798.591517
769.173846	2792.985753
769.499479	2792.116154
769.825066	2778.789864
770.150607	2772.644698
770.476101	2769.093205
770.801548	2780.206428
771.126949	2773.700819
771.452303	2763.837802
771.777611	2760.097266
772.102872	2765.219078
772.428087	2760.079622
772.753256	2759.278078
773.078378	2756.674322
773.403453	2749.306676
773.728482	2750.955133
774.053465	2740.928278
774.378401	2743.922724
774.703291	2749.281470
775.028135	2740.774523
775.352932	2735.725807
775.677683	2729.562997
776.002388	2739.957856
776.327046	2746.677714
776.651658	2729.915878
776.976224	2714.479865
777.300743	2720.650237
777.625216	2732.375961
777.949643	2736.706312
778.274024	2723.213664
778.598359	2716.166131
778.922647	2718.296018
779.246889	2722.437326
779.571086	2724.443705
779.895236	2723.894219
780.219339	2720.287274
780.543397	2712.997765
780.867409	2725.817420
781.191374	2733.462329
781.515294	2725.232646
781.839167	2722.994373
782.162995	2726.888665
782.486776	2722.858262
782.810511	2725.870352
783.134201	2734.936867
783.457844	2726.918912
783.781441	2712.085317
784.104993	2716.516491
784.428498	2717.832232
784.751958	2725.661144
785.075372	2722.661657
785.398739	2712.516335
785.722061	2714.215204
786.045337	2725.751885
786.368568	2737.069275
786.691752	2716.501367
787.014891	2717.255020
787.337983	2738.619430
787.661030	2755.658530
787.984031	2775.223248
788.306987	2799.904737
788.629897	2810.841520
788.952760	2805.160140
789.275579	2797.890796
789.598351	2802.836168
789.921078	2790.044240
790.243759	2751.751636
790.566395	2751.983529
790.888984	2760.412338
791.211529	2741.873495
791.534027	2735.745972
791.856480	2740.648494
792.178888	2725.681308
792.501249	2711.755121
792.823566	2717.406254
793.145836	2729.709190
793.468062	2723.430433
793.790241	2710.993907
794.112375	2714.411809
794.434464	2726.661813
794.756507	2734.556260
795.078505	2730.188100
795.400457	2725.600650
795.722364	2748.348857
796.044226	2759.918305
796.366042	2770.388781
796.687812	2772.972373
797.009538	2775.263577
797.331218	2767.747217
797.652852	2765.544232
797.974442	2769.383071
798.295986	2774.678803
798.617484	2759.361257
798.938938	2741.800398
799.260346	2751.965885
799.581709	2760.440064
799.903026	2745.177971
800.224299	2738.178329
800.545526	2740.406519
800.866708	2738.284193
801.187845	2719.826008
801.508936	2733.938718
801.829983	2740.366190
802.150984	2718.227962
802.471940	2716.977756
802.792851	2719.989846
803.113717	2721.524877
803.434538	2725.971175
803.755314	2713.675801
804.076045	2702.723894
804.396731	2709.781509
804.717372	2719.397510
805.037967	2715.430122
805.358518	2711.122456
805.679024	2716.927345
805.999485	2719.458004
806.319901	2714.184957
806.640272	2723.639641
806.960598	2724.506720
807.280879	2719.253837
807.601115	2720.962788
807.921306	2725.744323
808.241453	2736.240005
808.561554	2734.190776
808.881611	2714.005996
809.201623	2721.345916
809.521590	2732.549881
809.841513	2729.598285
810.161390	2739.186560
810.481223	2739.483988
810.801011	2722.296174
811.120755	2713.756459
811.440453	2731.914695
811.760107	2737.074316
812.079716	2727.705332
812.399281	2716.017417
812.718801	2726.129971
813.038276	2717.590257
813.357707	2722.155021
813.677093	2731.365209
813.996434	2718.933724
814.315731	2716.398024
814.634983	2717.368446
814.954191	2722.507902
815.273354	2734.334449
815.592473	2734.079871
815.911547	2728.824468
816.230577	2738.508524
816.549562	2747.340626
816.868502	2762.219592
817.187399	2769.463730
817.506250	2765.972731
817.825058	2754.100813
818.143821	2775.092178
818.462539	2805.424801
818.781213	2816.343940
819.099843	2818.594815
819.418429	2859.894468
819.736970	2906.512538
820.055466	2941.641819
820.373919	3030.290509
820.692327	3111.730349
821.010691	3177.265349
821.329011	3392.746950
821.647286	3781.850930
821.965517	4300.003408
822.283704	4715.107139
822.601847	4979.757633
822.919945	4918.920989
823.237999	4723.409919
823.556010	4487.380576
823.873976	4276.962814
824.191897	3911.499325
824.509775	3661.536232
824.827609	3458.380253
825.145398	3350.353367
825.463144	3350.653315
825.780845	3365.433978
826.098502	3366.449771
826.416116	3483.749859
826.733685	3674.005526
827.051210	3879.402298
827.368692	3954.139925
827.686129	3788.958957
828.003522	3511.123325
828.320872	3339.348528
828.638177	3220.087431
828.955439	3121.253089
829.272656	3009.079854
829.589830	2945.241203
829.906960	2915.410175
830.224046	2870.029708
830.541088	2848.955164
830.858086	2839.573577
831.175041	2824.747543
831.491952	2818.501554
831.808819	2822.910043
832.125642	2838.547702
832.442421	2875.927858
832.759157	2923.312183
833.075849	3026.265148
833.392497	3178.492870
833.709101	3285.151083
834.025662	3370.505379
834.342179	3347.058973
834.658653	3242.273549
834.975083	3131.496714
835.291469	3013.861389
835.607811	2906.802404
835.924110	2894.456619
836.240366	2846.177488
836.556578	2789.751853
836.872746	2764.566249
837.188871	2761.377719
837.504952	2749.117633
837.820990	2725.063767
838.136984	2711.180429
838.452935	2722.273488
838.768842	2721.993704
839.084706	2729.852863
839.400526	2761.229005
839.716303	2812.099288
840.032037	2902.635891
840.347727	2973.358238
840.663373	2941.735080
840.978977	2873.810573
841.294537	2808.275573
841.610054	2751.050915
841.925527	2727.952348
842.240957	2709.693289
842.556344	2702.151723
842.871687	2687.449198
843.186987	2674.987465
843.502244	2662.934067
843.817458	2654.197747
844.132629	2644.002013
844.447756	2651.866213
844.762840	2648.682725
845.077881	2640.064872
845.392879	2633.105559
845.707833	2633.307205
846.022745	2631.724283
846.337613	2636.682258
846.652438	2635.343832
846.967221	2632.866104
847.281960	2627.290588
847.596656	2627.976185
847.911309	2627.535084
848.225919	2626.179014
848.540485	2623.812192
848.855009	2626.625156
849.169490	2624.175155
849.483928	2622.181379
849.798323	2619.053343
850.112675	2617.762807
850.426984	2624.719600
850.741251	2624.379322
851.055474	2619.496964
851.369654	2616.200050
851.683792	2619.822119
851.997887	2620.502675
852.311938	2622.904784
852.625947	2620.129629
852.939914	2621.286574
853.253837	2624.013838
853.567718	2614.165944
853.881555	2615.363218
854.195350	2622.519136
854.509103	2620.127109
854.822812	2617.450256
855.136479	2619.149125
855.450103	2616.056377
855.763685	2614.460852
856.077224	2612.842641
856.390720	2618.549227
856.704173	2622.166255
857.017584	2620.971502
857.330953	2620.747171
857.644278	2622.980402
857.957561	2624.586009
858.270802	2626.587347
858.584000	2626.279837
858.897155	2624.180196
859.210268	2623.910495
859.523339	2622.256996
859.836367	2620.616101
860.149352	2619.227263
860.462295	2621.909157
860.775195	2626.300002
861.088054	2628.873511
861.400869	2619.083590
861.713642	2616.384052
862.026373	2622.289764
862.339062	2622.199023
862.651708	2627.898047
862.964312	2628.422327
863.276873	2620.595936
863.589392	2625.238839
863.901869	2627.986267
864.214303	2630.343007
864.526696	2642.444297
864.839045	2637.022536
865.151353	2634.902731
865.463619	2634.665796
865.775842	2635.411887
866.088023	2640.032105
866.400162	2650.210194
866.712258	2637.798873
867.024313	2633.352576
867.336325	2637.481281
867.648296	2647.586274
867.960224	2641.582259
868.272110	2641.032774
868.583954	2638.504635
868.895755	2648.511325
869.207515	2643.818011
869.519233	2640.687455
869.830909	2647.918990
870.142542	2649.675832
870.454134	2651.467962
870.765684	2652.239259
871.077191	2650.021151
871.388657	2651.334372
871.700081	2653.464259
872.011463	2660.037924
872.322803	2658.548263
872.634101	2659.715290
872.945357	2662.472801
873.256571	2671.597289
873.567744	2672.182063
873.878874	2663.539005
874.189963	2672.340860
874.501010	2674.717764
874.812015	2671.930006
875.122979	2677.414781
875.433900	2673.906138
875.744780	2674.793381
876.055618	2679.572395
876.366415	2679.433763
876.677169	2687.476924
876.987882	2687.378622
877.298554	2684.190092
877.609183	2690.544466
877.919771	2697.251721
878.230317	2708.029708
878.540822	2731.740775
878.851285	2743.148907
879.161707	2753.513519
879.472087	2780.871861
879.782425	2840.947291
880.092722	2979.238744
880.402977	3101.509410
880.713191	3180.637881
881.023363	3324.648523
881.333494	3492.839060
881.643583	3556.299625
881.953631	3554.061352
882.263637	3529.291643
882.573602	3496.438443
882.883526	3427.193154
883.193408	3302.774957
883.503248	3197.805531
883.813048	3145.647232
884.122806	3086.539704
884.432522	3004.711694
884.742197	2938.077723
885.051831	2879.991028
885.361424	2835.608709
885.670975	2818.683035
885.980485	2793.749488
886.289954	2767.971548
886.599382	2755.560227
886.908768	2744.704102
887.218113	2726.165259
887.527417	2708.493494
887.836680	2692.475228
888.145901	2697.783563
888.455082	2698.499407
888.764221	2678.092816
889.073319	2668.706188
889.382376	2669.822803
889.691392	2672.872701
890.000366	2671.546878
890.309300	2663.982627
890.618193	2669.258194
890.927044	2674.503515
891.235855	2676.194822
891.544625	2666.523368
891.853353	2672.645849
892.162041	2674.919410
892.470687	2688.880885
892.779293	2704.163143
893.087858	2716.672767
893.396381	2735.488873
893.704864	2764.568769
894.013306	2825.697801
894.321707	2906.671334
894.630068	2959.139664
894.938387	2956.157821
895.246665	2958.726289
895.554903	2944.094340
895.863100	2893.198851
896.171256	2849.504650
896.479371	2810.914617
896.787446	2777.259874
897.095480	2742.677559
897.403473	2719.692418
897.711425	2702.852443
898.019336	2703.785057
898.327207	2695.396577
898.635038	2683.817046
898.942827	2677.588701
899.250576	2672.603000
899.558284	2661.260403
899.865952	2653.207160
900.173579	2646.865389
900.481165	2648.574340
900.788711	2648.415543
901.096216	2636.825931
901.403681	2630.436268
901.711105	2636.841054
902.018489	2635.106897
902.325832	2634.932977
902.633135	2636.135293
902.940397	2644.160810
903.247619	2668.401198
903.554800	2722.170145
903.861941	2802.977320
904.169041	2900.571538
904.476101	2978.772437
904.783121	2988.451453
905.090100	2950.060546
905.397039	2889.352450
905.703938	2814.892087
906.010796	2761.198758
906.317614	2729.459653
906.624391	2698.779191
906.931129	2679.592559
907.237826	2654.109527
907.544483	2639.303658
907.851099	2628.596247
908.157675	2620.573251
908.464211	2615.940430
908.770707	2608.600510
909.077163	2605.722012
909.383578	2597.157091
909.689954	2593.976123
909.996289	2592.060485
910.302584	2593.676174
910.608839	2597.787235
910.915054	2590.502768
911.221229	2590.459918
911.527363	2590.149887
911.833458	2593.119127
912.139513	2597.651124
912.445527	2596.221957
912.751502	2601.200097
913.057436	2602.079778
913.363331	2606.271497
913.669186	2611.841972
913.975000	2621.198354
914.280775	2642.557723
914.586510	2666.034376
914.892205	2685.309228
915.197859	2718.757284
915.503475	2763.326125
915.809050	2817.435350
916.114585	2850.424660
916.420081	2864.393698
916.725536	2856.448839
917.030952	2840.697754
917.336328	2806.778350
917.641665	2765.314860
917.946961	2739.075654
918.252218	2722.349106
918.557435	2697.360106
918.862612	2682.077848
919.167750	2665.336176
919.472848	2652.483755
919.777906	2642.782054
920.082925	2633.355096
920.387904	2626.794035
920.692843	2618.836573
920.997743	2613.228290
921.302603	2610.944647
921.607423	2606.142948
921.912204	2599.130703
922.216946	2597.139447
922.521647	2595.334714
922.826310	2594.018973
923.130932	2591.024528
923.435516	2588.198961
923.740059	2583.240986
924.044564	2580.097827
924.349028	2579.059349
924.653454	2577.690676
924.957840	2573.866960
925.262186	2570.524675
925.566493	2572.578946
925.870761	2568.757751
926.174989	2568.538461
926.479178	2563.507389
926.783328	2563.023438
927.087438	2562.635270
927.391509	2560.149981
927.695541	2562.899930
927.999533	2559.494631
928.303486	2560.931360
928.607400	2557.687377
928.911275	2561.619477
929.215110	2559.862635
929.518906	2558.405742
929.822663	2557.831050
930.126381	2555.232335
930.430060	2556.293498
930.733699	2556.573282
931.037299	2558.763663
931.340861	2557.815927
931.644383	2559.948335
931.947866	2560.386915
932.251309	2559.318190
932.554714	2557.107644
932.858080	2554.695452
933.161407	2554.294681
933.464694	2556.013714
933.767943	2552.366439
934.071153	2556.812737
934.374323	2552.832746
934.677455	2557.170659
934.980548	2556.142263
935.283602	2556.580844
935.586617	2555.454146
935.889593	2557.251317
936.192530	2556.931204
936.495428	2556.744681
936.798287	2555.675957
937.101108	2557.090000
937.403890	2559.350958
937.706632	2562.436144
938.009336	2560.800290
938.312002	2568.868656
938.614628	2568.115004
938.917216	2572.450396
939.219765	2572.155489
939.522275	2572.606672
939.824747	2571.273287
940.127179	2569.334963
940.429573	2569.486198
940.731929	2568.430076
941.034246	2567.157185
941.336524	2568.624160
941.638763	2566.194324
941.940964	2565.385219
942.243126	2563.464539
942.545250	2566.542164
942.847335	2560.550752
943.149381	2563.058727
943.451389	2558.015052
943.753359	2558.650238
944.055290	2557.790721
944.357182	2559.882800
944.659036	2556.414486
944.960851	2558.274672
945.262628	2555.020607
945.564367	2556.762325
945.866067	2555.118909
946.167729	2558.113355
946.469352	2556.411965
946.770937	2556.976574
947.072484	2557.705021
947.373992	2557.987326
947.675462	2555.093703
947.976893	2552.094217
948.278286	2549.913918
948.579641	2553.533466
948.880958	2548.381407
949.182236	2554.277037
949.483476	2552.759649
949.784678	2553.225956
950.085841	2555.660833
950.386967	2554.907181
950.688054	2552.769732
950.989103	2556.517829
951.290114	2552.464742
951.591087	2556.948848
951.892021	2555.741492
952.192917	2559.650907
952.493776	2557.216029
952.794596	2557.026986
953.095378	2557.011863
953.396122	2555.892726
953.696828	2557.316852
953.997496	2557.425237
954.298126	2554.955072
954.598718	2554.196378
954.899272	2548.724206
955.199788	2551.517005
955.500266	2552.384083
955.800706	2550.599515
956.101108	2552.615976
956.401472	2549.200595
956.701798	2546.128011
957.002087	2549.397200
957.302337	2547.156407
957.602550	2545.913762
957.902724	2546.228834
958.202861	2547.179092
958.502960	2544.996272
958.803022	2542.740356
959.103045	2544.603062
959.403031	2541.195242
959.702979	2542.488298
960.002889	2542.427804
960.302762	2541.182639
960.602596	2543.705737
960.902393	2544.124153
961.202153	2542.702547
961.501875	2542.707588
961.801559	2546.090203
962.101205	2540.219779
962.400814	2542.878988
962.700385	2542.258926
962.999918	2539.735828
963.299414	2538.165509
963.598873	2542.891591
963.898293	2535.329860
964.197677	2540.048380
964.497022	2540.481919
964.796331	2544.524924
965.095601	2542.163144
965.394835	2543.423432
965.694030	2542.284132
965.993189	2541.543082
966.292309	2541.664070
966.591393	2540.658359
966.890439	2540.587783
967.189447	2542.594162
967.488419	2538.621733
967.787353	2540.083668
968.086249	2542.016950
968.385108	2545.238248
968.683930	2543.007537
968.982714	2542.435366
969.281462	2544.517363
969.580172	2542.803370
969.878844	2542.773123
970.177480	2544.287990
970.476078	2541.154913
970.774639	2541.011240
971.073162	2540.005530
971.371649	2542.339584
971.670098	2542.810932
971.968510	2541.898483
972.266885	2539.806404
972.565223	2542.510983
972.863524	2541.835469
973.161788	2541.127187
973.460014	2542.357228
973.758204	2542.332022
974.056356	2542.107691
974.354471	2542.445448
974.652550	2541.036446
974.950591	2541.031405
975.248595	2541.396888
975.546563	2541.906045
975.844493	2542.218597
976.142386	2541.767413
976.440243	2538.074768
976.738062	2543.814122
977.035845	2542.480737
977.333590	2544.156920
977.631299	2541.137269
977.928971	2539.980324
978.226606	2539.007382
978.524204	2537.583256
978.821765	2538.243647
979.119290	2542.221117
979.416777	2540.244985
979.714228	2540.781868
980.011642	2541.389327
980.309020	2541.389327
980.606360	2543.390665
980.903664	2539.645088
981.200931	2543.650284
981.498162	2543.793957
981.795356	2544.023330
982.092513	2543.375541
982.389633	2543.662887
982.686717	2544.600542
982.983764	2544.789585
983.280775	2548.572971
983.577749	2548.885522
983.874686	2548.305790
984.171587	2546.029709
984.468451	2545.187836
984.765279	2544.540048
985.062070	2545.117260
985.358824	2541.923689
985.655543	2545.044163
985.952224	2541.951415
986.248869	2539.947557
986.545478	2541.785057
986.842050	2541.099460
987.138586	2540.038298
987.435086	2542.324461
987.731549	2541.797660
988.027975	2544.174564
988.324366	2539.100643
988.620719	2538.959491
988.917037	2537.217772
989.213318	2541.036446
989.509563	2539.413194
989.805772	2541.381765
990.101944	2536.834644
990.398080	2539.019984
990.694180	2538.243647
990.990244	2537.875642
991.286271	2540.726415
991.582262	2537.404295
991.878217	2540.436549
992.174136	2540.282793
992.470019	2536.249870
992.765865	2536.950591
993.061676	2533.217616
993.357450	2537.807587
993.653188	2537.248019
993.948890	2539.955118
994.244556	2541.747249
994.540186	2538.929244
994.835780	2540.945705
995.131337	2539.103163
995.426859	2541.205325
995.722345	2540.706250
996.017795	2540.544933
996.313208	2539.415715
996.608586	2542.568957
996.903928	2542.576518
997.199234	2543.194060
997.494504	2543.441076
997.789738	2542.977290
998.084936	2543.345294
998.380099	2542.258926
998.675225	2539.990407
998.970316	2539.118287
999.265371	2539.322454
999.560390	2541.142310
999.855373	2540.555016
1000.150320	2539.703061
1000.445232	2537.800025
1000.740108	2540.860006
1001.034948	2539.458565
1001.329752	2539.761034
1001.624521	2539.841693
1001.919254	2537.437062
1002.213951	2540.446631
1002.508613	2540.943185
1002.803239	2538.926723
1003.097829	2537.749614
1003.392384	2541.507794
1003.686903	2538.934285
1003.981386	2541.084337
1004.275834	2539.967721
1004.570246	2540.454193
1004.864623	2542.710109
1005.158964	2540.592824
1005.453270	2540.118956
1005.747540	2538.127700
1006.041775	2539.992927
1006.335974	2538.856147
1006.630138	2537.951260
1006.924266	2540.267670
1007.218359	2540.038297
1007.512416	2536.196938
1007.806438	2535.947401
1008.100425	2535.902031
1008.394376	2535.004705
1008.688292	2535.629808
1008.982172	2539.282124
1009.276017	2537.719367
1009.569827	2538.967052
1009.863602	2536.753986
1010.157341	2539.176260
1010.451045	2537.517721
1010.744714	2538.016795
1011.038347	2538.218441
1011.331945	2541.812784
1011.625508	2539.133410
1011.919036	2537.926054
1012.212528	2538.473019
1012.505986	2538.397402
1012.799408	2539.559388
1013.092795	2541.598535
1013.386147	2535.798687
1013.679464	2539.761034
1013.972745	2537.737011
1014.265992	2538.115097
1014.559204	2539.503935
1014.852380	2539.680376
1015.145521	2534.465302
1015.438628	2538.399922
1015.731699	2541.112063
1016.024736	2536.960673
1016.317737	2537.094264
1016.610703	2537.641229
1016.903635	2538.440252
1017.196531	2537.462268
1017.489393	2538.185673
1017.782219	2537.621064
1018.075011	2538.576363
1018.367768	2540.998637
1018.660490	2536.927906
1018.953177	2536.927906
1019.245829	2536.927906
