Dividing Wavelength (nm)	Counts (n)	Blue Motor Position (mm): 20.500000	Red Motor Position (mm): 0.000000	
326.493990	2158.307005
326.888308	2158.307005
327.282561	2158.307005
327.676750	2132.055196
328.070874	2133.330608
328.464933	2140.020219
328.858929	2146.256127
329.252859	2160.343631
329.646726	2172.321413
330.040528	2186.179544
330.434265	2205.038501
330.827938	2225.767726
331.221547	2243.290776
331.615091	2265.749117
332.008571	2285.331479
332.401986	2305.609520
332.795338	2324.075267
333.188625	2347.801457
333.581847	2365.563963
333.975006	2385.345451
334.368100	2404.330436
334.761129	2419.494227
335.154095	2438.728749
335.546996	2460.246914
335.939833	2488.971409
336.332606	2502.890035
336.725315	2512.445542
337.117960	2521.953158
337.510540	2528.783922
337.903056	2538.999820
338.295508	2545.795295
338.687896	2550.226469
339.080220	2561.939590
339.472480	2568.709860
339.864676	2570.141548
340.256807	2571.099367
340.648875	2574.706312
341.040879	2578.489698
341.432818	2577.592373
341.824694	2577.849472
342.216506	2582.784762
342.608253	2576.090109
342.999937	2576.758062
343.391557	2576.150603
343.783113	2575.649008
344.174605	2573.745973
344.566033	2572.435273
344.957397	2572.659604
345.348697	2568.556105
345.739934	2565.964952
346.131106	2565.259190
346.522215	2565.818758
346.913260	2560.117213
347.304241	2561.261555
347.695159	2560.817934
348.086012	2557.894064
348.476802	2554.345092
348.867528	2552.431974
349.258191	2549.314021
349.648789	2550.511295
350.039324	2548.681356
350.429796	2548.129349
350.820203	2547.980635
351.210548	2549.553475
351.600828	2547.156407
351.991045	2545.414688
352.381198	2544.514842
352.771288	2550.443239
353.161314	2546.453166
353.551276	2547.658002
353.941175	2544.529966
354.331010	2549.702189
354.720782	2545.893598
355.110490	2548.031047
355.500135	2545.016437
355.889717	2549.009031
356.279235	2546.801005
356.668689	2546.185985
357.058080	2548.232693
357.447408	2545.512991
357.836672	2547.824360
358.225873	2548.083979
358.615010	2545.762528
359.004084	2550.919628
359.393095	2551.998435
359.782043	2551.998435
360.170927	2551.716130
360.559748	2553.127653
360.948505	2552.177396
361.337199	2552.220246
361.725830	2553.873744
362.114398	2555.469269
362.502903	2556.480021
362.891344	2558.655279
363.279722	2554.720658
363.668037	2555.912891
364.056289	2556.341389
364.444478	2557.150494
364.832603	2557.941955
365.220665	2554.428271
365.608665	2558.325083
365.996601	2558.690567
366.384474	2558.188972
366.772284	2558.851884
367.160031	2558.856925
367.547715	2560.674261
367.935336	2557.374826
368.322893	2560.739796
368.710388	2559.968499
369.097820	2564.480332
369.485189	2559.295505
369.872495	2559.277861
370.259738	2560.381874
370.646918	2561.435475
371.034035	2560.286092
371.421090	2564.503017
371.808081	2561.624518
372.195010	2564.896227
372.581875	2566.022925
372.968678	2562.559652
373.355418	2564.175342
373.742096	2561.967317
374.128710	2563.648542
374.515262	2561.856411
374.901751	2565.806155
375.288177	2565.627194
375.674540	2561.914385
376.060841	2565.538974
376.447079	2566.269942
376.833254	2565.329766
377.219367	2561.611915
377.605417	2563.540157
377.991404	2562.990671
378.377329	2563.527554
378.763191	2564.818089
379.148991	2568.540981
379.534727	2566.915209
379.920402	2564.266083
380.306013	2569.972669
380.691563	2567.966290
381.077049	2566.579973
381.462474	2568.591393
381.847835	2566.249777
382.233134	2568.233471
382.618371	2568.558625
383.003545	2568.059551
383.388657	2571.258163
383.773706	2569.307237
384.158693	2570.139027
384.543618	2569.471074
384.928480	2569.876887
385.313280	2571.232957
385.698017	2572.415108
386.082692	2570.567525
386.467305	2570.595252
386.851856	2572.833524
387.236344	2569.695406
387.620770	2570.771692
388.005133	2571.114490
388.389435	2572.836044
388.773674	2572.021898
389.157851	2570.053327
389.541965	2574.567681
389.926018	2572.616754
390.310008	2573.592217
390.693936	2574.870150
391.077802	2572.044583
391.461606	2574.678586
391.845348	2573.448545
392.229027	2574.842424
392.612645	2576.516087
392.996200	2578.678742
393.379694	2570.852350
393.763125	2577.602455
394.146494	2577.158834
394.529801	2575.258319
394.913047	2575.603638
395.296230	2575.248237
395.679351	2577.214287
396.062410	2578.651015
396.445408	2577.683114
396.828343	2577.592373
397.211217	2575.732187
397.594028	2574.650860
397.976778	2573.511559
398.359466	2576.412743
398.742092	2574.234965
399.124656	2578.736715
399.507158	2575.296127
399.889598	2576.712692
400.271977	2577.562126
400.654294	2579.462641
401.036549	2580.755697
401.418742	2580.518763
401.800874	2581.400965
402.182944	2578.971129
402.564952	2580.443146
402.946898	2577.768813
403.328783	2579.213104
403.710606	2583.661922
404.092367	2578.025912
404.474067	2581.572364
404.855705	2580.919535
405.237282	2577.617579
405.618797	2580.768300
406.000250	2580.559092
406.381642	2582.782241
406.762972	2580.612024
407.144240	2580.740574
407.525447	2583.840883
407.906593	2584.103023
408.287677	2583.210739
408.668700	2582.053794
409.049661	2583.452714
409.430560	2581.852148
409.811399	2583.467838
410.192176	2583.457756
410.572891	2581.146387
410.953545	2585.219639
411.334138	2582.288208
411.714669	2585.123857
412.095139	2583.049422
412.475547	2584.957499
412.855894	2582.694021
413.236180	2583.470358
413.616405	2585.270050
413.996568	2584.420616
414.376670	2587.062181
414.756711	2583.795513
415.136691	2586.525298
415.516609	2584.972622
415.896466	2583.430029
416.276262	2586.341296
416.655997	2580.874164
417.035670	2579.041705
417.415283	2583.364494
417.794834	2583.745101
418.174324	2583.452714
418.553753	2587.735175
418.933121	2586.631162
419.312428	2586.890781
419.691674	2587.059660
420.070859	2589.267685
420.449983	2585.590164
420.829045	2586.164855
421.208047	2588.854311
421.586988	2586.900864
421.965867	2588.965216
422.344686	2591.004363
422.723444	2587.919177
423.102141	2589.396235
423.480777	2589.486976
423.859352	2587.551172
424.237866	2588.952613
424.616319	2589.184506
424.994712	2587.412541
425.373044	2590.686770
425.751314	2587.193251
426.129524	2587.778024
426.507673	2590.119640
426.885762	2590.079311
427.263789	2590.283478
427.641756	2590.472521
428.019662	2591.047213
428.397508	2588.632500
428.775292	2589.686101
429.153016	2590.515371
429.530679	2589.761718
429.908282	2592.292378
430.285824	2591.548807
430.663305	2591.059816
431.040726	2591.445464
431.418086	2591.483272
431.795385	2591.818509
432.172624	2591.808427
432.549802	2592.957810
432.926920	2591.062336
433.303977	2593.439240
433.680974	2589.781883
434.057910	2591.999991
434.434786	2593.066195
434.811601	2590.817840
435.188355	2590.868252
435.565050	2592.983016
435.941683	2591.611822
436.318257	2589.600402
436.694770	2588.604774
437.071222	2588.647623
437.447614	2589.189547
437.823946	2589.348344
438.200218	2593.804724
438.576429	2594.888572
438.952580	2591.145515
439.328670	2593.376226
439.704700	2592.010073
440.080670	2592.330186
440.456580	2594.334045
440.832429	2594.946545
441.208218	2591.813468
441.583947	2597.164653
441.959616	2592.781370
442.335224	2595.654827
442.710773	2596.088367
443.086261	2594.346648
443.461689	2594.588623
443.837057	2594.008891
444.212365	2595.218767
444.587612	2598.374530
444.962800	2596.726072
445.337927	2598.997112
445.712995	2594.523088
446.088002	2596.423603
446.462949	2595.433017
446.837837	2594.704570
447.212664	2598.303954
447.587431	2596.773963
447.962139	2597.444437
448.336786	2597.540219
448.711374	2596.748758
449.085901	2599.266814
449.460369	2597.774632
449.834776	2597.149529
450.209124	2597.451999
450.583412	2599.400405
450.957640	2597.971237
451.331808	2598.193048
451.705917	2597.124324
452.079965	2599.433172
452.453954	2599.339911
452.827883	2601.643718
453.201752	2600.721187
453.575562	2600.506938
453.949311	2601.895776
454.323001	2598.452668
454.696632	2599.294540
455.070202	2599.965014
455.443713	2600.307812
455.817164	2597.746906
456.190556	2600.179263
456.563888	2598.682040
456.937160	2598.326639
457.310373	2601.767226
457.683526	2604.953236
458.056619	2599.458378
458.429653	2602.258739
458.802628	2605.119594
459.175542	2603.125817
459.548398	2603.534151
459.921194	2605.311157
460.293930	2604.991044
460.666607	2604.363421
461.039224	2605.926178
461.411782	2606.631940
461.784280	2606.526076
462.156719	2608.640840
462.529099	2607.657815
462.901419	2606.515993
463.273680	2608.968515
463.645882	2609.618823
464.018024	2608.514811
464.390106	2608.502208
464.762130	2608.426591
465.134094	2609.296190
465.505999	2611.141252
465.877845	2612.618310
466.249631	2615.887498
466.621358	2616.235338
466.993026	2618.148456
467.364634	2618.796244
467.736184	2615.854731
468.107674	2612.467075
468.479105	2609.351642
468.850477	2615.211984
469.221790	2613.470265
469.593043	2610.674945
469.964238	2610.586725
470.335373	2611.804164
470.706449	2613.855913
471.077467	2616.696603
471.448425	2619.796913
471.819324	2618.884464
472.190164	2620.822788
472.560945	2619.466717
472.931667	2618.297170
473.302330	2615.370780
473.672934	2619.592746
474.043479	2620.187602
474.413965	2619.249948
474.784393	2613.770214
475.154761	2615.809360
475.525070	2617.372118
475.895321	2617.455297
476.265513	2615.522015
476.635645	2622.325052
477.005719	2624.911164
477.375734	2622.922428
477.745691	2624.447377
478.115588	2625.889147
478.485427	2626.962913
478.855207	2634.391053
479.224928	2631.406690
479.594591	2636.747793
479.964194	2636.934316
480.333739	2641.355407
480.703226	2640.700057
481.072653	2642.182157
481.442022	2643.593680
481.811333	2646.570481
482.180584	2647.281284
482.549777	2645.947899
482.918912	2649.146511
483.287988	2650.575678
483.657005	2652.264464
484.025964	2651.016779
484.394864	2653.970895
484.763706	2657.809734
485.132489	2660.463901
485.501213	2660.771412
485.869879	2662.732420
486.238487	2662.984478
486.607036	2668.093687
486.975527	2670.503359
487.343959	2672.192146
487.712333	2674.674914
488.080648	2678.715399
488.448905	2686.236800
488.817104	2688.104548
489.185244	2696.533357
489.553326	2700.672144
489.921350	2715.077241
490.289315	2729.399159
490.657222	2738.495922
491.025070	2747.186871
491.392861	2754.937645
491.760593	2757.944693
492.128267	2758.857142
492.495883	2757.664909
492.863440	2763.106835
493.230939	2765.824017
493.598380	2768.626898
493.965763	2773.761313
494.333088	2777.605193
494.700354	2785.885288
495.067563	2797.686629
495.434713	2805.833134
495.801805	2820.921307
496.168839	2829.670230
496.535815	2839.934019
496.902733	2852.985567
497.269593	2862.273892
497.636395	2873.626571
498.003139	2887.978736
498.369825	2900.087588
498.736453	2916.766245
499.103023	2929.623708
499.469535	2943.272632
499.835989	2963.074284
500.202385	2976.962663
500.568723	2994.016887
500.935003	3011.348373
501.301226	3031.578524
501.667390	3058.712534
502.033497	3079.003179
502.399546	3095.465067
502.765537	3108.645163
503.131470	3135.270017
503.497345	3166.759585
503.863163	3168.224040
504.228923	3201.538505
504.594625	3234.361458
504.960269	3248.764034
505.325856	3286.451701
505.691385	3300.113228
506.056856	3332.442147
506.422270	3367.873897
506.787625	3389.074469
507.152924	3423.956733
507.518164	3456.459573
507.883347	3473.929692
508.248472	3508.585104
508.613540	3554.557906
508.978550	3592.472424
509.343503	3625.179430
509.708398	3663.449350
510.073236	3713.129921
510.438016	3751.319182
510.802738	3777.891104
511.167403	3827.760718
511.532010	3876.609499
511.896561	3930.267541
512.261053	4002.361082
512.625488	4027.357643
512.989866	4066.025814
513.354186	4105.092235
513.718449	4151.798526
514.082655	4220.726222
514.446803	4259.838014
514.810894	4324.150535
515.174927	4373.692474
515.538904	4419.723250
515.902822	4501.964634
516.266684	4526.056308
516.630488	4594.827729
516.994235	4650.061131
517.357925	4724.536617
517.721558	4791.049601
518.085133	4858.379252
518.448651	4920.972738
518.812112	4969.834122
519.175516	5030.411147
519.538863	5109.907623
519.902152	5168.238814
520.265385	5254.379530
520.628560	5321.273121
520.991678	5366.439339
521.354739	5446.878511
521.717743	5525.875912
522.080690	5585.031332
522.443580	5687.321384
522.806413	5757.224544
523.169189	5822.515048
523.531908	5904.103603
523.894569	5959.493281
524.257174	6027.102715
524.619722	6132.593901
524.982213	6195.802408
525.344647	6261.486122
525.707025	6332.667215
526.069345	6440.247958
526.431608	6497.787688
526.793815	6596.062462
527.155964	6631.499253
527.518057	6710.191664
527.880093	6767.486898
528.242072	6881.154835
528.603995	6921.191679
528.965860	7003.496077
529.327669	7083.463901
529.689421	7135.876777
530.051117	7205.732046
530.412755	7300.225955
530.774337	7370.711368
531.135862	7424.858401
531.497331	7522.477825
531.858743	7578.454797
532.220098	7691.134668
532.581396	7732.641008
532.942638	7762.918178
533.303824	7866.327367
533.664953	7927.214423
534.026025	7979.551682
534.387040	8100.471319
534.747999	8152.095255
535.108902	8254.521419
535.469748	8257.858663
535.830537	8337.886980
536.191270	8435.511445
536.551947	8464.619067
536.912567	8567.584634
537.273131	8654.040423
537.633638	8653.848859
537.994089	8749.421574
538.354483	8769.976879
538.714821	8905.720029
539.075103	9019.761011
539.435328	9052.825939
539.795497	9093.341693
540.155609	9161.513216
540.515665	9291.761508
540.875665	9265.789483
541.235609	9389.443946
541.595496	9428.737220
541.955328	9604.229867
542.315102	9566.055730
542.674821	9587.972146
543.034483	9658.946551
543.394090	9723.748063
543.753640	9761.544114
544.113134	9984.416046
544.472571	9888.593794
544.831953	10134.571855
545.191278	10064.300691
545.550548	10073.268903
545.909761	10207.083812
546.268918	10290.295618
546.628019	10395.151618
546.987064	10381.099401
547.346053	10312.481736
547.704986	10508.416262
548.063863	10473.818823
548.422684	10560.753522
548.781449	10585.147665
549.140158	10710.611902
549.498811	10718.433252
549.857408	10666.196816
550.215949	10860.848369
550.574434	10892.738708
550.932864	10891.680066
551.291237	11090.291445
551.649555	11051.857688
552.007817	11141.653241
552.366022	11113.702563
552.724173	11193.995541
553.082267	11303.837243
553.440305	11416.018039
553.798288	11322.774337
554.156215	11416.252453
554.514086	11490.312044
554.871902	11491.022847
555.229661	11543.254242
555.587365	11541.504961
555.945014	11582.749161
556.302606	11605.431833
556.660143	11692.694206
557.017625	11757.357087
557.375050	11746.652196
557.732421	11873.326310
558.089735	11910.517423
558.446994	11915.394739
558.804197	12043.203112
559.161345	12071.985580
559.518437	11939.045312
559.875474	12048.592106
560.232455	12105.776435
560.589381	12179.591530
560.946251	12148.530460
561.303065	12329.979231
561.659825	12310.943834
562.016528	12264.025816
562.373177	12235.966753
562.729770	12367.009027
563.086307	12292.727625
563.442789	12408.538052
563.799216	12463.852113
564.155587	12431.858430
564.511904	12473.750418
564.868164	12509.409020
565.224370	12585.631266
565.580520	12559.765106
565.936615	12631.135242
566.292654	12595.388420
566.648638	12678.174248
567.004567	12692.002133
567.360441	12708.751367
567.716260	12705.472096
568.072023	12806.315338
568.427732	12804.150162
568.783385	12723.375754
569.138982	12845.170031
569.494525	12852.068850
569.850013	12822.247904
570.205445	12827.326867
570.560823	12865.687527
570.916145	12818.814879
571.271412	12837.048732
571.626625	12811.933704
571.981782	12817.955362
572.336884	12780.207202
572.691931	12878.081204
573.046923	12775.556738
573.401860	12771.498609
573.756743	12778.959516
574.111570	12818.023418
574.466342	12794.153554
574.821059	12851.257224
575.175722	12738.600039
575.530330	12770.765121
575.884882	12699.982280
576.239380	12717.389384
576.593823	12694.419366
576.948211	12705.923279
577.302544	12595.048142
577.656823	12622.691309
578.011047	12686.373685
578.365216	12631.364614
578.719330	12590.553953
579.073389	12561.090929
579.427394	12573.711458
579.781344	12572.206674
580.135239	12508.940193
580.489080	12528.041125
580.842866	12414.353023
581.196597	12506.596056
581.550273	12502.512722
581.903895	12474.390645
582.257463	12578.308990
582.610975	12443.763115
582.964434	12498.517607
583.317837	12427.802822
583.671186	12385.842778
584.024481	12428.901793
584.377721	12331.133656
584.730906	12407.421437
585.084037	12417.972572
585.437113	12340.742095
585.790135	12376.798948
586.143103	12281.642128
586.496016	12301.126187
586.848874	12314.444916
587.201679	12314.185296
587.554428	12187.329701
587.907124	12240.894481
588.259765	12183.911799
588.612352	12250.024011
588.964884	12110.731889
589.317362	12176.458453
589.669786	12156.140082
590.022155	12125.419291
590.374470	12223.104249
590.726731	12110.217691
591.078937	11996.340546
591.431090	12015.330573
591.783188	11955.532406
592.135232	11880.749409
592.487222	11940.192175
592.839157	11961.775875
593.191038	11887.222251
593.542866	11834.650578
593.894639	11700.863396
594.246358	11759.300451
594.598022	11767.651123
594.949633	11669.215032
595.301190	11665.116574
595.652692	11616.557660
596.004141	11698.431039
596.355535	11481.658903
596.706876	11465.524690
597.058162	11432.926069
597.409395	11531.828466
597.760573	11556.394009
598.111698	11453.471292
598.462768	11455.192846
598.813785	11469.668519
599.164748	11339.458036
599.515657	11416.960735
599.866511	11292.368617
600.217312	11429.253588
600.568060	11194.091323
600.918753	11356.988648
601.269392	11350.677123
601.619978	11264.899370
601.970510	11299.753908
602.320988	11343.541370
602.671412	11409.068808
603.021783	11336.577016
603.372100	11260.667322
603.722363	11276.922522
604.072572	11281.880497
604.422728	11295.547065
604.772830	11232.333516
605.122878	11241.929353
605.472872	11220.466640
605.822813	11272.304825
606.172701	11230.138094
606.522534	11277.265321
606.872314	11331.245996
607.222041	11253.730694
607.571714	11337.718838
607.921333	11204.138343
608.270899	11262.451890
608.620411	11324.788278
608.969870	11270.946234
609.319276	11253.786147
609.668627	11267.798034
610.017926	11348.148985
610.367171	11379.126875
610.716362	11366.755884
611.065500	11339.831081
611.414585	11354.384892
611.763616	11424.202352
612.112594	11385.143492
612.461518	11416.958214
612.810389	11456.269132
613.159207	11402.825339
613.507971	11399.440205
613.856682	11498.932417
614.205340	11452.115221
614.553945	11589.370717
614.902496	11457.635285
615.250994	11527.092302
615.599439	11515.714418
615.947830	11554.052393
616.296169	11522.756910
616.644454	11536.410875
616.992686	11560.525235
617.340864	11638.300156
617.688990	11525.411077
618.037063	11665.066163
618.385082	11629.841100
618.733048	11675.251814
619.080961	11669.782162
619.428821	11637.697738
619.776628	11650.245170
620.124382	11603.367481
620.472083	11626.534103
620.819731	11639.764611
621.167326	11560.747045
621.514868	11546.243646
621.862357	11453.342742
622.209793	11449.806373
622.557176	11362.049967
622.904506	11303.996039
623.251783	11229.346633
623.599007	11164.769452
623.946179	11110.662748
624.293297	11091.685324
624.640363	10961.217742
624.987376	10945.418766
625.334336	10882.858047
625.681243	10791.449324
626.028097	10769.144739
626.374899	10726.529345
626.721647	10704.191993
627.068343	10665.879223
627.414987	10603.061405
627.761577	10531.693790
628.108115	10578.692467
628.454600	10451.738570
628.801032	10472.550973
629.147412	10450.710174
629.493739	10420.559033
629.840014	10337.637093
630.186236	10388.961081
630.532405	10294.361308
630.878521	10319.856944
631.224585	10283.026274
631.570597	10202.398059
631.916556	10212.422394
632.262462	10199.327997
632.608316	10180.499287
632.954117	10161.456328
633.299866	10135.751485
633.645562	10116.809349
633.991206	10015.197332
634.336797	9914.280993
634.682336	9903.026618
635.027823	9847.011837
635.373257	9815.020674
635.718639	9750.725798
636.063968	9717.567609
636.409245	9600.852294
636.754470	9585.907794
637.099642	9534.036841
637.444762	9440.465464
637.789829	9442.852450
638.134845	9367.877890
638.479808	9345.301082
638.824719	9310.426380
639.169577	9225.051919
639.514383	9226.881858
639.859137	9159.383328
640.203839	9191.429943
640.548489	9109.722922
640.893086	9121.990570
641.237632	9051.820229
641.582125	9060.158297
641.926566	9043.882932
642.270955	9034.007312
642.615292	9021.953913
642.959576	9005.819700
643.303809	8996.894337
643.647990	9015.249178
643.992118	8991.553235
644.336195	8962.891754
644.680219	8958.989901
645.024192	8994.323349
645.368112	9070.328825
645.711981	9049.816370
646.055797	9188.160755
646.399562	9143.932192
646.743274	9303.580493
647.086935	9375.374086
647.430544	9347.252009
647.774101	9370.786636
648.117606	9395.498372
648.461059	9461.608063
648.804460	9389.401096
649.147810	9282.392523
649.491108	9240.687058
649.834354	9179.116925
650.177548	9031.290130
650.520690	8946.664280
650.863781	8937.688506
651.206820	8914.549610
651.549807	8820.637955
651.892742	8731.953976
652.235626	8687.581740
652.578458	8647.653281
652.921238	8544.221407
653.263967	8582.927386
653.606644	8512.119339
653.949269	8503.234306
654.291843	8420.196419
654.634365	8485.814598
654.976836	8407.626302
655.319255	8403.449706
655.661622	8394.846977
656.003938	8356.778704
656.346203	8314.801016
656.688416	8346.575409
657.030577	8305.530334
657.372687	8264.177749
657.714746	8296.138664
658.056753	8323.295360
658.398708	8217.199236
658.740612	8210.343267
659.082465	8256.253055
659.424266	8205.536527
659.766016	8224.738282
660.107715	8197.145526
660.449362	8215.981798
660.790958	8213.567085
661.132503	8207.888225
661.473996	8203.139458
661.815438	8221.867345
662.156829	8255.585102
662.498168	8191.358282
662.839456	8197.763068
663.180693	8216.611942
663.521879	8234.313954
663.863013	8218.769556
664.204097	8215.994401
664.545129	8290.742109
664.886110	8281.789020
665.227040	8280.160727
665.567918	8289.033158
665.908746	8306.394892
666.249522	8325.853746
666.590248	8322.561872
666.930922	8334.159047
667.271545	8331.199889
667.612118	8340.770520
667.952639	8310.710120
668.293109	8314.092734
668.633528	8293.812172
668.973896	8276.629399
669.314213	8277.713247
669.654480	8235.644818
669.994695	8229.038386
670.334859	8211.119605
670.674973	8193.452881
671.015035	8219.334165
671.355047	8205.546609
671.695008	8189.266203
672.034918	8169.031011
672.374777	8172.305241
672.714585	8153.942838
673.054342	8180.476951
673.394049	8143.696693
673.733705	8182.473248
674.073310	8137.133110
674.412864	8144.949419
674.752368	8080.745284
675.091820	8139.331053
675.431223	8059.895072
675.770574	8016.127774
676.109875	7982.677198
676.449125	7944.916435
676.788324	7933.629291
677.127473	7840.534303
677.466571	7825.219278
677.805619	7776.307483
678.144616	7769.630474
678.483562	7753.133298
678.822458	7701.262346
679.161303	7683.925818
679.500098	7666.846389
679.838842	7648.660426
680.177535	7661.374216
680.516179	7695.182714
680.854771	7711.049746
681.193314	7828.128024
681.531805	7986.115265
681.870247	8101.822348
682.208638	8251.731140
682.546978	8332.538316
682.885268	8366.455199
683.223508	8292.970299
683.561697	8239.337463
683.899836	8207.452165
684.237925	8118.097713
684.575963	8096.614836
684.913951	8013.065273
685.251889	8028.483642
685.589776	8027.538426
685.927614	8003.413984
686.265401	8035.158130
686.603137	8037.918162
686.940824	8108.476671
687.278460	8157.683374
687.616046	8170.674427
687.953582	8276.808360
688.291068	8256.825226
688.628504	8317.987025
688.965889	8326.158736
689.303224	8282.033516
689.640510	8236.549705
689.977745	8126.002243
690.314930	8013.360181
690.652065	7939.779499
690.989150	7823.396901
691.326185	7679.018255
691.663170	7562.330667
692.000105	7445.504447
692.336990	7323.062382
692.673825	7249.519509
693.010610	7155.229767
693.347345	7058.343831
693.684030	6946.125226
694.020665	6901.652167
694.357251	6789.622605
694.693786	6772.840604
695.030272	6735.568833
695.366707	6644.868393
695.703093	6592.505928
696.039429	6585.113076
696.375716	6543.052209
696.711952	6531.210538
697.048139	6505.430077
697.384276	6469.743749
697.720363	6488.146482
698.056400	6464.158151
698.392388	6431.272184
698.728326	6431.163799
699.064214	6410.868114
699.400053	6396.203397
699.735842	6342.053843
700.071581	6299.191432
700.407270	6251.484473
700.742910	6225.646039
701.078501	6177.371950
701.414042	6132.813191
701.749533	6080.032310
702.084974	6026.492736
702.420366	6065.483540
702.755709	5990.884546
703.091002	5941.335044
703.426246	5947.228153
703.761440	5933.433036
704.096584	5885.794132
704.431679	5874.141505
704.766725	5858.037539
705.101721	5841.999108
705.436668	5859.257498
705.771565	5808.188089
706.106413	5863.000555
706.441212	5853.848340
706.775961	5872.583788
707.110661	5886.124328
707.445311	5943.066681
707.779913	5911.199027
708.114465	5948.826199
708.448967	5991.905379
708.783421	6106.402586
709.117825	6152.314895
709.452180	6182.710532
709.786485	6245.576241
710.120742	6369.024016
710.454949	6380.041458
710.789107	6458.776719
711.123216	6574.529173
711.457275	6610.336489
711.791286	6712.538322
712.125247	6739.316931
712.459159	6706.199071
712.793023	6837.536252
713.126837	6666.681466
713.460602	6722.988633
713.794318	6679.836357
714.127985	6626.616895
714.461602	6481.103990
714.795171	6485.368806
715.128691	6312.563093
715.462162	6231.395475
715.795584	6161.162120
716.128957	6114.254183
716.462281	6051.136416
716.795556	6009.496486
717.128782	5927.083703
717.461960	5824.649977
717.795088	5818.640922
718.128167	5747.353965
718.461198	5667.534856
718.794180	5645.507534
719.127113	5581.061423
719.459997	5550.030601
719.792833	5481.841433
720.125619	5483.235312
720.458357	5422.292803
720.791046	5394.087548
721.123686	5362.776941
721.456278	5318.263553
721.788821	5313.693747
722.121315	5270.581799
722.453761	5280.775012
722.786158	5263.403196
723.118506	5265.056694
723.450805	5240.128188
723.783056	5266.737919
724.115259	5245.580196
724.447412	5234.403958
724.779518	5284.583604
725.111574	5285.843892
725.443582	5319.362524
725.775542	5306.321059
726.107453	5396.424122
726.439315	5366.575450
726.771129	5439.576399
727.102895	5502.333723
727.434612	5547.192431
727.766281	5577.477163
728.097901	5632.292149
728.429473	5648.522144
728.760996	5655.121014
729.092471	5676.412327
729.423897	5661.999669
729.755276	5640.327748
730.086606	5651.748482
730.417887	5742.322893
730.749120	5830.835473
731.080305	5874.277616
731.411442	5944.324449
731.742530	5968.406041
732.073570	5996.245813
732.404562	6057.914248
732.735506	6048.699018
733.066401	6025.207242
733.397249	5965.799764
733.728048	5869.377614
734.058798	5720.905551
734.389501	5601.387355
734.720156	5513.210013
735.050762	5406.677829
735.381320	5333.749977
735.711831	5275.081029
736.042293	5194.727557
736.372707	5195.115726
736.703073	5146.612264
737.033391	5179.520916
737.363661	5161.992824
737.693883	5177.025545
738.024056	5197.149831
738.354182	5225.390375
738.684260	5274.148415
739.014290	5317.477133
739.344272	5343.691133
739.674207	5397.878495
740.004093	5434.376449
740.333931	5439.188230
740.663722	5460.479544
740.993464	5466.725533
741.323159	5448.037976
741.652806	5408.248149
741.982405	5379.914343
742.311956	5324.570036
742.641460	5311.493283
742.970915	5262.258854
743.300323	5198.770562
743.629683	5165.783772
743.958996	5114.109425
744.288260	5069.018824
744.617477	5003.554400
744.946647	4993.267926
745.275768	4935.667702
745.604842	4900.293925
745.933869	4871.851735
746.262847	4865.454511
746.591778	4851.314075
746.920662	4827.726516
747.249498	4820.739477
747.578286	4840.115151
747.907027	4869.215212
748.235720	4906.136623
748.564365	4911.780194
748.892963	4897.763266
749.221514	4918.736987
749.550017	4891.502153
749.878473	4891.824787
750.206881	4853.658211
750.535242	4838.920398
750.863555	4825.493285
751.191821	4801.976302
751.520039	4808.784380
751.848210	4792.509015
752.176334	4797.701403
752.504411	4777.635091
752.832440	4751.537037
753.160421	4760.966515
753.488356	4741.946242
753.816243	4722.961257
754.144082	4692.794992
754.471875	4675.302188
754.799620	4669.749357
755.127318	4661.600332
755.454969	4654.023478
755.782572	4650.197242
756.110129	4651.613806
756.437638	4636.074449
756.765100	4631.991115
757.092515	4634.882217
757.419882	4637.087721
757.747203	4636.316425
758.074477	4646.098784
758.401703	4638.516888
758.728882	4673.018545
759.056014	4680.842416
759.383099	4703.351168
759.710138	4730.684304
760.037129	4752.126852
760.364073	4763.572792
760.690970	4763.439201
761.017820	4758.342595
761.344623	4797.595539
761.671379	4859.329509
761.998088	4946.775884
762.324751	5174.250390
762.651366	5633.721316
762.977935	6329.292162
763.304456	6884.068622
763.630931	7185.007863
763.957359	7117.844570
764.283740	6823.090825
764.610074	6505.750191
764.936362	6104.741526
765.262602	5787.526920
765.588796	5442.316266
765.914943	5191.397875
766.241044	4966.776662
766.567097	4798.089572
766.893104	4646.108866
767.219064	4550.788209
767.544978	4453.491419
767.870845	4369.306670
768.196665	4323.026357
768.522438	4271.556177
768.848165	4232.767018
769.173846	4192.460473
769.499479	4162.979805
769.825066	4128.901605
770.150607	4090.755194
770.476101	4074.164757
770.801548	4050.690624
771.126949	4025.356305
771.452303	4004.647245
771.777611	3964.633086
772.102872	3962.944300
772.428087	3935.502779
772.753256	3906.861463
773.078378	3890.855800
773.403453	3860.949155
773.728482	3836.542408
774.053465	3820.778720
774.378401	3801.093014
774.703291	3778.617030
775.028135	3752.561826
775.352932	3747.072010
775.677683	3728.578537
776.002388	3703.307233
776.327046	3707.178839
776.651658	3687.750232
776.976224	3670.733817
777.300743	3668.276255
777.625216	3649.805467
777.949643	3646.319509
778.274024	3648.656084
778.598359	3628.294863
778.922647	3627.881489
779.246889	3617.852113
779.571086	3621.514512
779.895236	3617.562247
780.219339	3615.646608
780.543397	3614.512349
780.867409	3633.572952
781.191374	3630.018938
781.515294	3626.306128
781.839167	3640.128972
782.162995	3636.532109
782.486776	3630.916263
782.810511	3623.082310
783.134201	3608.848612
783.457844	3607.815176
783.781441	3601.430555
784.104993	3594.284719
784.428498	3586.705344
784.751958	3585.399685
785.075372	3582.122935
785.398739	3569.192376
785.722061	3574.959456
786.045337	3575.380392
786.368568	3597.778239
786.691752	3598.350410
787.014891	3640.489415
787.337983	3685.070859
787.661030	3777.442441
787.984031	3872.049775
788.306987	3949.471816
788.629897	3996.034434
788.952760	4003.056761
789.275579	3989.438084
789.598351	3937.809107
789.921078	3884.846744
790.243759	3823.294256
790.566395	3778.891773
790.888984	3732.142633
791.211529	3694.480172
791.534027	3653.321672
791.856480	3610.716360
792.178888	3591.481837
792.501249	3572.852253
792.823566	3540.437634
793.145836	3534.652910
793.468062	3523.325437
793.790241	3512.192049
794.112375	3516.494674
794.434464	3540.059548
794.756507	3538.774053
795.078505	3552.213770
795.400457	3591.592743
795.722364	3642.246257
796.044226	3691.820964
796.366042	3737.637490
796.687812	3731.527612
797.009538	3756.869492
797.331218	3747.606372
797.652852	3739.124631
797.974442	3716.739387
798.295986	3706.798232
798.617484	3676.962163
798.938938	3654.070283
799.260346	3638.848519
799.581709	3605.052624
799.903026	3589.084769
800.224299	3573.981472
800.545526	3541.932336
800.866708	3524.633617
801.187845	3511.425794
801.508936	3489.630365
801.829983	3480.866319
802.150984	3453.394551
802.471940	3444.234775
802.792851	3433.718928
803.113717	3430.895882
803.434538	3422.164603
803.755314	3411.487439
804.076045	3405.947211
804.396731	3393.651837
804.717372	3395.635531
805.037967	3392.154614
805.358518	3400.495203
805.679024	3406.595000
805.999485	3406.799166
806.319901	3408.757655
806.640272	3411.164806
806.960598	3422.721651
807.280879	3425.481682
807.601115	3431.004267
807.921306	3425.332968
808.241453	3424.324738
808.561554	3437.411573
808.881611	3430.918567
809.201623	3434.611212
809.521590	3425.857248
809.841513	3425.022938
810.161390	3430.399328
810.481223	3408.888725
810.801011	3406.312695
811.120755	3407.517531
811.440453	3391.743760
811.760107	3385.596073
812.079716	3382.815877
812.399281	3369.298023
812.718801	3369.330790
813.038276	3361.527084
813.357707	3354.877802
813.677093	3364.231663
813.996434	3346.678366
814.315731	3356.145653
814.634983	3353.246989
814.954191	3352.982328
815.273354	3369.797097
815.592473	3380.174312
815.911547	3399.053433
816.230577	3412.021802
816.549562	3441.595731
816.868502	3457.906384
817.187399	3478.010506
817.506250	3504.882376
817.825058	3515.436032
818.143821	3558.106878
818.462539	3600.356789
818.781213	3658.382990
819.099843	3744.443048
819.418429	3892.695821
819.736970	4044.792474
820.055466	4231.433633
820.373919	4471.258966
820.692327	4803.965037
821.010691	5314.759951
821.329011	6392.992182
821.647286	8121.263558
821.965517	10273.843812
822.283704	11884.560522
822.601847	12947.414713
822.919945	12543.948486
823.237999	11868.706093
823.556010	10984.891000
823.873976	10035.251042
824.191897	9072.957787
824.509775	8313.870923
824.827609	7516.415837
825.145398	6964.810263
825.463144	6592.110197
825.780845	6460.107584
826.098502	6522.789291
826.416116	6897.692341
826.733685	7399.269504
827.051210	7678.131012
827.368692	7584.844460
827.686129	7148.633417
828.003522	6600.602021
828.320872	6038.243665
828.638177	5582.712401
828.955439	5220.205548
829.272656	4880.399012
829.589830	4603.785859
829.906960	4338.464891
830.224046	4132.289260
830.541088	3964.502016
830.858086	3848.197556
831.175041	3752.740787
831.491952	3710.001885
831.808819	3691.105120
832.125642	3726.398238
832.442421	3826.190399
832.759157	4044.860529
833.075849	4417.096809
833.392497	4881.296337
833.709101	5268.041057
834.025662	5371.389752
834.342179	5242.792438
834.658653	4976.526254
834.975083	4703.509964
835.291469	4460.065083
835.607811	4240.177514
835.924110	4082.313782
836.240366	3925.831325
836.556578	3766.341820
836.872746	3628.715800
837.188871	3515.617513
837.504952	3422.464552
837.820990	3351.278418
838.136984	3296.254224
838.452935	3265.697270
838.768842	3246.911410
839.084706	3284.173099
839.400526	3419.792740
839.716303	3645.396978
840.032037	3854.693083
840.347727	3918.289759
840.663373	3824.436077
840.978977	3681.889891
841.294537	3549.325188
841.610054	3442.034311
841.925527	3366.893393
842.240957	3302.986685
842.556344	3239.155595
842.871687	3181.875485
843.186987	3116.751339
843.502244	3067.302661
843.817458	3025.418234
844.132629	2995.957731
844.447756	2974.618527
844.762840	2951.658591
845.077881	2933.213009
845.392879	2922.203129
845.707833	2910.610996
846.022745	2900.390057
846.337613	2896.241187
846.652438	2884.787686
846.967221	2881.924310
847.281960	2871.277393
847.596656	2870.238916
847.911309	2865.419572
848.225919	2860.716176
848.540485	2857.416741
848.855009	2853.524970
849.169490	2850.154959
849.483928	2847.089937
849.798323	2842.588187
850.112675	2840.407888
850.426984	2842.666325
850.741251	2839.097188
851.055474	2835.858246
851.369654	2838.373782
851.683792	2838.005778
851.997887	2835.540654
852.311938	2833.191476
852.625947	2835.384378
852.939914	2832.836075
853.253837	2837.050479
853.567718	2836.080057
853.881555	2832.654593
854.195350	2835.018894
854.509103	2833.183914
854.822812	2833.199038
855.136479	2828.989674
855.450103	2833.463698
855.763685	2831.306084
856.077224	2831.152329
856.390720	2830.706187
856.704173	2836.700119
857.017584	2834.411435
857.330953	2838.928309
857.644278	2842.144565
857.957561	2845.905266
858.270802	2844.730677
858.584000	2846.106912
858.897155	2843.508197
859.210268	2839.918896
859.523339	2840.110460
859.836367	2841.025429
860.149352	2837.733556
860.462295	2838.562825
860.775195	2833.002433
861.088054	2829.579489
861.400869	2827.716783
861.713642	2830.360868
862.026373	2827.038748
862.339062	2832.198369
862.651708	2835.364213
862.964312	2840.347394
863.276873	2841.547188
863.589392	2851.130422
863.901869	2852.862058
864.214303	2863.153574
864.526696	2873.639174
864.839045	2880.732077
865.151353	2883.887840
865.463619	2888.429919
865.775842	2888.744991
866.088023	2890.217008
866.400162	2889.596946
866.712258	2892.445198
867.024313	2895.560631
867.336325	2897.614902
867.648296	2899.059192
867.960224	2896.271434
868.272110	2900.546333
868.583954	2901.960376
868.895755	2905.222003
869.207515	2902.983730
869.519233	2909.958167
869.830909	2907.581263
870.142542	2914.016296
870.454134	2916.047881
870.765684	2919.798499
871.077191	2927.624890
871.388657	2933.175201
871.700081	2937.896241
872.011463	2943.993517
872.322803	2949.992490
872.634101	2957.677729
872.945357	2960.823409
873.256571	2972.781026
873.567744	2979.130359
873.878874	2985.134373
874.189963	2991.559324
874.501010	2994.047133
874.812015	2994.238697
875.122979	3003.224554
875.433900	3004.096674
875.744780	3007.862416
876.055618	3011.466841
876.366415	3013.891636
876.677169	3020.160310
876.987882	3026.297915
877.298554	3032.309491
877.609183	3050.606359
877.919771	3067.403484
878.230317	3089.761001
878.540822	3129.260962
878.851285	3178.744928
879.161707	3245.046183
879.472087	3349.816484
879.782425	3508.927902
880.092722	3783.973256
880.402977	4202.015980
880.713191	4737.058843
881.023363	5332.567827
881.333494	5770.099651
881.643583	6052.363937
881.953631	6127.144413
882.263637	6074.159366
882.573602	5931.167037
882.883526	5765.991111
883.193408	5567.460390
883.503248	5349.201114
883.813048	5134.274040
884.122806	4915.394702
884.432522	4677.714380
884.742197	4452.684834
885.051831	4250.703444
885.361424	4051.668607
885.670975	3886.404461
885.980485	3740.684868
886.289954	3618.792288
886.599382	3515.950229
886.908768	3433.653393
887.218113	3352.379911
887.527417	3293.496713
887.836680	3235.057137
888.145901	3185.578212
888.455082	3152.689724
888.764221	3119.208901
889.073319	3087.447111
889.382376	3067.499266
889.691392	3050.997048
890.000366	3044.859444
890.309300	3037.708567
890.618193	3031.875952
890.927044	3028.450488
891.235855	3029.708256
891.544625	3032.652290
891.853353	3040.072868
892.162041	3054.157852
892.470687	3078.247006
892.779293	3114.011472
893.087858	3159.898574
893.396381	3233.305336
893.704864	3341.070082
894.013306	3495.110099
894.321707	3679.656659
894.630068	3832.234742
894.938387	3911.940426
895.246665	3918.279677
895.554903	3858.350440
895.863100	3775.138634
896.171256	3698.886141
896.479371	3626.142291
896.787446	3551.543296
897.095480	3479.724498
897.403473	3427.440171
897.711425	3367.158053
898.019336	3319.609890
898.327207	3266.032507
898.635038	3219.681618
898.942827	3166.575583
899.250576	3129.288688
899.558284	3088.220928
899.865952	3064.323339
900.173579	3032.049872
900.481165	3009.795698
900.788711	2990.099910
901.096216	2978.724546
901.403681	2961.551856
901.711105	2959.074129
902.018489	2949.594239
902.325832	2960.581434
902.633135	2967.112248
902.940397	3005.639267
903.247619	3093.723348
903.554800	3267.907816
903.861941	3541.196328
904.169041	3802.607881
904.476101	3968.229950
904.783121	3989.682580
905.090100	3922.920059
905.397039	3818.726971
905.703938	3715.335426
906.010796	3613.778861
906.317614	3529.899102
906.624391	3444.239816
906.931129	3375.697768
907.237826	3310.616472
907.544483	3240.904876
907.851099	3169.827127
908.157675	3098.842640
908.464211	3026.237421
908.770707	2968.460757
909.077163	2921.295722
909.383578	2887.923283
909.689954	2857.666278
909.996289	2837.302537
910.302584	2829.942452
910.608839	2819.633293
910.915054	2809.583752
911.221229	2803.859522
911.527363	2804.061168
911.833458	2805.805408
912.139513	2806.922023
912.445527	2811.035605
912.751502	2824.364416
913.057436	2836.248936
913.363331	2856.249714
913.669186	2887.479662
913.975000	2922.198088
914.280775	2982.739825
914.586510	3065.228226
914.892205	3173.607992
915.197859	3318.843635
915.503475	3496.173783
915.809050	3671.570649
916.114585	3801.191317
916.420081	3872.795866
916.725536	3903.574631
917.030952	3867.258159
917.336328	3827.710307
917.641665	3780.126856
917.946961	3723.376066
918.252218	3661.213598
918.557435	3590.080397
918.862612	3529.480686
919.167750	3467.126654
919.472848	3394.967578
919.777906	3326.569203
920.082925	3260.179727
920.387904	3187.183820
920.692843	3131.244656
920.997743	3078.776327
921.302603	3032.982485
921.607423	2997.941425
921.912204	2961.914819
922.216946	2938.052517
922.521647	2912.640061
922.826310	2891.424365
923.130932	2872.930892
923.435516	2850.923735
923.740059	2840.889318
924.044564	2823.119251
924.349028	2813.851089
924.653454	2797.585806
924.957840	2785.265226
925.262186	2778.043773
925.566493	2765.892072
925.870761	2750.193919
926.174989	2750.267016
926.479178	2740.063720
926.783328	2731.748337
927.087438	2725.320866
927.391509	2718.936245
927.695541	2714.502550
927.999533	2708.876622
928.303486	2705.960315
928.607400	2701.627443
928.911275	2700.152905
929.215110	2694.295085
929.518906	2690.055474
929.822663	2690.221832
930.126381	2687.703776
930.430060	2689.417768
930.733699	2688.144877
931.037299	2691.305680
931.340861	2690.534384
931.644383	2692.258458
931.947866	2691.507327
932.251309	2689.818540
932.554714	2690.655372
932.858080	2692.137471
933.161407	2688.651513
933.464694	2688.270906
933.767943	2688.192768
934.071153	2684.989115
934.374323	2683.128929
934.677455	2680.764628
934.980548	2681.082220
935.283602	2680.739422
935.586617	2677.122394
935.889593	2681.354443
936.192530	2679.148938
936.495428	2682.902077
936.798287	2684.331244
937.101108	2690.158818
937.403890	2694.244673
937.706632	2703.674151
938.009336	2715.198229
938.312002	2727.233984
938.614628	2739.615058
938.917216	2749.057139
939.219765	2755.928232
939.522275	2761.009715
939.824747	2762.252359
940.127179	2763.893255
940.429573	2763.069026
940.731929	2765.786208
941.034246	2761.276896
941.336524	2765.488780
941.638763	2764.604057
941.940964	2764.215888
942.243126	2756.097110
942.545250	2752.349012
942.847335	2747.673342
943.149381	2740.756879
943.451389	2737.263359
943.753359	2729.986454
944.055290	2724.330279
944.357182	2719.571430
944.659036	2719.248796
944.960851	2716.027499
945.262628	2709.920141
945.564367	2712.823846
945.866067	2710.850234
946.167729	2710.028526
946.469352	2708.720346
946.770937	2707.023998
947.072484	2704.228678
947.373992	2702.436548
947.675462	2704.846220
947.976893	2701.045190
948.278286	2697.443285
948.579641	2698.499407
948.880958	2697.561752
949.182236	2697.198789
949.483476	2696.233408
949.784678	2693.947245
950.085841	2694.302646
950.386967	2695.643593
950.688054	2698.154088
950.989103	2698.824561
951.290114	2702.365972
951.591087	2705.047866
951.892021	2710.499874
952.192917	2718.076728
952.493776	2718.643858
952.794596	2723.001935
953.095378	2726.014025
953.396122	2724.431102
953.696828	2722.170145
953.997496	2722.961606
954.298126	2719.475648
954.598718	2717.759135
954.899272	2713.887529
955.199788	2710.038608
955.500266	2704.170705
955.800706	2697.680219
956.101108	2691.479600
956.401472	2684.243024
956.701798	2679.360666
957.002087	2667.723163
957.302337	2670.987310
957.602550	2661.799807
957.902724	2657.320742
958.202861	2652.642551
958.502960	2646.555358
958.803022	2644.914462
959.103045	2637.420787
959.403031	2635.903400
959.702979	2634.948101
960.002889	2630.227060
960.302762	2628.976854
960.602596	2627.648510
960.902393	2625.090125
961.202153	2624.122223
961.501875	2620.689197
961.801559	2618.551748
962.101205	2616.865482
962.400814	2618.057715
962.700385	2612.449431
962.999918	2611.726026
963.299414	2611.272322
963.598873	2613.739967
963.898293	2612.207456
964.197677	2609.449945
964.497022	2609.233175
964.796331	2609.573453
965.095601	2610.077568
965.394835	2609.427260
965.694030	2609.308792
965.993189	2610.889194
966.292309	2607.788885
966.591393	2606.246292
966.890439	2608.590428
967.189447	2604.834768
967.488419	2607.062958
967.787353	2607.935078
968.086249	2607.937599
968.385108	2609.260902
968.683930	2610.483381
968.982714	2608.832403
969.281462	2609.727208
969.580172	2609.545727
969.878844	2611.030347
970.177480	2611.443721
970.476078	2617.813219
970.774639	2614.370111
971.073162	2617.079731
971.371649	2614.062601
971.670098	2615.146449
971.968510	2614.501181
972.266885	2617.253651
972.565223	2619.731378
972.863524	2618.188785
973.161788	2624.175155
973.460014	2623.945783
973.758204	2623.275309
974.056356	2625.891668
974.354471	2623.965947
974.652550	2624.190279
974.950591	2626.738582
975.248595	2624.608694
975.546563	2624.860752
975.844493	2623.802110
976.142386	2621.641975
976.440243	2623.497120
976.738062	2621.669702
977.035845	2618.128291
977.333590	2619.007972
977.631299	2618.708024
977.928971	2616.772221
978.226606	2614.125615
978.524204	2615.711058
978.821765	2615.511932
979.119290	2614.244082
979.416777	2613.301386
979.714228	2614.957405
980.011642	2616.963785
980.309020	2616.620986
980.606360	2618.503857
980.903664	2621.954527
981.200931	2627.260341
981.498162	2632.208234
981.795356	2647.142652
982.092513	2659.879127
982.389633	2677.203052
982.686717	2694.196782
982.983764	2713.020451
983.280775	2724.894888
983.577749	2729.149622
983.874686	2730.241032
984.171587	2724.070660
984.468451	2721.103941
984.765279	2714.920966
985.062070	2707.364276
985.358824	2698.847247
985.655543	2690.657892
985.952224	2682.150945
986.248869	2668.922957
986.545478	2654.946358
986.842050	2644.188536
987.138586	2632.941722
987.435086	2621.586523
987.731549	2618.196347
988.027975	2615.897581
988.324366	2612.520007
988.620719	2606.909203
988.917037	2604.998606
989.213318	2602.732607
989.509563	2604.595314
989.805772	2599.090374
990.101944	2597.678851
990.398080	2597.358737
990.694180	2595.566607
990.990244	2597.615836
991.286271	2597.903182
991.582262	2598.876125
991.878217	2597.247832
992.174136	2597.036103
992.470019	2597.139447
992.765865	2599.349993
993.061676	2598.593820
993.357450	2600.249839
993.653188	2601.489963
993.948890	2602.231012
994.244556	2605.848040
994.540186	2611.695779
994.835780	2618.942437
995.131337	2625.856380
995.426859	2630.766464
995.722345	2640.684934
996.017795	2648.753301
996.313208	2659.007008
996.608586	2665.724345
996.903928	2665.689057
997.199234	2670.183246
997.494504	2668.199552
997.789738	2666.215858
998.084936	2664.897596
998.380099	2656.945176
998.675225	2654.580875
998.970316	2650.051398
999.265371	2640.601755
999.560390	2635.585807
999.855373	2630.474077
1000.150320	2624.437295
1000.445232	2618.917232
1000.740108	2609.429780
1001.034948	2608.663525
1001.329752	2602.374685
1001.624521	2601.447113
1001.919254	2596.224478
1002.213951	2595.115424
1002.508613	2592.272213
1002.803239	2593.250197
1003.097829	2590.159970
1003.392384	2592.204158
1003.686903	2592.594847
1003.981386	2591.450505
1004.275834	2589.663416
1004.570246	2593.696339
1004.864623	2590.782552
1005.158964	2589.222315
1005.453270	2587.538570
1005.747540	2590.467480
1006.041775	2586.827767
1006.335974	2587.480596
1006.630138	2583.765266
1006.924266	2587.984712
1007.218359	2586.497571
1007.512416	2586.439598
1007.806438	2586.542942
1008.100425	2585.912797
1008.394376	2586.008579
1008.688292	2586.762232
1008.982172	2583.858527
1009.276017	2586.263158
1009.569827	2583.298959
1009.863602	2588.942531
1010.157341	2584.110585
1010.451045	2584.801223
1010.744714	2584.891964
1011.038347	2585.227201
1011.331945	2583.679566
1011.625508	2584.455904
1011.919036	2585.020513
1012.212528	2583.493044
1012.505986	2582.562951
1012.799408	2583.069587
1013.092795	2585.227201
1013.386147	2580.337281
1013.679464	2583.999680
1013.972745	2583.845924
1014.265992	2581.322827
1014.559204	2584.811305
1014.852380	2580.463310
1015.145521	2583.271233
1015.438628	2582.389031
1015.731699	2580.942220
1016.024736	2583.500605
1016.317737	2582.913311
1016.610703	2584.660071
1016.903635	2582.920873
1017.196531	2578.149421
1017.489393	2579.969277
1017.782219	2577.967939
1018.075011	2581.219483
1018.367768	2583.596387
1018.660490	2583.803075
1018.953177	2583.803075
1019.245829	2583.803075
