Dividing Wavelength (nm)	Counts (n)	Blue Motor Position (mm): 36.800000	Red Motor Position (mm): 0.000000	
326.493990	2050.340613
326.888308	2050.340613
327.282561	2050.340613
327.676750	2024.570234
328.070874	2026.684998
328.464933	2035.806966
328.858929	2042.284849
329.252859	2052.669626
329.646726	2065.433828
330.040528	2081.976374
330.434265	2096.802407
330.827938	2122.822323
331.221547	2142.225724
331.615091	2160.646100
332.008571	2185.224246
332.401986	2204.378110
332.795338	2221.230687
333.188625	2244.351939
333.581847	2262.709301
333.975006	2278.843514
334.368100	2296.512758
334.761129	2312.924234
335.154095	2330.928715
335.546996	2378.461755
335.939833	2488.401759
336.332606	2499.928357
336.725315	2511.218021
337.117960	2523.972140
337.510540	2532.655528
337.903056	2543.355377
338.295508	2548.535162
338.687896	2554.294681
339.080220	2558.942624
339.472480	2566.148954
339.864676	2569.216496
340.256807	2570.033163
340.648875	2572.205900
341.040879	2572.304203
341.432818	2573.105746
341.824694	2575.691858
342.216506	2578.121694
342.608253	2572.115159
342.999937	2578.015830
343.391557	2572.067268
343.783113	2574.986097
344.174605	2572.374779
344.566033	2568.397308
344.957397	2567.978893
345.348697	2567.351269
345.739934	2565.145764
346.131106	2563.426731
346.522215	2564.097204
346.913260	2558.221739
347.304241	2558.917419
347.695159	2558.027655
348.086012	2555.698642
348.476802	2554.821481
348.867528	2551.085986
349.258191	2546.238917
349.648789	2548.492313
350.039324	2540.880170
350.429796	2548.593136
350.820203	2546.947199
351.210548	2547.347971
351.600828	2544.572815
351.991045	2541.553164
352.381198	2544.852599
352.771288	2546.105326
353.161314	2541.482588
353.551276	2542.868905
353.941175	2541.273380
354.331010	2542.647095
354.720782	2544.502239
355.110490	2547.811757
355.500135	2544.494678
355.889717	2543.476364
356.279235	2544.920655
356.668689	2544.650953
357.058080	2546.571633
357.447408	2545.288659
357.836672	2546.526262
358.225873	2547.700851
358.615010	2544.086344
359.004084	2546.932075
359.393095	2548.991387
359.782043	2546.735470
360.170927	2550.438198
360.559748	2551.257385
360.948505	2549.124977
361.337199	2552.280740
361.725830	2551.786707
362.114398	2553.074721
362.502903	2550.755791
362.891344	2554.282078
363.279722	2551.615307
363.668037	2555.466749
364.056289	2552.247972
364.444478	2555.444064
364.832603	2555.050854
365.220665	2558.345248
365.608665	2559.887841
365.996601	2558.345248
366.384474	2557.306770
366.772284	2557.694939
367.160031	2555.469269
367.547715	2557.460525
367.935336	2556.323745
368.322893	2555.781821
368.710388	2555.827191
369.097820	2554.576985
369.485189	2557.069836
369.872495	2561.075032
370.259738	2560.961607
370.646918	2558.408262
371.034035	2562.310115
371.421090	2561.707697
371.808081	2562.794066
372.195010	2564.316494
372.581875	2561.856411
372.968678	2561.987481
373.355418	2563.797256
373.742096	2564.140054
374.128710	2565.435631
374.515262	2565.481001
374.901751	2564.298850
375.288177	2565.574262
375.674540	2564.225754
376.060841	2568.268759
376.447079	2565.342369
376.833254	2566.118707
377.219367	2568.533420
377.605417	2567.633574
377.991404	2569.418142
378.377329	2566.854715
378.763191	2568.903944
379.148991	2569.982751
379.534727	2569.551733
379.920402	2571.018708
380.306013	2566.970662
380.691563	2574.199677
381.077049	2570.693554
381.462474	2572.314285
381.847835	2573.105746
382.233134	2570.353276
382.618371	2572.929306
383.003545	2573.559450
383.388657	2575.033988
383.773706	2575.028946
384.158693	2570.892680
384.543618	2574.101374
384.928480	2574.829821
385.313280	2576.077506
385.698017	2575.472568
386.082692	2576.183371
386.467305	2577.206725
386.851856	2576.392578
387.236344	2577.027764
387.620770	2579.911304
388.005133	2578.222517
388.389435	2575.391909
388.773674	2572.563822
389.157851	2580.969946
389.541965	2580.135635
389.926018	2581.902560
390.310008	2582.734350
390.693936	2581.285018
391.077802	2582.593198
391.461606	2583.455235
391.845348	2586.895823
392.229027	2584.597056
392.612645	2584.846593
392.996200	2584.730647
393.379694	2584.833991
393.763125	2589.285329
394.146494	2587.039495
394.529801	2589.295412
394.913047	2591.591657
395.296230	2587.490679
395.679351	2589.411358
396.062410	2586.482448
396.445408	2593.058633
396.828343	2591.740371
397.211217	2591.039651
397.594028	2593.345979
397.976778	2593.809765
398.359466	2593.802203
398.742092	2594.646597
399.124656	2593.431678
399.507158	2594.087028
399.889598	2599.168512
400.271977	2598.603902
400.654294	2603.103132
401.036549	2600.615323
401.418742	2601.086671
401.800874	2608.368617
402.182944	2609.202928
402.564952	2618.425719
402.946898	2617.901439
403.328783	2618.534104
403.710606	2624.820423
404.092367	2632.036835
404.474067	2636.289048
404.855705	2643.255922
405.237282	2647.291366
405.618797	2659.440547
406.000250	2669.356497
406.381642	2680.686490
406.762972	2691.567820
407.144240	2694.713500
407.525447	2711.319061
407.906593	2723.097717
408.287677	2745.125039
408.668700	2760.112389
409.049661	2778.827673
409.430560	2801.011270
409.811399	2816.943837
410.192176	2837.980572
410.572891	2865.565766
410.953545	2895.979047
411.334138	2902.988772
411.714669	2942.118208
412.095139	2953.811164
412.475547	2990.432626
412.855894	3017.140659
413.236180	3060.010632
413.616405	3073.606623
413.996568	3118.450208
414.376670	3149.347439
414.756711	3173.328208
415.136691	3222.108933
415.516609	3270.705657
415.896466	3314.818273
416.276262	3366.711911
416.655997	3436.867128
417.035670	3498.636387
417.415283	3575.539188
417.794834	3633.693939
418.174324	3659.224863
418.553753	3700.832026
418.933121	3798.542191
419.312428	3843.022812
419.691674	3864.278837
420.070859	3991.462107
420.449983	3987.058659
420.829045	4112.916106
421.208047	4125.897077
421.586988	4241.558791
421.965867	4329.070701
422.344686	4409.368720
422.723444	4546.357034
423.102141	4405.290426
423.480777	4643.721880
423.859352	4602.949027
424.237866	4844.463147
424.616319	4893.798399
424.994712	5037.317528
425.373044	5044.912026
425.751314	5277.011791
426.129524	5165.710675
426.507673	5377.613057
426.885762	5457.527948
427.263789	5534.186254
427.641756	5646.160363
428.019662	5742.446402
428.397508	5829.287838
428.775292	5875.232915
429.153016	6030.533221
429.530679	6044.497217
429.908282	6133.539117
430.285824	6133.113140
430.663305	6377.651951
431.040726	6351.626994
431.418086	6394.570063
431.795385	6548.277365
432.172624	6740.073104
432.549802	6684.663261
432.926920	6834.362845
433.303977	6838.786458
433.680974	6917.493993
434.057910	7116.233922
434.434786	7192.693102
434.811601	7203.435801
435.188355	7534.707664
435.565050	7472.348591
435.941683	7519.012032
436.318257	7834.686565
436.694770	7818.751478
437.071222	8045.547948
437.447614	7875.088892
437.823946	7874.471351
438.200218	8041.308337
438.576429	7964.778581
438.952580	8134.158830
439.328670	8168.910024
439.704700	8278.388762
440.080670	8195.139147
440.456580	8460.901216
440.832429	8469.077968
441.208218	8236.156495
441.583947	8366.266156
441.959616	8486.913570
442.335224	8537.199080
442.710773	8635.655335
443.086261	8816.970515
443.461689	8575.519411
443.837057	8731.714521
444.212365	8943.914331
444.587612	8948.068242
444.962800	8852.215742
445.337927	9002.943722
445.712995	8574.007064
446.088002	9211.584477
446.462949	9282.568964
446.837837	9300.578486
447.212664	9361.626859
447.587431	10271.078739
447.962139	11233.324103
448.336786	11988.062972
448.711374	11596.874474
449.085901	10466.385642
449.460369	10454.150762
449.834776	10370.220591
450.209124	11302.705503
450.583412	11070.767056
450.957640	11280.836978
451.331808	10880.632377
451.705917	10401.788297
452.079965	10322.745525
452.453954	10526.748418
452.827883	10484.619496
453.201752	10443.574421
453.575562	10474.511982
453.949311	10829.625983
454.323001	10912.353838
454.696632	10827.327216
455.070202	11413.076526
455.443713	11473.340999
455.817164	11625.697272
456.190556	11944.976230
456.563888	11768.296390
456.937160	11990.785195
457.310373	11490.617034
457.683526	11541.605784
458.056619	11571.827502
458.429653	11660.377889
458.802628	11831.797285
459.175542	11893.102757
459.548398	12437.370932
459.921194	13033.018547
460.293930	13351.995036
460.666607	14179.117312
461.039224	14905.517334
461.411782	15174.989692
461.784280	14781.313386
462.156719	14700.302043
462.529099	14599.713380
462.901419	14029.637018
463.273680	13675.967308
463.645882	13910.995983
464.018024	13863.604096
464.390106	14272.723977
464.762130	15452.822804
465.134094	17126.727857
465.505999	19401.419980
465.877845	21415.824728
466.249631	22305.943783
466.621358	21690.678518
466.993026	20852.649706
467.364634	20150.790020
467.736184	19438.588408
468.107674	18903.026305
468.479105	18745.709538
468.850477	18498.299789
469.221790	18076.471159
469.593043	17432.388138
469.964238	17088.825942
470.335373	17203.930607
470.706449	18088.829548
471.077467	19217.256548
471.448425	21575.621743
471.819324	23059.719792
472.190164	22545.322974
472.560945	20857.098524
472.931667	19454.715059
473.302330	19211.060970
473.672934	18756.507689
474.043479	19191.468526
474.413965	19001.812756
474.784393	18848.838943
475.154761	19481.556682
475.525070	19615.900912
475.895321	19457.719587
476.265513	19976.643361
476.635645	20568.608413
477.005719	20626.145622
477.375734	21016.305724
477.745691	21623.505143
478.115588	22288.390486
478.485427	23568.233583
478.855207	25447.525325
479.224928	27171.698243
479.594591	28354.093316
479.964194	27817.923755
480.333739	28205.530512
480.703226	28499.717127
481.072653	29020.415387
481.442022	29508.522588
481.811333	29813.572889
482.180584	29305.777463
482.549777	29093.270143
482.918912	28905.403983
483.287988	28855.534368
483.657005	28671.683488
484.025964	28331.299739
484.394864	28528.655871
484.763706	28482.282297
485.132489	27985.222007
485.501213	28058.946361
485.869879	28253.691175
486.238487	28210.075112
486.607036	28492.057094
486.975527	28195.745633
487.343959	28537.374546
487.712333	28866.665236
488.080648	28843.428037
488.448905	29261.193498
488.817104	29196.684373
489.185244	30099.202146
489.553326	31262.443355
489.921350	33214.559605
490.289315	35607.754133
490.657222	36276.180886
491.025070	36678.946393
491.392861	36296.295089
491.760593	35482.483980
492.128267	34484.701002
492.495883	33537.652197
492.863440	32701.314691
493.230939	31815.475576
493.598380	31320.346048
493.965763	31197.740145
494.333088	30727.987786
494.700354	30556.238195
495.067563	30535.461079
495.434713	30460.625150
495.801805	30747.242473
496.168839	30608.792223
496.535815	30485.697329
496.902733	30640.818674
497.269593	30442.890371
497.636395	30611.370774
498.003139	30921.429462
498.369825	30675.106082
498.736453	31099.500659
499.103023	30961.219289
499.469535	31044.524356
499.835989	31192.893076
500.202385	31054.735213
500.568723	31125.139968
500.935003	31471.888173
501.301226	31367.768182
501.667390	32065.665520
502.033497	32269.313012
502.399546	32067.802970
502.765537	31666.759017
503.131470	32154.225991
503.497345	32591.790583
503.863163	31575.010017
504.228923	32348.058356
504.594625	32764.790380
504.960269	32249.738212
505.325856	32937.137348
505.691385	32617.008955
506.056856	32932.139043
506.422270	33432.977678
506.787625	32976.970025
507.152924	33455.945175
507.518164	33658.783562
507.883347	33215.850141
508.248472	33382.089751
508.613540	34086.601083
508.978550	34332.866489
509.343503	34184.903583
509.708398	34569.951955
510.073236	35168.132750
510.438016	35271.657885
510.802738	34965.916945
511.167403	35519.186101
511.532010	35791.829345
511.896561	36287.566332
512.261053	37039.338481
512.625488	36818.145253
512.989866	36763.597448
513.354186	36836.921031
513.718449	36798.678838
514.082655	37703.283648
514.446803	37388.980309
514.810894	38030.875469
515.174927	38044.494147
515.538904	38051.024961
515.902822	38713.011640
516.266684	38396.066736
516.630488	38778.586970
516.994235	38779.098647
517.357925	39385.451152
517.721558	39668.819451
518.085133	40036.690091
518.448651	40241.764229
518.812112	40114.601124
519.175516	40279.351073
519.538863	40746.744172
519.902152	40821.691006
520.265385	41347.279186
520.628560	41374.314894
520.991678	41328.866371
521.354739	41578.786614
521.717743	41945.286061
522.080690	41854.446989
522.443580	42538.892008
522.806413	42563.613827
523.169189	42707.364849
523.531908	42937.281794
523.894569	42810.141373
524.257174	43006.247299
524.619722	43349.756563
524.982213	43483.241276
525.344647	43529.393039
525.707025	43662.955890
526.069345	44112.304179
526.431608	44019.362946
526.793815	44402.541050
527.155964	43957.082011
527.518057	44233.153240
527.880093	44083.239407
528.242072	44724.501902
528.603995	44438.363489
528.965860	44376.430394
529.327669	44609.863543
529.689421	44653.406510
530.051117	44603.161329
530.412755	44893.524229
530.774337	44954.817098
531.135862	44883.751952
531.497331	45063.133850
531.858743	45062.546556
532.220098	45458.940044
532.581396	45192.701586
532.942638	44961.451257
533.303824	45202.090735
533.664953	45250.216111
534.026025	44939.812104
534.387040	45520.348860
534.747999	45592.747391
535.108902	45900.068732
535.469748	45229.181896
535.830537	45492.088152
536.191270	45740.390184
536.551947	45465.334748
536.912567	45773.608867
537.273131	45902.758188
537.633638	45540.536161
537.994089	45731.149749
538.354483	45479.969218
538.714821	46132.521377
539.075103	46412.849860
539.435328	46255.233144
539.795497	46022.528442
540.155609	46159.912487
540.515665	46739.612412
540.875665	46038.322377
541.235609	46323.432394
541.595496	46447.406970
541.955328	47026.814508
542.315102	46457.998434
542.674821	46348.131527
543.034483	46237.359733
543.394090	46262.643640
543.753640	46235.539877
544.113134	47292.359807
544.472571	46408.353151
544.831953	47544.354485
545.191278	46805.679253
545.550548	46472.690877
545.909761	47137.235942
546.268918	47295.840724
546.628019	47687.901341
546.987064	47134.541445
547.346053	46402.248314
547.704986	47326.488419
548.063863	46970.202350
548.422684	47184.363168
548.781449	46770.055940
549.140158	47305.562589
549.498811	47074.350068
549.857408	46457.118753
550.215949	47304.718196
550.574434	47139.764080
550.932864	47068.925787
551.291237	47805.881985
551.649555	47545.387922
552.007817	47710.596616
552.366022	47394.685148
552.724173	47471.083835
553.082267	47874.817243
553.440305	48229.139782
553.798288	47474.345461
554.156215	47863.789719
554.514086	48068.707582
554.871902	47706.236018
555.229661	47849.893779
555.587365	47538.516829
555.945014	47680.153088
556.302606	47681.214250
556.660143	47790.340108
557.017625	48007.197943
557.375050	47707.685349
557.732421	48107.859703
558.089735	48179.595322
558.446994	48052.913647
558.804197	48522.575266
559.161345	48393.022653
559.518437	47730.070593
559.875474	47983.015528
560.232455	48219.281806
560.589381	48279.551321
560.946251	48068.097602
561.303065	48755.133775
561.659825	48442.887226
562.016528	48221.532681
562.373177	47807.931214
562.729770	48449.680181
563.086307	47975.902460
563.442789	48504.069190
563.799216	48375.945744
564.155587	48242.302235
564.511904	48222.692147
564.868164	48276.297256
565.224370	48579.648689
565.580520	48314.909974
565.936615	48501.384775
566.292654	48168.098971
566.648638	48522.290440
567.004567	48460.027149
567.360441	48569.447914
567.716260	48275.546124
568.072023	48643.729316
568.427732	48565.553623
568.783385	48103.332747
569.138982	48515.759626
569.494525	48646.940531
569.850013	48253.448226
570.205445	48366.886791
570.560823	48152.115993
570.916145	48017.827216
571.271412	48257.055172
571.626625	47898.278773
571.981782	47988.089450
572.336884	47567.148062
572.691931	47907.940145
573.046923	47550.655927
573.401860	47409.758198
573.756743	47407.530008
574.111570	47559.863595
574.466342	47452.726473
574.821059	47625.514542
575.175722	47135.844583
575.530330	47223.381699
575.884882	46869.878347
576.239380	46765.415558
576.593823	46855.657253
576.948211	46773.851928
577.302544	46320.306879
577.656823	46309.657441
578.011047	46585.587517
578.365216	46393.517035
578.719330	46116.276259
579.073389	46098.241531
579.427394	46139.407593
579.781344	46068.720534
580.135239	45830.006776
580.489080	45889.646147
580.842866	45385.742491
581.196597	45872.665020
581.550273	45864.316869
581.903895	45794.539738
582.257463	46233.402427
582.610975	45651.469272
582.964434	45984.268604
583.317837	45508.242529
583.671186	45455.174303
584.024481	45740.773312
584.377721	45269.574141
584.730906	45481.721019
585.084037	45612.168436
585.437113	45328.157390
585.790135	45444.991172
586.143103	44989.447304
586.496016	45146.196942
586.848874	45276.445234
587.201679	45287.966791
587.554428	44786.203105
587.907124	45061.407255
588.259765	44817.564123
588.612352	44987.279608
588.964884	44440.301813
589.317362	44752.099699
589.669786	44752.712199
590.022155	44604.797184
590.374470	45079.878043
590.726731	44626.854752
591.078937	43963.378412
591.431090	44309.284745
591.783188	43848.729971
592.135232	43624.980878
592.487222	43906.589814
592.839157	44055.853338
593.191038	43683.896843
593.542866	43491.677647
593.894639	42887.139957
594.246358	43198.085888
594.598022	43188.104403
594.949633	42763.152778
595.301190	42741.412802
595.652692	42684.450284
596.004141	43162.714632
596.355535	42065.212590
596.706876	42096.891201
597.058162	41807.665081
597.409395	42300.581542
597.760573	42520.819472
598.111698	42122.507824
598.462768	42045.012687
598.813785	42064.892477
599.164748	41661.010354
599.515657	41933.187291
599.866511	41438.834101
600.217312	42131.879329
600.568060	41053.339587
600.918753	41884.910682
601.269392	41811.234218
601.619978	41529.733667
601.970510	41744.575041
602.320988	41878.740309
602.671412	42137.104485
603.021783	42013.505475
603.372100	41576.873496
603.722363	41692.943543
604.072572	41725.015364
604.422728	41702.831766
604.772830	41499.511949
605.122878	41640.119812
605.472872	41519.293437
605.822813	41760.578184
606.172701	41527.182843
606.522534	41853.605116
606.872314	42062.288721
607.222041	41886.032338
607.571714	42227.394071
607.921333	41705.490975
608.270899	41933.325923
608.620411	42325.860408
608.969870	42054.729511
609.319276	42068.015472
609.668627	42108.314455
610.017926	42515.921991
610.367171	42645.719099
610.716362	42667.237265
611.065500	42575.213522
611.414585	42788.718990
611.763616	42969.494767
612.112594	42868.843089
612.461518	43004.185467
612.810389	43382.902150
613.159207	43169.391640
613.507971	43153.007890
613.856682	43639.388496
614.205340	43470.033453
614.553945	44156.784800
614.902496	43484.831760
615.250994	43904.031429
615.599439	43973.238909
615.947830	44080.567595
616.296169	44075.909569
616.644454	44114.197133
616.992686	44270.717398
617.340864	44726.185648
617.688990	44260.314977
618.037063	44921.684114
618.385082	44744.434625
618.733048	45087.845586
619.080961	44948.467765
619.428821	44963.971833
619.776628	44997.971896
620.124382	44806.639943
620.472083	44917.842755
620.819731	45010.960428
621.167326	44573.068161
621.514868	44548.991611
621.862357	44022.125499
622.209793	44120.967402
622.557176	43691.544273
622.904506	43442.874237
623.251783	43070.506887
623.599007	42752.228598
623.946179	42682.370808
624.293297	42419.855242
624.640363	41879.393139
624.987376	41708.881151
625.334336	41512.137519
625.681243	41093.462131
626.028097	41022.606193
626.374899	40823.137817
626.721647	40790.708075
627.068343	40578.409963
627.414987	40293.105861
627.761577	40023.227690
628.108115	40353.602228
628.454600	39595.871434
628.801032	39823.068676
629.147412	39726.923790
629.493739	39641.559411
629.840014	39199.281340
630.186236	39617.820618
630.532405	39057.203981
630.878521	39280.892580
631.224585	39064.478366
631.570597	38709.397133
631.916556	38886.260975
632.262462	38771.226885
632.608316	38708.381341
632.954117	38563.720390
633.299866	38523.439050
633.645562	38437.429404
633.991206	37902.878053
634.336797	37500.263780
634.682336	37377.630151
635.027823	37142.132649
635.373257	37021.452467
635.718639	36687.367640
636.063968	36588.203103
636.409245	35920.751813
636.754470	35879.139609
637.099642	35654.246174
637.444762	35070.893933
637.789829	35232.062142
638.134845	34848.155592
638.479808	34776.404849
638.824719	34717.221703
639.169577	34192.893812
639.514383	34302.889268
639.859137	33903.188783
640.203839	34087.316927
640.548489	33778.566418
640.893086	33771.682723
641.237632	33508.433669
641.582125	33597.442802
641.926566	33392.701379
642.270955	33430.308387
642.615292	33360.566544
642.959576	33232.337234
643.303809	33239.530961
643.647990	33349.039946
643.992118	33293.972902
644.336195	33123.733137
644.680219	33213.805953
645.024192	33424.130453
645.368112	33937.279585
645.711981	33963.927125
646.055797	34683.773647
646.399562	34501.977036
646.743274	35370.048605
647.086935	35764.677690
647.430544	35722.536164
647.774101	35764.874295
648.117606	36064.361683
648.461059	36207.101954
648.804460	35790.647194
649.147810	35299.621165
649.491108	34920.710398
649.834354	34790.139472
650.177548	33951.598983
650.520690	33460.325938
650.863781	33443.997640
651.206820	33274.844244
651.549807	32863.375184
651.892742	32278.132511
652.235626	32188.059695
652.578458	32044.472510
652.921238	31359.505731
653.263967	31663.051248
653.606644	31364.128469
653.949269	31275.452052
654.291843	30859.309843
654.634365	31249.175038
654.976836	30781.411413
655.319255	30846.081856
655.661622	30735.983056
656.003938	30578.600753
656.346203	30400.353115
656.688416	30655.248977
657.030577	30413.054302
657.372687	30241.644989
657.714746	30410.707645
658.056753	30597.033732
658.398708	29962.549068
658.740612	30032.497598
659.082465	30258.852967
659.424266	30141.363836
659.766016	30151.173921
660.107715	30002.737146
660.449362	30104.633989
660.790958	30091.103532
661.132503	30019.556956
661.473996	30105.924524
661.815438	30167.494657
662.156829	30300.071962
662.498168	30092.101681
662.839456	30075.130636
663.180693	30197.073627
663.521879	30290.251794
663.863013	30235.136859
664.204097	30225.074716
664.545129	30633.070420
664.886110	30570.784444
665.227040	30672.673725
665.567918	30676.835198
665.908746	30745.762894
666.249522	30828.589052
666.590248	30868.325947
666.930922	30954.867435
667.271545	30954.708639
667.612118	31007.179488
667.952639	30811.759160
668.293109	30865.402078
668.633528	30719.080067
668.973896	30678.234118
669.314213	30652.935087
669.654480	30477.197943
669.994695	30452.103080
670.334859	30383.160260
670.674973	30207.886902
671.015035	30398.835727
671.355047	30343.864465
671.695008	30252.581772
672.034918	30184.064930
672.374777	30267.049884
672.714585	30126.741969
673.054342	30260.572001
673.394049	30107.051222
673.733705	30344.930669
674.073310	30059.147658
674.412864	30108.777818
674.752368	29809.734051
675.091820	30033.717557
675.431223	29632.028337
675.770574	29434.755384
676.109875	29288.672827
676.449125	29069.062522
676.788324	28969.945876
677.127473	28476.522778
677.466571	28375.278765
677.805619	28104.178114
678.144616	28027.567699
678.483562	27994.709458
678.822458	27672.814141
679.161303	27610.828113
679.500098	27532.521350
679.838842	27447.109081
680.177535	27542.991827
680.516179	27789.191698
680.854771	27909.503876
681.193314	28680.588686
681.531805	29709.273937
681.870247	30442.073704
682.208638	31175.223831
682.546978	31440.136466
682.885268	31588.467377
683.223508	31142.884829
683.561697	30878.869520
683.899836	30713.638141
684.237925	30300.903752
684.575963	30141.452056
684.913951	29769.888771
685.251889	29943.949731
685.589776	29963.726177
685.927614	29980.999691
686.265401	30154.889252
686.603137	30256.251732
686.940824	30746.042678
687.278460	31094.459506
687.616046	31259.945463
687.953582	31925.163522
688.291068	31829.779850
688.628504	32158.523574
688.965889	32166.395336
689.303224	31912.999217
689.640510	31628.486577
689.977745	30986.271303
690.314930	30252.332235
690.652065	29813.262858
690.989150	29152.130655
691.326185	28295.691549
691.663170	27664.886927
692.000105	26906.152944
692.336990	26306.273280
692.673825	25883.214608
693.010610	25392.685133
693.347345	24883.480704
693.684030	24256.124231
694.020665	24062.901845
694.357251	23363.482078
694.693786	23365.001986
695.030272	23129.842242
695.366707	22636.247745
695.703093	22356.990507
696.039429	22434.054626
696.375716	22172.816993
696.711952	22173.918485
697.048139	22039.632228
697.384276	21878.159030
697.720363	21995.885095
698.056400	21878.879915
698.392388	21725.253272
698.728326	21729.145043
699.064214	21560.533570
699.400053	21561.410731
699.735842	21176.589211
700.071581	20977.589663
700.407270	20726.575489
700.742910	20541.933147
701.078501	20288.746236
701.414042	20086.727037
701.749533	19782.173289
702.084974	19476.918821
702.420366	19698.921154
702.755709	19293.052817
703.091002	18979.931628
703.426246	19050.371671
703.761440	18989.449326
704.096584	18743.229290
704.431679	18675.224125
704.766725	18620.129354
705.101721	18555.811793
705.436668	18673.547941
705.771565	18392.566629
706.106413	18714.716524
706.441212	18782.308315
706.775961	18886.178769
707.110661	18971.827973
707.445311	19334.569239
707.779913	19212.785045
708.114465	19517.129585
708.448967	19810.781837
708.783421	20439.010430
709.117825	20808.050617
709.452180	21040.218437
709.786485	21494.007983
710.120742	22255.416298
710.454949	22358.928831
710.789107	22875.006873
711.123216	23598.649385
711.457275	23803.834428
711.791286	24354.938408
712.125247	24521.856053
712.459159	24244.035544
712.793023	25013.406362
713.126837	23983.102900
713.460602	24240.829370
713.794318	23913.744185
714.127985	23641.622701
714.461602	22735.853383
714.795171	22725.468606
715.128691	21735.045713
715.462162	21209.313861
715.795584	20778.426277
716.128957	20512.838128
716.462281	20142.850203
716.795556	19856.641214
717.128782	19371.364621
717.461960	18773.382952
717.795088	18723.848574
718.128167	18378.509371
718.461198	17913.969565
718.794180	17802.083676
719.127113	17448.905478
719.459997	17257.150068
719.792833	16884.500414
720.125619	16923.821414
720.458357	16589.565188
720.791046	16452.501256
721.123686	16297.742874
721.456278	16066.285857
721.788821	16058.081379
722.121315	15795.729651
722.453761	15896.464507
722.786158	15779.333298
723.118506	15849.889287
723.450805	15743.548667
723.783056	15918.695996
724.115259	15815.722867
724.447412	15799.873479
724.779518	16018.470513
725.111574	16079.022332
725.443582	16343.990420
725.775542	16286.186029
726.107453	16805.881100
726.439315	16733.207826
726.771129	17151.842885
727.102895	17572.920384
727.434612	17845.611519
727.766281	18014.643928
728.097901	18345.588116
728.429473	18432.104398
728.760996	18443.809957
729.092471	18574.912725
729.423897	18456.601885
729.755276	18333.063369
730.086606	18447.474876
730.417887	19035.777530
730.749120	19581.583257
731.080305	19812.016920
731.411442	20203.782629
731.742530	20328.604119
732.073570	20488.519602
732.404562	20820.842545
732.735506	20655.895992
733.066401	20454.849735
733.397249	19958.522933
733.728048	19338.390434
734.058798	18469.517322
734.389501	17700.411164
734.720156	17188.088781
735.050762	16592.985611
735.381320	16212.018053
735.711831	15937.209633
736.042293	15550.515325
736.372707	15586.912456
736.703073	15377.649118
737.033391	15581.997331
737.363661	15570.493417
737.693883	15696.875144
738.024056	15882.278701
738.354182	16104.069305
738.684260	16466.747557
739.014290	16739.683188
739.344272	16962.413968
739.674207	17319.476374
740.004093	17497.789547
740.333931	17555.304072
740.663722	17635.972615
740.993464	17674.350920
741.323159	17528.606121
741.652806	17236.438488
741.982405	17067.741316
742.311956	16705.680605
742.641460	16599.771004
742.970915	16264.816578
743.300323	15915.356232
743.629683	15703.126175
743.958996	15378.254057
744.288260	15064.308639
744.617477	14756.576444
744.946647	14721.006062
745.275768	14401.971600
745.604842	14189.497048
745.933869	14015.680584
746.262847	13991.929187
746.591778	13903.565322
746.920662	13782.567547
747.249498	13799.505824
747.578286	13953.399648
747.907027	14127.513541
748.235720	14405.107198
748.564365	14463.337566
748.892963	14387.132964
749.221514	14495.618594
749.550017	14357.183469
749.878473	14328.693388
750.206881	14097.536319
750.535242	14025.223488
750.863555	13940.983287
751.191821	13844.500643
751.520039	13862.946225
751.848210	13787.845636
752.176334	13827.005319
752.504411	13765.798149
752.832440	13570.004775
753.160421	13689.633876
753.488356	13571.123911
753.816243	13481.812309
754.144082	13320.210561
754.471875	13269.428498
754.799620	13242.846493
755.127318	13210.000855
755.454969	13199.638764
755.782572	13164.625430
756.110129	13177.717306
756.437638	13093.018360
756.765100	13088.410745
757.092515	13119.544911
757.419882	13152.347699
757.747203	13160.501766
758.074477	13255.567845
758.401703	13234.006830
758.728882	13436.951081
759.056014	13467.671873
759.383099	13644.989418
759.710138	13769.694961
760.037129	13894.057706
760.364073	13947.133494
760.690970	13979.124657
761.017820	13993.711235
761.344623	14220.618611
761.671379	14609.246202
761.998088	15308.164374
762.324751	17099.185513
762.651366	20511.945843
762.977935	25003.278684
763.304456	28016.131842
763.630931	29116.706467
763.957359	27921.169106
764.283740	25643.721992
764.610074	23380.916909
764.936362	20725.088349
765.262602	18831.928392
765.588796	16877.972120
765.914943	15569.041565
766.241044	14450.545638
766.567097	13655.454853
766.893104	12928.586004
767.219064	12456.600413
767.544978	11968.347019
767.870845	11579.984088
768.196665	11352.683503
768.522438	11117.037287
768.848165	10901.059132
769.173846	10705.885820
769.499479	10571.821375
769.825066	10401.833667
770.150607	10169.244911
770.476101	10085.801212
770.801548	9961.647675
771.126949	9799.302357
771.452303	9692.417292
771.777611	9488.757197
772.102872	9482.712854
772.428087	9341.681534
772.753256	9178.743880
773.078378	9081.986493
773.403453	8902.133248
773.728482	8790.486813
774.053465	8720.228252
774.378401	8613.620451
774.703291	8487.528591
775.028135	8364.511834
775.352932	8331.288110
775.677683	8222.071512
776.002388	8114.153011
776.327046	8124.815051
776.651658	8029.811986
776.976224	7925.263497
777.300743	7918.286540
777.625216	7831.031728
777.949643	7785.338710
778.274024	7807.202194
778.598359	7710.729633
778.922647	7731.905000
779.246889	7680.086979
779.571086	7686.254831
779.895236	7693.841768
780.219339	7705.751493
780.543397	7711.987401
780.867409	7787.879451
781.191374	7798.564177
781.515294	7765.547140
781.839167	7862.748148
782.162995	7829.630287
782.486776	7771.626771
782.810511	7725.074236
783.134201	7636.450752
783.457844	7636.362531
783.781441	7578.870692
784.104993	7514.850559
784.428498	7497.962694
784.751958	7476.346226
785.075372	7448.493851
785.398739	7395.425624
785.722061	7437.476409
786.045337	7445.373377
786.368568	7598.614371
786.691752	7621.846529
787.014891	7967.168088
787.337983	8326.952717
787.661030	8913.780834
787.984031	9550.012258
788.306987	9954.403537
788.629897	10171.594089
788.952760	10123.249423
789.275579	9903.329087
789.598351	9507.152368
789.921078	9149.124580
790.243759	8732.294254
790.566395	8440.343391
790.888984	8185.679422
791.211529	7973.459448
791.534027	7756.289061
791.856480	7546.801392
792.178888	7473.823128
792.501249	7371.275977
792.823566	7211.378139
793.145836	7208.718930
793.468062	7185.010383
793.790241	7137.109340
794.112375	7199.816252
794.434464	7357.818617
794.756507	7398.248671
795.078505	7553.218781
795.400457	7864.951132
795.722364	8221.925318
796.044226	8515.892643
796.366042	8785.846431
796.687812	8741.353207
797.009538	8819.728026
797.331218	8711.527221
797.652852	8628.706104
797.974442	8478.404102
798.295986	8385.314155
798.617484	8198.806587
798.938938	8049.908546
799.260346	7951.696787
799.581709	7750.300170
799.903026	7672.429467
800.224299	7564.291675
800.545526	7389.101497
800.866708	7292.581045
801.187845	7224.875828
801.508936	7115.061853
801.829983	7074.757828
802.150984	6916.107676
802.471940	6878.525874
802.792851	6856.264138
803.113717	6827.058213
803.434538	6791.147554
803.755314	6735.861220
804.076045	6737.935655
804.396731	6685.011101
804.717372	6712.530760
805.037967	6711.013373
805.358518	6755.746051
805.679024	6837.014492
805.999485	6843.207550
806.319901	6887.756226
806.640272	6910.585092
806.960598	6991.220868
807.280879	6986.330949
807.601115	7074.553662
807.921306	7018.427975
808.241453	7033.397682
808.561554	7056.715539
808.881611	7010.057139
809.201623	7030.647732
809.521590	6978.262582
809.841513	6956.540250
810.161390	6993.156671
810.481223	6863.888883
810.801011	6849.259455
811.120755	6820.534960
811.440453	6745.749443
811.760107	6716.742644
812.079716	6683.897006
812.399281	6622.631863
812.718801	6609.686180
813.038276	6567.811836
813.357707	6500.484706
813.677093	6548.584875
813.996434	6447.933197
814.315731	6492.673438
814.634983	6485.288147
814.954191	6497.316340
815.273354	6605.900274
815.592473	6668.098030
815.911547	6796.153420
816.230577	6875.047477
816.549562	7026.942484
816.868502	7134.094730
817.187399	7229.054945
817.506250	7390.165180
817.825058	7423.835047
818.143821	7691.487549
818.462539	7966.716905
818.781213	8343.553237
819.099843	8893.974140
819.418429	9901.282378
819.736970	10879.513241
820.055466	12074.422978
820.373919	13630.170946
820.692327	16002.762278
821.010691	20186.196564
821.329011	29230.119826
821.647286	42256.615119
821.965517	55689.203082
822.283704	61050.729816
822.601847	63049.577563
822.919945	60444.717589
823.237999	56357.589505
823.556010	50291.574123
823.873976	43573.987086
824.191897	36997.358273
824.509775	32101.853443
824.827609	27512.742383
825.145398	24867.626275
825.463144	23480.111693
825.780845	23764.306741
826.098502	25535.415322
826.416116	29321.687344
826.733685	32979.614110
827.051210	34147.208355
827.368692	32385.877092
827.686129	28417.493387
828.003522	24258.196145
828.320872	20519.157214
828.638177	17635.788613
828.955439	15459.036027
829.272656	13619.776087
829.589830	12120.892334
829.906960	10830.361991
830.224046	9872.734324
830.541088	9117.090568
830.858086	8649.924321
831.175041	8263.109024
831.491952	8141.990262
831.808819	8191.509516
832.125642	8595.505065
832.442421	9480.759407
832.759157	11284.385950
833.075849	14226.541967
833.392497	17472.092266
833.709101	19681.816519
834.025662	19542.320230
834.342179	17852.606120
834.658653	15639.642925
834.975083	13697.649311
835.291469	12058.107284
835.607811	10717.334281
835.924110	9794.299011
836.240366	8914.350484
836.556578	8103.191022
836.872746	7447.621731
837.188871	6938.641633
837.504952	6514.047930
837.820990	6198.322985
838.136984	5975.940045
838.452935	5879.079315
838.768842	5906.354478
839.084706	6330.128994
839.400526	7537.024074
839.716303	9143.833889
840.032037	10251.461089
840.347727	10193.147542
840.663373	9214.994817
840.978977	8158.989033
841.294537	7336.202149
841.610054	6730.293265
841.925527	6296.217152
842.240957	5922.796201
842.556344	5585.800108
842.871687	5297.919976
843.186987	5014.332387
843.502244	4785.907624
843.817458	4618.649701
844.132629	4476.216940
844.447756	4383.520203
844.762840	4303.633038
845.077881	4225.739650
845.392879	4164.063653
845.707833	4113.168164
846.022745	4063.338879
846.337613	4039.844581
846.652438	3994.610308
846.967221	3978.554233
847.281960	3946.159778
847.596656	3929.317283
847.911309	3911.476640
848.225919	3879.709809
848.540485	3864.046944
848.855009	3853.876416
849.169490	3831.153415
849.483928	3819.546158
849.798323	3809.143737
850.112675	3791.121612
850.426984	3794.862148
850.741251	3781.747587
851.055474	3777.490332
851.369654	3783.474182
851.683792	3777.951598
851.997887	3784.704223
852.311938	3784.863020
852.625947	3790.604894
852.939914	3780.351187
853.253837	3790.504071
853.567718	3788.810243
853.881555	3775.393212
854.195350	3796.709731
854.509103	3785.543575
854.822812	3785.694810
855.136479	3781.472844
855.450103	3788.525418
855.763685	3771.534209
856.077224	3778.077627
856.390720	3792.961633
856.704173	3813.040549
857.017584	3826.825584
857.330953	3840.494673
857.644278	3855.744163
857.957561	3867.553066
858.270802	3867.185062
858.584000	3869.267058
858.897155	3862.027962
859.210268	3842.803521
859.523339	3820.554389
859.836367	3818.303514
860.149352	3814.368893
860.462295	3808.072492
860.775195	3796.354330
861.088054	3787.418885
861.400869	3787.489461
861.713642	3790.849390
862.026373	3802.262562
862.339062	3807.253304
862.651708	3823.992456
862.964312	3861.380173
863.276873	3874.877863
863.589392	3928.266202
863.901869	3975.932833
864.214303	4024.685832
864.526696	4055.134401
864.839045	4100.353551
865.151353	4129.872027
865.463619	4139.298985
865.775842	4144.998009
866.088023	4165.518026
866.400162	4153.593177
866.712258	4162.538704
867.024313	4163.577182
867.336325	4165.031555
867.648296	4169.629087
867.960224	4165.747398
868.272110	4183.109132
868.583954	4180.775078
868.895755	4197.166390
869.207515	4195.744784
869.519233	4240.001074
869.830909	4249.914503
870.142542	4275.112711
870.454134	4285.547899
870.765684	4318.693486
871.077191	4356.187067
871.388657	4376.878483
871.700081	4416.570008
872.011463	4463.177996
872.322803	4498.380373
872.634101	4532.703069
872.945357	4566.317483
873.256571	4624.298314
873.567744	4651.349146
873.878874	4674.203217
874.189963	4714.134196
874.501010	4723.417481
874.812015	4723.367069
875.122979	4763.270323
875.433900	4763.386269
875.744780	4774.459164
876.055618	4804.696004
876.366415	4804.731292
876.677169	4822.188808
876.987882	4871.236715
877.298554	4925.661012
877.609183	5006.942056
877.919771	5119.369869
878.230317	5266.085090
878.540822	5486.582638
878.851285	5814.408873
879.161707	6282.548063
879.472087	7043.943775
879.782425	8295.775701
880.092722	10489.960598
880.402977	13827.816944
880.713191	17611.588554
881.023363	21358.474041
881.333494	23596.103602
881.643583	24840.303221
881.953631	24844.641134
882.263637	24015.852756
882.573602	22549.338253
882.883526	20985.716002
883.193408	19302.651174
883.503248	17580.096466
883.813048	16024.429157
884.122806	14566.865222
884.432522	13089.416455
884.742197	11795.329578
885.051831	10688.738335
885.361424	9672.098922
885.670975	8840.464813
885.980485	8135.666135
886.289954	7552.003863
886.599382	7068.287507
886.908768	6689.011257
887.218113	6320.394526
887.527417	6028.839393
887.836680	5754.867805
888.145901	5533.233476
888.455082	5364.843814
888.764221	5212.394281
889.073319	5075.723559
889.382376	5007.557076
889.691392	4944.472077
890.000366	4918.079116
890.309300	4897.420468
890.618193	4902.058329
890.927044	4889.979725
891.235855	4912.327160
891.544625	4941.112148
891.853353	5004.083721
892.162041	5123.859016
892.470687	5312.587213
892.779293	5560.785902
893.087858	5936.016627
893.396381	6527.618716
893.704864	7329.212589
894.013306	8490.659147
894.321707	9682.823976
894.630068	10514.846254
894.938387	10721.218490
895.246665	10486.552778
895.554903	9878.922340
895.863100	9182.991052
896.171256	8615.357129
896.479371	8100.962832
896.787446	7598.644618
897.095480	7164.102198
897.403473	6840.122364
897.711425	6517.233939
898.019336	6245.067084
898.327207	5969.285722
898.635038	5736.936421
898.942827	5489.761086
899.250576	5293.360252
899.558284	5097.582002
899.865952	4970.731448
900.173579	4818.065144
900.481165	4710.186973
900.788711	4612.738948
901.096216	4542.485428
901.403681	4478.437569
901.711105	4451.928661
902.018489	4437.543729
902.325832	4510.131303
902.633135	4630.355260
902.940397	4981.396008
903.247619	5779.602226
903.554800	7227.933288
903.861941	9164.295933
904.169041	10698.187978
904.476101	11350.886331
904.783121	11008.032417
905.090100	10269.972206
905.397039	9419.277494
905.703938	8651.154362
906.010796	7954.348434
906.317614	7393.562918
906.624391	6846.706111
906.931129	6416.657879
907.237826	6011.084449
907.544483	5633.504547
907.851099	5251.017081
908.157675	4891.585332
908.464211	4559.312800
908.770707	4320.268846
909.077163	4114.811580
909.383578	3971.385712
909.689954	3851.101261
909.996289	3779.481588
910.302584	3716.492371
910.608839	3686.421888
910.915054	3650.796054
911.221229	3634.873569
911.527363	3647.627688
911.833458	3661.803413
912.139513	3689.151673
912.445527	3721.407496
912.751502	3803.737100
913.057436	3905.470105
913.363331	4041.787946
913.669186	4250.950460
913.975000	4515.822766
914.280775	4938.291623
914.586510	5524.968504
914.892205	6328.014230
915.197859	7381.138994
915.503475	8611.304041
915.809050	9678.922123
916.114585	10330.198871
916.420081	10598.776424
916.725536	10565.923225
917.030952	10125.447366
917.336328	9712.841527
917.641665	9298.040265
917.946961	8813.577819
918.252218	8394.264724
918.557435	7875.590487
918.862612	7438.882891
919.167750	7059.735190
919.472848	6629.414736
919.777906	6253.226192
920.082925	5887.457713
920.387904	5516.814438
920.692843	5245.194548
920.997743	4995.163400
921.302603	4757.495681
921.607423	4593.466617
921.912204	4426.087707
922.216946	4308.805262
922.521647	4182.199204
922.826310	4075.006629
923.130932	3980.210252
923.435516	3881.522103
923.740059	3807.054179
924.044564	3732.513158
924.349028	3671.545443
924.653454	3605.806276
924.957840	3535.061244
925.262186	3490.079028
925.566493	3427.180551
925.870761	3370.928836
926.174989	3330.319821
926.479178	3295.707259
926.783328	3252.015579
927.087438	3224.712689
927.391509	3189.323789
927.695541	3155.958913
927.999533	3130.642238
928.303486	3111.488374
928.607400	3095.162597
928.911275	3080.505442
929.215110	3061.926270
929.518906	3049.051163
929.822663	3052.597615
930.126381	3048.791544
930.430060	3058.160528
930.733699	3060.479459
931.037299	3069.001529
931.340861	3064.940880
931.644383	3075.340780
931.947866	3072.588310
932.251309	3065.054306
932.554714	3067.020356
932.858080	3059.188923
933.161407	3052.388407
933.464694	3042.938764
933.767943	3038.878115
934.071153	3032.672454
934.374323	3021.060156
934.677455	3017.002028
934.980548	3008.212776
935.283602	3003.453927
935.586617	3001.414780
935.889593	3010.211593
936.192530	3013.279135
936.495428	3030.051054
936.798287	3052.401010
937.101108	3085.781010
937.403890	3133.886221
937.706632	3196.283102
938.009336	3280.021709
938.312002	3350.940661
938.614628	3415.424581
938.917216	3468.276038
939.219765	3501.134278
939.522275	3534.100904
939.824747	3538.378323
940.127179	3535.653579
940.429573	3531.212323
940.731929	3530.022610
941.034246	3512.832276
941.336524	3503.997654
941.638763	3486.028461
941.940964	3474.108653
942.243126	3428.544183
942.545250	3406.037952
942.847335	3368.690564
943.149381	3336.601099
943.451389	3299.858649
943.753359	3266.587034
944.055290	3242.150041
944.357182	3215.210114
944.659036	3200.537836
944.960851	3194.077598
945.262628	3176.887263
945.564367	3180.491688
945.866067	3173.035821
946.167729	3167.107424
946.469352	3167.558608
946.770937	3164.818741
947.072484	3144.596152
947.373992	3148.379538
947.675462	3141.737818
947.976893	3125.442288
948.278286	3118.593880
948.579641	3107.712550
948.880958	3103.523351
949.182236	3107.994854
949.483476	3099.429934
949.784678	3098.835078
950.085841	3103.004112
950.386967	3111.465689
950.688054	3129.422279
950.989103	3148.712254
951.290114	3169.151612
951.591087	3196.787218
951.892021	3224.891650
952.192917	3255.715786
952.493776	3282.693520
952.794596	3286.373563
953.095378	3293.665592
953.396122	3286.822225
953.696828	3281.748304
953.997496	3272.729680
954.298126	3245.653642
954.598718	3224.379973
954.899272	3196.668751
955.199788	3170.585821
955.500266	3140.311171
955.800706	3103.069647
956.101108	3063.423493
956.401472	3032.521220
956.701798	3002.556601
957.002087	2960.142853
957.302337	2929.860642
957.602550	2903.916344
957.902724	2875.307796
958.202861	2846.709330
958.502960	2825.004642
958.803022	2804.895479
959.103045	2782.979063
959.403031	2768.485746
959.702979	2753.780700
960.002889	2738.727815
960.302762	2726.833212
960.602596	2712.760831
960.902393	2709.143803
961.202153	2697.062678
961.501875	2689.813499
961.801559	2682.629855
962.101205	2675.312620
962.400814	2668.857422
962.700385	2661.580517
962.999918	2657.414003
963.299414	2652.153559
963.598873	2649.587612
963.898293	2641.304996
964.197677	2644.327168
964.497022	2641.345325
964.796331	2638.839872
965.095601	2635.401805
965.394835	2633.314767
965.694030	2632.964407
965.993189	2631.676392
966.292309	2629.559107
966.591393	2627.847636
966.890439	2628.566000
967.189447	2627.943418
967.488419	2626.872172
967.787353	2628.394601
968.086249	2632.223357
968.385108	2631.691516
968.683930	2633.602113
968.982714	2639.038997
969.281462	2641.002527
969.580172	2648.115595
969.878844	2651.725061
970.177480	2664.133861
970.476078	2670.044614
970.774639	2676.865295
971.073162	2685.084897
971.371649	2691.855166
971.670098	2697.594520
971.968510	2703.117104
972.266885	2705.942671
972.565223	2710.179760
972.863524	2708.536344
973.161788	2715.719988
973.460014	2716.329968
973.758204	2723.490927
974.056356	2724.292471
974.354471	2727.329766
974.652550	2723.826164
974.950591	2724.441185
975.248595	2723.311966
975.546563	2721.930690
975.844493	2718.280895
976.142386	2710.875440
976.440243	2708.170861
976.738062	2702.101311
977.035845	2695.308357
977.333590	2688.603622
977.631299	2684.157324
977.928971	2678.775892
978.226606	2671.635098
978.524204	2670.324398
978.821765	2664.746361
979.119290	2667.347597
979.416777	2667.219047
979.714228	2671.007474
980.011642	2672.436642
980.309020	2682.909639
980.606360	2695.376412
980.903664	2718.669063
981.200931	2754.932604
981.498162	2802.848771
981.795356	2878.302241
982.092513	2968.155767
982.389633	3071.973290
982.686717	3171.092457
982.983764	3247.387799
983.280775	3298.822692
983.577749	3308.211841
983.874686	3289.602422
984.171587	3262.173504
984.468451	3223.482648
984.765279	3177.933302
985.062070	3130.894296
985.358824	3083.391503
985.655543	3025.990405
985.952224	2975.641881
986.248869	2908.776016
986.545478	2849.897860
986.842050	2794.601443
987.138586	2745.866088
987.435086	2705.173895
987.731549	2678.087775
988.027975	2649.201963
988.324366	2633.060189
988.620719	2618.055194
988.917037	2606.626899
989.213318	2597.449478
989.509563	2591.029569
989.805772	2586.719382
990.101944	2580.637230
990.398080	2577.657908
990.694180	2578.499781
990.990244	2578.789647
991.286271	2577.862075
991.582262	2580.624627
991.878217	2585.529670
992.174136	2586.835329
992.470019	2587.624269
992.765865	2591.420258
993.061676	2596.501741
993.357450	2605.976590
993.653188	2610.042280
993.948890	2630.627832
994.244556	2646.426808
994.540186	2671.307423
994.835780	2703.585931
995.131337	2742.047414
995.426859	2782.820267
995.722345	2831.732062
996.017795	2885.027140
996.313208	2920.884868
996.608586	2951.519960
996.903928	2960.662092
997.199234	2962.003039
997.494504	2958.116309
997.789738	2945.957046
998.084936	2916.804054
998.380099	2886.574775
998.675225	2860.496886
998.970316	2829.597133
999.265371	2792.605146
999.560390	2753.939496
999.855373	2724.594940
1000.150320	2694.012780
1000.445232	2668.002947
1000.740108	2650.260606
1001.034948	2627.751854
1001.329752	2613.019082
1001.624521	2600.937957
1001.919254	2591.246338
1002.213951	2581.816860
1002.508613	2574.081209
1002.803239	2567.845302
1003.097829	2559.610577
1003.392384	2557.999929
1003.686903	2548.325954
1003.981386	2547.690769
1004.275834	2545.202960
1004.570246	2541.457382
1004.864623	2540.421425
1005.158964	2533.368851
1005.453270	2535.574356
1005.747540	2533.731814
1006.041775	2528.494055
1006.335974	2529.782070
1006.630138	2528.045393
1006.924266	2528.461288
1007.218359	2526.154960
1007.512416	2525.073632
1007.806438	2521.257479
1008.100425	2521.983405
1008.394376	2520.347551
1008.688292	2523.745288
1008.982172	2520.660102
1009.276017	2524.443488
1009.569827	2523.047088
1009.863602	2519.513240
1010.157341	2520.914680
1010.451045	2521.769156
1010.744714	2517.872344
1011.038347	2521.839732
1011.331945	2514.512415
1011.625508	2515.961747
1011.919036	2515.399658
1012.212528	2515.177847
1012.505986	2513.715913
1012.799408	2511.432270
1013.092795	2511.447393
1013.386147	2512.226252
1013.679464	2512.624503
1013.972745	2513.940244
1014.265992	2511.528052
1014.559204	2511.994359
1014.852380	2512.513598
1015.145521	2508.747856
1015.438628	2509.887156
1015.731699	2511.928824
1016.024736	2511.328926
1016.317737	2513.773886
1016.610703	2516.004597
1016.903635	2515.583660
1017.196531	2516.339833
1017.489393	2516.652385
1017.782219	2519.490554
1018.075011	2518.081552
1018.367768	2521.043230
1018.660490	2524.443488
1018.953177	2524.443488
1019.245829	2524.443488
