Dividing Wavelength (nm)	Counts (n)	Blue Motor Position (mm): 18.500000	Red Motor Position (mm): 0.000000	
326.493990	2157.961686
326.888308	2157.961686
327.282561	2157.961686
327.676750	2131.921606
328.070874	2131.876235
328.464933	2138.893521
328.858929	2148.655716
329.252859	2158.422951
329.646726	2172.417194
330.040528	2185.819102
330.434265	2208.216948
330.827938	2227.932901
331.221547	2246.020561
331.615091	2265.739034
332.008571	2286.369957
332.401986	2305.917031
332.795338	2324.155925
333.188625	2343.569409
333.581847	2365.299302
333.975006	2380.689945
334.368100	2405.772206
334.761129	2420.706624
335.154095	2436.498039
335.546996	2460.849332
335.939833	2485.659371
336.332606	2499.996413
336.725315	2514.812364
337.117960	2519.210770
337.510540	2525.454239
337.903056	2536.315405
338.295508	2544.391334
338.687896	2550.904505
339.080220	2560.288612
339.472480	2564.664334
339.864676	2565.387740
340.256807	2569.987792
340.648875	2573.771178
341.040879	2573.748493
341.432818	2573.594738
341.824694	2579.102199
342.216506	2577.438618
342.608253	2575.270922
342.999937	2577.572208
343.391557	2575.974163
343.783113	2575.306210
344.174605	2573.617423
344.566033	2569.387895
344.957397	2568.840930
345.348697	2565.642318
345.739934	2567.048800
346.131106	2563.794735
346.522215	2560.495300
346.913260	2558.783828
347.304241	2560.540670
347.695159	2557.354661
348.086012	2556.049002
348.476802	2554.019938
348.867528	2552.568085
349.258191	2553.442726
349.648789	2553.972047
350.039324	2550.796120
350.429796	2548.114226
350.820203	2546.236396
351.210548	2545.351674
351.600828	2546.198588
351.991045	2544.761859
352.381198	2547.234545
352.771288	2545.321427
353.161314	2545.719678
353.551276	2546.450645
353.941175	2546.927034
354.331010	2544.920655
354.720782	2545.328988
355.110490	2546.806047
355.500135	2544.383772
355.889717	2547.630275
356.279235	2547.547096
356.668689	2546.606921
357.058080	2547.090872
357.447408	2542.997455
357.836672	2543.609955
358.225873	2547.282436
358.615010	2543.360418
359.004084	2548.550286
359.393095	2550.715461
359.782043	2550.284443
360.170927	2550.153373
360.559748	2551.259906
360.948505	2550.438198
361.337199	2551.317879
361.725830	2551.801830
362.114398	2550.337375
362.502903	2552.540359
362.891344	2552.605894
363.279722	2554.390462
363.668037	2554.014897
364.056289	2554.138405
364.444478	2558.867007
364.832603	2557.936914
365.220665	2557.004301
365.608665	2554.503888
365.996601	2555.484393
366.384474	2555.746533
366.772284	2555.996070
367.160031	2555.799465
367.547715	2558.950186
367.935336	2558.612429
368.322893	2559.774415
368.710388	2558.178890
369.097820	2561.052347
369.485189	2558.342727
369.872495	2559.555125
370.259738	2559.794579
370.646918	2560.346586
371.034035	2560.550753
371.421090	2560.611246
371.808081	2558.531770
372.195010	2561.291802
372.581875	2560.230639
372.968678	2560.563355
373.355418	2561.238870
373.742096	2562.345403
374.128710	2563.404046
374.515262	2561.669889
374.901751	2561.437996
375.288177	2561.964796
375.674540	2562.698284
376.060841	2562.042934
376.447079	2564.122410
376.833254	2562.486556
377.219367	2561.889179
377.605417	2558.703170
377.991404	2559.635783
378.377329	2559.741647
378.763191	2560.475135
379.148991	2563.126782
379.534727	2566.131310
379.920402	2566.527040
380.306013	2564.545867
380.691563	2566.456464
381.077049	2565.586865
381.462474	2564.278686
381.847835	2567.376475
382.233134	2568.218347
382.618371	2568.435117
383.003545	2568.782957
383.388657	2567.111814
383.773706	2568.999726
384.158693	2567.978893
384.543618	2567.126938
384.928480	2568.165415
385.313280	2568.024263
385.698017	2566.090981
386.082692	2569.279510
386.467305	2567.053841
386.851856	2567.605847
387.236344	2566.136351
387.620770	2573.526683
388.005133	2569.503842
388.389435	2572.054666
388.773674	2572.205900
389.157851	2566.947977
389.541965	2571.782443
389.926018	2570.368400
390.310008	2570.738924
390.693936	2569.803790
391.077802	2571.797567
391.461606	2572.102557
391.845348	2572.881415
392.229027	2574.446693
392.612645	2570.507031
392.996200	2573.917372
393.379694	2573.556929
393.763125	2572.173133
394.146494	2571.661456
394.529801	2575.671693
394.913047	2572.800756
395.296230	2576.712692
395.679351	2574.625654
396.062410	2573.902248
396.445408	2573.743452
396.828343	2574.310582
397.211217	2572.692372
397.594028	2572.581466
397.976778	2572.415108
398.359466	2570.335632
398.742092	2569.682803
399.124656	2576.334605
399.507158	2576.047259
399.889598	2577.912486
400.271977	2577.146231
400.654294	2577.357959
401.036549	2573.859399
401.418742	2575.840572
401.800874	2577.327712
402.182944	2574.872671
402.564952	2576.480799
402.946898	2579.394586
403.328783	2575.654049
403.710606	2576.442990
404.092367	2579.954154
404.474067	2579.172775
404.855705	2578.540110
405.237282	2579.092116
405.618797	2576.639595
406.000250	2579.318968
406.381642	2579.013978
406.762972	2578.472054
407.144240	2576.987435
407.525447	2581.108578
407.906593	2580.496078
408.287677	2579.782754
408.668700	2581.685790
409.049661	2579.694534
409.430560	2580.516242
409.811399	2582.381469
410.192176	2580.551530
410.572891	2579.971798
410.953545	2578.635892
411.334138	2582.013465
411.714669	2580.420460
412.095139	2580.790985
412.475547	2581.897518
412.855894	2581.030440
413.236180	2582.653692
413.616405	2583.087231
413.996568	2581.138825
414.376670	2583.755184
414.756711	2584.581933
415.136691	2583.372056
415.516609	2582.867941
415.896466	2580.957343
416.276262	2583.533373
416.655997	2579.016499
417.035670	2579.026581
417.415283	2581.695872
417.794834	2580.029771
418.174324	2578.162023
418.553753	2580.319637
418.933121	2583.561099
419.312428	2584.307190
419.691674	2583.621593
420.070859	2584.458425
420.449983	2584.486151
420.829045	2583.329206
421.208047	2582.946078
421.586988	2584.687797
421.965867	2584.382807
422.344686	2584.486151
422.723444	2586.452201
423.102141	2584.319793
423.480777	2583.596387
423.859352	2585.133939
424.237866	2585.678384
424.616319	2587.765422
424.994712	2587.553693
425.373044	2587.125195
425.751314	2586.855493
426.129524	2585.718713
426.507673	2588.100658
426.885762	2586.479927
427.263789	2587.354567
427.641756	2585.249886
428.019662	2589.101327
428.397508	2585.869948
428.775292	2586.623600
429.153016	2589.610484
429.530679	2586.953796
429.908282	2588.294743
430.285824	2587.135277
430.663305	2587.359609
431.040726	2591.601740
431.418086	2586.719382
431.795385	2589.234918
432.172624	2587.838518
432.549802	2587.389856
432.926920	2585.759042
433.303977	2589.933118
433.680974	2589.650813
434.057910	2588.065370
434.434786	2587.896492
434.811601	2591.362285
435.188355	2590.112079
435.565050	2593.298088
435.941683	2589.728951
436.318257	2587.972109
436.694770	2585.559917
437.071222	2588.912284
437.447614	2586.545462
437.823946	2587.639393
438.200218	2591.846236
438.576429	2593.144333
438.952580	2591.669795
439.328670	2592.746082
439.704700	2588.367839
440.080670	2589.297932
440.456580	2590.898499
440.832429	2589.247521
441.208218	2593.177100
441.583947	2589.628128
441.959616	2592.456215
442.335224	2590.616194
442.710773	2592.050402
443.086261	2591.972264
443.461689	2591.006883
443.837057	2592.431009
444.212365	2593.517378
444.587612	2588.816502
444.962800	2593.426637
445.337927	2594.313880
445.712995	2591.082501
446.088002	2593.419076
446.462949	2591.087542
446.837837	2592.136102
447.212664	2591.417737
447.587431	2594.235742
447.962139	2596.257245
448.336786	2594.407142
448.711374	2594.613829
449.085901	2598.172884
449.460369	2595.158274
449.834776	2594.606267
450.209124	2594.583582
450.583412	2593.154415
450.957640	2593.600557
451.331808	2595.080136
451.705917	2591.841194
452.079965	2596.186669
452.453954	2594.845722
452.827883	2595.576689
453.201752	2595.884200
453.575562	2594.797831
453.949311	2596.020311
454.323001	2594.235742
454.696632	2598.104828
455.070202	2596.632811
455.443713	2597.444437
455.817164	2595.480907
456.190556	2594.765064
456.563888	2594.278592
456.937160	2594.288675
457.310373	2595.680033
457.683526	2597.827565
458.056619	2595.087697
458.429653	2596.708428
458.802628	2597.996443
459.175542	2597.699015
459.548398	2598.530806
459.921194	2595.541401
460.293930	2596.330342
460.666607	2599.836464
461.039224	2598.815631
461.411782	2602.062134
461.784280	2600.083481
462.156719	2601.179932
462.529099	2600.942998
462.901419	2600.206989
463.273680	2601.328646
463.645882	2599.241608
464.018024	2600.960642
464.390106	2601.187494
464.762130	2599.828903
465.134094	2596.700867
465.505999	2603.738318
465.877845	2604.053390
466.249631	2605.648915
466.621358	2602.571290
466.993026	2606.163112
467.364634	2611.045470
467.736184	2604.741507
468.107674	2606.195880
468.479105	2601.888214
468.850477	2604.431476
469.221790	2604.126486
469.593043	2604.723863
469.964238	2601.376537
470.335373	2607.874584
470.706449	2606.699995
471.077467	2605.109511
471.448425	2606.894080
471.819324	2609.792743
472.190164	2610.130501
472.560945	2606.180757
472.931667	2607.756117
473.302330	2606.281580
473.672934	2608.126642
474.043479	2608.172012
474.413965	2608.696292
474.784393	2605.805191
475.154761	2607.584718
475.525070	2606.843668
475.895321	2606.894080
476.265513	2605.200252
476.635645	2611.088320
477.005719	2610.911879
477.375734	2612.469596
477.745691	2611.209307
478.115588	2611.720985
478.485427	2613.916407
478.855207	2615.748867
479.224928	2617.319186
479.594591	2618.564351
479.964194	2615.509412
480.333739	2619.403703
480.703226	2618.655092
481.072653	2620.462345
481.442022	2619.007972
481.811333	2621.757922
482.180584	2619.093672
482.549777	2621.400000
482.918912	2622.390587
483.287988	2619.688528
483.657005	2619.678446
484.025964	2619.297839
484.394864	2622.070473
484.763706	2622.902264
485.132489	2621.420165
485.501213	2622.206585
485.869879	2622.902264
486.238487	2621.367232
486.607036	2622.554424
486.975527	2622.758591
487.343959	2623.605505
487.712333	2624.722120
488.080648	2627.255300
488.448905	2626.564662
488.817104	2628.780249
489.185244	2626.403345
489.553326	2630.380816
489.921350	2631.278141
490.289315	2634.065899
490.657222	2636.732669
491.025070	2639.026394
491.392861	2637.425828
491.760593	2636.934316
492.128267	2635.795015
492.495883	2637.786271
492.863440	2638.895324
493.230939	2636.170581
493.598380	2636.679737
493.965763	2634.456588
494.333088	2637.917341
494.700354	2634.784263
495.067563	2637.191414
495.434713	2635.273255
495.801805	2639.553195
496.168839	2640.682413
496.535815	2645.284987
496.902733	2642.991262
497.269593	2646.827580
497.636395	2647.976963
498.003139	2647.863537
498.369825	2649.343116
498.736453	2652.554331
499.103023	2652.322438
499.469535	2654.220432
499.835989	2656.249497
500.202385	2657.287974
500.568723	2659.362409
500.935003	2661.184786
501.301226	2663.047492
501.667390	2666.495642
502.033497	2672.035870
502.399546	2672.726508
502.765537	2672.502177
503.131470	2675.403361
503.497345	2679.239679
503.863163	2680.976356
504.228923	2683.222190
504.594625	2689.198478
504.960269	2691.124199
505.325856	2694.864735
505.691385	2697.375230
506.056856	2702.706250
506.422270	2706.323278
506.787625	2709.695810
507.152924	2713.509442
507.518164	2717.996069
507.883347	2720.897253
508.248472	2727.687688
508.613540	2736.681106
508.978550	2740.265367
509.343503	2746.604617
509.708398	2754.627614
510.073236	2760.528284
510.438016	2766.771753
510.802738	2769.451127
511.167403	2780.070317
511.532010	2789.537604
511.896561	2797.789973
512.261053	2812.752118
512.625488	2813.808239
512.989866	2819.890392
513.354186	2830.963286
513.718449	2836.879080
514.082655	2850.815350
514.446803	2863.632483
514.810894	2878.428270
515.174927	2889.337327
515.538904	2899.805283
515.902822	2918.928900
516.266684	2921.477203
516.630488	2940.900769
516.994235	2950.536935
517.357925	2969.095943
517.721558	2986.661843
518.085133	3004.631036
518.448651	3020.989580
518.812112	3034.545243
519.175516	3049.220042
519.538863	3070.405491
519.902152	3084.765218
520.265385	3108.894700
520.628560	3129.429841
520.991678	3144.001296
521.354739	3168.947446
521.717743	3190.775642
522.080690	3210.305072
522.443580	3239.105184
522.806413	3265.029317
523.169189	3281.476082
523.531908	3307.463230
523.894569	3328.290757
524.257174	3352.894108
524.619722	3383.869478
524.982213	3408.737490
525.344647	3432.314967
525.707025	3461.425109
526.069345	3495.412569
526.431608	3520.227648
526.793815	3554.051270
527.155964	3572.544743
527.518057	3605.138323
527.880093	3630.936428
528.242072	3670.733817
528.603995	3699.806151
528.965860	3734.524578
529.327669	3768.718724
529.689421	3796.618990
530.051117	3830.896316
530.412755	3867.961400
530.774337	3909.694592
531.135862	3939.258438
531.497331	3978.866784
531.858743	4013.408770
532.220098	4059.126995
532.581396	4091.488682
532.942638	4119.469606
533.303824	4174.556815
533.664953	4210.671641
534.026025	4244.119697
534.387040	4304.595899
534.747999	4341.502186
535.108902	4389.143611
535.469748	4415.796191
535.830537	4461.791679
536.191270	4516.901572
536.551947	4551.879618
536.912567	4609.452116
537.273131	4661.318027
537.633638	4682.463147
537.994089	4747.032766
538.354483	4777.156181
538.714821	4854.512687
539.075103	4921.005506
539.435328	4960.732319
539.795497	5003.887116
540.155609	5049.698602
540.515665	5125.293224
540.875665	5149.216020
541.235609	5221.307041
541.595496	5267.476448
541.955328	5364.506057
542.315102	5381.146906
542.674821	5420.694757
543.034483	5484.190611
543.394090	5533.233476
543.753640	5585.827834
544.113134	5705.814857
544.472571	5699.420154
544.831953	5835.317058
545.191278	5840.895095
545.550548	5880.473194
545.909761	5971.082893
546.268918	6042.586619
546.628019	6126.655422
546.987064	6151.263814
547.346053	6156.022663
547.704986	6283.485718
548.063863	6307.272402
548.422684	6382.743516
548.781449	6430.579025
549.140158	6529.859509
549.498811	6567.053142
549.857408	6581.576706
550.215949	6716.062088
550.574434	6767.912876
550.932864	6807.773279
551.291237	6947.158663
551.649555	6967.338402
552.007817	7052.327214
552.366022	7078.757984
552.724173	7163.799729
553.082267	7257.056034
553.440305	7358.536981
553.798288	7353.231167
554.156215	7443.293901
554.514086	7532.943260
554.871902	7566.066162
555.229661	7644.360322
555.587365	7687.598298
555.945014	7756.707477
556.302606	7810.930127
556.660143	7898.144609
557.017625	7981.321127
557.375050	8027.689660
557.732421	8137.077658
558.089735	8202.388326
558.446994	8258.917305
558.804197	8373.608596
559.161345	8432.670755
559.518437	8402.033142
559.875474	8511.960543
560.232455	8589.717820
560.589381	8685.104013
560.946251	8709.271304
561.303065	8859.948872
561.659825	8898.256600
562.016528	8911.688755
562.373177	8937.207076
562.729770	9069.038290
563.086307	9067.503258
563.442789	9182.943161
563.799216	9270.102190
564.155587	9286.334706
564.511904	9362.156180
564.868164	9426.085573
565.224370	9532.675730
565.580520	9552.928565
565.936615	9648.453389
566.292654	9663.413013
566.648638	9770.043500
567.004567	9823.724226
567.360441	9878.153564
567.716260	9913.068596
568.072023	10021.592035
568.427732	10062.556452
568.783385	10045.103977
569.138982	10182.067086
569.494525	10231.311597
569.850013	10249.689123
570.205445	10288.679928
570.560823	10361.111226
570.916145	10379.566891
571.271412	10433.545045
571.626625	10450.173291
571.981782	10496.937555
572.336884	10504.897537
572.691931	10613.040369
573.046923	10587.466596
573.401860	10618.560433
573.756743	10654.713067
574.111570	10728.482792
574.466342	10750.525237
574.821059	10840.719042
575.175722	10785.646956
575.530330	10840.131747
575.884882	10834.697383
576.239380	10873.000070
576.593823	10900.681046
576.948211	10939.303846
577.302544	10884.554395
577.656823	10944.607140
578.011047	11028.701148
578.365216	11018.122287
578.719330	11009.418734
579.073389	11022.687051
579.427394	11063.996787
579.781344	11089.542834
580.135239	11066.285470
580.489080	11117.259097
580.842866	11057.468492
581.196597	11160.933134
581.550273	11177.369816
581.903895	11184.429952
582.257463	11300.459669
582.610975	11202.303363
582.964434	11282.190528
583.317837	11247.615774
583.671186	11236.300904
584.024481	11311.003243
584.377721	11245.901782
584.730906	11336.161121
585.084037	11369.147911
585.437113	11337.582726
585.790135	11381.037473
586.143103	11320.422639
586.496016	11364.159689
586.848874	11401.643189
587.201679	11416.645663
587.554428	11323.046559
587.907124	11396.186140
588.259765	11357.969152
588.612352	11436.722058
588.964884	11334.404279
589.317362	11401.466748
589.669786	11412.849674
590.022155	11390.756817
590.374470	11512.518327
590.726731	11416.643142
591.078937	11332.949906
591.431090	11364.162210
591.783188	11331.024185
592.135232	11272.882037
592.487222	11353.353976
592.839157	11390.477033
593.191038	11330.031078
593.542866	11297.316510
593.894639	11183.237719
594.246358	11254.890159
594.598022	11281.147009
594.949633	11195.402023
595.301190	11194.918072
595.652692	11171.244814
596.004141	11268.609659
596.355535	11069.766387
596.706876	11067.301263
597.058162	11053.458254
597.409395	11150.747482
597.760573	11186.670745
598.111698	11099.481468
598.462768	11111.365989
598.813785	11125.997938
599.164748	11017.230002
599.515657	11108.122006
599.866511	11002.053609
600.217312	11129.123453
600.568060	10914.115721
600.918753	11082.127296
601.269392	11079.024466
601.619978	11000.732826
601.970510	11049.833665
602.320988	11090.319171
602.671412	11162.697538
603.021783	11103.209402
603.372100	11043.701101
603.722363	11054.857175
604.072572	11068.367467
604.422728	11086.238357
604.772830	11041.588858
605.122878	11052.376927
605.472872	11030.054698
605.822813	11094.165572
606.172701	11059.363966
606.522534	11106.113106
606.872314	11163.126036
607.222041	11104.333579
607.571714	11179.613129
607.921333	11053.818697
608.270899	11112.711977
608.620411	11171.605257
608.969870	11127.273350
609.319276	11118.456372
609.668627	11134.981274
610.017926	11218.540919
610.367171	11246.539488
610.716362	11246.441185
611.065500	11222.170550
611.414585	11245.821123
611.763616	11316.132617
612.112594	11279.848912
612.461518	11302.150977
612.810389	11358.027126
613.159207	11299.201902
613.507971	11288.794439
613.856682	11389.100798
614.205340	11354.425221
614.553945	11484.950777
614.902496	11364.946109
615.250994	11440.858325
615.599439	11425.220665
615.947830	11462.600821
616.296169	11429.886253
616.644454	11448.052051
616.992686	11470.906122
617.340864	11556.472147
617.688990	11445.039962
618.037063	11584.982393
618.385082	11556.300748
618.733048	11595.616707
619.080961	11583.308729
619.428821	11565.528580
619.776628	11579.018707
620.124382	11530.147242
620.472083	11557.482898
620.819731	11577.771022
621.167326	11486.069913
621.514868	11481.923564
621.862357	11384.949408
622.209793	11380.072092
622.557176	11302.556789
622.904506	11254.186918
623.251783	11178.115907
623.599007	11115.212389
623.946179	11056.699716
624.293297	11041.044413
624.640363	10900.655840
624.987376	10893.688966
625.334336	10833.976498
625.681243	10753.013047
626.028097	10716.807480
626.374899	10684.289517
626.721647	10662.020220
627.068343	10620.831473
627.414987	10555.835876
627.761577	10493.698614
628.108115	10534.514316
628.454600	10418.741697
628.801032	10428.834087
629.147412	10413.816490
629.493739	10382.843641
629.840014	10310.548453
630.186236	10353.846924
630.532405	10256.373693
630.878521	10291.694538
631.224585	10249.099308
631.570597	10172.403194
631.916556	10178.404687
632.262462	10159.669239
632.608316	10144.429831
632.954117	10122.901584
633.299866	10108.715777
633.645562	10080.470192
633.991206	9985.683897
634.336797	9888.964319
634.682336	9876.323626
635.027823	9820.056787
635.373257	9788.254668
635.718639	9723.843845
636.063968	9689.667343
636.409245	9572.021935
636.754470	9561.493486
637.099642	9513.191670
637.444762	9414.863964
637.789829	9424.643803
638.134845	9343.685392
638.479808	9324.264347
638.824719	9295.592785
639.169577	9205.499804
639.514383	9206.225730
639.859137	9142.651739
640.203839	9177.561729
640.548489	9102.917364
640.893086	9105.989948
641.237632	9041.382520
641.582125	9041.372438
641.926566	9028.638483
642.270955	9012.791616
642.615292	9005.275255
642.959576	8986.267585
643.303809	8972.406932
643.647990	8992.763112
643.992118	8974.990524
644.336195	8948.532028
644.680219	8949.565464
645.024192	8974.257036
645.368112	9051.923572
645.711981	9029.979430
646.055797	9171.961007
646.399562	9125.721024
646.743274	9285.807905
647.086935	9356.084110
647.430544	9341.356379
647.774101	9354.329789
648.117606	9385.015292
648.461059	9442.481926
648.804460	9381.746104
649.147810	9261.731354
649.491108	9228.235408
649.834354	9163.237291
650.177548	9018.329323
650.520690	8924.586547
650.863781	8922.388604
651.206820	8899.511848
651.549807	8809.048342
651.892742	8721.100372
652.235626	8681.819701
652.578458	8639.758834
652.921238	8527.578038
653.263967	8569.878359
653.606644	8499.602154
653.949269	8485.033220
654.291843	8403.724449
654.634365	8471.074265
654.976836	8395.744303
655.319255	8393.342193
655.661622	8379.385758
656.003938	8348.407868
656.346203	8302.591341
656.688416	8326.919950
657.030577	8294.953993
657.372687	8254.128209
657.714746	8287.072149
658.056753	8312.676170
658.398708	8214.471972
658.740612	8199.807256
659.082465	8243.420798
659.424266	8204.629119
659.766016	8218.870379
660.107715	8188.782252
660.449362	8209.244296
660.790958	8209.879481
661.132503	8195.371040
661.473996	8194.811472
661.815438	8209.667752
662.156829	8232.718428
662.498168	8186.521295
662.839456	8187.678239
663.180693	8202.945374
663.521879	8227.379847
663.863013	8202.884880
664.204097	8197.241308
664.545129	8277.481354
664.886110	8270.484233
665.227040	8274.512114
665.567918	8283.591233
665.908746	8302.006568
666.249522	8325.609250
666.590248	8319.622880
666.930922	8329.742996
667.271545	8314.664905
667.612118	8336.533430
667.952639	8301.688975
668.293109	8301.406670
668.633528	8282.625852
668.973896	8266.433665
669.314213	8271.767206
669.654480	8227.498314
669.994695	8221.948003
670.334859	8204.251033
670.674973	8191.239815
671.015035	8213.889719
671.355047	8202.262297
671.695008	8184.038526
672.034918	8156.352509
672.374777	8166.591093
672.714585	8140.591342
673.054342	8170.036722
673.394049	8133.508521
673.733705	8176.469234
674.073310	8126.458467
674.412864	8139.351218
674.752368	8073.312103
675.091820	8124.709187
675.431223	8052.018269
675.770574	8011.986466
676.109875	7979.332392
676.449125	7930.957480
676.788324	7916.358298
677.127473	7830.381419
677.466571	7822.673495
677.805619	7764.244002
678.144616	7761.993126
678.483562	7743.618121
678.822458	7697.199176
679.161303	7680.880961
679.500098	7654.798031
679.838842	7642.817729
680.177535	7650.271075
680.516179	7686.713576
680.854771	7707.432718
681.193314	7825.589803
681.531805	7984.222311
681.870247	8098.200279
682.208638	8248.285512
682.546978	8324.366605
682.885268	8351.331737
683.223508	8284.193650
683.561697	8232.219354
683.899836	8198.511679
684.237925	8109.343750
684.575963	8083.908608
684.913951	8006.249633
685.251889	8024.344855
685.589776	8020.037189
685.927614	7999.786874
686.265401	8029.224692
686.603137	8032.302316
686.940824	8099.631967
687.278460	8152.611973
687.616046	8164.143613
687.953582	8281.622662
688.291068	8263.335876
688.628504	8312.492168
688.965889	8319.355698
689.303224	8275.459851
689.640510	8233.691371
689.977745	8128.691698
690.314930	8010.937906
690.652065	7930.097963
690.989150	7823.180131
691.326185	7673.546082
691.663170	7561.234216
692.000105	7435.313754
692.336990	7314.918397
692.673825	7243.845690
693.010610	7151.123747
693.347345	7054.348717
693.684030	6944.103723
694.020665	6897.936837
694.357251	6783.527850
694.693786	6774.080728
695.030272	6738.641416
695.366707	6641.256406
695.703093	6587.759682
696.039429	6587.777326
696.375716	6539.863679
696.711952	6523.706781
697.048139	6497.954046
697.384276	6462.575229
697.720363	6483.611964
698.056400	6459.215300
698.392388	6428.895280
698.728326	6425.255567
699.064214	6403.341671
699.400053	6390.620319
699.735842	6335.046639
700.071581	6289.729187
700.407270	6247.491879
700.742910	6222.046655
701.078501	6181.946797
701.414042	6130.219517
701.749533	6078.295633
702.084974	6026.749835
702.420366	6060.757458
702.755709	5987.620398
703.091002	5938.232214
703.426246	5941.183810
703.761440	5929.586635
704.096584	5883.213061
704.431679	5871.799889
704.766725	5851.869687
705.101721	5841.948696
705.436668	5853.840778
705.771565	5800.568385
706.106413	5856.182394
706.441212	5850.896744
706.775961	5875.593357
707.110661	5881.108379
707.445311	5938.373367
707.779913	5906.795579
708.114465	5947.328976
708.448967	5992.054093
708.783421	6101.409323
709.117825	6146.968751
709.452180	6182.571900
709.786485	6239.768832
710.120742	6377.432661
710.454949	6379.101283
710.789107	6453.677592
711.123216	6580.767601
711.457275	6607.359688
711.791286	6711.477159
712.125247	6739.405151
712.459159	6702.125818
712.793023	6829.404871
713.126837	6663.888666
713.460602	6723.046607
713.794318	6681.293250
714.127985	6625.585979
714.461602	6476.110727
714.795171	6481.187169
715.128691	6313.210881
715.462162	6226.616461
715.795584	6150.149719
716.128957	6110.826198
716.462281	6043.446136
716.795556	6007.994222
717.128782	5919.675727
717.461960	5824.642415
717.795088	5813.927443
718.128167	5740.908850
718.461198	5659.758876
718.794180	5641.988808
719.127113	5582.316670
719.459997	5547.565476
719.792833	5482.070806
720.125619	5482.310260
720.458357	5413.513634
720.791046	5389.366507
721.123686	5360.382393
721.456278	5318.442513
721.788821	5311.596627
722.121315	5268.648516
722.453761	5275.693529
722.786158	5264.802116
723.118506	5264.169451
723.450805	5237.100976
723.783056	5267.204226
724.115259	5243.057099
724.447412	5225.846600
724.779518	5275.973313
725.111574	5276.099342
725.443582	5322.946784
725.775542	5307.964475
726.107453	5395.829266
726.439315	5365.181571
726.771129	5436.967602
727.102895	5500.425647
727.434612	5543.272934
727.766281	5576.063119
728.097901	5628.254185
728.429473	5639.364888
728.760996	5656.073792
729.092471	5674.660527
729.423897	5660.938506
729.755276	5636.539321
730.086606	5651.211599
730.417887	5737.949693
730.749120	5826.931099
731.080305	5869.675043
731.411442	5942.708759
731.742530	5971.874354
732.073570	5992.139793
732.404562	6052.346293
732.735506	6043.347834
733.066401	6028.766296
733.397249	5957.854906
733.728048	5860.033836
734.058798	5716.502103
734.389501	5588.691209
734.720156	5505.144167
735.050762	5405.493158
735.381320	5330.017003
735.711831	5274.334938
736.042293	5188.741187
736.372707	5190.258574
736.703073	5142.256707
737.033391	5172.521274
737.363661	5159.633564
737.693883	5173.285009
738.024056	5200.421540
738.354182	5224.132607
738.684260	5269.661788
739.014290	5308.733251
739.344272	5339.640565
739.674207	5395.065531
740.004093	5428.379997
740.333931	5436.070277
740.663722	5458.213545
740.993464	5467.148990
741.323159	5446.069405
741.652806	5404.187499
741.982405	5372.037541
742.311956	5318.855888
742.641460	5306.810051
742.970915	5255.690230
743.300323	5193.903328
743.629683	5164.725130
743.958996	5110.323518
744.288260	5062.122526
744.617477	5000.905274
744.946647	4989.749200
745.275768	4936.239873
745.604842	4900.815685
745.933869	4868.953072
746.262847	4857.391186
746.591778	4846.908106
746.920662	4822.372810
747.249498	4821.167975
747.578286	4835.094162
747.907027	4860.118450
748.235720	4901.581940
748.564365	4912.193569
748.892963	4895.081372
749.221514	4913.637860
749.550017	4893.730343
749.878473	4889.281525
750.206881	4848.014639
750.535242	4837.024924
750.863555	4819.847192
751.191821	4800.307680
751.520039	4808.151715
751.848210	4790.152276
752.176334	4794.137308
752.504411	4775.288433
752.832440	4743.980347
753.160421	4761.495837
753.488356	4737.489862
753.816243	4723.326740
754.144082	4688.686452
754.471875	4675.949976
754.799620	4670.127444
755.127318	4661.668387
755.454969	4654.162109
755.782572	4650.040966
756.110129	4651.006347
756.437638	4636.507989
756.765100	4630.977843
757.092515	4634.753667
757.419882	4637.309532
757.747203	4632.540601
758.074477	4642.849760
758.401703	4638.247187
758.728882	4667.213657
759.056014	4676.716232
759.383099	4697.024520
759.710138	4728.788830
760.037129	4749.875977
760.364073	4759.600363
760.690970	4756.903345
761.017820	4756.817646
761.344623	4793.607987
761.671379	4852.607131
761.998088	4945.634063
762.324751	5177.615360
762.651366	5635.808354
762.977935	6327.069013
763.304456	6878.190637
763.630931	7186.890734
763.957359	7111.502799
764.283740	6819.642676
764.610074	6497.064283
764.936362	6102.094920
765.262602	5785.328977
765.588796	5440.488848
765.914943	5190.644222
766.241044	4962.789110
766.567097	4796.504129
766.893104	4643.192559
767.219064	4546.044483
767.544978	4450.239875
767.870845	4369.551166
768.196665	4320.218435
768.522438	4271.092390
768.848165	4227.811564
769.173846	4190.101213
769.499479	4162.594157
769.825066	4124.493116
770.150607	4086.079524
770.476101	4072.564190
770.801548	4049.160633
771.126949	4017.285418
771.452303	4001.078108
771.777611	3962.760298
772.102872	3960.020431
772.428087	3934.081173
772.753256	3908.235178
773.078378	3890.535687
773.403453	3855.479503
773.728482	3832.539732
774.053465	3819.407526
774.378401	3797.710400
774.703291	3778.110394
775.028135	3755.596601
775.352932	3740.836102
775.677683	3726.400758
776.002388	3704.847305
776.327046	3706.457954
776.651658	3686.966332
776.976224	3666.824402
777.300743	3662.980523
777.625216	3653.359480
777.949643	3640.955721
778.274024	3645.326402
778.598359	3626.089359
778.922647	3629.187148
779.246889	3618.512504
779.571086	3617.582412
779.895236	3618.464613
780.219339	3616.848924
780.543397	3616.710292
780.867409	3628.806541
781.191374	3630.989360
781.515294	3622.096765
781.839167	3639.123262
782.162995	3635.170997
782.486776	3631.334679
782.810511	3619.319089
783.134201	3607.852985
783.457844	3605.193776
783.781441	3597.737909
784.104993	3590.549224
784.428498	3586.929676
784.751958	3584.041094
785.075372	3578.122780
785.398739	3565.905543
785.722061	3573.101791
786.045337	3574.704877
786.368568	3599.454422
786.691752	3593.820933
787.014891	3638.805669
787.337983	3686.409285
787.661030	3775.269704
787.984031	3867.681616
788.306987	3943.210703
788.629897	3990.095954
788.952760	3999.532994
789.275579	3987.141838
789.598351	3935.979168
789.921078	3886.530490
790.243759	3823.584122
790.566395	3777.455044
790.888984	3728.961665
791.211529	3691.427754
791.534027	3646.301865
791.856480	3607.651338
792.178888	3590.879420
792.501249	3570.283786
792.823566	3537.448230
793.145836	3533.969834
793.468062	3522.949872
793.790241	3509.479908
794.112375	3515.128521
794.434464	3536.777757
794.756507	3537.496121
795.078505	3553.496743
795.400457	3591.670881
795.722364	3643.546874
796.044226	3688.067825
796.366042	3735.431986
796.687812	3725.034606
797.009538	3752.735746
797.331218	3742.902976
797.652852	3736.044486
797.974442	3711.874674
798.295986	3701.419321
798.617484	3674.439065
798.938938	3651.448883
799.260346	3636.751399
799.581709	3601.680092
799.903026	3586.412957
800.224299	3571.324784
800.545526	3537.980072
800.866708	3524.497506
801.187845	3511.196421
801.508936	3486.235148
801.829983	3480.631906
802.150984	3445.946247
802.471940	3440.688323
802.792851	3434.306222
803.113717	3427.321704
803.434538	3416.664704
803.755314	3408.578694
804.076045	3405.657345
804.396731	3395.151580
804.717372	3394.556724
805.037967	3391.247207
805.358518	3391.748802
805.679024	3409.223961
805.999485	3404.076943
806.319901	3411.651277
806.640272	3407.719177
806.960598	3424.213832
807.280879	3420.425405
807.601115	3434.563321
807.921306	3425.968154
808.241453	3425.819440
808.561554	3433.839916
808.881611	3430.830347
809.201623	3432.171294
809.521590	3420.604366
809.841513	3422.658636
810.161390	3427.997218
810.481223	3405.518713
810.801011	3406.365627
811.120755	3405.720359
811.440453	3390.758215
811.760107	3386.614386
812.079716	3379.072820
812.399281	3368.246942
812.718801	3365.496993
813.038276	3361.703525
813.357707	3354.267823
813.677093	3362.810058
813.996434	3344.702233
814.315731	3351.659026
814.634983	3349.241792
814.954191	3350.713809
815.273354	3367.515975
815.592473	3382.067266
815.911547	3397.271386
816.230577	3409.513828
816.549562	3443.307203
816.868502	3455.902525
817.187399	3477.655104
817.506250	3505.792304
817.825058	3514.445445
818.143821	3558.832805
818.462539	3601.612036
818.781213	3658.042712
819.099843	3743.530599
819.418429	3892.801685
819.736970	4042.965055
820.055466	4231.925146
820.373919	4468.105724
820.692327	4805.621056
821.010691	5316.347914
821.329011	6388.051851
821.647286	8112.232331
821.965517	10276.414801
822.283704	11876.290509
822.601847	12946.739199
822.919945	12543.693908
823.237999	11869.099303
823.556010	10989.680097
823.873976	10029.882213
824.191897	9067.427641
824.509775	8307.594687
824.827609	7505.516863
825.145398	6960.053934
825.463144	6586.431338
825.780845	6450.983095
826.098502	6518.872314
826.416116	6896.099336
826.733685	7399.592138
827.051210	7671.539703
827.368692	7585.557783
827.686129	7145.593602
828.003522	6598.204952
828.320872	6042.687442
828.638177	5583.392957
828.955439	5214.004929
829.272656	4879.368096
829.589830	4600.138584
829.906960	4337.418852
830.224046	4133.743633
830.541088	3959.486068
830.858086	3846.823842
831.175041	3750.063935
831.491952	3705.837892
831.808819	3686.724357
832.125642	3723.058473
832.442421	3827.720389
832.759157	4041.901372
833.075849	4413.550357
833.392497	4872.648238
833.709101	5264.658443
834.025662	5370.883116
834.342179	5240.597016
834.658653	4970.048371
834.975083	4700.490313
835.291469	4464.667657
835.607811	4240.414449
835.924110	4081.736570
836.240366	3925.624638
836.556578	3763.062550
836.872746	3629.812251
837.188871	3518.591794
837.504952	3420.062442
837.820990	3346.680886
838.136984	3294.754481
838.452935	3266.246756
838.768842	3248.365783
839.084706	3281.957512
839.400526	3417.128491
839.716303	3640.139054
840.032037	3854.047815
840.347727	3916.389244
840.663373	3828.771470
840.978977	3676.500897
841.294537	3546.693706
841.610054	3442.099846
841.925527	3365.670913
842.240957	3298.482414
842.556344	3240.108373
842.871687	3178.828107
843.186987	3119.372739
843.502244	3068.711663
843.817458	3025.826567
844.132629	2996.154336
844.447756	2972.476036
844.762840	2950.783951
845.077881	2933.185283
845.392879	2917.794640
845.707833	2910.064031
846.022745	2897.158677
846.337613	2893.098028
846.652438	2884.487737
846.967221	2879.360883
847.281960	2873.568598
847.596656	2869.820500
847.911309	2864.396218
848.225919	2859.536546
848.540485	2857.416741
848.855009	2855.412882
849.169490	2847.999865
849.483928	2846.409381
849.798323	2844.498784
850.112675	2839.891169
850.426984	2838.837568
850.741251	2835.712053
851.055474	2835.102073
851.369654	2837.756241
851.683792	2835.054182
851.997887	2838.325891
852.311938	2834.298009
852.625947	2833.897237
852.939914	2834.174501
853.253837	2836.143072
853.567718	2833.740962
853.881555	2829.556804
854.195350	2832.553770
854.509103	2832.611743
854.822812	2830.060919
855.136479	2829.763491
855.450103	2833.786332
855.763685	2831.822803
856.077224	2830.610405
856.390720	2830.877586
856.704173	2836.107783
857.017584	2832.793225
857.330953	2836.516117
857.644278	2839.192970
857.957561	2844.859227
858.270802	2843.062055
858.584000	2843.929134
858.897155	2844.806294
859.210268	2840.649863
859.523339	2835.091991
859.836367	2838.847651
860.149352	2836.415294
860.462295	2834.303050
860.775195	2830.527226
861.088054	2828.097390
861.400869	2827.729386
861.713642	2826.827019
862.026373	2829.370281
862.339062	2831.696774
862.651708	2834.769357
862.964312	2839.122393
863.276873	2840.796057
863.589392	2849.159331
863.901869	2853.197295
864.214303	2863.907226
864.526696	2868.330839
864.839045	2877.447766
865.151353	2884.908673
865.463619	2886.385731
865.775842	2888.129971
866.088023	2891.174827
866.400162	2889.377656
866.712258	2890.395969
867.024313	2894.791855
867.336325	2893.050137
867.648296	2895.651372
867.960224	2896.576424
868.272110	2897.292268
868.583954	2898.159346
868.895755	2901.665469
869.207515	2900.589182
869.519233	2909.872467
869.830909	2912.821542
870.142542	2912.481264
870.454134	2912.332550
870.765684	2919.674991
871.077191	2925.026176
871.388657	2934.622012
871.700081	2940.048814
872.011463	2944.406892
872.322803	2949.435443
872.634101	2957.665126
872.945357	2961.657720
873.256571	2971.742548
873.567744	2979.475678
873.878874	2982.318889
874.189963	2988.277533
874.501010	2991.755929
874.812015	2992.887668
875.122979	3001.162722
875.433900	3000.376302
875.744780	3007.343177
876.055618	3010.773682
876.366415	3014.294928
876.677169	3017.765762
876.987882	3024.823378
877.298554	3031.719676
877.609183	3047.299362
877.919771	3065.457598
878.230317	3087.351329
878.540822	3127.645272
878.851285	3173.797036
879.161707	3240.546954
879.472087	3348.019313
879.782425	3507.770957
880.092722	3782.654994
880.402977	4204.103018
880.713191	4736.111106
881.023363	5325.490047
881.333494	5762.245533
881.643583	6046.755654
881.953631	6121.402539
882.263637	6064.190484
882.573602	5923.549854
882.883526	5756.707826
883.193408	5559.661725
883.503248	5340.177448
883.813048	5128.360767
884.122806	4910.666099
884.432522	4671.816230
884.742197	4455.560812
885.051831	4244.507866
885.361424	4046.524110
885.670975	3884.456055
885.980485	3738.307964
886.289954	3614.391361
886.599382	3516.635826
886.908768	3432.095676
887.218113	3352.115250
887.527417	3291.951599
887.836680	3234.399267
888.145901	3186.369673
888.455082	3153.982780
888.764221	3119.385342
889.073319	3088.417533
889.382376	3067.204358
889.691392	3051.957388
890.000366	3045.744166
890.309300	3034.149512
890.618193	3034.993906
890.927044	3028.334541
891.235855	3028.432844
891.544625	3033.567259
891.853353	3037.905172
892.162041	3050.666853
892.470687	3078.882191
892.779293	3109.255143
893.087858	3160.032165
893.396381	3236.352714
893.704864	3340.533199
894.013306	3496.851818
894.321707	3681.463913
894.630068	3830.871110
894.938387	3911.317843
895.246665	3915.915376
895.554903	3859.265409
895.863100	3773.215434
896.171256	3699.218857
896.479371	3625.474338
896.787446	3548.710168
897.095480	3480.009323
897.403473	3423.674429
897.711425	3367.936911
898.019336	3318.919252
898.327207	3265.019235
898.635038	3216.485526
898.942827	3167.248577
899.250576	3124.633183
899.558284	3082.995772
899.865952	3058.964592
900.173579	3028.936959
900.481165	3010.718229
900.788711	2990.362050
901.096216	2974.984010
901.403681	2964.263997
901.711105	2955.000876
902.018489	2948.643981
902.325832	2956.931638
902.633135	2968.382619
902.940397	3004.409225
903.247619	3092.604212
903.554800	3265.636776
903.861941	3544.324364
904.169041	3800.301553
904.476101	3969.155001
904.783121	3989.478413
905.090100	3924.986932
905.397039	3821.552537
905.703938	3714.707802
906.010796	3609.667800
906.317614	3528.192672
906.624391	3439.740586
906.931129	3373.247767
907.237826	3306.147489
907.544483	3241.156933
907.851099	3170.258146
908.157675	3097.703339
908.464211	3027.175076
908.770707	2970.111735
909.077163	2922.061977
909.383578	2885.876575
909.689954	2855.380115
909.996289	2838.003257
910.302584	2825.680157
910.608839	2817.452994
910.915054	2807.670635
911.221229	2803.294913
911.527363	2804.454378
911.833458	2803.373051
912.139513	2807.637867
912.445527	2809.432518
912.751502	2820.480207
913.057436	2835.265911
913.363331	2855.417923
913.669186	2883.202243
913.975000	2921.139446
914.280775	2978.608600
914.586510	3058.949469
914.892205	3169.446520
915.197859	3315.229127
915.503475	3496.541787
915.809050	3668.384639
916.114585	3798.141419
916.420081	3870.093808
916.725536	3903.060433
917.030952	3868.379815
917.336328	3829.232735
917.641665	3782.055097
917.946961	3722.788772
918.252218	3660.379287
918.557435	3589.843462
918.862612	3523.965664
919.167750	3464.853094
919.472848	3391.721075
919.777906	3325.928976
920.082925	3257.155035
920.387904	3185.827749
920.692843	3131.027886
920.997743	3082.116091
921.302603	3031.621374
921.607423	2997.313801
921.912204	2963.616208
922.216946	2936.446910
922.521647	2912.874474
922.826310	2890.012842
923.130932	2873.702188
923.435516	2853.222501
923.740059	2839.087105
924.044564	2821.465752
924.349028	2812.184988
924.653454	2794.525826
924.957840	2783.200874
925.262186	2777.340532
925.566493	2764.493152
925.870761	2751.204670
926.174989	2747.590163
926.479178	2738.480798
926.783328	2730.241032
927.087438	2726.440002
927.391509	2719.178220
927.695541	2714.565564
927.999533	2706.920654
928.303486	2700.941846
928.607400	2697.649972
928.911275	2695.588141
929.215110	2695.131916
929.518906	2692.457584
929.822663	2690.758715
930.126381	2689.904240
930.430060	2687.681091
930.733699	2688.412058
931.037299	2690.436081
931.340861	2687.567665
931.644383	2689.478262
931.947866	2688.084383
932.251309	2686.403158
932.554714	2687.837367
932.858080	2690.763756
933.161407	2687.202181
933.464694	2687.033302
933.767943	2684.764783
934.071153	2687.983560
934.374323	2683.136491
934.677455	2683.360822
934.980548	2679.295131
935.283602	2681.558609
935.586617	2678.607014
935.889593	2680.671366
936.192530	2677.503001
936.495428	2681.213290
936.798287	2683.295287
937.101108	2687.860052
937.403890	2694.201823
937.706632	2702.872608
938.009336	2714.724361
938.312002	2725.603171
938.614628	2735.478791
938.917216	2747.665780
939.219765	2753.359764
939.522275	2765.771084
939.824747	2763.205137
940.127179	2762.116248
940.429573	2762.728748
940.731929	2762.885024
941.034246	2760.193048
941.336524	2761.859149
941.638763	2762.983326
941.940964	2764.024325
942.243126	2757.848911
942.545250	2752.107037
942.847335	2747.925400
943.149381	2738.490880
943.451389	2732.675909
943.753359	2729.908316
944.055290	2724.418499
944.357182	2717.895246
944.659036	2716.329968
944.960851	2715.014227
945.262628	2706.167002
945.564367	2710.625902
945.866067	2710.890563
946.167729	2707.674307
946.469352	2705.614996
946.770937	2703.752289
947.072484	2702.650797
947.373992	2703.346476
947.675462	2701.571990
947.976893	2699.742051
948.278286	2697.327339
948.579641	2695.681402
948.880958	2696.314067
949.182236	2700.367154
949.483476	2693.622091
949.784678	2690.776359
950.085841	2693.627132
950.386967	2696.447657
950.688054	2697.362627
950.989103	2700.213399
951.290114	2701.516537
951.591087	2707.092054
951.892021	2709.063145
952.192917	2716.524052
952.493776	2715.921635
952.794596	2721.623180
953.095378	2719.894064
953.396122	2725.409086
953.696828	2722.588561
953.997496	2722.263406
954.298126	2718.001111
954.598718	2717.640668
954.899272	2714.404247
955.199788	2706.028370
955.500266	2704.508462
955.800706	2694.718542
956.101108	2687.648323
956.401472	2683.655729
956.701798	2678.269257
957.002087	2669.888338
957.302337	2668.144099
957.602550	2661.842657
957.902724	2655.969712
958.202861	2648.087868
958.502960	2647.868578
958.803022	2642.114101
959.103045	2639.192752
959.403031	2638.013122
959.702979	2633.274438
960.002889	2630.675723
960.302762	2626.075670
960.602596	2626.501648
960.902393	2619.643158
961.202153	2623.892851
961.501875	2622.377984
961.801559	2618.813888
962.101205	2617.029320
962.400814	2614.317179
962.700385	2614.695265
962.999918	2612.802312
963.299414	2612.920779
963.598873	2611.156375
963.898293	2610.606890
964.197677	2607.781323
964.497022	2607.657815
964.796331	2608.708895
965.095601	2605.706888
965.394835	2607.811570
965.694030	2605.870726
965.993189	2607.214193
966.292309	2607.488936
966.591393	2603.708071
966.890439	2604.310488
967.189447	2605.835437
967.488419	2607.171343
967.787353	2607.985490
968.086249	2607.960284
968.385108	2608.839965
968.683930	2606.006837
968.982714	2606.452979
969.281462	2607.441045
969.580172	2609.883484
969.878844	2608.877774
970.177480	2612.124277
970.476078	2614.541510
970.774639	2612.343567
971.073162	2615.123763
971.371649	2610.337188
971.670098	2613.316510
971.968510	2616.603342
972.266885	2614.765842
972.565223	2620.023765
972.863524	2619.680967
973.161788	2619.030658
973.460014	2622.393107
973.758204	2621.405041
974.056356	2621.979733
974.354471	2623.144239
974.652550	2622.098200
974.950591	2621.344547
975.248595	2623.907974
975.546563	2621.601646
975.844493	2620.217849
976.142386	2622.836729
976.440243	2621.228601
976.738062	2618.461007
977.035845	2618.859258
977.333590	2616.154679
977.631299	2614.952364
977.928971	2617.674587
978.226606	2615.053187
978.524204	2614.047477
978.821765	2614.420522
979.119290	2610.957250
979.416777	2613.437497
979.714228	2610.929523
980.011642	2612.542693
980.309020	2618.975205
980.606360	2618.077880
980.903664	2621.042078
981.200931	2626.640279
981.498162	2632.344345
981.795356	2645.237096
982.092513	2658.737306
982.389633	2679.209432
982.686717	2694.116124
982.983764	2711.424925
983.280775	2721.645865
983.577749	2728.277503
983.874686	2727.029817
984.171587	2723.705176
984.468451	2720.161245
984.765279	2716.332489
985.062070	2706.492156
985.358824	2700.735159
985.655543	2690.057995
985.952224	2682.014834
986.248869	2667.256856
986.545478	2653.938127
986.842050	2643.281128
987.138586	2632.440127
987.435086	2622.846811
987.731549	2615.090996
988.027975	2611.317692
988.324366	2608.219903
988.620719	2605.752258
988.917037	2604.983482
989.213318	2601.991558
989.509563	2601.419387
989.805772	2594.702049
990.101944	2597.547781
990.398080	2595.743047
990.694180	2598.379571
990.990244	2595.780856
991.286271	2593.320773
991.582262	2597.502410
991.878217	2597.371340
992.174136	2596.411000
992.470019	2596.201792
992.765865	2603.408122
993.061676	2598.825713
993.357450	2599.120621
993.653188	2601.303440
993.948890	2603.637494
994.244556	2607.950202
994.540186	2611.221910
994.835780	2615.978239
995.131337	2623.913015
995.426859	2629.715383
995.722345	2638.280304
996.017795	2648.670122
996.313208	2657.845022
996.608586	2660.829385
996.903928	2668.015550
997.199234	2669.616116
997.494504	2667.292144
997.789738	2667.574449
998.084936	2663.881803
998.380099	2657.592964
998.675225	2651.929228
998.970316	2649.534680
999.265371	2640.810963
999.560390	2636.271404
999.855373	2629.349900
1000.150320	2621.866307
1000.445232	2617.112499
1000.740108	2611.284925
1001.034948	2608.603031
1001.329752	2603.191352
1001.624521	2601.308481
1001.919254	2597.825044
1002.213951	2595.760692
1002.508613	2592.312542
1002.803239	2591.526122
1003.097829	2593.638366
1003.392384	2593.237594
1003.686903	2592.453695
1003.981386	2591.465628
1004.275834	2588.508992
1004.570246	2590.656523
1004.864623	2588.350195
1005.158964	2588.564444
1005.453270	2585.890112
1005.747540	2588.617377
1006.041775	2583.803075
1006.335974	2587.669640
1006.630138	2586.369022
1006.924266	2585.716193
1007.218359	2585.484299
1007.512416	2585.058322
1007.806438	2585.696028
1008.100425	2586.056470
1008.394376	2583.273753
1008.688292	2585.290215
1008.982172	2584.944896
1009.276017	2586.295925
1009.569827	2585.869948
1009.863602	2585.030596
1010.157341	2582.169741
1010.451045	2582.895667
1010.744714	2581.247210
1011.038347	2581.955492
1011.331945	2583.077148
1011.625508	2580.672518
1011.919036	2581.169072
1012.212528	2582.089082
1012.505986	2580.972467
1012.799408	2580.778382
1013.092795	2584.155955
1013.386147	2581.809298
1013.679464	2581.834504
1013.972745	2581.055646
1014.265992	2582.668815
1014.559204	2580.392734
1014.852380	2583.319124
1015.145521	2581.970615
1015.438628	2581.416088
1015.731699	2581.582446
1016.024736	2583.344330
1016.317737	2582.482292
1016.610703	2581.743763
1016.903635	2575.701940
1017.196531	2580.896849
1017.489393	2576.753021
1017.782219	2579.981880
1018.075011	2582.562951
1018.367768	2585.048240
1018.660490	2584.428178
1018.953177	2584.428178
1019.245829	2584.428178
