Dividing Wavelength (nm)	Counts (n)	Blue Motor Position (mm): 4.800000	Red Motor Position (mm): 0.000000	
326.493990	2143.589356
326.888308	2143.589356
327.282561	2143.589356
327.676750	2110.186671
328.070874	2109.586773
328.464933	2113.670108
328.858929	2115.409306
329.252859	2128.997736
329.646726	2138.008799
330.040528	2152.640748
330.434265	2170.541885
330.827938	2186.686180
331.221547	2206.384489
331.615091	2223.158928
332.008571	2241.417988
332.401986	2264.241812
332.795338	2282.478186
333.188625	2301.158181
333.581847	2318.938331
333.975006	2338.729901
334.368100	2357.941738
334.761129	2373.004706
335.154095	2391.656975
335.546996	2411.456107
335.939833	2422.244176
336.332606	2439.520210
336.725315	2450.124277
337.117960	2459.634414
337.510540	2468.567339
337.903056	2478.949595
338.295508	2486.750781
338.687896	2492.207830
339.080220	2504.369613
339.472480	2507.515293
339.864676	2514.492250
340.256807	2516.571726
340.648875	2523.228570
341.040879	2522.295957
341.432818	2522.840401
341.824694	2528.045393
342.216506	2528.189065
342.608253	2529.028418
342.999937	2527.357275
343.391557	2525.199661
343.783113	2526.091945
344.174605	2522.641276
344.566033	2524.889630
344.957397	2521.945596
345.348697	2519.238497
345.739934	2517.426202
346.131106	2515.666839
346.522215	2515.429905
346.913260	2512.944616
347.304241	2511.853206
347.695159	2509.095695
348.086012	2507.848010
348.476802	2506.333143
348.867528	2504.568739
349.258191	2501.843995
349.648789	2502.096053
350.039324	2499.910713
350.429796	2500.661845
350.820203	2497.644714
351.210548	2498.841988
351.600828	2496.865856
351.991045	2496.540702
352.381198	2495.459374
352.771288	2495.897954
353.161314	2493.155567
353.551276	2498.080774
353.941175	2491.146667
354.331010	2494.315032
354.720782	2495.429127
355.110490	2494.531802
355.500135	2491.933087
355.889717	2495.222440
356.279235	2493.846205
356.668689	2493.904178
357.058080	2493.652120
357.447408	2493.672285
357.836672	2491.544918
358.225873	2493.795793
358.615010	2491.731441
359.004084	2497.112873
359.393095	2498.214365
359.782043	2499.373830
360.170927	2500.563542
360.559748	2497.392657
360.948505	2499.101608
361.337199	2502.998420
361.725830	2499.613285
362.114398	2500.014057
362.502903	2500.682009
362.891344	2501.692761
363.279722	2504.178050
363.668037	2500.823162
364.056289	2502.315343
364.444478	2501.743172
364.832603	2502.322905
365.220665	2504.909017
365.608665	2504.750221
365.996601	2506.423884
366.384474	2505.604696
366.772284	2505.193842
367.160031	2506.456651
367.547715	2507.356497
367.935336	2506.494460
368.322893	2505.035046
368.710388	2510.149296
369.097820	2511.437311
369.485189	2507.112001
369.872495	2508.558812
370.259738	2510.053514
370.646918	2508.049656
371.034035	2508.641991
371.421090	2508.032012
371.808081	2508.926817
372.195010	2511.512928
372.581875	2509.181395
372.968678	2511.084430
373.355418	2508.455469
373.742096	2511.646519
374.128710	2511.454955
374.515262	2512.785820
374.901751	2514.134328
375.288177	2511.447393
375.674540	2513.158865
376.060841	2510.058556
376.447079	2514.789678
376.833254	2511.250788
377.219367	2509.309944
377.605417	2508.294152
377.991404	2511.427229
378.377329	2507.618637
378.763191	2511.288597
379.148991	2515.903773
379.534727	2514.454442
379.920402	2515.586181
380.306013	2514.648526
380.691563	2513.486540
381.077049	2516.231448
381.462474	2515.142559
381.847835	2516.808661
382.233134	2514.950995
382.618371	2513.491581
383.003545	2516.962416
383.388657	2514.822446
383.773706	2515.810512
384.158693	2516.720440
384.543618	2518.119361
384.928480	2518.666326
385.313280	2516.470903
385.698017	2517.826974
386.082692	2517.927797
386.467305	2518.066428
386.851856	2516.491068
387.236344	2516.559123
387.620770	2519.200688
388.005133	2518.983918
388.389435	2519.551048
388.773674	2519.654392
389.157851	2516.201202
389.541965	2519.135153
389.926018	2517.753877
390.310008	2516.276819
390.693936	2518.958713
391.077802	2520.261851
391.461606	2522.122037
391.845348	2521.290246
392.229027	2518.923425
392.612645	2522.674043
392.996200	2522.472397
393.379694	2521.920391
393.763125	2521.643127
394.146494	2520.990298
394.529801	2523.150432
394.913047	2522.611029
395.296230	2522.956348
395.679351	2520.307221
396.062410	2522.931142
396.445408	2522.162366
396.828343	2522.127078
397.211217	2518.661285
397.594028	2518.696573
397.976778	2520.387880
398.359466	2521.348220
398.742092	2519.921573
399.124656	2523.384846
399.507158	2522.938704
399.889598	2524.929959
400.271977	2526.885927
400.654294	2523.271420
401.036549	2524.304856
401.418742	2524.425844
401.800874	2522.948786
402.182944	2523.720082
402.564952	2524.408200
402.946898	2523.515916
403.328783	2526.439785
403.710606	2525.829805
404.092367	2527.034641
404.474067	2527.979857
404.855705	2527.011956
405.237282	2529.313243
405.618797	2529.061185
406.000250	2525.645803
406.381642	2528.562111
406.762972	2525.744106
407.144240	2526.217974
407.525447	2528.756195
407.906593	2527.072450
408.287677	2526.008766
408.668700	2526.346524
409.049661	2527.906761
409.430560	2528.259642
409.811399	2526.933818
410.192176	2531.027235
410.572891	2528.763757
410.953545	2526.578417
411.334138	2528.615043
411.714669	2527.642100
412.095139	2528.894827
412.475547	2530.654190
412.855894	2528.191586
413.236180	2528.509179
413.616405	2530.457585
413.996568	2528.509179
414.376670	2530.669313
414.756711	2530.180321
415.136691	2531.818696
415.516609	2533.499921
415.896466	2534.089736
416.276262	2530.147554
416.655997	2527.178314
417.035670	2529.313243
417.415283	2530.646628
417.794834	2529.986237
418.174324	2531.165867
418.553753	2530.583613
418.933121	2532.922709
419.312428	2532.199303
419.691674	2530.641587
420.070859	2531.226361
420.449983	2531.609488
420.829045	2532.058151
421.208047	2529.272913
421.586988	2533.162164
421.965867	2532.060672
422.344686	2534.314067
422.723444	2532.506814
423.102141	2533.462112
423.480777	2531.533871
423.859352	2534.800539
424.237866	2531.937163
424.616319	2533.177287
424.994712	2535.433203
425.373044	2535.173584
425.751314	2533.835158
426.129524	2536.597710
426.507673	2535.304654
426.885762	2533.227699
427.263789	2535.728111
427.641756	2532.635363
428.019662	2537.013605
428.397508	2533.741896
428.775292	2534.949253
429.153016	2537.283307
429.530679	2536.333049
429.908282	2536.406146
430.285824	2535.244160
430.663305	2533.295754
431.040726	2534.702236
431.418086	2534.460261
431.795385	2534.745086
432.172624	2535.155940
432.549802	2536.423790
432.926920	2534.349355
433.303977	2539.629964
433.680974	2534.399767
434.057910	2538.641898
434.434786	2536.234747
434.811601	2536.743903
435.188355	2536.791794
435.565050	2539.105684
435.941683	2541.404450
436.318257	2534.238450
436.694770	2532.292565
437.071222	2536.264994
437.447614	2532.653007
437.823946	2535.004705
438.200218	2537.933616
438.576429	2540.527289
438.952580	2541.046528
439.328670	2539.088040
439.704700	2538.505787
440.080670	2538.369676
440.456580	2540.222300
440.832429	2539.418236
441.208218	2535.259284
441.583947	2539.574511
441.959616	2538.667104
442.335224	2538.687268
442.710773	2539.997968
443.086261	2539.476209
443.461689	2539.456044
443.837057	2540.260108
444.212365	2539.574511
444.587612	2537.588297
444.962800	2537.931095
445.337927	2541.827907
445.712995	2539.992927
446.088002	2537.585776
446.462949	2539.808925
446.837837	2540.297917
447.212664	2540.209697
447.587431	2538.901517
447.962139	2541.689275
448.336786	2541.764893
448.711374	2541.351518
449.085901	2541.664070
449.460369	2540.307999
449.834776	2539.680376
450.209124	2540.181970
450.583412	2541.669111
450.957640	2539.536703
451.331808	2540.784388
451.705917	2539.826569
452.079965	2543.574667
452.453954	2541.424615
452.827883	2541.379244
453.201752	2543.362938
453.575562	2541.653987
453.949311	2540.439069
454.323001	2540.184491
454.696632	2539.700540
455.070202	2545.215562
455.443713	2543.299924
455.817164	2540.751621
456.190556	2537.545447
456.563888	2539.030067
456.937160	2537.913451
457.310373	2543.564585
457.683526	2542.142979
458.056619	2542.715150
458.429653	2543.272198
458.802628	2543.846889
459.175542	2540.794471
459.548398	2544.252702
459.921194	2544.081303
460.293930	2544.855120
460.666607	2543.791437
461.039224	2544.109029
461.411782	2543.609955
461.784280	2543.521735
462.156719	2543.945192
462.529099	2544.222455
462.901419	2540.144162
463.273680	2544.973587
463.645882	2545.369318
464.018024	2544.706406
464.390106	2544.081303
464.762130	2543.488967
465.134094	2544.371169
465.505999	2543.367980
465.877845	2543.259595
466.249631	2542.568957
466.621358	2544.361087
466.993026	2545.228165
467.364634	2545.848227
467.736184	2545.482744
468.107674	2543.224307
468.479105	2546.299411
468.850477	2546.259081
469.221790	2546.667415
469.593043	2543.383103
469.964238	2545.029040
470.335373	2545.986859
470.706449	2546.687579
471.077467	2544.522404
471.448425	2546.654812
471.819324	2546.269164
472.190164	2545.127342
472.560945	2547.416026
472.931667	2544.698844
473.302330	2543.461241
473.672934	2545.407126
474.043479	2544.020809
474.413965	2547.715975
474.784393	2540.126518
475.154761	2542.347146
475.525070	2543.118442
475.895321	2541.424615
476.265513	2542.573998
476.635645	2546.768238
477.005719	2545.167672
477.375734	2547.597508
477.745691	2546.022147
478.115588	2545.011396
478.485427	2545.878474
478.855207	2544.277908
479.224928	2547.247148
479.594591	2547.655481
479.964194	2546.967363
480.333739	2544.204811
480.703226	2546.312013
481.072653	2547.141283
481.442022	2545.840666
481.811333	2545.119781
482.180584	2546.102806
482.549777	2546.644730
482.918912	2546.344781
483.287988	2547.143804
483.657005	2549.326623
484.025964	2546.047353
484.394864	2548.590615
484.763706	2546.438042
485.132489	2545.815460
485.501213	2546.017106
485.869879	2548.509957
486.238487	2547.980635
486.607036	2548.903167
486.975527	2548.792261
487.343959	2548.875440
487.712333	2547.373176
488.080648	2545.371838
488.448905	2546.259081
488.817104	2546.324616
489.185244	2545.709596
489.553326	2548.210008
489.921350	2547.100954
490.289315	2547.738660
490.657222	2546.183464
491.025070	2545.006355
491.392861	2548.850234
491.760593	2547.935265
492.128267	2548.746891
492.495883	2548.509957
492.863440	2550.259237
493.230939	2546.846376
493.598380	2550.665050
493.965763	2544.169523
494.333088	2544.262784
494.700354	2544.585418
495.067563	2545.298742
495.434713	2544.519883
495.801805	2549.051881
496.168839	2548.688917
496.535815	2549.220759
496.902733	2546.493495
497.269593	2550.975081
497.636395	2548.454504
498.003139	2548.232693
498.369825	2549.243444
498.736453	2549.251006
499.103023	2547.479041
499.469535	2546.667415
499.835989	2546.133052
500.202385	2550.526418
500.568723	2549.616490
500.935003	2548.525080
501.301226	2547.819318
501.667390	2550.246634
502.033497	2549.946685
502.399546	2548.083979
502.765537	2548.888043
503.131470	2548.303269
503.497345	2549.689587
503.863163	2550.778476
504.228923	2550.191181
504.594625	2550.518856
504.960269	2550.740667
505.325856	2547.156407
505.691385	2549.397200
506.056856	2548.595656
506.422270	2548.648588
506.787625	2549.261088
507.152924	2548.310831
507.518164	2549.311500
507.883347	2549.238403
508.248472	2549.041798
508.613540	2548.459545
508.978550	2549.072045
509.343503	2545.661705
509.708398	2551.862324
510.073236	2547.153886
510.438016	2548.386448
510.802738	2547.161448
511.167403	2547.889895
511.532010	2549.288815
511.896561	2550.717982
512.261053	2549.858465
512.625488	2548.346119
512.989866	2545.533155
513.354186	2549.513146
513.718449	2542.684903
514.082655	2548.245296
514.446803	2547.869730
514.810894	2547.647919
515.174927	2552.953734
515.538904	2549.525749
515.902822	2551.305276
516.266684	2548.635985
516.630488	2550.062632
516.994235	2549.624052
517.357925	2550.670091
517.721558	2551.307797
518.085133	2549.344267
518.448651	2549.510626
518.812112	2551.607746
519.175516	2551.932900
519.538863	2548.923331
519.902152	2548.789741
520.265385	2550.231511
520.628560	2550.778476
520.991678	2549.732436
521.354739	2552.862993
521.717743	2550.627241
522.080690	2547.859648
522.443580	2550.360060
522.806413	2551.214536
523.169189	2549.513146
523.531908	2549.218239
523.894569	2551.436346
524.257174	2552.399207
524.619722	2552.187478
524.982213	2553.165462
525.344647	2550.428116
525.707025	2553.082283
526.069345	2550.221428
526.431608	2549.155224
526.793815	2549.288815
527.155964	2552.908363
527.518057	2551.572457
527.880093	2552.406768
528.242072	2550.261757
528.603995	2551.005328
528.965860	2551.887530
529.327669	2551.343085
529.689421	2551.963147
530.051117	2551.774104
530.412755	2550.050029
530.774337	2550.412992
531.135862	2550.632282
531.497331	2548.860317
531.858743	2547.088351
532.220098	2549.324103
532.581396	2546.473330
532.942638	2547.768907
533.303824	2550.339895
533.664953	2551.123795
534.026025	2550.496171
534.387040	2552.535318
534.747999	2549.364432
535.108902	2551.721172
535.469748	2549.868547
535.830537	2550.675132
536.191270	2549.074566
536.551947	2552.898281
536.912567	2550.360060
537.273131	2551.189330
537.633638	2550.874258
537.994089	2553.064639
538.354483	2549.455173
538.714821	2549.606408
539.075103	2549.233362
539.435328	2552.028682
539.795497	2550.024823
540.155609	2551.980791
540.515665	2550.760832
540.875665	2554.549259
541.235609	2552.671429
541.595496	2551.698486
541.955328	2552.961295
542.315102	2553.457849
542.674821	2552.013558
543.034483	2551.262427
543.394090	2550.556665
543.753640	2550.954916
544.113134	2554.529094
544.472571	2551.247303
544.831953	2554.627397
545.191278	2552.520194
545.550548	2551.612787
545.909761	2550.982642
546.268918	2552.310987
546.628019	2551.385935
546.987064	2552.280740
547.346053	2552.000956
547.704986	2553.188147
548.063863	2552.542880
548.422684	2550.609597
548.781449	2554.531615
549.140158	2549.760163
549.498811	2553.404917
549.857408	2550.294525
550.215949	2548.792261
550.574434	2546.183464
550.932864	2549.881150
551.291237	2547.630275
551.649555	2551.993394
552.007817	2554.554300
552.366022	2552.401727
552.724173	2551.219577
553.082267	2551.149001
553.440305	2550.770914
553.798288	2552.346275
554.156215	2549.515667
554.514086	2553.233518
554.871902	2549.944165
555.229661	2550.770914
555.587365	2554.571944
555.945014	2555.244938
556.302606	2551.695966
556.660143	2553.039433
557.017625	2549.840821
557.375050	2550.952396
557.732421	2550.342416
558.089735	2552.870555
558.446994	2550.836449
558.804197	2554.095555
559.161345	2550.922149
559.518437	2552.414330
559.875474	2551.917777
560.232455	2551.269988
560.589381	2552.666388
560.946251	2555.121430
561.303065	2553.185627
561.659825	2552.167314
562.016528	2552.532797
562.373177	2553.079762
562.729770	2550.826367
563.086307	2551.806871
563.442789	2551.819474
563.799216	2549.994576
564.155587	2551.446429
564.511904	2550.360060
564.868164	2549.613969
565.224370	2552.071532
565.580520	2551.983312
565.936615	2555.910370
566.292654	2552.174875
566.648638	2551.925338
567.004567	2553.785524
567.360441	2551.801830
567.716260	2552.189999
568.072023	2550.813764
568.427732	2547.184133
568.783385	2548.915769
569.138982	2548.227652
569.494525	2550.990204
569.850013	2548.583053
570.205445	2550.884340
570.560823	2552.865513
570.916145	2549.452652
571.271412	2554.251831
571.626625	2553.117571
571.981782	2552.046326
572.336884	2552.167314
572.691931	2552.631100
573.046923	2552.981460
573.401860	2552.442057
573.756743	2554.095555
574.111570	2550.050029
574.466342	2553.588919
574.821059	2551.718651
575.175722	2552.870555
575.530330	2552.116902
575.884882	2551.169165
576.239380	2550.571788
576.593823	2556.280895
576.948211	2551.070863
577.302544	2553.364588
577.656823	2553.278888
578.011047	2552.089176
578.365216	2551.317879
578.719330	2553.563713
579.073389	2553.369629
579.427394	2551.469114
579.781344	2551.713610
580.135239	2551.678322
580.489080	2553.084804
580.842866	2555.161759
581.196597	2556.744681
581.550273	2551.829556
581.903895	2551.784186
582.257463	2553.785524
582.610975	2552.293343
582.964434	2552.041285
583.317837	2551.988353
583.671186	2553.984650
584.024481	2551.595143
584.377721	2553.339382
584.730906	2555.081101
585.084037	2551.842159
585.437113	2554.960113
585.790135	2551.529608
586.143103	2554.861810
586.496016	2553.795606
586.848874	2550.178578
587.201679	2550.430636
587.554428	2548.141952
587.907124	2550.387786
588.259765	2549.021634
588.612352	2554.851728
588.964884	2553.702345
589.317362	2552.820143
589.669786	2553.087324
590.022155	2553.379711
590.374470	2553.571275
590.726731	2550.234031
591.078937	2554.027499
591.431090	2551.990873
591.783188	2552.434495
592.135232	2552.759649
592.487222	2555.106306
592.839157	2554.549259
593.191038	2553.861141
593.542866	2553.901471
593.894639	2552.739485
594.246358	2553.198230
594.598022	2552.013558
594.949633	2554.055226
595.301190	2550.347457
595.652692	2550.720502
596.004141	2552.706717
596.355535	2554.307283
596.706876	2551.824515
597.058162	2556.306101
597.409395	2553.480534
597.760573	2553.561193
598.111698	2551.761501
598.462768	2552.583209
598.813785	2552.323589
599.164748	2551.597663
599.515657	2552.908363
599.866511	2550.791079
600.217312	2551.590102
600.568060	2553.079762
600.918753	2554.244269
601.269392	2551.665719
601.619978	2552.920966
601.970510	2551.653116
602.320988	2550.760832
602.671412	2553.924156
603.021783	2553.846018
603.372100	2550.851573
603.722363	2553.941800
604.072572	2551.900133
604.422728	2553.344423
604.772830	2549.321582
605.122878	2549.503064
605.472872	2551.123795
605.822813	2548.376366
606.172701	2548.978784
606.522534	2552.822664
606.872314	2554.894578
607.222041	2550.307128
607.571714	2554.796275
607.921333	2550.241593
608.270899	2551.726213
608.620411	2553.919115
608.969870	2554.463559
609.319276	2554.405586
609.668627	2556.868190
610.017926	2559.517316
610.367171	2562.015208
610.716362	2558.446071
611.065500	2557.417675
611.414585	2556.260731
611.763616	2557.059753
612.112594	2551.789227
612.461518	2558.932542
612.810389	2554.365257
613.159207	2551.587581
613.507971	2551.920297
613.856682	2555.623025
614.205340	2555.673436
614.553945	2554.181255
614.902496	2553.906512
615.250994	2554.803837
615.599439	2555.496996
615.947830	2552.081614
616.296169	2554.584547
616.644454	2554.496327
616.992686	2554.289639
617.340864	2554.967675
617.688990	2551.234700
618.037063	2552.812581
618.385082	2552.895760
618.733048	2554.229146
619.080961	2555.076059
619.428821	2554.619835
619.776628	2553.165462
620.124382	2555.713765
620.472083	2552.066491
620.819731	2554.156049
621.167326	2551.852242
621.514868	2555.796944
621.862357	2555.020607
622.209793	2553.972047
622.557176	2552.989022
622.904506	2552.535318
623.251783	2548.817467
623.599007	2552.164793
623.946179	2550.387786
624.293297	2551.048177
624.640363	2553.173024
624.987376	2553.319217
625.334336	2552.991542
625.681243	2553.455328
626.028097	2551.176727
626.374899	2552.502550
626.721647	2555.744012
627.068343	2551.459032
627.414987	2552.028682
627.761577	2550.271840
628.108115	2552.293342
628.454600	2552.615976
628.801032	2553.208312
629.147412	2550.637323
629.493739	2553.704866
629.840014	2552.711758
630.186236	2553.067160
630.532405	2552.260575
630.878521	2551.259906
631.224585	2553.422561
631.570597	2552.164793
631.916556	2551.653116
632.262462	2552.164793
632.608316	2551.900133
632.954117	2552.822664
633.299866	2552.618497
633.645562	2551.998435
633.991206	2554.070349
634.336797	2551.469114
634.682336	2552.870555
635.027823	2552.603373
635.373257	2550.528939
635.718639	2550.256716
636.063968	2552.983981
636.409245	2550.881819
636.754470	2552.691594
637.099642	2551.998435
637.444762	2553.326779
637.789829	2551.837118
638.134845	2554.360216
638.479808	2553.213353
638.824719	2554.224104
639.169577	2550.622200
639.514383	2553.036913
639.859137	2552.071532
640.203839	2553.987170
640.548489	2551.050698
640.893086	2547.214380
641.237632	2550.755791
641.582125	2549.263609
641.926566	2547.703372
642.270955	2550.682694
642.615292	2550.884340
642.959576	2556.180072
643.303809	2552.263096
643.647990	2551.708569
643.992118	2550.894422
644.336195	2552.613456
644.680219	2551.375853
645.024192	2548.812426
645.368112	2552.792417
645.711981	2551.970709
646.055797	2552.384083
646.399562	2550.533980
646.743274	2553.684701
647.086935	2551.474155
647.430544	2552.099258
647.774101	2551.219577
648.117606	2552.719320
648.461059	2552.978939
648.804460	2553.394835
649.147810	2550.412992
649.491108	2552.784855
649.834354	2552.253013
650.177548	2551.431305
650.520690	2553.997252
650.863781	2550.171017
651.206820	2554.138405
651.549807	2549.883671
651.892742	2551.688404
652.235626	2550.793599
652.578458	2549.583722
652.921238	2552.691594
653.263967	2553.505740
653.606644	2550.549103
653.949269	2551.000287
654.291843	2552.154711
654.634365	2551.718651
654.976836	2552.621017
655.319255	2548.933413
655.661622	2551.837118
656.003938	2548.951058
656.346203	2552.958775
656.688416	2553.054557
657.030577	2551.844680
657.372687	2553.200750
657.714746	2550.415513
658.056753	2551.804351
658.398708	2547.894936
658.740612	2547.572302
659.082465	2548.434339
659.424266	2549.795451
659.766016	2546.425439
660.107715	2549.198074
660.449362	2552.578168
660.790958	2550.889381
661.132503	2553.059598
661.473996	2552.187478
661.815438	2551.262427
662.156829	2551.695966
662.498168	2551.648075
662.839456	2551.403579
663.180693	2553.523384
663.521879	2551.358208
663.863013	2552.273178
664.204097	2549.001469
664.545129	2551.625390
664.886110	2552.195040
665.227040	2550.962478
665.567918	2552.321069
665.908746	2552.041285
666.249522	2550.375183
666.590248	2551.683363
666.930922	2552.285781
667.271545	2550.594474
667.612118	2549.898794
667.952639	2553.551110
668.293109	2549.379556
668.633528	2551.085986
668.973896	2549.440049
669.314213	2552.875596
669.654480	2553.276367
669.994695	2550.874258
670.334859	2550.652447
670.674973	2551.542211
671.015035	2553.165462
671.355047	2549.193033
671.695008	2551.418702
672.034918	2550.536500
672.374777	2551.083466
672.714585	2551.731254
673.054342	2551.348126
673.394049	2551.254865
673.733705	2551.401058
674.073310	2554.178734
674.412864	2553.780483
674.752368	2550.579350
675.091820	2551.378373
675.431223	2552.275698
675.770574	2552.421892
676.109875	2545.235727
676.449125	2548.325954
676.788324	2548.215049
677.127473	2549.929041
677.466571	2546.556509
677.805619	2552.820143
678.144616	2554.816440
678.483562	2551.068342
678.822458	2549.263609
679.161303	2553.462890
679.500098	2552.757129
679.838842	2548.580533
680.177535	2551.262427
680.516179	2552.724361
680.854771	2552.552962
681.193314	2550.549103
681.531805	2552.384083
681.870247	2551.680842
682.208638	2551.312838
682.546978	2551.784186
682.885268	2551.557334
683.223508	2552.308466
683.561697	2549.581202
683.899836	2552.464742
684.237925	2553.024310
684.575963	2551.272509
684.913951	2550.959957
685.251889	2555.171841
685.589776	2550.654967
685.927614	2550.420554
686.265401	2548.809905
686.603137	2552.459701
686.940824	2551.333003
687.278460	2552.414330
687.616046	2552.227807
687.953582	2550.770914
688.291068	2550.410472
688.628504	2551.103630
688.965889	2552.343754
689.303224	2552.704197
689.640510	2547.937786
689.977745	2553.480534
690.314930	2551.028013
690.652065	2552.701676
690.989150	2550.954916
691.326185	2553.727551
691.663170	2550.425595
692.000105	2550.861655
692.336990	2552.444577
692.673825	2551.075904
693.010610	2553.442726
693.347345	2546.604400
693.684030	2549.392158
694.020665	2547.476520
694.357251	2548.101623
694.693786	2548.464586
695.030272	2549.563558
695.366707	2548.446942
695.703093	2552.681511
696.039429	2552.986501
696.375716	2551.665719
696.711952	2549.976932
697.048139	2548.061294
697.384276	2549.490461
697.720363	2550.629762
698.056400	2551.569937
698.392388	2552.512633
698.728326	2551.078424
699.064214	2548.996428
699.400053	2550.458363
699.735842	2550.937272
700.071581	2553.616645
700.407270	2549.039278
700.742910	2550.730585
701.078501	2550.889381
701.414042	2549.253527
701.749533	2551.484237
702.084974	2549.568599
702.420366	2551.272509
702.755709	2550.846531
703.091002	2551.491799
703.426246	2550.097920
703.761440	2550.569268
704.096584	2551.804351
704.431679	2552.477345
704.766725	2550.453321
705.101721	2549.162786
705.436668	2550.390307
705.771565	2551.416182
706.106413	2549.190512
706.441212	2548.890564
706.775961	2551.885009
707.110661	2549.114895
707.445311	2550.221428
707.779913	2551.189330
708.114465	2549.775286
708.448967	2550.748229
708.783421	2552.011038
709.117825	2551.517005
709.452180	2552.124464
709.786485	2551.607746
710.120742	2550.458362
710.454949	2550.160934
710.789107	2549.709751
711.123216	2546.816129
711.457275	2547.673125
711.791286	2546.589277
712.125247	2547.905018
712.459159	2550.314690
712.793023	2550.062632
713.126837	2553.117571
713.460602	2549.344268
713.794318	2550.700338
714.127985	2551.070863
714.461602	2549.361912
714.795171	2550.773435
715.128691	2550.970040
715.462162	2548.792261
715.795584	2552.560524
716.128957	2550.198743
716.462281	2549.712272
716.795556	2549.684545
717.128782	2550.380225
717.461960	2552.063970
717.795088	2553.296532
718.128167	2550.176058
718.461198	2547.741181
718.794180	2548.376366
719.127113	2552.552962
719.459997	2550.375183
719.792833	2549.533311
720.125619	2550.748229
720.458357	2551.519525
720.791046	2552.772252
721.123686	2549.082128
721.456278	2552.270657
721.788821	2552.595812
722.121315	2550.599515
722.453761	2552.290822
722.786158	2548.162117
723.118506	2546.934596
723.450805	2549.341747
723.783056	2548.819987
724.115259	2551.128836
724.447412	2549.472817
724.779518	2550.050029
725.111574	2548.189843
725.443582	2549.606408
725.775542	2549.737478
726.107453	2553.167983
726.439315	2549.001469
726.771129	2554.445915
727.102895	2549.712272
727.434612	2549.790410
727.766281	2551.111192
728.097901	2546.334699
728.429473	2547.040460
728.760996	2547.995759
729.092471	2544.028371
729.423897	2547.456355
729.755276	2547.889895
730.086606	2551.673281
730.417887	2549.598846
730.749120	2549.094730
731.080305	2550.256716
731.411442	2551.075904
731.742530	2548.746891
732.073570	2550.566747
732.404562	2549.533311
732.735506	2549.646737
733.066401	2549.916438
733.397249	2549.056922
733.728048	2550.828887
734.058798	2549.734957
734.389501	2550.473486
734.720156	2549.666901
735.050762	2550.997766
735.381320	2551.206974
735.711831	2548.946016
736.042293	2552.129505
736.372707	2549.913918
736.703073	2550.528939
737.033391	2550.400389
737.363661	2550.549103
737.693883	2550.995245
738.024056	2550.904505
738.354182	2551.126315
738.684260	2551.892571
739.014290	2548.026006
739.344272	2550.549103
739.674207	2549.089689
740.004093	2552.721841
740.333931	2547.537014
740.663722	2550.876778
740.993464	2548.567930
741.323159	2550.581871
741.652806	2549.266130
741.982405	2549.016592
742.311956	2549.777807
742.641460	2549.394679
742.970915	2546.790923
743.300323	2549.903836
743.629683	2551.557334
743.958996	2549.437529
744.288260	2551.675801
744.617477	2550.102961
744.946647	2545.669266
745.275768	2546.624565
745.604842	2544.787064
745.933869	2548.005841
746.262847	2545.066848
746.591778	2550.523898
746.920662	2547.652960
747.249498	2548.421736
747.578286	2549.636654
747.907027	2550.861655
748.235720	2551.368291
748.564365	2547.758825
748.892963	2548.759494
749.221514	2549.281253
749.550017	2547.771427
749.878473	2550.866696
750.206881	2549.087169
750.535242	2548.081458
750.863555	2549.976932
751.191821	2548.247817
751.520039	2547.811757
751.848210	2549.389638
752.176334	2549.082127
752.504411	2548.832590
752.832440	2552.177396
753.160421	2549.555996
753.488356	2548.993907
753.816243	2548.676315
754.144082	2550.173537
754.471875	2548.179761
754.799620	2549.029195
755.127318	2548.946016
755.454969	2550.821326
755.782572	2551.597663
756.110129	2548.590615
756.437638	2548.585574
756.765100	2547.751263
757.092515	2550.153373
757.419882	2549.918959
757.747203	2550.665050
758.074477	2548.734288
758.401703	2549.913918
758.728882	2547.584905
759.056014	2547.463917
759.383099	2548.981304
759.710138	2551.572457
760.037129	2550.027344
760.364073	2549.538352
760.690970	2548.726726
761.017820	2551.340564
761.344623	2546.490974
761.671379	2549.288815
761.998088	2548.071376
762.324751	2547.347971
762.651366	2543.393185
762.977935	2544.187167
763.304456	2544.313196
763.630931	2547.690769
763.957359	2547.814277
764.283740	2548.615821
764.610074	2546.722868
764.936362	2549.946685
765.262602	2548.930893
765.588796	2548.081458
765.914943	2547.804195
766.241044	2546.992569
766.567097	2546.866540
766.893104	2550.773435
767.219064	2547.892415
767.544978	2550.055070
767.870845	2548.386448
768.196665	2548.174720
768.522438	2547.529452
768.848165	2550.150852
769.173846	2547.136242
769.499479	2549.860986
769.825066	2547.842004
770.150607	2550.912066
770.476101	2549.210677
770.801548	2551.375852
771.126949	2547.524411
771.452303	2547.277394
771.777611	2547.889895
772.102872	2548.182282
772.428087	2550.261757
772.753256	2550.569268
773.078378	2548.031047
773.403453	2548.784699
773.728482	2548.494833
774.053465	2549.871068
774.378401	2550.554144
774.703291	2548.658671
775.028135	2547.907539
775.352932	2547.940306
775.677683	2549.860986
776.002388	2549.775286
776.327046	2548.570450
776.651658	2549.687066
776.976224	2547.405944
777.300743	2548.464586
777.625216	2548.348640
777.949643	2548.898125
778.274024	2549.079607
778.598359	2544.756817
778.922647	2544.837476
779.246889	2544.580377
779.571086	2543.035263
779.895236	2546.884184
780.219339	2547.466438
780.543397	2549.215718
780.867409	2547.388300
781.191374	2550.329813
781.515294	2547.970553
781.839167	2548.109185
782.162995	2549.167827
782.486776	2546.117929
782.810511	2548.754453
783.134201	2547.892415
783.457844	2546.876623
783.781441	2546.128011
784.104993	2549.523228
784.428498	2547.587425
784.751958	2549.087169
785.075372	2549.613969
785.398739	2548.076417
785.722061	2550.085317
786.045337	2546.017106
786.368568	2548.542724
786.691752	2547.095913
787.014891	2547.970553
787.337983	2547.786551
787.661030	2548.560368
787.984031	2547.874771
788.306987	2549.200595
788.629897	2547.269833
788.952760	2550.218908
789.275579	2549.182951
789.598351	2547.418547
789.921078	2546.745553
790.243759	2545.243289
790.566395	2549.455173
790.888984	2547.375697
791.211529	2549.208156
791.534027	2552.668908
791.856480	2548.419216
792.178888	2546.296890
792.501249	2545.681869
792.823566	2548.807385
793.145836	2548.280584
793.468062	2548.058773
793.790241	2548.726726
794.112375	2549.656819
794.434464	2545.823022
794.756507	2548.159596
795.078505	2549.442570
795.400457	2546.879143
795.722364	2542.536189
796.044226	2543.609955
796.366042	2541.948895
796.687812	2546.743032
797.009538	2546.846376
797.331218	2545.442414
797.652852	2546.659853
797.974442	2547.209339
798.295986	2548.794782
798.617484	2546.632127
798.938938	2549.578681
799.260346	2545.190357
799.581709	2548.187323
799.903026	2547.007693
800.224299	2547.635316
800.545526	2545.548279
800.866708	2546.276725
801.187845	2548.157076
801.508936	2546.702703
801.829983	2546.153217
802.150984	2550.216387
802.471940	2548.194884
802.792851	2548.094061
803.113717	2546.261602
803.434538	2547.778989
803.755314	2547.842004
804.076045	2545.263453
804.396731	2547.446273
804.717372	2547.811757
805.037967	2545.843186
805.358518	2549.392158
805.679024	2549.077086
805.999485	2544.199770
806.319901	2547.209339
806.640272	2549.399720
806.960598	2548.409133
807.280879	2545.843186
807.601115	2549.394679
807.921306	2547.955430
808.241453	2549.117416
808.561554	2548.177240
808.881611	2546.813608
809.201623	2546.380069
809.521590	2548.363763
809.841513	2545.253371
810.161390	2549.067004
810.481223	2546.415357
810.801011	2546.644730
811.120755	2548.031047
811.440453	2548.565409
811.760107	2548.257899
812.079716	2547.133722
812.399281	2541.361600
812.718801	2544.250182
813.038276	2542.697506
813.357707	2547.516849
813.677093	2547.622713
813.996434	2547.773948
814.315731	2545.606252
814.634983	2549.140101
814.954191	2544.774462
815.273354	2548.210008
815.592473	2547.156407
815.911547	2545.492826
816.230577	2545.520552
816.549562	2548.883002
816.868502	2547.670604
817.187399	2546.760676
817.506250	2549.334185
817.825058	2546.906870
818.143821	2549.863506
818.462539	2548.351160
818.781213	2548.207487
819.099843	2547.274874
819.418429	2546.916952
819.736970	2548.494833
820.055466	2543.882177
820.373919	2548.464586
820.692327	2547.431150
821.010691	2550.914587
821.329011	2550.808723
821.647286	2554.408107
821.965517	2548.787220
822.283704	2551.295194
822.601847	2549.182951
822.919945	2549.863506
823.237999	2550.226469
823.556010	2549.344268
823.873976	2547.673125
824.191897	2549.503064
824.509775	2546.117929
824.827609	2548.134391
825.145398	2548.119267
825.463144	2548.152035
825.780845	2549.684545
826.098502	2548.275543
826.416116	2543.183977
826.733685	2546.533824
827.051210	2545.293700
827.368692	2549.432488
827.686129	2546.987528
828.003522	2545.843186
828.320872	2546.553989
828.638177	2545.349153
828.955439	2543.741025
829.272656	2540.567619
829.589830	2542.049718
829.906960	2548.910728
830.224046	2546.962322
830.541088	2548.610780
830.858086	2546.662374
831.175041	2548.588094
831.491952	2547.365615
831.808819	2545.835624
832.125642	2547.589946
832.442421	2546.218752
832.759157	2546.178423
833.075849	2547.622713
833.392497	2549.984494
833.709101	2546.392672
834.025662	2546.596839
834.342179	2552.605894
834.658653	2546.594318
834.975083	2548.353681
835.291469	2550.339895
835.607811	2546.992569
835.924110	2544.885367
836.240366	2545.250851
836.556578	2545.739843
836.872746	2548.179761
837.188871	2546.203629
837.504952	2545.220604
837.820990	2548.061294
838.136984	2545.457538
838.452935	2548.041129
838.768842	2545.197918
839.084706	2546.422919
839.400526	2547.721016
839.716303	2546.090203
840.032037	2549.092210
840.347727	2546.785882
840.663373	2542.750438
840.978977	2545.860830
841.294537	2545.913762
841.610054	2547.380738
841.925527	2544.035932
842.240957	2546.596839
842.556344	2547.743701
842.871687	2546.574153
843.186987	2547.413506
843.502244	2544.550130
843.817458	2546.783361
844.132629	2544.512322
844.447756	2546.130532
844.762840	2540.315561
845.077881	2544.482075
845.392879	2542.120294
845.707833	2544.512322
846.022745	2542.780685
846.337613	2544.484595
846.652438	2546.942158
846.967221	2548.749411
847.281960	2544.842517
847.596656	2548.416695
847.911309	2548.509957
848.225919	2544.179605
848.540485	2545.548279
848.855009	2545.762528
849.169490	2545.623896
849.483928	2546.196067
849.798323	2544.368649
850.112675	2549.210677
850.426984	2546.390151
850.741251	2549.626572
851.055474	2548.275543
851.369654	2547.922662
851.683792	2547.995759
851.997887	2545.449976
852.311938	2545.472661
852.625947	2546.929555
852.939914	2548.270502
853.253837	2548.010882
853.567718	2546.705223
853.881555	2546.473330
854.195350	2543.947712
854.509103	2544.812270
854.822812	2546.042312
855.136479	2545.991900
855.450103	2545.006355
855.763685	2546.508618
856.077224	2546.591797
856.390720	2548.023485
856.704173	2545.598690
857.017584	2547.499205
857.330953	2545.109698
857.644278	2543.776313
857.957561	2548.204967
858.270802	2547.617672
858.584000	2547.726057
858.897155	2547.867209
859.210268	2547.174051
859.523339	2544.333361
859.836367	2545.659184
860.149352	2548.835111
860.462295	2546.979966
860.775195	2541.575849
861.088054	2542.067362
861.400869	2543.471323
861.713642	2541.086858
862.026373	2547.363094
862.339062	2546.687579
862.651708	2544.978628
862.964312	2545.510470
863.276873	2546.178423
863.589392	2547.383259
863.901869	2541.689275
864.214303	2545.828063
864.526696	2549.016592
864.839045	2548.005841
865.151353	2545.664225
865.463619	2545.558361
865.775842	2544.209852
866.088023	2545.313865
866.400162	2545.369318
866.712258	2545.863351
867.024313	2545.175233
867.336325	2546.150697
867.648296	2547.794113
867.960224	2547.025337
868.272110	2546.286808
868.583954	2548.484751
868.895755	2545.941489
869.207515	2543.846889
869.519233	2543.085675
869.830909	2546.213711
870.142542	2543.226827
870.454134	2545.107178
870.765684	2544.910573
871.077191	2549.480379
871.388657	2547.995759
871.700081	2545.510470
872.011463	2544.091385
872.322803	2545.228165
872.634101	2543.146169
872.945357	2545.376879
873.256571	2546.939637
873.567744	2546.145655
873.878874	2547.473999
874.189963	2544.340922
874.501010	2546.322096
874.812015	2545.404606
875.122979	2545.611293
875.433900	2543.509132
875.744780	2547.274874
876.055618	2544.557692
876.366415	2546.790923
876.677169	2547.017775
876.987882	2542.112732
877.298554	2540.660880
877.609183	2544.005686
877.919771	2543.562064
878.230317	2541.865716
878.540822	2549.029195
878.851285	2544.068700
879.161707	2545.777651
879.472087	2547.854607
879.782425	2546.095244
880.092722	2548.210008
880.402977	2544.048535
880.713191	2551.645554
881.023363	2548.517518
881.333494	2548.923331
881.643583	2547.050543
881.953631	2547.859648
882.263637	2545.102137
882.573602	2546.992569
882.883526	2546.317055
883.193408	2546.720347
883.503248	2545.959133
883.813048	2546.553989
884.122806	2544.179605
884.432522	2546.990049
884.742197	2547.040460
885.051831	2547.632796
885.361424	2547.610111
885.670975	2546.647250
885.980485	2544.910573
886.289954	2546.977446
886.599382	2542.263967
886.908768	2547.473999
887.218113	2545.938968
887.527417	2545.550799
887.836680	2546.337219
888.145901	2544.356046
888.455082	2546.117929
888.764221	2546.047353
889.073319	2545.006355
889.382376	2544.822352
889.691392	2543.957795
890.000366	2546.473330
890.309300	2543.005017
890.618193	2546.705223
890.927044	2546.841335
891.235855	2546.934596
891.544625	2543.047866
891.853353	2546.780841
892.162041	2544.315717
892.470687	2546.871582
892.779293	2543.761190
893.087858	2544.766900
893.396381	2540.991076
893.704864	2543.264636
894.013306	2540.227341
894.321707	2542.934440
894.630068	2545.175233
894.938387	2546.569112
895.246665	2547.836962
895.554903	2549.102292
895.863100	2544.381252
896.171256	2546.770758
896.479371	2544.575336
896.787446	2546.433001
897.095480	2545.200439
897.403473	2546.654812
897.711425	2543.438556
898.019336	2546.657333
898.327207	2545.432332
898.635038	2545.288659
898.942827	2546.717826
899.250576	2545.276056
899.558284	2546.649771
899.865952	2545.674307
900.173579	2544.666077
900.481165	2546.506098
900.788711	2545.124822
901.096216	2544.630789
901.403681	2544.623227
901.711105	2544.038453
902.018489	2543.209183
902.325832	2544.971067
902.633135	2544.174564
902.940397	2548.341078
903.247619	2543.977959
903.554800	2542.616848
903.861941	2544.993752
904.169041	2544.167002
904.476101	2545.540717
904.783121	2545.979297
905.090100	2545.124822
905.397039	2543.438556
905.703938	2543.796478
906.010796	2544.809750
906.317614	2544.552651
906.624391	2546.906870
906.931129	2543.524255
907.237826	2544.887887
907.544483	2543.559543
907.851099	2543.710778
908.157675	2545.724719
908.464211	2543.178936
908.770707	2542.077444
909.077163	2541.492670
909.383578	2542.647095
909.689954	2541.558205
909.996289	2542.425284
910.302584	2543.005017
910.608839	2541.785057
910.915054	2546.526262
911.221229	2541.719522
911.527363	2546.475851
911.833458	2544.124153
912.139513	2548.373845
912.445527	2543.579708
912.751502	2543.496529
913.057436	2543.907383
913.363331	2540.953267
913.669186	2544.214893
913.975000	2547.438711
914.280775	2544.461910
914.586510	2544.285470
914.892205	2544.466951
915.197859	2541.288504
915.503475	2544.880326
915.809050	2546.490974
916.114585	2545.669266
916.420081	2546.599359
916.725536	2546.538865
917.030952	2545.056766
917.336328	2544.411498
917.641665	2544.867723
917.946961	2542.405119
918.252218	2543.708258
918.557435	2544.287990
918.862612	2544.194729
919.167750	2544.887887
919.472848	2545.180274
919.777906	2543.478885
920.082925	2543.534338
920.387904	2542.982331
920.692843	2544.600542
920.997743	2544.502239
921.302603	2544.285470
921.607423	2545.598690
921.912204	2543.405788
922.216946	2543.791437
922.521647	2545.462579
922.826310	2542.954605
923.130932	2544.819832
923.435516	2543.904863
923.740059	2545.230686
924.044564	2545.843186
924.349028	2543.894780
924.653454	2538.659542
924.957840	2542.563916
925.262186	2540.444110
925.566493	2540.630633
925.870761	2538.099974
926.174989	2543.120963
926.479178	2544.955943
926.783328	2545.553320
927.087438	2545.293700
927.391509	2543.113401
927.695541	2542.581560
927.999533	2542.831097
928.303486	2545.182795
928.607400	2542.715150
928.911275	2547.179092
929.215110	2545.102137
929.518906	2542.987373
929.822663	2545.273536
930.126381	2541.991745
930.430060	2542.160623
930.733699	2543.201622
931.037299	2542.924358
931.340861	2544.499719
931.644383	2544.802188
931.947866	2545.780172
932.251309	2545.238248
932.554714	2544.338402
932.858080	2544.038453
933.161407	2544.083823
933.464694	2544.943340
933.767943	2543.055428
934.071153	2545.079451
934.374323	2540.834800
934.677455	2544.096426
934.980548	2544.308155
935.283602	2542.957126
935.586617	2540.986034
935.889593	2543.977959
936.192530	2543.720860
936.495428	2544.214893
936.798287	2544.275387
937.101108	2540.625592
937.403890	2544.678680
937.706632	2546.306972
938.009336	2543.539379
938.312002	2543.279759
938.614628	2543.567105
938.917216	2545.800336
939.219765	2541.356559
939.522275	2545.553320
939.824747	2544.769420
940.127179	2537.172402
940.429573	2542.415202
940.731929	2541.449821
941.034246	2538.155427
941.336524	2544.953422
941.638763	2543.670449
941.940964	2543.645243
942.243126	2543.090716
942.545250	2543.299924
942.847335	2543.415871
943.149381	2543.330171
943.451389	2542.107691
943.753359	2540.670962
944.055290	2542.727753
944.357182	2542.415202
944.659036	2543.065510
944.960851	2544.535007
945.262628	2542.765562
945.564367	2546.052394
945.866067	2544.056097
946.167729	2541.593493
946.469352	2544.439225
946.770937	2541.472506
947.072484	2544.293031
947.373992	2543.375541
947.675462	2545.641540
947.976893	2543.486447
948.278286	2543.315048
948.579641	2544.487116
948.880958	2543.183977
949.182236	2542.110212
949.483476	2541.359080
949.784678	2544.519883
950.085841	2543.335212
950.386967	2542.039636
950.688054	2542.029553
950.989103	2544.552651
951.290114	2543.599873
951.591087	2542.952084
951.892021	2541.449821
952.192917	2542.831097
952.493776	2542.208514
952.794596	2543.718340
953.095378	2546.075079
953.396122	2546.077600
953.696828	2540.562577
953.997496	2546.982487
954.298126	2542.884029
954.598718	2545.787733
954.899272	2543.685572
955.199788	2543.191539
955.500266	2543.756148
955.800706	2541.895963
956.101108	2541.011240
956.401472	2541.170037
956.701798	2537.147196
957.002087	2540.040818
957.302337	2543.196580
957.602550	2541.717002
957.902724	2544.620706
958.202861	2544.018288
958.502960	2541.631302
958.803022	2542.019471
959.103045	2543.960315
959.403031	2540.655839
959.702979	2543.541899
960.002889	2545.820501
960.302762	2540.837320
960.602596	2542.274049
960.902393	2542.216076
961.202153	2541.258257
961.501875	2538.977135
961.801559	2543.065510
962.101205	2543.211704
962.400814	2545.984338
962.700385	2544.676159
962.999918	2545.485264
963.299414	2541.311189
963.598873	2543.214224
963.898293	2541.119625
964.197677	2542.700027
964.497022	2543.204142
964.796331	2545.621375
965.095601	2543.574667
965.394835	2547.839483
965.694030	2541.066693
965.993189	2545.235727
966.292309	2541.830428
966.591393	2543.120963
966.890439	2540.489481
967.189447	2541.898483
967.488419	2541.190201
967.787353	2539.927392
968.086249	2544.300593
968.385108	2543.249513
968.683930	2542.906714
968.982714	2542.148020
969.281462	2543.657846
969.580172	2543.075593
969.878844	2543.010058
970.177480	2542.460572
970.476078	2542.631971
970.774639	2544.550130
971.073162	2542.556354
971.371649	2538.664583
971.670098	2541.333874
971.968510	2539.594676
972.266885	2537.941177
972.565223	2541.444779
972.863524	2542.415202
973.161788	2541.817825
973.460014	2544.267826
973.758204	2545.155069
974.056356	2541.321271
974.354471	2541.732125
974.652550	2545.003834
974.950591	2542.841179
975.248595	2542.304296
975.546563	2543.126004
975.844493	2542.047197
976.142386	2543.017619
976.440243	2543.110881
976.738062	2543.511653
977.035845	2540.373534
977.333590	2542.523586
977.631299	2543.735984
977.928971	2543.025181
978.226606	2542.077444
978.524204	2542.276570
978.821765	2543.259595
979.119290	2541.906045
979.416777	2539.443441
979.714228	2543.483926
980.011642	2541.205325
980.309020	2544.071221
980.606360	2539.322454
980.903664	2543.307486
981.200931	2540.943185
981.498162	2542.447969
981.795356	2542.241282
982.092513	2543.491488
982.389633	2542.977290
982.686717	2541.621220
982.983764	2542.531148
983.280775	2543.516694
983.577749	2540.905376
983.874686	2540.471837
984.171587	2541.651467
984.468451	2542.717671
984.765279	2542.644574
985.062070	2539.735828
985.358824	2543.758669
985.655543	2542.989893
985.952224	2542.914276
986.248869	2542.069883
986.545478	2537.747093
986.842050	2539.229192
987.138586	2536.494366
987.435086	2539.365303
987.731549	2538.772968
988.027975	2541.255736
988.324366	2540.451672
988.620719	2540.123997
988.917037	2542.122815
989.213318	2542.692465
989.509563	2540.623071
989.805772	2541.245654
990.101944	2545.303783
990.398080	2544.857641
990.694180	2543.937630
990.990244	2542.024512
991.286271	2539.456044
991.582262	2541.154913
991.878217	2542.332023
992.174136	2542.669780
992.470019	2539.740869
992.765865	2540.368493
993.061676	2541.406971
993.357450	2541.961498
993.653188	2541.346477
993.948890	2544.441745
994.244556	2540.426466
994.540186	2542.720191
994.835780	2542.659697
995.131337	2543.010058
995.426859	2542.006868
995.722345	2539.070396
996.017795	2542.349667
996.313208	2541.558205
996.608586	2541.346477
996.903928	2541.674152
997.199234	2545.747404
997.494504	2541.409491
997.789738	2543.163813
998.084936	2542.586601
998.380099	2541.573329
998.675225	2542.528627
998.970316	2541.011240
999.265371	2544.318237
999.560390	2540.814635
999.855373	2541.722043
1000.150320	2542.440407
1000.445232	2543.211704
1000.740108	2540.839841
1001.034948	2539.120808
1001.329752	2542.301776
1001.624521	2540.799512
1001.919254	2539.413194
1002.213951	2540.000489
1002.508613	2538.473019
1002.803239	2536.668286
1003.097829	2538.515869
1003.392384	2543.413350
1003.686903	2541.492670
1003.981386	2543.098278
1004.275834	2539.261960
1004.570246	2540.060983
1004.864623	2544.630789
1005.158964	2540.519728
1005.453270	2543.370500
1005.747540	2541.268339
1006.041775	2540.872608
1006.335974	2540.247505
1006.630138	2541.696837
1006.924266	2543.546941
1007.218359	2541.890922
1007.512416	2541.772454
1007.806438	2543.128525
1008.100425	2543.398227
1008.394376	2542.954605
1008.688292	2541.202804
1008.982172	2540.411343
1009.276017	2540.123997
1009.569827	2540.814635
1009.863602	2545.152548
1010.157341	2540.227341
1010.451045	2540.776827
1010.744714	2538.173071
1011.038347	2542.616848
1011.331945	2542.722712
1011.625508	2541.384286
1011.919036	2537.805066
1012.212528	2543.801519
1012.505986	2542.924358
1012.799408	2542.039636
1013.092795	2543.614996
1013.386147	2540.103833
1013.679464	2541.175078
1013.972745	2540.751621
1014.265992	2542.153062
1014.559204	2539.980324
1014.852380	2541.182639
1015.145521	2540.565098
1015.438628	2540.612989
1015.731699	2541.132228
1016.024736	2543.035263
1016.317737	2541.681714
1016.610703	2541.101981
1016.903635	2540.562578
1017.196531	2538.828421
1017.489393	2538.180632
1017.782219	2537.863040
1018.075011	2538.755324
1018.367768	2540.310520
1018.660490	2543.756148
1018.953177	2543.756148
1019.245829	2543.756148
