Dividing Wavelength (nm)	Counts (n)	Blue Motor Position (mm): 15.800000	Red Motor Position (mm): 0.000000	
326.493990	2136.065434
326.888308	2136.065434
327.282561	2136.065434
327.676750	2104.021340
328.070874	2103.131576
328.464933	2102.813983
328.858929	2110.481578
329.252859	2123.702004
329.646726	2134.180043
330.040528	2146.732516
330.434265	2162.576862
330.827938	2179.235355
331.221547	2198.855526
331.615091	2215.118288
332.008571	2235.867677
332.401986	2255.250914
332.795338	2273.575508
333.188625	2295.945628
333.581847	2314.857517
333.975006	2331.697491
334.368100	2350.324555
334.761129	2367.976155
335.154095	2382.910573
335.546996	2402.747514
335.939833	2423.506985
336.332606	2437.455858
336.725315	2450.010852
337.117960	2460.302367
337.510540	2468.801753
337.903056	2478.697538
338.295508	2486.685246
338.687896	2493.243787
339.080220	2502.295179
339.472480	2508.551251
339.864676	2513.058042
340.256807	2517.343023
340.648875	2522.386697
341.040879	2524.962727
341.432818	2525.355937
341.824694	2525.892820
342.216506	2530.598737
342.608253	2527.601771
342.999937	2529.333407
343.391557	2528.012625
343.783113	2524.483817
344.174605	2525.129085
344.566033	2523.735206
344.957397	2523.309228
345.348697	2518.351254
345.739934	2517.048115
346.131106	2516.886798
346.522215	2516.415451
346.913260	2514.560306
347.304241	2511.293638
347.695159	2507.232989
348.086012	2509.569564
348.476802	2508.213493
348.867528	2506.159223
349.258191	2503.283245
349.648789	2502.088491
350.039324	2498.352996
350.429796	2499.683861
350.820203	2499.696464
351.210548	2496.008860
351.600828	2498.700836
351.991045	2494.640187
352.381198	2493.770587
352.771288	2496.530619
353.161314	2494.869559
353.551276	2493.778149
353.941175	2494.194044
354.331010	2493.987357
354.720782	2495.230002
355.110490	2494.675475
355.500135	2494.814106
355.889717	2494.325114
356.279235	2492.974085
356.668689	2495.643376
357.058080	2492.084322
357.447408	2491.479383
357.836672	2490.103148
358.225873	2492.003663
358.615010	2491.431492
359.004084	2496.555825
359.393095	2494.577172
359.782043	2499.827534
360.170927	2498.002636
360.559748	2501.067658
360.948505	2500.800477
361.337199	2501.226454
361.725830	2502.048162
362.114398	2500.097236
362.502903	2499.492297
362.891344	2502.574963
363.279722	2500.250991
363.668037	2500.051865
364.056289	2499.641011
364.444478	2505.682834
364.832603	2503.031187
365.220665	2505.723163
365.608665	2504.725015
365.996601	2505.536641
366.384474	2505.851713
366.772284	2506.270128
367.160031	2503.162257
367.547715	2504.440190
367.935336	2504.896414
368.322893	2508.334481
368.710388	2509.355315
369.097820	2506.822135
369.485189	2509.224245
369.872495	2506.731394
370.259738	2507.467403
370.646918	2508.631909
371.034035	2508.442866
371.421090	2507.381703
371.808081	2506.197032
372.195010	2507.621158
372.581875	2508.548730
372.968678	2509.982938
373.355418	2511.250788
373.742096	2512.589215
374.128710	2508.699965
374.515262	2509.531755
374.901751	2510.900428
375.288177	2514.182219
375.674540	2511.195336
376.060841	2512.884122
376.447079	2512.493433
376.833254	2514.290604
377.219367	2507.091837
377.605417	2508.357166
377.991404	2507.598473
378.377329	2510.154337
378.763191	2509.365397
379.148991	2511.288597
379.534727	2515.432426
379.920402	2512.768176
380.306013	2514.209946
380.691563	2514.925790
381.077049	2515.467714
381.462474	2514.714061
381.847835	2512.591735
382.233134	2514.494771
382.618371	2514.908146
383.003545	2516.498630
383.388657	2516.186078
383.773706	2515.145080
384.158693	2516.286901
384.543618	2515.724813
384.928480	2515.082065
385.313280	2514.290604
385.698017	2517.290091
386.082692	2517.993332
386.467305	2518.613394
386.851856	2517.519463
387.236344	2516.644823
387.620770	2518.817560
388.005133	2517.602642
388.389435	2518.071470
388.773674	2516.959895
389.157851	2518.694052
389.541965	2519.515760
389.926018	2516.710358
390.310008	2518.449556
390.693936	2519.210770
391.077802	2520.982736
391.461606	2518.797396
391.845348	2520.922242
392.229027	2518.005935
392.612645	2523.107582
392.996200	2518.189937
393.379694	2523.402490
393.763125	2522.437109
394.146494	2521.189423
394.529801	2521.869979
394.913047	2521.880061
395.296230	2520.665143
395.679351	2523.387366
396.062410	2522.621111
396.445408	2523.281502
396.828343	2520.768487
397.211217	2520.150946
397.594028	2522.182531
397.976778	2519.747653
398.359466	2524.012469
398.742092	2517.670698
399.124656	2523.548683
399.507158	2523.825947
399.889598	2524.574558
400.271977	2523.916687
400.654294	2525.459281
401.036549	2525.905423
401.418742	2523.566327
401.800874	2524.935001
402.182944	2521.801923
402.564952	2525.068591
402.946898	2524.100690
403.328783	2526.094466
403.710606	2525.703777
404.092367	2526.263345
404.474067	2527.463139
404.855705	2525.456760
405.237282	2524.960206
405.618797	2527.125382
406.000250	2525.391225
406.381642	2529.270393
406.762972	2527.316946
407.144240	2525.940711
407.525447	2527.493386
407.906593	2527.639580
408.287677	2527.894158
408.668700	2528.400794
409.049661	2529.303160
409.430560	2526.046575
409.811399	2530.727286
410.192176	2527.911802
410.572891	2530.230733
410.953545	2528.431041
411.334138	2529.381298
411.714669	2529.562780
412.095139	2529.625794
412.475547	2529.156967
412.855894	2527.979857
413.236180	2529.020856
413.616405	2529.230064
413.996568	2528.531864
414.376670	2529.383819
414.756711	2529.555218
415.136691	2529.162008
415.516609	2532.368182
415.896466	2531.695188
416.276262	2531.475898
416.655997	2527.410207
417.035670	2527.805938
417.415283	2527.911802
417.794834	2526.049096
418.174324	2530.203006
418.553753	2531.773326
418.933121	2533.688964
419.312428	2530.475229
419.691674	2530.974303
420.070859	2532.073274
420.449983	2531.672503
420.829045	2531.690147
421.208047	2532.710980
421.586988	2531.874149
421.965867	2533.691485
422.344686	2533.363810
422.723444	2532.842050
423.102141	2530.626463
423.480777	2533.245343
423.859352	2532.952956
424.237866	2534.372041
424.616319	2534.102339
424.994712	2536.035621
425.373044	2533.731814
425.751314	2533.935981
426.129524	2534.414890
426.507673	2536.776671
426.885762	2534.172915
427.263789	2534.089736
427.641756	2533.411701
428.019662	2535.586959
428.397508	2530.288706
428.775292	2535.234078
429.153016	2535.660055
429.530679	2533.797349
429.908282	2533.265507
430.285824	2536.597710
430.663305	2534.422452
431.040726	2534.495549
431.418086	2536.017977
431.795385	2534.881197
432.172624	2534.651825
432.549802	2536.844727
432.926920	2534.692154
433.303977	2537.230375
433.680974	2535.760878
434.057910	2539.476209
434.434786	2535.264325
434.811601	2539.763555
435.188355	2537.666435
435.565050	2537.553009
435.941683	2537.956301
436.318257	2533.091587
436.694770	2531.324663
437.071222	2535.586959
437.447614	2535.158461
437.823946	2535.967566
438.200218	2536.207021
438.576429	2538.462937
438.952580	2538.422608
439.328670	2540.161806
439.704700	2536.688451
440.080670	2538.498225
440.456580	2538.407484
440.832429	2542.430325
441.208218	2538.440252
441.583947	2537.739531
441.959616	2537.384130
442.335224	2539.229192
442.710773	2539.375386
443.086261	2539.819007
443.461689	2538.246167
443.837057	2537.217772
444.212365	2538.485622
444.587612	2538.430169
444.962800	2538.767927
445.337927	2540.081147
445.712995	2537.011085
446.088002	2540.736497
446.462949	2539.274563
446.837837	2538.510828
447.212664	2539.592155
447.587431	2542.090047
447.962139	2541.064172
448.336786	2540.731456
448.711374	2540.257588
449.085901	2541.588452
449.460369	2538.934285
449.834776	2539.377906
450.209124	2541.190201
450.583412	2542.145500
450.957640	2541.853113
451.331808	2542.137938
451.705917	2540.388658
452.079965	2540.040818
452.453954	2541.006199
452.827883	2542.195911
453.201752	2539.962680
453.575562	2542.069883
453.949311	2540.739018
454.323001	2540.779347
454.696632	2541.049049
455.070202	2544.035932
455.443713	2541.961498
455.817164	2539.569470
456.190556	2537.190046
456.563888	2540.484440
456.937160	2536.564943
457.310373	2541.633823
457.683526	2543.274718
458.056619	2542.568957
458.429653	2542.707588
458.802628	2543.262115
459.175542	2542.989893
459.548398	2543.972918
459.921194	2541.091899
460.293930	2545.003834
460.666607	2542.110212
461.039224	2546.198587
461.411782	2543.476364
461.784280	2545.031560
462.156719	2540.882691
462.529099	2541.780016
462.901419	2542.745397
463.273680	2542.954605
463.645882	2544.449307
464.018024	2543.748587
464.390106	2543.115922
464.762130	2542.490819
465.134094	2543.010058
465.505999	2544.030891
465.877845	2544.479554
466.249631	2547.476520
466.621358	2548.787220
466.993026	2547.040460
467.364634	2550.271840
467.736184	2545.817980
468.107674	2546.848896
468.479105	2545.775131
468.850477	2547.297559
469.221790	2544.683721
469.593043	2544.930737
469.964238	2547.408464
470.335373	2544.429142
470.706449	2546.203629
471.077467	2546.475851
471.448425	2547.738660
471.819324	2547.181612
472.190164	2550.102961
472.560945	2547.229503
472.931667	2543.738504
473.302330	2545.860830
473.672934	2548.199926
474.043479	2544.681200
474.413965	2550.622200
474.784393	2544.605583
475.154761	2544.940820
475.525070	2544.686241
475.895321	2544.098947
476.265513	2545.394523
476.635645	2547.254709
477.005719	2547.070707
477.375734	2548.305790
477.745691	2547.635316
478.115588	2546.584236
478.485427	2547.852086
478.855207	2546.390151
479.224928	2549.639175
479.594591	2550.312169
479.964194	2549.936603
480.333739	2550.135729
480.703226	2546.846376
481.072653	2550.259237
481.442022	2548.719164
481.811333	2550.705379
482.180584	2546.866540
482.549777	2551.325441
482.918912	2550.657488
483.287988	2552.605894
483.657005	2550.085317
484.025964	2551.048177
484.394864	2553.167983
484.763706	2552.943651
485.132489	2548.603218
485.501213	2550.821326
485.869879	2549.213198
486.238487	2549.455173
486.607036	2552.815102
486.975527	2552.840308
487.343959	2548.504915
487.712333	2551.353167
488.080648	2547.932744
488.448905	2548.583053
488.817104	2549.298897
489.185244	2552.200081
489.553326	2549.689587
489.921350	2552.021120
490.289315	2551.206974
490.657222	2554.529094
491.025070	2552.232849
491.392861	2554.592109
491.760593	2553.551110
492.128267	2551.728733
492.495883	2551.527087
492.863440	2553.102448
493.230939	2551.151521
493.598380	2552.817623
493.965763	2549.815615
494.333088	2549.634134
494.700354	2547.438711
495.067563	2550.912066
495.434713	2546.899308
495.801805	2553.888868
496.168839	2554.093034
496.535815	2549.984494
496.902733	2553.220915
497.269593	2555.181924
497.636395	2553.115051
498.003139	2553.334341
498.369825	2554.836605
498.736453	2551.055739
499.103023	2552.104299
499.469535	2554.526574
499.835989	2552.260575
500.202385	2552.860472
500.568723	2554.433312
500.935003	2556.207798
501.301226	2554.713096
501.667390	2556.545556
502.033497	2557.468087
502.399546	2554.660164
502.765537	2555.103786
503.131470	2556.361554
503.497345	2556.134702
503.863163	2556.860628
504.228923	2557.619322
504.594625	2558.304918
504.960269	2555.408776
505.325856	2554.771070
505.691385	2560.618808
506.056856	2558.277192
506.422270	2557.001780
506.787625	2558.322562
507.152924	2556.172510
507.518164	2556.658982
507.883347	2557.286605
508.248472	2557.997408
508.613540	2558.393139
508.978550	2559.817265
509.343503	2559.028324
509.708398	2559.776935
510.073236	2559.812223
510.438016	2560.323901
510.802738	2561.228788
511.167403	2560.066802
511.532010	2562.179045
511.896561	2562.214333
512.261053	2561.639642
512.625488	2558.317521
512.989866	2557.095042
513.354186	2560.149981
513.718449	2556.535473
514.082655	2562.675599
514.446803	2562.829354
514.810894	2563.031000
515.174927	2563.388922
515.538904	2564.132492
515.902822	2565.939746
516.266684	2564.893707
516.630488	2565.851526
516.994235	2566.426217
517.357925	2563.610733
517.721558	2568.465364
518.085133	2567.121897
518.448651	2566.819427
518.812112	2568.230950
519.175516	2568.011660
519.538863	2566.728687
519.902152	2570.900241
520.265385	2570.696075
520.628560	2571.588359
520.991678	2571.590879
521.354739	2571.999213
521.717743	2571.232958
522.080690	2573.776220
522.443580	2570.063410
522.806413	2576.032136
523.169189	2576.889132
523.531908	2574.242526
523.894569	2576.901735
524.257174	2576.863926
524.619722	2577.516756
524.982213	2579.913824
525.344647	2580.826273
525.707025	2580.029771
526.069345	2581.222004
526.431608	2582.696541
526.793815	2581.960533
527.155964	2586.648806
527.518057	2584.009762
527.880093	2587.818354
528.242072	2587.495720
528.603995	2586.580750
528.965860	2589.544949
529.327669	2594.306319
529.689421	2595.611977
530.051117	2594.709611
530.412755	2598.543408
530.774337	2599.682709
531.135862	2596.806731
531.497331	2601.260590
531.858743	2598.188007
532.220098	2602.117587
532.581396	2603.103132
532.942638	2607.927516
533.303824	2610.289297
533.664953	2616.033692
534.026025	2615.398506
534.387040	2620.921090
534.747999	2621.344547
535.108902	2630.527009
535.469748	2628.046761
535.830537	2631.048768
536.191270	2634.073461
536.551947	2639.487660
536.912567	2639.888432
537.273131	2646.434370
537.633638	2647.732467
537.994089	2652.844197
538.354483	2657.471976
538.714821	2659.483397
539.075103	2666.815755
539.435328	2671.362876
539.795497	2671.415808
540.155609	2683.716223
540.515665	2686.322500
540.875665	2689.253931
541.235609	2695.963707
541.595496	2702.582742
541.955328	2708.657332
542.315102	2714.197560
542.674821	2719.664691
543.034483	2726.608881
543.394090	2729.323542
543.753640	2736.464337
544.113134	2748.111922
544.472571	2754.151225
544.831953	2765.302257
545.191278	2766.449120
545.550548	2777.940430
545.909761	2786.316307
546.268918	2793.366361
546.628019	2805.412198
546.987064	2810.965029
547.346053	2816.328816
547.704986	2834.862618
548.063863	2840.208762
548.422684	2846.726974
548.781449	2857.908253
549.140158	2871.146323
549.498811	2878.561861
549.857408	2882.935062
550.215949	2906.109246
550.574434	2906.459606
550.932864	2926.349478
551.291237	2937.427414
551.649555	2958.943059
552.007817	2964.528657
552.366022	2976.987869
552.724173	2997.860766
553.082267	3003.930316
553.440305	3033.665562
553.798288	3030.809748
554.156215	3060.300498
554.514086	3070.897003
554.871902	3076.996799
555.229661	3095.530602
555.587365	3111.122890
555.945014	3118.639251
556.302606	3149.879281
556.660143	3157.705672
557.017625	3192.224973
557.375050	3202.982796
557.732421	3228.816189
558.089735	3245.310844
558.446994	3261.162752
558.804197	3284.483130
559.161345	3307.251501
559.518437	3306.452478
559.875474	3339.343487
560.232455	3369.671068
560.589381	3376.080895
560.946251	3415.442225
561.303065	3430.474945
561.659825	3456.941003
562.016528	3470.184114
562.373177	3468.160091
562.729770	3520.580529
563.086307	3527.242414
563.442789	3563.846232
563.799216	3582.705189
564.155587	3605.201338
564.511904	3626.790079
564.868164	3651.287566
565.224370	3669.546625
565.580520	3703.050134
565.936615	3714.612020
566.292654	3736.165473
566.648638	3773.255763
567.004567	3800.122592
567.360441	3820.352743
567.716260	3840.202286
568.072023	3881.149058
568.427732	3907.463881
568.783385	3904.492121
569.138982	3959.622179
569.494525	3989.755677
569.850013	3992.800533
570.205445	4048.477557
570.560823	4047.658370
570.916145	4072.619643
571.271412	4114.695633
571.626625	4135.477790
571.981782	4156.080986
572.336884	4185.796067
572.691931	4205.867421
573.046923	4240.860591
573.401860	4259.853138
573.756743	4280.330305
574.111570	4319.371521
574.466342	4339.599151
574.821059	4389.556985
575.175722	4393.083272
575.530330	4430.549128
575.884882	4455.558292
576.239380	4472.184017
576.593823	4491.128673
576.948211	4534.656516
577.302544	4518.784443
577.656823	4566.657761
578.011047	4596.881999
578.365216	4627.940548
578.719330	4630.952637
579.073389	4677.729504
579.427394	4679.453578
579.781344	4706.859811
580.135239	4724.700455
580.489080	4755.416205
580.842866	4768.177886
581.196597	4806.334379
581.550273	4840.284030
581.903895	4875.481366
582.257463	4924.340229
582.610975	4923.820990
582.964434	4952.303510
583.317837	4970.665913
583.671186	4984.045135
584.024481	5020.641391
584.377721	5022.032750
584.730906	5046.520154
585.084037	5089.806022
585.437113	5086.546916
585.790135	5140.951048
586.143103	5128.023009
586.496016	5146.771060
586.848874	5203.168969
587.201679	5224.982042
587.554428	5219.164550
587.907124	5266.042240
588.259765	5281.432883
588.612352	5327.680428
588.964884	5289.070231
589.317362	5335.426161
589.669786	5362.897929
590.022155	5410.320063
590.374470	5455.163647
590.726731	5445.923212
591.078937	5417.034880
591.431090	5503.858672
591.783188	5469.102437
592.135232	5499.608980
592.487222	5518.672103
592.839157	5580.275003
593.191038	5576.123613
593.542866	5578.525723
593.894639	5559.833124
594.246358	5607.066215
594.598022	5656.890459
594.949633	5628.556654
595.301190	5643.901926
595.652692	5685.932547
596.004141	5781.013749
596.355535	5683.346435
596.706876	5697.164237
597.058162	5699.556265
597.409395	5763.747797
597.760573	5824.786088
598.111698	5796.701820
598.462768	5823.432538
598.813785	5821.463968
599.164748	5838.989539
599.515657	5849.296178
599.866511	5833.471996
600.217312	5926.987921
600.568060	5867.555237
600.918753	5953.753927
601.269392	5964.995700
601.619978	5941.705569
601.970510	6003.142111
602.320988	6021.507035
602.671412	6089.182004
603.021783	6068.621658
603.372100	6082.550367
603.722363	6114.508761
604.072572	6119.010512
604.422728	6148.009749
604.772830	6119.600327
605.122878	6154.623743
605.472872	6175.352968
605.822813	6224.153857
606.172701	6205.894798
606.522534	6279.593947
606.872314	6301.238141
607.222041	6308.104192
607.571714	6364.991093
607.921333	6361.265680
608.270899	6392.102418
608.620411	6468.410364
608.969870	6425.043838
609.319276	6440.860458
609.668627	6479.833619
610.017926	6519.552870
610.367171	6580.896151
610.716362	6583.827582
611.065500	6597.358038
611.414585	6636.250540
611.763616	6641.279091
612.112594	6650.748899
612.461518	6685.482449
612.810389	6748.922849
613.159207	6727.913841
613.507971	6700.374017
613.856682	6812.189330
614.205340	6792.702750
614.553945	6874.681994
614.902496	6820.862635
615.250994	6877.066460
615.599439	6880.859928
615.947830	6912.397386
616.296169	6903.492188
616.644454	6934.694410
616.992686	6954.412883
617.340864	7007.067735
617.688990	6954.798531
618.037063	7040.049484
618.385082	7011.297263
618.733048	7098.095850
619.080961	7063.117804
619.428821	7097.659790
619.776628	7117.494210
620.124382	7095.207269
620.472083	7103.726819
620.819731	7138.430122
621.167326	7071.982673
621.514868	7095.842454
621.862357	7018.390167
622.209793	7047.124743
622.557176	7017.858325
622.904506	7008.927921
623.251783	6964.099460
623.599007	6941.222704
623.946179	6964.399409
624.293297	6945.656399
624.640363	6889.732359
624.987376	6890.339818
625.334336	6860.037442
625.681243	6829.505694
626.028097	6834.977866
626.374899	6826.284396
626.721647	6831.847310
627.068343	6780.278826
627.414987	6768.540500
627.761577	6744.678198
628.108115	6784.115144
628.454600	6704.003648
628.801032	6756.482060
629.147412	6724.203552
629.493739	6728.821248
629.840014	6681.620925
630.186236	6738.971612
630.532405	6644.029041
630.878521	6697.896290
631.224585	6672.965264
631.570597	6606.452280
631.916556	6650.196893
632.262462	6652.568755
632.608316	6623.869467
632.954117	6612.526870
633.299866	6611.039730
633.645562	6612.552076
633.991206	6550.492952
634.336797	6503.161558
634.682336	6472.481096
635.027823	6454.458971
635.373257	6446.040244
635.718639	6398.928141
636.063968	6416.602426
636.409245	6328.440207
636.754470	6334.237534
637.099642	6297.984076
637.444762	6256.419763
637.789829	6274.555314
638.134845	6228.063272
638.479808	6223.548919
638.824719	6223.095215
639.169577	6165.890722
639.514383	6191.025915
639.859137	6127.174660
640.203839	6141.249562
640.548489	6137.173789
640.893086	6117.480522
641.237632	6089.466830
641.582125	6116.379029
641.926566	6090.442293
642.270955	6110.259069
642.615292	6107.720848
642.959576	6132.442666
643.303809	6122.756089
643.647990	6129.092819
643.992118	6122.617457
644.336195	6084.554225
644.680219	6109.460046
645.024192	6105.454849
645.368112	6196.450197
645.711981	6220.904834
646.055797	6290.651718
646.399562	6256.515545
646.743274	6378.501385
647.086935	6430.488284
647.430544	6429.459889
647.774101	6453.186080
648.117606	6458.648170
648.461059	6457.405525
648.804460	6422.283807
649.147810	6340.123081
649.491108	6316.205327
649.834354	6294.261184
650.177548	6212.896961
650.520690	6138.101361
650.863781	6118.982785
651.206820	6144.680067
651.549807	6067.729374
651.892742	6013.174007
652.235626	6030.079517
652.578458	6015.818092
652.921238	5918.206231
653.263967	5963.967305
653.606644	5905.545373
653.949269	5913.470067
654.291843	5856.651222
654.634365	5910.233646
654.976836	5861.553744
655.319255	5864.308734
655.661622	5852.421693
656.003938	5846.253842
656.346203	5810.892668
656.688416	5839.952399
657.030577	5798.171316
657.372687	5771.201143
657.714746	5759.440131
658.056753	5803.053674
658.398708	5743.631073
658.740612	5736.575978
659.082465	5786.390140
659.424266	5781.250683
659.766016	5779.571979
660.107715	5761.643116
660.449362	5772.753819
660.790958	5766.033961
661.132503	5757.736221
661.473996	5793.241068
661.815438	5783.216733
662.156829	5781.785046
662.498168	5775.980157
662.839456	5752.682465
663.180693	5788.948525
663.521879	5789.795439
663.863013	5777.328666
664.204097	5802.093334
664.545129	5839.723027
664.886110	5835.017110
665.227040	5869.929621
665.567918	5836.791596
665.908746	5864.948961
666.249522	5870.048088
666.590248	5858.161047
666.930922	5886.043669
667.271545	5897.615638
667.612118	5903.029837
667.952639	5874.237287
668.293109	5898.949023
668.633528	5858.526531
668.973896	5857.382189
669.314213	5853.220716
669.654480	5836.932748
669.994695	5831.163148
670.334859	5818.000695
670.674973	5813.453574
671.015035	5820.246529
671.355047	5818.222506
671.695008	5804.503006
672.034918	5781.694305
672.374777	5790.291993
672.714585	5775.178614
673.054342	5780.975941
673.394049	5772.859683
673.733705	5807.613398
674.073310	5793.087313
674.412864	5753.335294
674.752368	5750.355972
675.091820	5746.277679
675.431223	5684.299213
675.770574	5687.618812
676.109875	5637.608046
676.449125	5646.780425
676.788324	5614.988388
677.127473	5559.891097
677.466571	5551.782402
677.805619	5539.040885
678.144616	5526.427918
678.483562	5505.401266
678.822458	5476.744827
679.161303	5472.175021
679.500098	5463.287466
679.838842	5446.172749
680.177535	5450.717349
680.516179	5464.194874
680.854771	5470.735771
681.193314	5562.111726
681.531805	5668.170041
681.870247	5816.816024
682.208638	5909.422020
682.546978	5924.694196
682.885268	5903.259209
683.223508	5818.898020
683.561697	5766.739722
683.899836	5737.848869
684.237925	5692.866654
684.575963	5657.039173
684.913951	5617.037617
685.251889	5679.956259
685.589776	5647.503831
685.927614	5621.972907
686.265401	5692.518814
686.603137	5675.542728
686.940824	5750.852526
687.278460	5776.872441
687.616046	5780.945694
687.953582	5850.869018
688.291068	5827.702396
688.628504	5894.595987
688.965889	5853.147620
689.303224	5800.759949
689.640510	5755.374441
689.977745	5679.742010
690.314930	5580.786680
690.652065	5523.395664
690.989150	5432.307055
691.326185	5355.091702
691.663170	5305.080935
692.000105	5232.934462
692.336990	5154.151310
692.673825	5131.844204
693.010610	5060.353081
693.347345	4994.281198
693.684030	4985.338191
694.020665	4941.268424
694.357251	4852.294579
694.693786	4860.030230
695.030272	4831.993852
695.366707	4796.128563
695.703093	4762.226804
696.039429	4786.875526
696.375716	4767.222587
696.711952	4742.281479
697.048139	4729.212287
697.384276	4705.352506
697.720363	4721.794229
698.056400	4729.429057
698.392388	4677.439637
698.728326	4657.146472
699.064214	4637.425479
699.400053	4629.563799
699.735842	4598.636320
700.071581	4577.249225
700.407270	4547.511459
700.742910	4533.786917
701.078501	4477.094101
701.414042	4475.271724
701.749533	4447.353814
702.084974	4382.945512
702.420366	4443.179739
702.755709	4379.031056
703.091002	4326.529959
703.426246	4377.249008
703.761440	4331.868541
704.096584	4295.166421
704.431679	4315.220131
704.766725	4300.336124
705.101721	4286.588897
705.436668	4319.784895
705.771565	4263.208026
706.106413	4287.269453
706.441212	4326.426616
706.775961	4329.801668
707.110661	4312.981858
707.445311	4342.147454
707.779913	4361.029096
708.114465	4377.364955
708.448967	4400.007297
708.783421	4460.785968
709.117825	4499.000435
709.452180	4508.167773
709.786485	4549.112025
710.120742	4635.255262
710.454949	4620.479640
710.789107	4685.079506
711.123216	4758.231689
711.457275	4748.860184
711.791286	4821.311647
712.125247	4837.113144
712.459159	4740.164194
712.793023	4814.259073
713.126837	4777.073002
713.460602	4770.665695
713.794318	4689.077141
714.127985	4695.784396
714.461602	4615.340184
714.795171	4585.592335
715.128691	4518.050956
715.462162	4465.320486
715.795584	4411.783432
716.128957	4396.256679
716.462281	4346.934029
716.795556	4320.830935
717.128782	4281.557826
717.461960	4216.398392
717.795088	4226.579002
718.128167	4185.571736
718.461198	4125.587046
718.794180	4118.040439
719.127113	4100.761884
719.459997	4081.527362
719.792833	4035.307543
720.125619	4023.380173
720.458357	3996.263806
720.791046	3998.408817
721.123686	3969.586020
721.456278	3925.929628
721.788821	3943.843368
722.121315	3919.900408
722.453761	3892.963002
722.786158	3908.774581
723.118506	3928.137653
723.450805	3881.572515
723.783056	3907.116042
724.115259	3920.192795
724.447412	3925.881737
724.779518	3917.969646
725.111574	3921.238834
725.443582	3954.671766
725.775542	3939.530661
726.107453	3989.652333
726.439315	3985.558916
726.771129	4000.518540
727.102895	4035.773849
727.434612	4088.254782
727.766281	4096.635700
728.097901	4095.693004
728.429473	4102.077625
728.760996	4103.690795
729.092471	4102.904375
729.423897	4089.237807
729.755276	4094.684773
730.086606	4092.375925
730.417887	4131.709528
730.749120	4192.760421
731.080305	4258.141666
731.411442	4285.827683
731.742530	4252.765276
732.073570	4254.754011
732.404562	4312.397084
732.735506	4302.670178
733.066401	4268.329838
733.397249	4204.206361
733.728048	4123.457159
734.058798	4043.791805
734.389501	3973.649190
734.720156	3910.072678
735.050762	3867.716904
735.381320	3860.177858
735.711831	3812.266732
736.042293	3780.918317
736.372707	3805.196514
736.703073	3776.212400
737.033391	3767.226543
737.363661	3782.798667
737.693883	3810.648522
738.024056	3820.488854
738.354182	3816.876867
738.684260	3877.549674
739.014290	3898.425092
739.344272	3890.485275
739.674207	3931.668981
740.004093	3939.699539
740.333931	3932.694856
740.663722	3933.236780
740.993464	3934.096297
741.323159	3909.702153
741.652806	3881.345663
741.982405	3850.229141
742.311956	3820.929955
742.641460	3810.361176
742.970915	3788.384266
743.300323	3747.235847
743.629683	3716.628482
743.958996	3703.186245
744.288260	3679.639015
744.617477	3646.816063
744.946647	3631.385091
745.275768	3605.652521
745.604842	3605.806276
745.933869	3558.827763
746.262847	3548.750497
746.591778	3589.001590
746.920662	3557.025551
747.249498	3527.050850
747.578286	3571.919640
747.907027	3591.338165
748.235720	3586.324737
748.564365	3612.430352
748.892963	3614.046042
749.221514	3597.163218
749.550017	3573.197573
749.878473	3571.344948
750.206881	3542.267573
750.535242	3536.271121
750.863555	3538.781615
751.191821	3533.523692
751.520039	3513.210362
751.848210	3495.694873
752.176334	3528.147301
752.504411	3531.527395
752.832440	3490.620952
753.160421	3475.689054
753.488356	3485.950323
753.816243	3498.870800
754.144082	3453.868420
754.471875	3440.408539
754.799620	3460.558031
755.127318	3450.485806
755.454969	3451.148717
755.782572	3457.278760
756.110129	3432.509051
756.437638	3423.785334
756.765100	3437.797221
757.092515	3446.836010
757.419882	3452.083851
757.747203	3426.179882
758.074477	3431.208433
758.401703	3444.138993
758.728882	3463.648258
759.056014	3475.099239
759.383099	3476.518324
759.710138	3468.880976
760.037129	3486.928307
760.364073	3518.306969
760.690970	3504.650483
761.017820	3483.898573
761.344623	3501.184690
761.671379	3542.030639
761.998088	3597.115327
762.324751	3722.483782
762.651366	3964.623004
762.977935	4432.845373
763.304456	4868.761508
763.630931	4955.434066
763.957359	4597.907874
764.283740	4263.208026
764.610074	4076.995364
764.936362	3883.132752
765.262602	3726.133577
765.588796	3617.330354
765.914943	3530.100748
766.241044	3440.267387
766.567097	3413.924837
766.893104	3364.430789
767.219064	3337.518589
767.544978	3312.433808
767.870845	3253.548089
768.196665	3237.035790
768.522438	3246.898807
768.848165	3239.631984
769.173846	3205.223589
769.499479	3191.103317
769.825066	3173.923064
770.150607	3156.712565
770.476101	3170.971469
770.801548	3164.879234
771.126949	3122.662092
771.452303	3105.728856
771.777611	3110.021398
772.102872	3117.681432
772.428087	3090.807040
772.753256	3082.169023
773.078378	3073.339442
773.403453	3043.992365
773.728482	3030.141795
774.053465	3051.049981
774.378401	3040.335008
774.703291	3007.075996
775.028135	3009.994824
775.352932	3001.636591
775.677683	2991.259375
776.002388	2988.897595
776.327046	2990.223418
776.651658	2981.837459
776.976224	2968.370016
777.300743	2967.540747
777.625216	2960.253759
777.949643	2955.537759
778.274024	2953.549024
778.598359	2948.520473
778.922647	2951.020885
779.246889	2948.601132
779.571086	2934.495983
779.895236	2929.389294
780.219339	2940.747014
780.543397	2952.565999
780.867409	2955.822584
781.191374	2947.192129
781.515294	2945.160544
781.839167	2946.531738
782.162995	2938.155861
782.486776	2946.647684
782.810511	2942.765996
783.134201	2931.501538
783.457844	2939.663166
783.781441	2930.306784
784.104993	2906.134452
784.428498	2908.425656
784.751958	2922.797986
785.075372	2917.035947
785.398739	2901.000036
785.722061	2915.407654
786.045337	2928.159253
786.368568	2912.771131
786.691752	2903.477763
787.014891	2951.000721
787.337983	2983.102788
787.661030	3008.164885
787.984031	3073.997313
788.306987	3119.463479
788.629897	3109.701285
788.952760	3096.937083
789.275579	3081.569126
789.598351	3021.425640
789.921078	2978.606079
790.243759	2971.089719
790.566395	2954.098510
790.888984	2928.121444
791.211529	2912.990421
791.534027	2906.328536
791.856480	2893.282030
792.178888	2880.719474
792.501249	2872.545243
792.823566	2868.628267
793.145836	2864.013091
793.468062	2864.358410
793.790241	2862.788090
794.112375	2866.339583
794.434464	2876.822663
794.756507	2884.943961
795.078505	2886.698283
795.400457	2904.856519
795.722364	2940.820111
796.044226	2963.197793
796.366042	2963.588482
796.687812	2953.617080
797.009538	2970.399081
797.331218	2961.650158
797.652852	2947.504681
797.974442	2929.986671
798.295986	2925.981474
798.617484	2921.147008
798.938938	2907.298958
799.260346	2891.946124
799.581709	2886.103427
799.903026	2879.151676
800.224299	2873.079606
800.545526	2863.738348
800.866708	2847.362159
801.187845	2839.311437
801.508936	2841.574915
801.829983	2845.191943
802.150984	2831.890858
802.471940	2820.263437
802.792851	2821.987512
803.113717	2821.317038
803.434538	2826.017914
803.755314	2817.805874
804.076045	2816.192705
804.396731	2810.702889
804.717372	2813.475523
805.037967	2806.054945
805.358518	2814.564412
805.679024	2827.701659
805.999485	2824.712255
806.319901	2828.296516
806.640272	2818.486430
806.960598	2825.372646
807.280879	2832.883966
807.601115	2838.020901
807.921306	2826.297698
808.241453	2820.699497
808.561554	2829.647545
808.881611	2833.377999
809.201623	2824.336689
809.521590	2822.736123
809.841513	2822.436174
810.161390	2824.051864
810.481223	2819.751760
810.801011	2808.837662
811.120755	2806.150727
811.440453	2805.694502
811.760107	2809.203145
812.079716	2804.857671
812.399281	2796.524643
812.718801	2790.329065
813.038276	2786.739764
813.357707	2793.222688
813.677093	2799.282155
813.996434	2792.763943
814.315731	2787.289250
814.634983	2783.745318
814.954191	2783.168106
815.273354	2798.652010
815.592473	2806.889256
815.911547	2807.894966
816.230577	2815.436532
816.549562	2826.948007
816.868502	2824.984477
817.187399	2832.188286
817.506250	2849.512212
817.825058	2843.611541
818.143821	2854.825588
818.462539	2869.749924
818.781213	2896.715056
819.099843	2930.410128
819.418429	2987.070177
819.736970	3050.608880
820.055466	3120.479272
820.373919	3223.555745
820.692327	3355.457535
821.010691	3522.067670
821.329011	3955.077579
821.647286	4833.181044
821.965517	6180.431930
822.283704	6892.754530
822.601847	6864.841662
822.919945	6245.087249
823.237999	5757.398464
823.556010	5192.413667
823.873976	4650.192201
824.191897	4258.610493
824.509775	3972.958552
824.827609	3708.192111
825.145398	3590.594594
825.463144	3578.868871
825.780845	3669.909588
826.098502	3769.888272
826.416116	4047.781878
826.733685	4354.838559
827.051210	4414.893824
827.368692	4300.295795
827.686129	4040.449520
828.003522	3721.904049
828.320872	3472.064465
828.638177	3282.759055
828.955439	3152.714930
829.272656	3071.575038
829.589830	3005.979545
829.906960	2957.576906
830.224046	2912.957653
830.541088	2881.095040
830.858086	2866.284130
831.175041	2851.289218
831.491952	2849.335771
831.808819	2862.467977
832.125642	2885.775752
832.442421	2931.201589
832.759157	3008.686644
833.075849	3181.300793
833.392497	3457.223308
833.709101	3656.522804
834.025662	3603.915843
834.342179	3449.991773
834.658653	3278.975669
834.975083	3133.286323
835.291469	3037.058258
835.607811	2956.989612
835.924110	2898.771846
836.240366	2849.058508
836.556578	2807.337918
836.872746	2785.398817
837.188871	2764.984664
837.504952	2749.198291
837.820990	2741.366859
838.136984	2728.080898
838.452935	2719.843652
838.768842	2718.815257
839.084706	2736.429048
839.400526	2812.865544
839.716303	2942.617282
840.032037	3014.007582
840.347727	3002.231447
840.663373	2943.149124
840.978977	2871.809235
841.294537	2800.292906
841.610054	2754.819178
841.925527	2734.233626
842.240957	2714.058928
842.556344	2690.108406
842.871687	2675.491581
843.186987	2669.381702
843.502244	2667.072854
843.817458	2659.881648
844.132629	2650.595842
844.447756	2640.248874
844.762840	2631.867956
845.077881	2637.801394
845.392879	2635.328708
845.707833	2630.930301
846.022745	2619.277674
846.337613	2627.068777
846.652438	2623.008128
846.967221	2626.746144
847.281960	2621.662140
847.596656	2621.604167
847.911309	2618.292129
848.225919	2617.815740
848.540485	2613.800461
848.855009	2615.806840
849.169490	2614.962447
849.483928	2612.731736
849.798323	2612.993876
850.112675	2610.619492
850.426984	2610.942126
850.741251	2611.058073
851.055474	2612.404061
851.369654	2616.434463
851.683792	2616.545369
851.997887	2613.177878
852.311938	2612.613269
852.625947	2612.446911
852.939914	2613.029164
853.253837	2617.183075
853.567718	2610.357352
853.881555	2609.616303
854.195350	2617.530914
854.509103	2613.281222
854.822812	2611.302569
855.136479	2610.838783
855.450103	2614.755759
855.763685	2616.182406
856.077224	2612.658639
856.390720	2609.402054
856.704173	2614.206273
857.017584	2615.292642
857.330953	2617.084772
857.644278	2619.202057
857.957561	2619.756584
858.270802	2612.404061
858.584000	2614.102930
858.897155	2620.106944
859.210268	2618.919752
859.523339	2615.673249
859.836367	2609.248299
860.149352	2612.852724
860.462295	2611.511777
860.775195	2607.728391
861.088054	2606.296703
861.400869	2606.064810
861.713642	2605.779985
862.026373	2604.948194
862.339062	2610.584204
862.651708	2615.643002
862.964312	2616.061418
863.276873	2613.066973
863.589392	2615.663167
863.901869	2621.226080
864.214303	2625.483335
864.526696	2627.640948
864.839045	2627.104066
865.151353	2632.563635
865.463619	2629.549025
865.775842	2628.984416
866.088023	2628.641617
866.400162	2628.485342
866.712258	2630.015332
867.024313	2629.670013
867.336325	2623.454270
867.648296	2627.134312
867.960224	2634.408697
868.272110	2633.062709
868.583954	2625.264044
868.895755	2624.638941
869.207515	2632.296454
869.519233	2639.424646
869.830909	2633.148409
870.142542	2629.276803
870.454134	2631.789818
870.765684	2639.535551
871.077191	2638.348359
871.388657	2641.786426
871.700081	2642.658546
872.011463	2640.558905
872.322803	2639.868267
872.634101	2643.001344
872.945357	2649.680873
873.256571	2657.101452
873.567744	2654.522901
873.878874	2652.882006
874.189963	2652.624907
874.501010	2658.243273
874.812015	2662.036741
875.122979	2661.603202
875.433900	2657.287974
875.744780	2658.548263
876.055618	2660.292502
876.366415	2664.910199
876.677169	2662.742503
876.987882	2659.218736
877.298554	2654.835453
877.609183	2666.422545
877.919771	2673.754903
878.230317	2678.914524
878.540822	2689.800896
878.851285	2702.499562
879.161707	2725.280537
879.472087	2764.049530
879.782425	2806.725418
880.092722	2915.967222
880.402977	3097.196703
880.713191	3345.647450
881.023363	3625.955768
881.333494	3807.502842
881.643583	3974.470898
881.953631	3966.828509
882.263637	3796.147643
882.573602	3583.317689
882.883526	3460.484934
883.193408	3353.914942
883.503248	3258.385077
883.813048	3147.852737
884.122806	3036.919626
884.432522	2957.750826
884.742197	2893.771022
885.051831	2859.637369
885.361424	2825.433140
885.670975	2791.801082
885.980485	2766.093718
886.289954	2746.024885
886.599382	2731.811352
886.908768	2724.274827
887.218113	2703.800180
887.527417	2691.434230
887.836680	2684.023734
888.145901	2681.659432
888.455082	2670.263904
888.764221	2662.535815
889.073319	2651.256234
889.382376	2650.981491
889.691392	2653.784372
890.000366	2653.786893
890.309300	2653.250010
890.618193	2651.969557
890.927044	2656.307470
891.235855	2657.918118
891.544625	2655.258910
891.853353	2654.853097
892.162041	2662.578665
892.470687	2682.753363
892.779293	2691.351051
893.087858	2700.904037
893.396381	2724.032851
893.704864	2762.927874
894.013306	2830.043275
894.321707	2918.533169
894.630068	2964.553863
894.938387	2982.578508
895.246665	2976.345122
895.554903	2933.545726
895.863100	2890.637945
896.171256	2837.398319
896.479371	2776.899432
896.787446	2745.563619
897.095480	2725.010835
897.403473	2720.887171
897.711425	2706.020808
898.019336	2687.040864
898.327207	2677.465192
898.635038	2673.507887
898.942827	2671.193997
899.250576	2663.307112
899.558284	2653.330668
899.865952	2647.858496
900.173579	2646.441932
900.481165	2643.780202
900.788711	2635.525313
901.096216	2633.138327
901.403681	2629.344858
901.711105	2629.148253
902.018489	2625.483335
902.325832	2628.830661
902.633135	2631.416773
902.940397	2643.830614
903.247619	2681.578774
903.554800	2744.842734
903.861941	2866.269007
904.169041	2984.458859
904.476101	3040.919782
904.783121	3034.225130
905.090100	2982.318889
905.397039	2908.768454
905.703938	2840.218844
906.010796	2785.960906
906.317614	2735.004922
906.624391	2698.519572
906.931129	2676.346056
907.237826	2654.729589
907.544483	2637.766106
907.851099	2622.231790
908.157675	2613.845831
908.464211	2610.364914
908.770707	2597.981320
909.077163	2593.295567
909.383578	2591.737851
909.689954	2590.590988
909.996289	2588.957654
910.302584	2591.400093
910.608839	2586.971440
910.915054	2586.366501
911.221229	2587.407500
911.527363	2587.205853
911.833458	2588.473704
912.139513	2588.675350
912.445527	2591.705083
912.751502	2594.500403
913.057436	2601.240426
913.363331	2607.897269
913.669186	2615.411109
913.975000	2628.261010
914.280775	2644.470841
914.586510	2661.081442
914.892205	2695.646114
915.197859	2758.279930
915.503475	2839.790346
915.809050	2898.187073
916.114585	2910.288362
916.420081	2923.239087
916.725536	2934.533792
917.030952	2909.562436
917.336328	2867.957793
917.641665	2819.567758
917.946961	2773.683175
918.252218	2741.407188
918.557435	2719.057232
918.862612	2693.354909
919.167750	2678.443176
919.472848	2664.131341
919.777906	2648.775986
920.082925	2637.415746
920.387904	2628.402163
920.692843	2622.887140
920.997743	2621.515947
921.302603	2614.400358
921.607423	2606.720160
921.912204	2603.342587
922.216946	2600.363265
922.521647	2597.320929
922.826310	2595.178438
923.130932	2591.836153
923.435516	2585.774166
923.740059	2584.166038
924.044564	2582.109247
924.349028	2582.449525
924.653454	2572.520972
924.957840	2571.797567
925.262186	2569.098029
925.566493	2570.098698
925.870761	2562.640311
926.174989	2567.618450
926.479178	2565.397822
926.783328	2563.409087
927.087438	2562.894889
927.391509	2563.646021
927.695541	2560.780125
927.999533	2557.354661
928.303486	2558.143602
928.607400	2555.502037
928.911275	2558.463715
929.215110	2558.267110
929.518906	2558.786349
929.822663	2558.372974
930.126381	2556.230484
930.430060	2557.773077
930.733699	2557.324414
931.037299	2557.163097
931.340861	2561.541339
931.644383	2559.597974
931.947866	2559.290464
932.251309	2557.773077
932.554714	2558.115875
932.858080	2558.191492
933.161407	2559.038406
933.464694	2556.079249
933.767943	2555.975905
934.071153	2554.133364
934.374323	2554.425751
934.677455	2553.440205
934.980548	2554.965154
935.283602	2550.405430
935.586617	2552.643703
935.889593	2552.913404
936.192530	2557.032027
936.495428	2553.344423
936.798287	2556.943807
937.101108	2553.389793
937.403890	2560.467573
937.706632	2563.905640
938.009336	2566.035528
938.312002	2568.452761
938.614628	2570.791857
938.917216	2576.480799
939.219765	2573.393092
939.522275	2576.468196
939.824747	2573.745973
940.127179	2570.247412
940.429573	2566.136351
940.731929	2569.541650
941.034246	2563.300702
941.336524	2566.143913
941.638763	2568.336815
941.940964	2565.460836
942.243126	2563.225085
942.545250	2565.377657
942.847335	2564.760116
943.149381	2564.082081
943.451389	2559.965979
943.753359	2558.418344
944.055290	2553.808209
944.357182	2559.408931
944.659036	2559.078736
944.960851	2558.481359
945.262628	2558.491441
945.564367	2557.599157
945.866067	2557.967161
946.167729	2558.244425
946.469352	2557.132850
946.770937	2556.500185
947.072484	2554.587068
947.373992	2558.829198
947.675462	2557.200906
947.976893	2555.731409
948.278286	2556.641338
948.579641	2555.333158
948.880958	2553.369629
949.182236	2554.831563
949.483476	2553.057077
949.784678	2556.162428
950.085841	2552.696635
950.386967	2556.268292
950.688054	2552.820143
950.989103	2557.999929
951.290114	2556.943807
951.591087	2559.126627
951.892021	2558.612429
952.192917	2561.997564
952.493776	2561.616957
952.794596	2561.742985
953.095378	2561.543860
953.396122	2564.117369
953.696828	2559.547563
953.997496	2559.713921
954.298126	2558.178890
954.598718	2557.987326
954.899272	2551.756460
955.199788	2556.290977
955.500266	2555.227294
955.800706	2550.042467
956.101108	2547.010213
956.401472	2548.383928
956.701798	2544.913093
957.002087	2547.572302
957.302337	2544.497198
957.602550	2544.734132
957.902724	2545.449976
958.202861	2543.403268
958.502960	2543.678011
958.803022	2544.978628
959.103045	2544.532486
959.403031	2543.020140
959.702979	2544.164482
960.002889	2543.695655
960.302762	2542.795809
960.602596	2543.458720
960.902393	2540.645757
961.202153	2543.914945
961.501875	2542.155582
961.801559	2541.288504
962.101205	2540.925541
962.400814	2541.870757
962.700385	2541.623740
962.999918	2541.112063
963.299414	2542.972249
963.598873	2540.532331
963.898293	2543.494008
964.197677	2539.251878
964.497022	2540.549975
964.796331	2539.869419
965.095601	2541.313709
965.394835	2540.769265
965.694030	2541.285983
965.993189	2541.066693
966.292309	2541.343956
966.591393	2543.453679
966.890439	2543.163813
967.189447	2540.302958
967.488419	2541.487629
967.787353	2540.565098
968.086249	2539.771116
968.385108	2540.260108
968.683930	2540.726415
968.982714	2544.207332
969.281462	2540.436549
969.580172	2539.198945
969.878844	2541.621220
970.177480	2542.447969
970.476078	2542.347146
970.774639	2541.280942
971.073162	2540.628113
971.371649	2539.546785
971.670098	2538.407484
971.968510	2539.846734
972.266885	2537.515200
972.565223	2542.662218
972.863524	2541.906045
973.161788	2541.326312
973.460014	2541.558205
973.758204	2539.957639
974.056356	2538.568801
974.354471	2541.570808
974.652550	2541.621220
974.950591	2544.812270
975.248595	2541.331353
975.546563	2539.067875
975.844493	2540.020653
976.142386	2542.909235
976.440243	2541.099460
976.738062	2541.563247
977.035845	2542.150541
977.333590	2539.050231
977.631299	2543.720860
977.928971	2542.942002
978.226606	2541.986703
978.524204	2538.780530
978.821765	2540.423946
979.119290	2539.244316
979.416777	2540.113915
979.714228	2541.064172
980.011642	2541.220448
980.309020	2543.970397
980.606360	2540.207176
980.903664	2541.187681
981.200931	2539.158616
981.498162	2542.800850
981.795356	2541.364121
982.092513	2545.240768
982.389633	2548.618341
982.686717	2551.403579
982.983764	2551.706048
983.280775	2556.767367
983.577749	2556.845504
983.874686	2553.745195
984.171587	2550.410472
984.468451	2548.998948
984.765279	2545.880995
985.062070	2547.037940
985.358824	2544.172044
985.655543	2544.628268
985.952224	2539.917310
986.248869	2541.306148
986.545478	2537.111908
986.842050	2536.794315
987.138586	2537.253060
987.435086	2536.963194
987.731549	2534.412370
988.027975	2538.228523
988.324366	2539.839172
988.620719	2539.241795
988.917037	2537.001002
989.213318	2539.539223
989.509563	2536.000333
989.805772	2539.609799
990.101944	2539.418236
990.398080	2537.447144
990.694180	2541.119625
990.990244	2537.971424
991.286271	2538.150385
991.582262	2538.538554
991.878217	2536.610313
992.174136	2540.481919
992.470019	2538.576363
992.765865	2540.834800
993.061676	2538.341949
993.357450	2538.294058
993.653188	2538.906558
993.948890	2540.345808
994.244556	2538.646939
994.540186	2541.001158
994.835780	2538.077289
995.131337	2539.093081
995.426859	2541.565767
995.722345	2539.997968
996.017795	2538.699871
996.313208	2542.185829
996.608586	2541.946374
996.903928	2543.120963
997.199234	2539.120807
997.494504	2541.633823
997.789738	2541.364121
998.084936	2542.188350
998.380099	2541.497712
998.675225	2540.733977
998.970316	2540.013092
999.265371	2541.069213
999.560390	2536.912782
999.855373	2536.688451
1000.150320	2538.268852
1000.445232	2538.475540
1000.740108	2535.871784
1001.034948	2537.210210
1001.329752	2537.898328
1001.624521	2538.682227
1001.919254	2535.801208
1002.213951	2533.825075
1002.508613	2533.063861
1002.803239	2535.045035
1003.097829	2533.822555
1003.392384	2539.103163
1003.686903	2536.622916
1003.981386	2538.624254
1004.275834	2538.208359
1004.570246	2536.988399
1004.864623	2535.947401
1005.158964	2536.083512
1005.453270	2534.200641
1005.747540	2536.542257
1006.041775	2535.287010
1006.335974	2538.147865
1006.630138	2537.487474
1006.924266	2535.977648
1007.218359	2536.103677
1007.512416	2537.222813
1007.806438	2537.915972
1008.100425	2534.608975
1008.394376	2535.773481
1008.688292	2536.522093
1008.982172	2534.840868
1009.276017	2534.828265
1009.569827	2536.186856
1009.863602	2539.531662
1010.157341	2537.006043
1010.451045	2538.077289
1010.744714	2535.788605
1011.038347	2535.299613
1011.331945	2535.942360
1011.625508	2535.465971
1011.919036	2534.424973
1012.212528	2537.414377
1012.505986	2536.330529
1012.799408	2537.192566
1013.092795	2536.252391
1013.386147	2536.476722
1013.679464	2535.254243
1013.972745	2535.067720
1014.265992	2537.043852
1014.559204	2537.038811
1014.852380	2534.306506
1015.145521	2536.569984
1015.438628	2537.852957
1015.731699	2536.257432
1016.024736	2535.496218
1016.317737	2535.667617
1016.610703	2537.222813
1016.903635	2530.029087
1017.196531	2531.675023
1017.489393	2532.360620
1017.782219	2531.533871
1018.075011	2533.270548
1018.367768	2533.762061
1018.660490	2536.154088
1018.953177	2536.154088
1019.245829	2536.154088
