Dividing Wavelength (nm)	Counts (n)	Blue Motor Position (mm): 36.600000	Red Motor Position (mm): 0.000000	
326.493990	2052.210881
326.888308	2052.210881
327.282561	2052.210881
327.676750	2026.526202
328.070874	2027.967972
328.464933	2034.481143
328.858929	2042.214273
329.252859	2054.673485
329.646726	2065.920299
330.040528	2085.938721
330.434265	2100.058993
330.827938	2124.138064
331.221547	2142.576084
331.615091	2161.966883
332.008571	2182.204595
332.401986	2205.330888
332.795338	2225.480380
333.188625	2243.835221
333.581847	2262.729466
333.975006	2280.010541
334.368100	2301.289251
334.761129	2314.159317
335.154095	2327.825885
335.546996	2380.914276
335.939833	2486.370174
336.332606	2496.717142
336.725315	2514.267919
337.117960	2521.953158
337.510540	2529.898017
337.903056	2543.229348
338.295508	2547.645399
338.687896	2554.561862
339.080220	2561.077553
339.472480	2566.766495
339.864676	2566.627863
340.256807	2571.207752
340.648875	2571.721949
341.040879	2573.536765
341.432818	2578.615727
341.824694	2579.525656
342.216506	2576.155644
342.608253	2577.400809
342.999937	2577.667990
343.391557	2575.454924
343.783113	2574.870150
344.174605	2573.130952
344.566033	2569.249263
344.957397	2567.976372
345.348697	2567.862946
345.739934	2562.637790
346.131106	2563.824982
346.522215	2561.904302
346.913260	2556.406924
347.304241	2560.676781
347.695159	2556.351471
348.086012	2554.685370
348.476802	2554.929866
348.867528	2552.565565
349.258191	2544.925696
349.648789	2547.695810
350.039324	2545.220604
350.429796	2548.983825
350.820203	2545.931406
351.210548	2545.792775
351.600828	2547.675646
351.991045	2545.011396
352.381198	2543.191539
352.771288	2542.606765
353.161314	2542.279090
353.551276	2541.480068
353.941175	2542.773123
354.331010	2544.146838
354.720782	2547.826880
355.110490	2547.718495
355.500135	2543.529297
355.889717	2544.993752
356.279235	2544.807229
356.668689	2544.262784
357.058080	2544.028371
357.447408	2543.922507
357.836672	2548.333516
358.225873	2545.354194
358.615010	2548.590615
359.004084	2547.874771
359.393095	2546.443083
359.782043	2549.697148
360.170927	2549.470296
360.559748	2547.630275
360.948505	2554.584547
361.337199	2553.150339
361.725830	2553.152859
362.114398	2551.890050
362.502903	2551.212015
362.891344	2554.259393
363.279722	2553.803168
363.668037	2553.672098
364.056289	2555.529763
364.444478	2555.139074
364.832603	2558.569579
365.220665	2555.549928
365.608665	2557.142932
365.996601	2557.616801
366.384474	2556.815257
366.772284	2555.794424
367.160031	2558.254507
367.547715	2559.398849
367.935336	2559.086297
368.322893	2557.147974
368.710388	2554.718138
369.097820	2556.280895
369.485189	2558.292316
369.872495	2561.390105
370.259738	2559.703839
370.646918	2560.712069
371.034035	2563.489745
371.421090	2562.375650
371.808081	2561.226267
372.195010	2562.478994
372.581875	2563.225085
372.968678	2563.724159
373.355418	2564.618964
373.742096	2561.894220
374.128710	2564.649211
374.515262	2564.596278
374.901751	2565.750703
375.288177	2565.571742
375.674540	2565.289437
376.060841	2567.623491
376.447079	2567.484860
376.833254	2565.586865
377.219367	2566.025446
377.605417	2567.245405
377.991404	2566.769016
378.377329	2567.462174
378.763191	2569.844120
379.148991	2569.163564
379.534727	2570.461661
379.920402	2569.834037
380.306013	2567.605847
380.691563	2574.827300
381.077049	2571.358986
381.462474	2571.853019
381.847835	2571.288410
382.233134	2571.159861
382.618371	2569.967628
383.003545	2575.270922
383.388657	2570.801939
383.773706	2573.897207
384.158693	2576.626992
384.543618	2574.550037
384.928480	2576.143041
385.313280	2574.693710
385.698017	2577.773855
386.082692	2577.569688
386.467305	2573.980386
386.851856	2579.074472
387.236344	2574.197156
387.620770	2576.483319
388.005133	2575.258319
388.389435	2574.754203
388.773674	2577.184040
389.157851	2580.964905
389.541965	2579.666808
389.926018	2582.136973
390.310008	2580.203691
390.693936	2583.069587
391.077802	2585.401120
391.461606	2584.382807
391.845348	2583.666963
392.229027	2583.482961
392.612645	2586.187540
392.996200	2583.901377
393.379694	2586.663929
393.763125	2585.680904
394.146494	2586.623600
394.529801	2588.118302
394.913047	2592.365474
395.296230	2589.711307
395.679351	2589.005545
396.062410	2589.774321
396.445408	2588.753488
396.828343	2592.405804
397.211217	2590.260793
397.594028	2594.021493
397.976778	2590.152408
398.359466	2595.052409
398.742092	2593.169538
399.124656	2594.918819
399.507158	2596.116093
399.889598	2601.104315
400.271977	2598.712287
400.654294	2598.596341
401.036549	2601.568101
401.418742	2603.556836
401.800874	2603.508945
402.182944	2609.127311
402.564952	2610.168309
402.946898	2612.136880
403.328783	2615.274998
403.710606	2620.495113
404.092367	2624.097017
404.474067	2628.296298
404.855705	2631.063892
405.237282	2636.909110
405.618797	2645.630306
406.000250	2655.916780
406.381642	2665.832730
406.762972	2673.462516
407.144240	2677.492919
407.525447	2691.489682
407.906593	2699.532843
408.287677	2722.414641
408.668700	2737.636405
409.049661	2753.326996
409.430560	2768.193359
409.811399	2784.970319
410.192176	2805.071920
410.572891	2829.834067
410.953545	2857.515043
411.334138	2866.886548
411.714669	2899.321332
412.095139	2913.073600
412.475547	2948.084413
412.855894	2971.039307
413.236180	3011.618075
413.616405	3023.762215
413.996568	3068.411714
414.376670	3094.618153
414.756711	3122.568830
415.136691	3165.007784
415.516609	3217.128273
415.896466	3252.892739
416.276262	3305.618168
416.655997	3366.422045
417.035670	3423.734923
417.415283	3501.162005
417.794834	3553.292577
418.174324	3580.154365
418.553753	3619.586270
418.933121	3715.075806
419.312428	3760.552055
419.691674	3774.579066
420.070859	3898.999784
420.449983	3902.054723
420.829045	4020.854555
421.208047	4037.392060
421.586988	4149.434225
421.965867	4230.223756
422.344686	4312.472702
422.723444	4435.285292
423.102141	4312.374399
423.480777	4541.482239
423.859352	4506.625180
424.237866	4740.237291
424.616319	4787.833345
424.994712	4929.522535
425.373044	4937.127116
425.751314	5163.515253
426.129524	5060.738729
426.507673	5274.052633
426.885762	5347.618191
427.263789	5429.360501
427.641756	5541.775711
428.019662	5638.160052
428.397508	5720.129214
428.775292	5771.755670
429.153016	5924.575728
429.530679	5945.156239
429.908282	6031.937182
430.285824	6043.284819
430.663305	6277.078411
431.040726	6258.448827
431.418086	6302.909283
431.795385	6456.699764
432.172624	6650.519526
432.549802	6598.336022
432.926920	6748.033086
433.303977	6755.620022
433.680974	6836.714544
434.057910	7032.717126
434.434786	7116.259127
434.811601	7125.141640
435.188355	7455.301929
435.565050	7400.340749
435.941683	7449.718851
436.318257	7770.212728
436.694770	7752.775377
437.071222	7982.518401
437.447614	7806.446021
437.823946	7823.235584
438.200218	7988.411510
438.576429	7917.369050
438.952580	8089.678209
439.328670	8129.457954
439.704700	8234.543326
440.080670	8153.753795
440.456580	8417.885050
440.832429	8431.304602
441.208218	8202.007719
441.583947	8339.437135
441.959616	8459.361144
442.335224	8510.753187
442.710773	8606.585521
443.086261	8794.612998
443.461689	8552.715751
443.837057	8722.368222
444.212365	8926.282895
444.587612	8935.919061
444.962800	8851.270526
445.337927	8991.956527
445.712995	8565.447185
446.088002	9203.170791
446.462949	9280.008058
446.837837	9295.597826
447.212664	9363.119041
447.587431	10265.200754
447.962139	11231.594987
448.336786	11990.780154
448.711374	11593.138979
449.085901	10461.175610
449.460369	10456.845258
449.834776	10379.909689
450.209124	11305.505864
450.583412	11083.737945
450.957640	11289.298555
451.331808	10881.688499
451.705917	10404.104707
452.079965	10331.257513
452.453954	10529.216063
452.827883	10491.170475
453.201752	10458.397934
453.575562	10479.376696
453.949311	10839.425986
454.323001	10910.889382
454.696632	10836.766777
455.070202	11427.978177
455.443713	11482.389871
455.817164	11639.131947
456.190556	11945.349275
456.563888	11775.308635
456.937160	11995.624703
457.310373	11505.490958
457.683526	11544.597709
458.056619	11581.345200
458.429653	11670.495485
458.802628	11834.945485
459.175542	11898.227090
459.548398	12455.791308
459.921194	13039.297304
460.293930	13362.485677
460.666607	14190.182645
461.039224	14922.692545
461.411782	15188.207598
461.784280	14790.516012
462.156719	14698.217526
462.529099	14613.218631
462.901419	14032.281103
463.273680	13681.648689
463.645882	13915.727106
464.018024	13877.807547
464.390106	14292.344148
464.762130	15468.490711
465.134094	17146.413563
465.505999	19427.122303
465.877845	21443.548554
466.249631	22346.731759
466.621358	21709.726518
466.993026	20879.050228
467.364634	20177.893784
467.736184	19467.161668
468.107674	18918.018697
468.479105	18771.835318
468.850477	18514.179424
469.221790	18091.193849
469.593043	17452.411601
469.964238	17112.204293
470.335373	17221.677989
470.706449	18108.661447
471.077467	19251.440612
471.448425	21609.914192
471.819324	23106.272327
472.190164	22586.262184
472.560945	20899.514792
472.931667	19486.426437
473.302330	19239.949302
473.672934	18796.552095
474.043479	19231.008816
474.413965	19035.729639
474.784393	18891.350993
475.154761	19516.181848
475.525070	19666.400671
475.895321	19502.669035
476.265513	20019.160452
476.635645	20611.347315
477.005719	20684.980929
477.375734	21070.379661
477.745691	21670.682781
478.115588	22335.311025
478.485427	23616.069092
478.855207	25505.478430
479.224928	27236.464467
479.594591	28432.921839
479.964194	27894.582061
480.333739	28280.069013
480.703226	28580.110928
481.072653	29087.714791
481.442022	29578.012373
481.811333	29878.974299
482.180584	29375.405879
482.549777	29174.319294
482.918912	28967.362284
483.287988	28929.478013
483.657005	28750.539737
484.025964	28399.080573
484.394864	28596.477034
484.763706	28540.343786
485.132489	28044.770637
485.501213	28119.039436
485.869879	28317.061000
486.238487	28265.752136
486.607036	28539.668271
486.975527	28264.711138
487.343959	28599.209339
487.712333	28925.500543
488.080648	28917.903524
488.448905	29329.559106
488.817104	29266.350598
489.185244	30155.075774
489.553326	31335.456906
489.921350	33284.177940
490.289315	35681.233991
490.657222	36360.468978
491.025070	36744.269664
491.392861	36357.681220
491.760593	35553.806225
492.128267	34553.048966
492.495883	33599.877679
492.863440	32764.853394
493.230939	31862.363348
493.598380	31348.838649
493.965763	31245.444584
494.333088	30781.822267
494.700354	30604.703848
495.067563	30582.303481
495.434713	30503.699289
495.801805	30810.314869
496.168839	30646.747071
496.535815	30526.679389
496.902733	30679.743943
497.269593	30489.032052
497.636395	30667.781285
498.003139	30944.338985
498.369825	30721.547712
498.736453	31130.465947
499.103023	30980.259727
499.469535	31081.818812
499.835989	31215.890819
500.202385	31091.439854
500.568723	31170.664108
500.935003	31500.451351
501.301226	31399.330846
501.667390	32098.425459
502.033497	32293.994502
502.399546	32099.930243
502.765537	31699.778574
503.131470	32189.105734
503.497345	32617.200519
503.863163	31602.078492
504.228923	32382.000445
504.594625	32799.791111
504.960269	32274.565895
505.325856	32965.085504
505.691385	32646.426608
506.056856	32974.368789
506.422270	33464.936073
506.787625	33021.995090
507.152924	33479.273114
507.518164	33690.298335
507.883347	33245.509769
508.248472	33413.627209
508.613540	34107.211840
508.978550	34361.001169
509.343503	34209.595154
509.708398	34591.482723
510.073236	35194.301379
510.438016	35302.025796
510.802738	34995.687479
511.167403	35576.962765
511.532010	35826.015929
511.896561	36318.037586
512.261053	37080.096210
512.625488	36862.424228
512.989866	36791.220451
513.354186	36863.755093
513.718449	36847.182299
514.082655	37739.630368
514.446803	37449.844680
514.810894	38068.739576
515.174927	38106.608724
515.538904	38107.188456
515.902822	38754.182744
516.266684	38457.011766
516.630488	38830.984723
516.994235	38840.794808
517.357925	39449.010020
517.721558	39709.292354
518.085133	40089.213873
518.448651	40288.430191
518.812112	40188.960663
519.175516	40347.205003
519.538863	40784.762034
519.902152	40858.647705
520.265385	41402.313462
520.628560	41427.488984
520.991678	41387.646225
521.354739	41635.943217
521.717743	42007.619928
522.080690	41921.486773
522.443580	42604.056483
522.806413	42621.307312
523.169189	42775.362453
523.531908	43012.417671
523.894569	42883.933783
524.257174	43079.152466
524.619722	43431.105663
524.982213	43567.950305
525.344647	43595.817803
525.707025	43737.779216
526.069345	44205.442017
526.431608	44105.939722
526.793815	44496.069577
527.155964	44038.592428
527.518057	44309.383048
527.880093	44150.974870
528.242072	44811.280325
528.603995	44531.077870
528.965860	44469.701822
529.327669	44695.618611
529.689421	44750.100882
530.051117	44688.656778
530.412755	44970.278317
530.774337	45057.588581
531.135862	44984.080996
531.497331	45138.821734
531.858743	45149.524104
532.220098	45559.664819
532.581396	45279.895904
532.942638	45047.980142
533.303824	45304.600078
533.664953	45359.667122
534.026025	45045.086519
534.387040	45605.279699
534.747999	45686.096957
535.108902	46015.301947
535.469748	45312.907900
535.830537	45593.881651
536.191270	45841.334249
536.551947	45567.836529
536.912567	45866.076232
537.273131	46010.684251
537.633638	45617.834693
537.994089	45831.446026
538.354483	45581.762717
538.714821	46228.245327
539.075103	46515.318874
539.435328	46379.641259
539.795497	46124.309338
540.155609	46251.175015
540.515665	46835.124633
540.875665	46148.390930
541.235609	46434.211750
541.595496	46559.113898
541.955328	47132.933317
542.315102	46567.492296
542.674821	46440.152750
543.034483	46328.430698
543.394090	46360.633589
543.753640	46355.549585
544.113134	47415.336235
544.472571	46515.928854
544.831953	47662.095674
545.191278	46899.122081
545.550548	46580.710201
545.909761	47229.988131
546.268918	47382.823313
546.628019	47801.624731
546.987064	47227.696927
547.346053	46520.639812
547.704986	47421.340249
548.063863	47078.541787
548.422684	47279.333466
548.781449	46875.874800
549.140158	47410.884896
549.498811	47172.453442
549.857408	46554.657518
550.215949	47411.273065
550.574434	47245.512365
550.932864	47173.348247
551.291237	47892.121004
551.649555	47649.094539
552.007817	47832.073300
552.366022	47496.871857
552.724173	47560.055159
553.082267	47982.035024
553.440305	48320.707301
553.798288	47566.139832
554.156215	47950.994119
554.514086	48155.710336
554.871902	47773.863096
555.229661	47965.626068
555.587365	47641.419382
555.945014	47766.850851
556.302606	47783.494221
556.660143	47888.428359
557.017625	48092.053165
557.375050	47798.650450
557.732421	48220.239625
558.089735	48275.707441
558.446994	48143.430085
558.804197	48621.263414
559.161345	48488.991099
559.518437	47819.566197
559.875474	48086.066795
560.232455	48310.519129
560.589381	48377.173265
560.946251	48176.641206
561.303065	48841.980253
561.659825	48519.038896
562.016528	48332.675000
562.373177	47888.980365
562.729770	48534.437101
563.086307	48054.615036
563.442789	48599.709961
563.799216	48455.308629
564.155587	48332.748097
564.511904	48301.601328
564.868164	48339.278912
565.224370	48675.609573
565.580520	48397.645391
565.936615	48588.218650
566.292654	48247.114017
566.648638	48601.189539
567.004567	48550.951921
567.360441	48642.789141
567.716260	48358.319350
568.072023	48726.643694
568.427732	48656.077622
568.783385	48199.974187
569.138982	48603.011916
569.494525	48741.008462
569.850013	48325.166202
570.205445	48456.009350
570.560823	48237.941637
570.916145	48092.406046
571.271412	48338.043829
571.626625	47979.229622
571.981782	48074.789734
572.336884	47647.458684
572.691931	47985.974686
573.046923	47628.531672
573.401860	47486.852564
573.756743	47497.633071
574.111570	47636.078279
574.466342	47547.842964
574.821059	47698.996921
575.175722	47198.453193
575.530330	47304.445974
575.884882	46928.794313
576.239380	46823.643405
576.593823	46926.208201
576.948211	46848.292127
577.302544	46396.261944
577.656823	46392.952426
578.011047	46656.914803
578.365216	46481.081878
578.719330	46183.094233
579.073389	46165.528332
579.427394	46225.127373
579.781344	46144.950342
580.135239	45899.683084
580.489080	45959.917311
580.842866	45463.252752
581.196597	45942.500124
581.550273	45947.027080
581.903895	45880.695578
582.257463	46321.773854
582.610975	45744.372696
582.964434	46083.085302
583.317837	45585.712461
583.671186	45533.929728
584.024481	45812.534137
584.377721	45345.662797
584.730906	45569.999184
585.084037	45680.317274
585.437113	45399.388894
585.790135	45533.042485
586.143103	45068.820272
586.496016	45233.996198
586.848874	45328.880796
587.201679	45357.963212
587.554428	44861.452408
587.907124	45146.703578
588.259765	44917.154638
588.612352	45077.909472
588.964884	44516.677814
589.317362	44827.699363
589.669786	44838.210168
590.022155	44684.286098
590.374470	45153.110885
590.726731	44706.729314
591.078937	44049.130960
591.431090	44385.509512
591.783188	43922.103965
592.135232	43703.259915
592.487222	43976.545906
592.839157	44133.202282
593.191038	43770.627374
593.542866	43578.153600
593.894639	42987.794155
594.246358	43269.118266
594.598022	43269.312351
594.949633	42849.618649
595.301190	42808.054336
595.652692	42753.158691
596.004141	43252.752160
596.355535	42139.695638
596.706876	42164.127590
597.058162	41877.616132
597.409395	42369.141235
597.760573	42599.635392
598.111698	42193.323433
598.462768	42119.926753
598.813785	42138.460555
599.164748	41739.785945
599.515657	42016.389015
599.866511	41510.385718
600.217312	42214.834036
600.568060	41138.280509
600.918753	41977.362922
601.269392	41903.104206
601.619978	41615.468570
601.970510	41816.744199
602.320988	41970.141470
602.671412	42236.916811
603.021783	42108.546348
603.372100	41650.507110
603.722363	41760.976435
604.072572	41807.168527
604.422728	41800.413381
604.772830	41571.421488
605.122878	41721.766340
605.472872	41589.788932
605.822813	41859.392361
606.172701	41593.073244
606.522534	41932.761314
606.872314	42146.465908
607.222041	41969.770945
607.571714	42298.232365
607.921333	41792.239150
608.270899	42016.429344
608.620411	42402.813622
608.969870	42137.538024
609.319276	42154.085612
609.668627	42191.072558
610.017926	42600.331071
610.367171	42714.230901
610.716362	42774.654171
611.065500	42655.355265
611.414585	42866.922410
611.763616	43057.223447
612.112594	42940.944192
612.461518	43075.492588
612.810389	43479.735153
613.159207	43270.633133
613.507971	43240.108947
613.856682	43730.696395
614.205340	43572.469699
614.553945	44265.514927
614.902496	43580.409516
615.250994	44008.847099
615.599439	44065.270214
615.947830	44166.589844
616.296169	44148.749201
616.644454	44202.903796
616.992686	44365.670051
617.340864	44831.946535
617.688990	44348.930900
618.037063	45025.698242
618.385082	44830.842522
618.733048	45188.913159
619.080961	45049.474844
619.428821	45057.104630
619.776628	45077.213793
620.124382	44905.108801
620.472083	45007.121590
620.819731	45111.392816
621.167326	44655.188558
621.514868	44651.074976
621.862357	44125.978309
622.209793	44213.258326
622.557176	43773.483188
622.904506	43526.633008
623.251783	43134.900066
623.599007	42844.494316
623.946179	42758.330915
624.293297	42500.203673
624.640363	41959.020684
624.987376	41806.339258
625.334336	41596.491147
625.681243	41171.693277
626.028097	41100.703748
626.374899	40891.778168
626.721647	40875.598585
627.068343	40657.213280
627.414987	40362.963650
627.761577	40109.474270
628.108115	40432.760946
628.454600	39678.437972
628.801032	39907.361810
629.147412	39799.062702
629.493739	39721.786854
629.840014	39264.919684
630.186236	39699.320952
630.532405	39139.016867
630.878521	39365.825940
631.224585	39146.692023
631.570597	38809.892535
631.916556	38956.141449
632.262462	38840.144499
632.608316	38790.055595
632.954117	38634.803180
633.299866	38584.376518
633.645562	38495.213630
633.991206	37978.823035
634.336797	37553.604229
634.682336	37460.773902
635.027823	37205.699079
635.373257	37084.018228
635.718639	36766.289424
636.063968	36662.580287
636.409245	35990.700343
636.754470	35955.999561
637.099642	35725.790229
637.444762	35156.207900
637.789829	35296.972039
638.134845	34916.763175
638.479808	34826.415616
638.824719	34776.578769
639.169577	34261.589615
639.514383	34355.806260
639.859137	33971.201510
640.203839	34139.162673
640.548489	33835.982640
640.893086	33846.488405
641.237632	33562.752102
641.582125	33669.795962
641.926566	33451.047694
642.270955	33483.212776
642.615292	33410.668052
642.959576	33300.453305
643.303809	33303.147802
643.647990	33389.916142
643.992118	33347.930892
644.336195	33198.710218
644.680219	33286.111222
645.024192	33479.749503
645.368112	34012.264228
645.711981	34019.518449
646.055797	34759.935399
646.399562	34556.902928
646.743274	35437.078307
647.086935	35838.119740
647.430544	35789.699457
647.774101	35822.471998
648.117606	36118.707842
648.461059	36264.709740
648.804460	35839.095203
649.147810	35345.213361
649.491108	34997.658571
649.834354	34845.816496
650.177548	33994.544572
650.520690	33518.228631
650.863781	33497.872452
651.206820	33330.417924
651.549807	32922.107147
651.892742	32323.449963
652.235626	32224.242576
652.578458	32083.150763
652.921238	31398.965362
653.263967	31714.801213
653.606644	31405.823852
653.949269	31321.815544
654.291843	30932.935895
654.634365	31293.312860
654.976836	30833.988128
655.319255	30893.942570
655.661622	30758.819482
656.003938	30641.804219
656.346203	30447.835743
656.688416	30701.438549
657.030577	30461.230089
657.372687	30285.669385
657.714746	30454.621136
658.056753	30652.148667
658.398708	30008.849545
658.740612	30086.594220
659.082465	30304.644288
659.424266	30180.485710
659.766016	30193.880056
660.107715	30042.844566
660.449362	30146.697377
660.790958	30135.097682
661.132503	30055.437369
661.473996	30118.696288
661.815438	30216.754292
662.156829	30341.870689
662.498168	30136.027775
662.839456	30117.022625
663.180693	30251.248387
663.521879	30326.648925
663.863013	30287.257349
664.204097	30268.053073
664.545129	30679.272595
664.886110	30606.238879
665.227040	30720.138709
665.567918	30725.832692
665.908746	30787.581786
666.249522	30874.140918
666.590248	30908.924879
666.930922	30986.198206
667.271545	30989.721973
667.612118	31058.117828
667.952639	30862.021984
668.293109	30897.012633
668.633528	30775.926638
668.973896	30722.971838
669.314213	30690.146364
669.654480	30520.153615
669.994695	30490.879635
670.334859	30414.604457
670.674973	30253.665620
671.015035	30445.715938
671.355047	30370.375893
671.695008	30309.612346
672.034918	30220.416690
672.374777	30313.670474
672.714585	30179.679126
673.054342	30313.199127
673.394049	30160.792443
673.733705	30404.423847
674.073310	30099.250037
674.412864	30161.762865
674.752368	29837.735140
675.091820	30079.828992
675.431223	29691.314826
675.770574	29482.172477
676.109875	29319.277672
676.449125	29116.474574
676.788324	29013.864408
677.127473	28524.794347
677.466571	28440.806203
677.805619	28148.106729
678.144616	28081.255988
678.483562	28033.755715
678.822458	27707.237660
679.161303	27651.989135
679.500098	27567.383450
679.838842	27502.249221
680.177535	27589.819105
680.516179	27821.402151
680.854771	27955.002810
681.193314	28737.470545
681.531805	29747.337169
681.870247	30504.810864
682.208638	31241.625910
682.546978	31516.439371
682.885268	31647.327889
683.223508	31205.720292
683.561697	30925.520358
683.899836	30759.374009
684.237925	30346.082573
684.575963	30205.573012
684.913951	29834.211373
685.251889	30000.032567
685.589776	30019.372954
685.927614	30029.883760
686.265401	30218.042307
686.603137	30315.298767
686.940824	30827.341366
687.278460	31161.403508
687.616046	31323.826964
687.953582	31965.099542
688.291068	31902.995048
688.628504	32240.081882
688.965889	32227.927660
689.303224	31953.144446
689.640510	31677.635306
689.977745	31038.530424
690.314930	30310.744085
690.652065	29859.865805
690.989150	29194.269660
691.326185	28352.951495
691.663170	27695.262399
692.000105	26952.977701
692.336990	26343.366090
692.673825	25924.355465
693.010610	25429.667038
693.347345	24921.498565
693.684030	24279.618528
694.020665	24093.907462
694.357251	23400.595053
694.693786	23413.659203
695.030272	23175.686495
695.366707	22665.768742
695.703093	22386.309858
696.039429	22457.286783
696.375716	22219.755176
696.711952	22229.572823
697.048139	22080.349628
697.384276	21908.902506
697.720363	22031.069829
698.056400	21921.638982
698.392388	21761.284919
698.728326	21766.250455
699.064214	21592.615473
699.400053	21593.832912
699.735842	21218.347608
700.071581	21004.491780
700.407270	20761.049420
700.742910	20583.656257
701.078501	20328.609160
701.414042	20125.692636
701.749533	19824.017387
702.084974	19502.530403
702.420366	19742.806919
702.755709	19317.835129
703.091002	19015.592750
703.426246	19088.238298
703.761440	19012.336165
704.096584	18770.123846
704.431679	18710.943220
704.766725	18658.298451
705.101721	18594.716898
705.436668	18707.575730
705.771565	18428.666331
706.106413	18750.594416
706.441212	18823.091249
706.775961	18920.972813
707.110661	19003.551954
707.445311	19370.111894
707.779913	19240.350074
708.114465	19544.457680
708.448967	19855.194403
708.783421	20482.939044
709.117825	20855.008966
709.452180	21081.021537
709.786485	21541.828368
710.120742	22310.407725
710.454949	22411.404722
710.789107	22920.352052
711.123216	23641.917608
711.457275	23861.676628
711.791286	24421.582462
712.125247	24572.244906
712.459159	24303.871520
712.793023	25064.208590
713.126837	24026.691237
713.460602	24288.889210
713.794318	23952.495535
714.127985	23680.938659
714.461602	22781.803501
714.795171	22761.233072
715.128691	21770.434613
715.462162	21250.671487
715.795584	20821.606280
716.128957	20551.720547
716.462281	20177.508136
716.795556	19881.917559
717.128782	19407.126567
717.461960	18795.450603
717.795088	18759.416435
718.128167	18416.000432
718.461198	17945.605326
718.794180	17829.429415
719.127113	17478.996126
719.459997	17293.393444
719.792833	16910.520330
720.125619	16954.867360
720.458357	16617.936802
720.791046	16476.991182
721.123686	16333.214953
721.456278	16106.426045
721.788821	16090.059939
722.121315	15820.948023
722.453761	15930.053716
722.786158	15808.173739
723.118506	15883.140738
723.450805	15768.613284
723.783056	15950.389730
724.115259	15844.636405
724.447412	15830.508571
724.779518	16057.975515
725.111574	16105.253976
725.443582	16376.052158
725.775542	16324.090465
726.107453	16841.471646
726.439315	16768.001870
726.771129	17187.221703
727.102895	17615.669368
727.434612	17887.243888
727.766281	18055.227737
728.097901	18387.185197
728.429473	18468.430953
728.760996	18478.122571
729.092471	18608.534701
729.423897	18503.267847
729.755276	18371.192136
730.086606	18489.349221
730.417887	19075.247244
730.749120	19629.015474
731.080305	19849.160142
731.411442	20252.386914
731.742530	20384.122347
732.073570	20540.017509
732.404562	20862.679081
732.735506	20701.639422
733.066401	20502.339925
733.397249	19991.413941
733.728048	19367.336739
734.058798	18504.351695
734.389501	17729.876709
734.720156	17219.850571
735.050762	16626.093389
735.381320	16241.879328
735.711831	15966.223994
736.042293	15589.140646
736.372707	15622.321520
736.703073	15407.417132
737.033391	15615.460510
737.363661	15603.386946
737.693883	15722.017899
738.024056	15924.465597
738.354182	16140.947866
738.684260	16503.079153
739.014290	16784.045342
739.344272	17012.631422
739.674207	17364.052777
740.004093	17545.181435
740.333931	17593.188343
740.663722	17673.753543
740.993464	17714.922126
741.323159	17558.926141
741.652806	17268.028878
741.982405	17092.032115
742.311956	16739.766367
742.641460	16629.420550
742.970915	16293.530990
743.300323	15945.424194
743.629683	15726.403703
743.958996	15413.060703
744.288260	15092.720582
744.617477	14786.107523
744.946647	14743.502211
745.275768	14430.355817
745.604842	14222.115834
745.933869	14038.116239
746.262847	14014.193443
746.591778	13934.966669
746.920662	13817.590964
747.249498	13820.814782
747.578286	13983.381911
747.907027	14162.100897
748.235720	14423.905660
748.564365	14500.548843
748.892963	14421.438016
749.221514	14523.932235
749.550017	14382.595925
749.878473	14358.078273
750.206881	14124.090597
750.535242	14052.818764
750.863555	13969.480929
751.191821	13871.211197
751.520039	13889.560997
751.848210	13809.106702
752.176334	13862.041338
752.504411	13782.113844
752.832440	13600.027367
753.160421	13716.246127
753.488356	13606.457358
753.816243	13512.081917
754.144082	13350.432278
754.471875	13293.391622
754.799620	13268.306841
755.127318	13241.555958
755.454969	13226.311509
755.782572	13196.661962
756.110129	13206.613200
756.437638	13119.562555
756.765100	13121.291671
757.092515	13147.775373
757.419882	13183.149149
757.747203	13196.178012
758.074477	13284.176393
758.401703	13265.030091
758.728882	13451.663688
759.056014	13500.240247
759.383099	13668.710567
759.710138	13790.232622
760.037129	13922.620884
760.364073	13979.507784
760.690970	14002.124921
761.017820	14027.098797
761.344623	14254.550617
761.671379	14634.046158
761.998088	15344.904303
762.324751	17130.135677
762.651366	20574.967828
762.977935	25078.510343
763.304456	28090.108254
763.630931	29171.309725
763.957359	27977.602303
764.283740	25695.761823
764.610074	23418.163474
764.936362	20752.776886
765.262602	18858.560808
765.588796	16893.841672
765.914943	15598.519712
766.241044	14478.118229
766.567097	13679.715406
766.893104	12950.623408
767.219064	12467.360756
767.544978	11984.476191
767.870845	11589.544637
768.196665	11370.246883
768.522438	11133.436160
768.848165	10931.905953
769.173846	10714.551564
769.499479	10589.185629
769.825066	10419.054249
770.150607	10187.294762
770.476101	10103.586403
770.801548	9977.749120
771.126949	9825.904525
771.452303	9708.445641
771.777611	9508.029528
772.102872	9495.976130
772.428087	9356.608390
772.753256	9191.949182
773.078378	9101.702446
773.403453	8918.504395
773.728482	8801.156416
774.053465	8731.530519
774.378401	8620.899877
774.703291	8498.528388
775.028135	8376.071200
775.352932	8344.700099
775.677683	8233.416628
776.002388	8126.970144
776.327046	8135.315774
776.651658	8039.327164
776.976224	7938.052904
777.300743	7931.527130
777.625216	7847.302052
777.949643	7801.495608
778.274024	7816.495561
778.598359	7723.224133
778.922647	7747.961075
779.246889	7699.565998
779.571086	7700.866615
779.895236	7708.579581
780.219339	7716.917649
780.543397	7715.836322
780.867409	7799.877397
781.191374	7809.357287
781.515294	7773.923017
781.839167	7878.736167
782.162995	7846.200560
782.486776	7785.633617
782.810511	7741.798264
783.134201	7645.527349
783.457844	7645.625652
783.781441	7591.029955
784.104993	7529.527878
784.428498	7505.753797
784.751958	7491.978844
785.075372	7457.951056
785.398739	7407.695793
785.722061	7453.265303
786.045337	7451.664737
786.368568	7615.605580
786.691752	7634.842623
787.014891	7977.389027
787.337983	8338.769182
787.661030	8937.378475
787.984031	9565.002129
788.306987	9977.880190
788.629897	10191.194095
788.952760	10137.069747
789.275579	9920.005224
789.598351	9519.518318
789.921078	9166.440944
790.243759	8741.829597
790.566395	8450.763456
790.888984	8195.880197
791.211529	7986.490831
791.534027	7758.497086
791.856480	7560.896458
792.178888	7487.754357
792.501249	7381.980867
792.823566	7218.692853
793.145836	7223.151753
793.468062	7198.059410
793.790241	7142.463045
794.112375	7218.450878
794.434464	7365.453444
794.756507	7403.778816
795.078505	7568.009526
795.400457	7881.400417
795.722364	8238.248574
796.044226	8522.869600
796.366042	8803.566087
796.687812	8751.092717
797.009538	8839.864915
797.331218	8726.759067
797.652852	8645.387282
797.974442	8496.816917
798.295986	8406.640757
798.617484	8207.603400
798.938938	8057.729896
799.260346	7963.223385
799.581709	7765.446317
799.903026	7679.058584
800.224299	7575.631751
800.545526	7397.394195
800.866708	7305.592263
801.187845	7235.555512
801.508936	7124.221630
801.829983	7083.872234
802.150984	6933.129132
802.471940	6878.891357
802.792851	6876.327931
803.113717	6839.504822
803.434538	6805.509801
803.755314	6745.666264
804.076045	6747.203816
804.396731	6689.560742
804.717372	6720.243725
805.037967	6723.636422
805.358518	6765.863647
805.679024	6853.463777
805.999485	6855.381936
806.319901	6897.556229
806.640272	6916.631956
806.960598	7005.021027
807.280879	7005.915831
807.601115	7082.763181
807.921306	7027.093719
808.241453	7044.256327
808.561554	7066.283649
808.881611	7031.134203
809.201623	7033.863988
809.521590	6979.621173
809.841513	6959.736342
810.161390	7005.550348
810.481223	6871.054884
810.801011	6859.044335
811.120755	6835.212280
811.440453	6755.572131
811.760107	6721.461164
812.079716	6690.115269
812.399281	6624.555063
812.718801	6618.553570
813.038276	6574.955151
813.357707	6511.222363
813.677093	6553.210134
813.996434	6451.499814
814.315731	6500.487226
814.634983	6488.927860
814.954191	6499.915055
815.273354	6612.292457
815.592473	6671.553741
815.911547	6799.505787
816.230577	6883.859414
816.549562	7035.373814
816.868502	7136.388455
817.187399	7234.990903
817.506250	7393.462095
817.825058	7428.538443
818.143821	7704.221503
818.462539	7983.095613
818.781213	8349.784103
819.099843	8901.697188
819.418429	9911.359645
819.736970	10900.580223
820.055466	12091.883015
820.373919	13650.257424
820.692327	16037.805858
821.010691	20219.223684
821.329011	29251.035573
821.647286	42271.680607
821.965517	55666.139803
822.283704	61014.725896
822.601847	63028.855900
822.919945	60401.467010
823.237999	56325.114392
823.556010	50266.670823
823.873976	43559.191300
824.191897	36975.230128
824.509775	32088.582606
824.827609	27507.555036
825.145398	24882.994232
825.463144	23479.421055
825.780845	23777.106231
826.098502	25549.701952
826.416116	29348.087867
826.733685	33008.923378
827.051210	34202.598033
827.368692	32415.345157
827.686129	28452.693244
828.003522	24279.701708
828.320872	20538.921058
828.638177	17650.907034
828.955439	15462.648013
829.272656	13628.265390
829.589830	12130.460444
829.906960	10838.747950
830.224046	9883.114060
830.541088	9120.924366
830.858086	8658.698449
831.175041	8273.975232
831.491952	8147.749780
831.808819	8194.846760
832.125642	8596.271320
832.442421	9489.457918
832.759157	11300.184927
833.075849	14255.551287
833.392497	17511.650200
833.709101	19708.605211
834.025662	19568.062882
834.342179	17867.006176
834.658653	15653.987528
834.975083	13699.799363
835.291469	12059.826317
835.607811	10727.545138
835.924110	9802.327049
836.240366	8921.118233
836.556578	8103.740507
836.872746	7452.622556
837.188871	6943.365194
837.504952	6517.690164
837.820990	6201.524118
838.136984	5980.817361
838.452935	5883.313884
838.768842	5914.604326
839.084706	6333.569581
839.400526	7554.698360
839.716303	9149.091813
840.032037	10265.518347
840.347727	10201.135250
840.663373	9218.962205
840.978977	8164.720825
841.294537	7343.710948
841.610054	6733.653194
841.925527	6294.351925
842.240957	5924.941212
842.556344	5589.717084
842.871687	5304.846522
843.186987	5013.175442
843.502244	4789.605310
843.817458	4618.279176
844.132629	4480.978310
844.447756	4390.010689
844.762840	4307.444151
845.077881	4228.600505
845.392879	4164.706400
845.707833	4116.825521
846.022745	4070.426741
846.337613	4038.029766
846.652438	3997.188858
846.967221	3982.980366
847.281960	3946.807566
847.596656	3926.262344
847.911309	3909.034201
848.225919	3882.114439
848.540485	3868.127758
848.855009	3856.049153
849.169490	3830.760205
849.483928	3819.800736
849.798323	3809.678099
850.112675	3794.206798
850.426984	3797.511275
850.741251	3783.519552
851.055474	3782.223976
851.369654	3783.423770
851.683792	3779.874798
851.997887	3788.253196
852.311938	3788.129687
852.625947	3791.313176
852.939914	3778.669962
853.253837	3791.590439
853.567718	3788.714461
853.881555	3779.461423
854.195350	3794.811737
854.509103	3787.572640
854.822812	3788.520377
855.136479	3778.208697
855.450103	3788.759832
855.763685	3775.539406
856.077224	3780.522586
856.390720	3797.024803
856.704173	3816.503822
857.017584	3826.316428
857.330953	3837.888396
857.644278	3860.434957
857.957561	3866.897716
858.270802	3866.668344
858.584000	3872.427862
858.897155	3864.508209
859.210268	3845.732432
859.523339	3824.305007
859.836367	3824.259637
860.149352	3817.007937
860.462295	3807.167605
860.775195	3798.620328
861.088054	3793.044812
861.400869	3789.034574
861.713642	3789.989873
862.026373	3805.882111
862.339062	3805.332625
862.651708	3826.346675
862.964312	3862.552242
863.276873	3873.917523
863.589392	3928.969443
863.901869	3977.722442
864.214303	4025.462169
864.526696	4056.044329
864.839045	4102.400259
865.151353	4132.788335
865.463619	4138.207575
865.775842	4150.074451
866.088023	4163.539373
866.400162	4158.099968
866.712258	4163.892254
867.024313	4165.540711
867.336325	4163.506606
867.648296	4170.128161
867.960224	4171.209489
868.272110	4181.788350
868.583954	4185.160882
868.895755	4201.526988
869.207515	4194.759239
869.519233	4242.670365
869.830909	4250.663114
870.142542	4277.832413
870.454134	4288.227272
870.765684	4321.004855
871.077191	4356.290411
871.388657	4382.554823
871.700081	4422.140483
872.011463	4462.343685
872.322803	4500.961444
872.634101	4529.547307
872.945357	4570.229418
873.256571	4626.453407
873.567744	4654.517511
873.878874	4676.154143
874.189963	4709.902147
874.501010	4724.962595
874.812015	4718.804825
875.122979	4764.134881
875.433900	4764.328965
875.744780	4773.987816
876.055618	4803.407990
876.366415	4804.310356
876.677169	4821.873736
876.987882	4871.660172
877.298554	4927.153193
877.609183	5011.055637
877.919771	5117.923058
878.230317	5267.549545
878.540822	5489.181353
878.851285	5813.743441
879.161707	6280.294667
879.472087	7044.331944
879.782425	8295.541288
880.092722	10486.610751
880.402977	13823.393332
880.713191	17589.594000
881.023363	21316.249337
881.333494	23530.901318
881.643583	24771.183961
881.953631	24780.961278
882.263637	23950.078302
882.573602	22486.916165
882.883526	20928.035120
883.193408	19259.279607
883.503248	17547.172690
883.813048	15991.835577
884.122806	14546.088106
884.432522	13062.852095
884.742197	11780.967331
885.051831	10679.026553
885.361424	9661.464607
885.670975	8830.997526
885.980485	8132.815362
886.289954	7552.863380
886.599382	7068.169040
886.908768	6682.419948
887.218113	6314.635007
887.527417	6027.369897
887.836680	5754.043576
888.145901	5534.637437
888.455082	5367.066963
888.764221	5212.757244
889.073319	5072.842539
889.382376	5001.268237
889.691392	4941.437303
890.000366	4915.780350
890.309300	4897.307042
890.618193	4899.232762
890.927044	4884.273138
891.235855	4905.912291
891.544625	4939.088125
891.853353	5000.630531
892.162041	5117.613027
892.470687	5310.318694
892.779293	5559.475202
893.087858	5935.235248
893.396381	6523.260639
893.704864	7327.165881
894.013306	8490.124785
894.321707	9671.269652
894.630068	10505.867959
894.938387	10713.969310
895.246665	10480.889042
895.554903	9875.028049
895.863100	9171.018312
896.171256	8611.014175
896.479371	8097.640711
896.787446	7598.359793
897.095480	7160.971641
897.403473	6835.391241
897.711425	6513.493403
898.019336	6240.797227
898.327207	5966.876050
898.635038	5734.098251
898.942827	5482.191793
899.250576	5286.703409
899.558284	5095.066466
899.865952	4966.764059
900.173579	4818.511287
900.481165	4709.531623
900.788711	4613.565698
901.096216	4540.476528
901.403681	4477.545284
901.711105	4451.701809
902.018489	4434.566927
902.325832	4508.384543
902.633135	4627.330568
902.940397	4978.451975
903.247619	5774.145177
903.554800	7224.412042
903.861941	9152.013162
904.169041	10690.144817
904.476101	11328.304483
904.783121	10992.031795
905.090100	10247.476057
905.397039	9397.363599
905.703938	8639.088361
906.010796	7938.108357
906.317614	7383.561269
906.624391	6838.516756
906.931129	6408.808802
907.237826	6004.692266
907.544483	5622.177074
907.851099	5241.459053
908.157675	4885.072161
908.464211	4556.479671
908.770707	4321.025019
909.077163	4116.084471
909.383578	3968.219867
909.689954	3851.794419
909.996289	3778.841361
910.302584	3714.710323
910.608839	3682.517514
910.915054	3646.722801
911.221229	3633.754433
911.527363	3649.722288
911.833458	3659.262672
912.139513	3689.184440
912.445527	3716.071434
912.751502	3800.712407
913.057436	3906.569076
913.363331	4043.315416
913.669186	4246.400819
913.975000	4509.410418
914.280775	4937.432106
914.586510	5523.940109
914.892205	6322.726059
915.197859	7371.076851
915.503475	8597.198893
915.809050	9656.809102
916.114585	10312.075923
916.420081	10581.593652
916.725536	10548.805987
917.030952	10106.722000
917.336328	9694.239669
917.641665	9287.055591
917.946961	8794.358420
918.252218	8378.480871
918.557435	7860.920729
918.862612	7424.755058
919.167750	7052.082718
919.472848	6617.028621
919.777906	6243.287557
920.082925	5875.936156
920.387904	5513.358727
920.692843	5241.423765
920.997743	4989.156865
921.302603	4755.370835
921.607423	4590.648612
921.912204	4423.045370
922.216946	4301.969458
922.521647	4178.647711
922.826310	4076.650045
923.130932	3977.324191
923.435516	3877.211917
923.740059	3805.700629
924.044564	3729.163311
924.349028	3671.245494
924.653454	3605.801235
924.957840	3532.429761
925.262186	3487.336640
925.566493	3423.863472
925.870761	3364.723176
926.174989	3330.390398
926.479178	3292.294398
926.783328	3249.699168
927.087438	3222.023234
927.391509	3183.902028
927.695541	3153.529077
927.999533	3127.995632
928.303486	3106.447220
928.607400	3090.524736
928.911275	3078.042839
929.215110	3063.431054
929.518906	3053.121895
929.822663	3049.953530
930.126381	3048.284908
930.430060	3055.496278
930.733699	3057.293450
931.037299	3068.746951
931.340861	3063.259655
931.644383	3075.973445
931.947866	3076.225503
932.251309	3066.405335
932.554714	3065.896179
932.858080	3061.144891
933.161407	3051.601987
933.464694	3040.203938
933.767943	3037.408618
934.071153	3033.718494
934.374323	3021.617204
934.677455	3017.750639
934.980548	3010.251923
935.283602	3006.024915
935.586617	3000.570387
935.889593	3010.198990
936.192530	3017.299456
936.495428	3029.219264
936.798287	3050.424878
937.101108	3082.731112
937.403890	3139.161788
937.706632	3198.733103
938.009336	3280.394754
938.312002	3352.400075
938.614628	3414.602872
938.917216	3465.364771
939.219765	3498.959020
939.522275	3533.377498
939.824747	3539.235319
940.127179	3535.756923
940.429573	3534.289947
940.731929	3526.047661
941.034246	3515.614993
941.336524	3501.275431
941.638763	3487.208091
941.940964	3470.688230
942.243126	3430.222888
942.545250	3408.276224
942.847335	3367.589072
943.149381	3330.917198
943.451389	3300.198927
943.753359	3264.925974
944.055290	3240.171388
944.357182	3214.398489
944.659036	3199.932898
944.960851	3188.134077
945.262628	3175.213600
945.564367	3177.398940
945.866067	3169.587672
946.167729	3166.686488
946.469352	3164.980057
946.770937	3160.342196
947.072484	3144.051707
947.373992	3149.390289
947.675462	3142.224289
947.976893	3125.122175
948.278286	3114.366873
948.579641	3107.059720
948.880958	3100.110490
949.182236	3106.583331
949.483476	3099.132506
949.784678	3097.521857
950.085841	3097.542022
950.386967	3111.702623
950.688054	3127.925056
950.989103	3145.629588
951.290114	3167.218330
951.591087	3194.828729
951.892021	3223.762432
952.192917	3251.166144
952.493776	3276.195473
952.794596	3284.112605
953.095378	3291.830612
953.396122	3285.758542
953.696828	3280.157820
953.997496	3269.089967
954.298126	3246.175402
954.598718	3224.533728
954.899272	3197.828216
955.199788	3168.826458
955.500266	3137.883856
955.800706	3103.762806
956.101108	3063.879717
956.401472	3028.465611
956.701798	3000.472084
957.002087	2958.388532
957.302337	2929.283430
957.602550	2900.684964
957.902724	2870.178422
958.202861	2846.474916
958.502960	2824.039261
958.803022	2803.201652
959.103045	2783.072324
959.403031	2768.286620
959.702979	2750.007396
960.002889	2740.744276
960.302762	2727.296998
960.602596	2716.198898
960.902393	2706.696323
961.202153	2700.304140
961.501875	2689.803417
961.801559	2686.151101
962.101205	2676.865295
962.400814	2671.088133
962.700385	2665.373985
962.999918	2657.348468
963.299414	2651.851090
963.598873	2649.670791
963.898293	2641.617547
964.197677	2644.939668
964.497022	2642.663587
964.796331	2636.253760
965.095601	2633.176135
965.394835	2636.836013
965.694030	2630.756382
965.993189	2629.493572
966.292309	2628.946607
966.591393	2628.253449
966.890439	2627.066257
967.189447	2627.598099
967.488419	2628.205558
967.787353	2629.211268
968.086249	2627.893006
968.385108	2632.437606
968.683930	2633.022380
968.982714	2640.155613
969.281462	2643.210552
969.580172	2648.866727
969.878844	2653.068528
970.177480	2663.065137
970.476078	2669.177536
970.774639	2676.061231
971.073162	2685.800740
971.371649	2691.991277
971.670098	2695.618387
971.968510	2701.105683
972.266885	2704.813452
972.565223	2711.175388
972.863524	2709.499205
973.161788	2716.932386
973.460014	2718.192674
973.758204	2721.388766
974.056356	2721.040926
974.354471	2727.836402
974.652550	2723.238869
974.950591	2725.875393
975.248595	2723.296843
975.546563	2721.676112
975.844493	2717.328117
976.142386	2711.404761
976.440243	2707.545757
976.738062	2705.781354
977.035845	2696.941690
977.333590	2687.978519
977.631299	2683.209587
977.928971	2678.700275
978.226606	2669.777433
978.524204	2666.851043
978.821765	2662.624036
979.119290	2667.647545
979.416777	2665.494973
979.714228	2670.652073
980.011642	2674.821107
980.309020	2681.956861
980.606360	2695.913295
980.903664	2719.737788
981.200931	2753.654671
981.498162	2801.495221
981.795356	2877.467930
982.092513	2969.083340
982.389633	3072.701736
982.686717	3169.393588
982.983764	3244.713467
983.280775	3294.184831
983.577749	3301.733958
983.874686	3288.185858
984.171587	3255.720827
984.468451	3214.705999
984.765279	3170.384174
985.062070	3123.856845
985.358824	3079.247675
985.655543	3022.199457
985.952224	2969.350521
986.248869	2906.746952
986.545478	2846.623630
986.842050	2791.339817
987.138586	2744.535224
987.435086	2707.205480
987.731549	2676.638443
988.027975	2650.618528
988.324366	2632.936681
988.620719	2621.581482
988.917037	2605.275869
989.213318	2595.284302
989.509563	2592.645258
989.805772	2586.807602
990.101944	2582.517580
990.398080	2576.984914
990.694180	2574.870150
990.990244	2579.288721
991.286271	2576.730336
991.582262	2579.167734
991.878217	2581.869792
992.174136	2585.159145
992.470019	2587.921697
992.765865	2591.483272
993.061676	2595.969899
993.357450	2604.252515
993.653188	2612.182250
993.948890	2629.344858
994.244556	2649.912766
994.540186	2671.287258
994.835780	2703.422094
995.131337	2740.308216
995.426859	2780.496295
995.722345	2828.989674
996.017795	2882.607387
996.313208	2919.349836
996.608586	2944.701799
996.903928	2959.169911
997.199234	2958.748974
997.494504	2956.997173
997.789738	2942.765996
998.084936	2915.926893
998.380099	2887.804816
998.675225	2856.564786
998.970316	2828.377174
999.265371	2789.683798
999.560390	2754.781369
999.855373	2722.296174
1000.150320	2692.913808
1000.445232	2669.333811
1000.740108	2645.509318
1001.034948	2629.594396
1001.329752	2613.543362
1001.624521	2601.646239
1001.919254	2588.871955
1002.213951	2580.997672
1002.508613	2572.478122
1002.803239	2566.229612
1003.097829	2559.729044
1003.392384	2554.234187
1003.686903	2550.922149
1003.981386	2547.778989
1004.275834	2543.488967
1004.570246	2542.074924
1004.864623	2536.549819
1005.158964	2535.057638
1005.453270	2532.272400
1005.747540	2532.206865
1006.041775	2529.572862
1006.335974	2530.094622
1006.630138	2527.160670
1006.924266	2529.459436
1007.218359	2525.749147
1007.512416	2522.207736
1007.806438	2521.736388
1008.100425	2522.250586
1008.394376	2517.819412
1008.688292	2524.851822
1008.982172	2525.330731
1009.276017	2523.105062
1009.569827	2522.235463
1009.863602	2522.411903
1010.157341	2520.342509
1010.451045	2517.635410
1010.744714	2518.290760
1011.038347	2518.056346
1011.331945	2513.617610
1011.625508	2515.971829
1011.919036	2514.061232
1012.212528	2514.030985
1012.505986	2512.627023
1012.799408	2511.432270
1013.092795	2512.314472
1013.386147	2511.439832
1013.679464	2510.933196
1013.972745	2513.476458
1014.265992	2509.410767
1014.559204	2515.087107
1014.852380	2513.037877
1015.145521	2512.047291
1015.438628	2510.449245
1015.731699	2514.015861
1016.024736	2513.252127
1016.317737	2513.872188
1016.610703	2513.514267
1016.903635	2516.304545
1017.196531	2516.954854
1017.489393	2518.240348
1017.782219	2518.207581
1018.075011	2520.975174
1018.367768	2519.102386
1018.660490	2522.472397
1018.953177	2522.472397
1019.245829	2522.472397
