Dividing Wavelength (nm)	Counts (n)	Blue Motor Position (mm): 3.000000	Red Motor Position (mm): 0.000000	
326.493990	2162.203817
326.888308	2162.203817
327.282561	2162.203817
327.676750	2120.710079
328.070874	2116.629265
328.464933	2119.411982
328.858929	2122.935749
329.252859	2127.301388
329.646726	2136.430918
330.040528	2146.601446
330.434265	2161.036790
330.827938	2181.236693
331.221547	2196.720597
331.615091	2216.698690
332.008571	2231.519682
332.401986	2251.575913
332.795338	2269.177101
333.188625	2287.781480
333.581847	2306.965591
333.975006	2324.856646
334.368100	2344.839779
334.761129	2360.616070
335.154095	2377.105685
335.546996	2395.778118
335.939833	2407.198853
336.332606	2424.563107
336.725315	2438.312854
337.117960	2452.624690
337.510540	2462.429734
337.903056	2473.593369
338.295508	2481.840697
338.687896	2491.335710
339.080220	2499.373830
339.472480	2506.658297
339.864676	2512.052332
340.256807	2515.281191
340.648875	2519.001563
341.040879	2523.321831
341.432818	2525.255114
341.824694	2530.898686
342.216506	2530.066895
342.608253	2532.227030
342.999937	2531.080167
343.391557	2529.164529
343.783113	2530.203006
344.174605	2532.693336
344.566033	2525.328211
344.957397	2529.383819
345.348697	2524.935001
345.739934	2525.028262
346.131106	2524.657737
346.522215	2521.542304
346.913260	2519.344361
347.304241	2516.624658
347.695159	2515.213135
348.086012	2512.460665
348.476802	2511.359173
348.867528	2507.341374
349.258191	2506.050838
349.648789	2501.730569
350.039324	2502.184273
350.429796	2505.912207
350.820203	2501.173522
351.210548	2500.583707
351.600828	2500.210662
351.991045	2498.693274
352.381198	2498.786536
352.771288	2496.893582
353.161314	2498.063130
353.551276	2496.190341
353.941175	2496.414673
354.331010	2495.333345
354.720782	2495.827378
355.110490	2493.773108
355.500135	2495.383757
355.889717	2496.780156
356.279235	2497.057420
356.668689	2497.611947
357.058080	2495.550115
357.447408	2498.206803
357.836672	2494.304950
358.225873	2496.439878
358.615010	2495.487100
359.004084	2496.054230
359.393095	2498.882317
359.782043	2499.819972
360.170927	2498.118583
360.559748	2498.320229
360.948505	2500.480363
361.337199	2500.397184
361.725830	2497.927019
362.114398	2500.810559
362.502903	2501.717967
362.891344	2500.883656
363.279722	2500.321567
363.668037	2504.132679
364.056289	2504.571260
364.444478	2504.687206
364.832603	2506.887670
365.220665	2504.646877
365.608665	2505.246774
365.996601	2506.315499
366.384474	2507.505211
366.772284	2507.558143
367.160031	2507.386744
367.547715	2509.652743
367.935336	2507.936230
368.322893	2507.593431
368.710388	2508.904131
369.097820	2504.452793
369.485189	2504.178050
369.872495	2509.239368
370.259738	2508.881446
370.646918	2509.171313
371.034035	2510.671056
371.421090	2512.175840
371.808081	2510.151817
372.195010	2509.435973
372.581875	2509.705675
372.968678	2512.032167
373.355418	2511.394461
373.742096	2512.369925
374.128710	2511.714575
374.515262	2511.525531
374.901751	2511.754904
375.288177	2511.707013
375.674540	2514.782117
376.060841	2512.253978
376.447079	2512.611900
376.833254	2513.181550
377.219367	2513.985614
377.605417	2512.828670
377.991404	2513.259688
378.377329	2516.365039
378.763191	2514.711541
379.148991	2513.783968
379.534727	2512.879081
379.920402	2513.668022
380.306013	2515.291273
380.691563	2515.480317
381.077049	2515.172806
381.462474	2515.419823
381.847835	2513.990656
382.233134	2514.358660
382.618371	2516.221366
383.003545	2516.433095
383.388657	2515.823115
383.773706	2519.087262
384.158693	2517.577437
384.543618	2521.030627
384.928480	2516.869154
385.313280	2518.860410
385.698017	2518.200019
386.082692	2518.918383
386.467305	2517.806809
386.851856	2521.801923
387.236344	2518.462159
387.620770	2517.179185
388.005133	2514.958557
388.389435	2518.494927
388.773674	2515.026613
389.157851	2520.627335
389.541965	2521.597757
389.926018	2520.604649
390.310008	2520.922242
390.693936	2518.487365
391.077802	2521.282685
391.461606	2519.379649
391.845348	2519.818229
392.229027	2523.760412
392.612645	2521.035668
392.996200	2523.369722
393.379694	2523.823426
393.763125	2522.953827
394.146494	2519.218332
394.529801	2521.582633
394.913047	2522.099352
395.296230	2523.180679
395.679351	2520.942407
396.062410	2524.899712
396.445408	2521.517098
396.828343	2522.434588
397.211217	2525.411390
397.594028	2524.546832
397.976778	2524.456091
398.359466	2524.360309
398.742092	2523.246214
399.124656	2523.510875
399.507158	2523.594054
399.889598	2527.120341
400.271977	2525.194620
400.654294	2527.531195
401.036549	2525.570186
401.418742	2525.958355
401.800874	2525.192099
402.182944	2526.659075
402.564952	2525.832326
402.946898	2525.968437
403.328783	2526.008766
403.710606	2528.410876
404.092367	2525.245032
404.474067	2528.554549
404.855705	2529.096473
405.237282	2528.113448
405.618797	2525.237470
406.000250	2529.469518
406.381642	2529.580424
406.762972	2527.395084
407.144240	2524.186389
407.525447	2524.612367
407.906593	2526.475073
408.287677	2526.008766
408.668700	2529.449354
409.049661	2529.973634
409.430560	2529.860208
409.811399	2527.642100
410.192176	2529.348531
410.572891	2533.704088
410.953545	2528.345341
411.334138	2529.676206
411.714669	2530.472708
412.095139	2534.513193
412.475547	2531.866587
412.855894	2529.293078
413.236180	2530.119827
413.616405	2530.205527
413.996568	2530.200486
414.376670	2530.447502
414.756711	2530.729807
415.136691	2531.843902
415.516609	2530.402132
415.896466	2530.707122
416.276262	2529.809796
416.655997	2531.972451
417.035670	2531.236443
417.415283	2532.872297
417.794834	2533.341125
418.174324	2532.658048
418.553753	2532.166536
418.933121	2533.918337
419.312428	2531.347348
419.691674	2533.240302
420.070859	2535.372710
420.449983	2531.609488
420.829045	2533.757020
421.208047	2533.250384
421.586988	2532.300126
421.965867	2535.128214
422.344686	2535.312216
422.723444	2537.600900
423.102141	2533.376413
423.480777	2534.026722
423.859352	2535.493697
424.237866	2535.975127
424.616319	2534.624098
424.994712	2538.989737
425.373044	2537.812628
425.751314	2531.846422
426.129524	2532.930271
426.507673	2533.935981
426.885762	2531.264169
427.263789	2535.753317
427.641756	2532.731145
428.019662	2535.171063
428.397508	2536.307844
428.775292	2537.001002
429.153016	2534.533357
429.530679	2534.919006
429.908282	2533.749458
430.285824	2537.248019
430.663305	2537.177443
431.040726	2535.763399
431.418086	2538.742721
431.795385	2535.791125
432.172624	2537.404295
432.549802	2536.534696
432.926920	2540.320602
433.303977	2538.999820
433.680974	2536.408667
434.057910	2539.093081
434.434786	2538.170550
434.811601	2537.948739
435.188355	2537.704243
435.565050	2535.755837
435.941683	2536.925385
436.318257	2540.474357
436.694770	2539.052752
437.071222	2535.871784
437.447614	2537.124511
437.823946	2540.265149
438.200218	2537.167360
438.576429	2539.307330
438.952580	2538.422608
439.328670	2540.653318
439.704700	2539.735828
440.080670	2540.171888
440.456580	2538.641898
440.832429	2539.289686
441.208218	2541.217928
441.583947	2539.640046
441.959616	2540.665921
442.335224	2542.639533
442.710773	2541.036446
443.086261	2536.116280
443.461689	2540.764224
443.837057	2542.021992
444.212365	2541.921168
444.587612	2538.793133
444.962800	2538.251208
445.337927	2537.369007
445.712995	2535.269366
446.088002	2541.560726
446.462949	2540.030736
446.837837	2540.383617
447.212664	2543.340253
447.587431	2542.004348
447.962139	2541.417053
448.336786	2540.610468
448.711374	2543.816642
449.085901	2541.278421
449.460369	2540.446631
449.834776	2543.867054
450.209124	2541.517876
450.583412	2540.459234
450.957640	2541.497712
451.331808	2541.807743
451.705917	2546.795964
452.079965	2543.476364
452.453954	2540.895294
452.827883	2542.253885
453.201752	2544.149358
453.575562	2544.078782
453.949311	2540.771785
454.323001	2542.140459
454.696632	2541.906045
455.070202	2540.381096
455.443713	2542.536189
455.817164	2542.488298
456.190556	2541.477547
456.563888	2543.955274
456.937160	2542.901673
457.310373	2543.930068
457.683526	2542.720191
458.056619	2542.475695
458.429653	2542.563916
458.802628	2541.722043
459.175542	2543.499050
459.548398	2545.734801
459.921194	2543.221786
460.293930	2544.837476
460.666607	2544.794626
461.039224	2544.260264
461.411782	2545.210521
461.784280	2544.535007
462.156719	2540.847403
462.529099	2546.309493
462.901419	2543.620037
463.273680	2542.488298
463.645882	2538.233564
464.018024	2542.720191
464.390106	2538.218441
464.762130	2545.321427
465.134094	2543.529297
465.505999	2545.402085
465.877845	2545.858310
466.249631	2547.297559
466.621358	2545.344112
466.993026	2543.846889
467.364634	2549.926521
467.736184	2546.508618
468.107674	2544.590459
468.479105	2543.345294
468.850477	2544.212373
469.221790	2544.779503
469.593043	2543.236910
469.964238	2547.025337
470.335373	2544.396375
470.706449	2547.148845
471.077467	2546.072559
471.448425	2544.424101
471.819324	2547.184133
472.190164	2546.490974
472.560945	2545.969215
472.931667	2545.334030
473.302330	2546.990049
473.672934	2547.163968
474.043479	2546.611962
474.413965	2548.562889
474.784393	2545.875954
475.154761	2546.281767
475.525070	2545.573484
475.895321	2546.816129
476.265513	2543.582229
476.635645	2547.458876
477.005719	2545.906201
477.375734	2549.162786
477.745691	2545.744884
478.115588	2547.627755
478.485427	2543.483926
478.855207	2547.864689
479.224928	2546.770758
479.594591	2548.462066
479.964194	2546.982487
480.333739	2547.789072
480.703226	2544.469472
481.072653	2548.615821
481.442022	2547.632796
481.811333	2542.657177
482.180584	2543.960315
482.549777	2544.845038
482.918912	2544.040974
483.287988	2547.937786
483.657005	2546.957281
484.025964	2551.214536
484.394864	2546.425439
484.763706	2545.384441
485.132489	2546.405275
485.501213	2548.943496
485.869879	2546.745553
486.238487	2549.429967
486.607036	2549.581202
486.975527	2548.174720
487.343959	2545.535676
487.712333	2546.748073
488.080648	2547.284956
488.448905	2550.939793
488.817104	2548.434339
489.185244	2546.589277
489.553326	2549.911397
489.921350	2547.287477
490.289315	2548.764535
490.657222	2551.484237
491.025070	2549.344268
491.392861	2550.309648
491.760593	2549.518187
492.128267	2548.560368
492.495883	2546.977446
492.863440	2545.918803
493.230939	2545.838145
493.598380	2549.031716
493.965763	2550.022303
494.333088	2549.760163
494.700354	2549.777807
495.067563	2551.355688
495.434713	2550.125646
495.801805	2547.410985
496.168839	2550.075235
496.535815	2548.782179
496.902733	2551.239741
497.269593	2550.239072
497.636395	2549.981973
498.003139	2550.463404
498.369825	2548.885523
498.736453	2550.183620
499.103023	2546.876623
499.469535	2549.041798
499.835989	2549.654298
500.202385	2549.974412
500.568723	2547.007693
500.935003	2548.777138
501.301226	2544.018288
501.667390	2550.523897
502.033497	2550.259237
502.399546	2549.442570
502.765537	2548.545245
503.131470	2550.528939
503.497345	2549.349309
503.863163	2550.896943
504.228923	2550.108002
504.594625	2551.885009
504.960269	2549.571119
505.325856	2551.325441
505.691385	2550.879299
506.056856	2551.131357
506.422270	2551.174206
506.787625	2549.976932
507.152924	2550.155893
507.518164	2549.286294
507.883347	2549.124977
508.248472	2549.792930
508.613540	2550.589432
508.978550	2552.285781
509.343503	2547.937786
509.708398	2552.958775
510.073236	2549.810574
510.438016	2552.063970
510.802738	2548.895605
511.167403	2549.974412
511.532010	2552.005997
511.896561	2553.115051
512.261053	2548.109185
512.625488	2551.655637
512.989866	2551.453990
513.354186	2549.157745
513.718449	2548.890564
514.082655	2551.859803
514.446803	2552.593291
514.810894	2550.844011
515.174927	2552.968857
515.538904	2549.520708
515.902822	2552.951213
516.266684	2552.346275
516.630488	2551.194371
516.994235	2551.716130
517.357925	2554.776111
517.721558	2551.489278
518.085133	2551.539690
518.448651	2548.245296
518.812112	2546.135573
519.175516	2550.246634
519.538863	2545.165151
519.902152	2549.664381
520.265385	2553.541028
520.628560	2549.238403
520.991678	2552.071532
521.354739	2550.148332
521.717743	2553.790565
522.080690	2549.283774
522.443580	2553.755277
522.806413	2550.281922
523.169189	2552.759649
523.531908	2554.556821
523.894569	2552.321069
524.257174	2551.506923
524.619722	2549.291335
524.982213	2553.046995
525.344647	2551.438867
525.707025	2553.286450
526.069345	2550.808723
526.431608	2549.550955
526.793815	2549.951727
527.155964	2552.595812
527.518057	2553.062118
527.880093	2554.776111
528.242072	2548.764535
528.603995	2551.106151
528.965860	2553.402396
529.327669	2552.542880
529.689421	2550.264278
530.051117	2549.916438
530.412755	2551.693445
530.774337	2552.699155
531.135862	2550.584391
531.497331	2550.476007
531.858743	2551.436346
532.220098	2549.838301
532.581396	2552.671429
532.942638	2553.883827
533.303824	2551.017931
533.664953	2550.811243
534.026025	2552.336192
534.387040	2553.694783
534.747999	2550.513815
535.108902	2552.454659
535.469748	2552.111861
535.830537	2552.129505
536.191270	2551.398538
536.551947	2551.383414
536.912567	2548.199926
537.273131	2552.288301
537.633638	2548.338557
537.994089	2550.493651
538.354483	2553.795606
538.714821	2552.840308
539.075103	2549.314021
539.435328	2553.992211
539.795497	2550.206305
540.155609	2557.261400
540.515665	2554.455997
540.875665	2550.755791
541.235609	2551.030533
541.595496	2551.368291
541.955328	2552.583209
542.315102	2551.504402
542.674821	2553.268806
543.034483	2553.205791
543.394090	2552.457180
543.753640	2553.321738
544.113134	2553.104968
544.472571	2552.893240
544.831953	2553.029351
545.191278	2553.614125
545.550548	2553.440205
545.909761	2551.373332
546.268918	2552.628579
546.628019	2552.976419
546.987064	2554.362736
547.346053	2555.335679
547.704986	2552.152190
548.063863	2551.476676
548.422684	2551.564896
548.781449	2552.875596
549.140158	2549.951727
549.498811	2554.652602
549.857408	2551.885009
550.215949	2552.043805
550.574434	2552.744526
550.932864	2552.963816
551.291237	2552.099258
551.649555	2553.321738
552.007817	2555.234856
552.366022	2553.125133
552.724173	2553.571275
553.082267	2553.369629
553.440305	2553.916594
553.798288	2552.958775
554.156215	2552.983981
554.514086	2551.191850
554.871902	2548.459545
555.229661	2548.832590
555.587365	2546.637168
555.945014	2552.293342
556.302606	2550.753270
556.660143	2554.521533
557.017625	2553.558672
557.375050	2552.081614
557.732421	2551.784186
558.089735	2552.941131
558.446994	2554.708055
558.804197	2553.067160
559.161345	2551.731254
559.518437	2553.977088
559.875474	2553.150339
560.232455	2552.615976
560.589381	2553.508261
560.946251	2553.299053
561.303065	2554.080432
561.659825	2552.484906
562.016528	2552.631100
562.373177	2553.750236
562.729770	2553.553631
563.086307	2555.832233
563.442789	2553.210833
563.799216	2553.488096
564.155587	2554.987839
564.511904	2552.956254
564.868164	2551.716130
565.224370	2553.941800
565.580520	2551.650595
565.936615	2555.348282
566.292654	2551.927859
566.648638	2552.197561
567.004567	2552.986501
567.360441	2552.593291
567.716260	2553.115051
568.072023	2554.713096
568.427732	2553.530946
568.783385	2553.840977
569.138982	2553.457849
569.494525	2554.771070
569.850013	2555.267623
570.205445	2554.980278
570.560823	2552.668908
570.916145	2552.356357
571.271412	2553.268806
571.626625	2553.263765
571.981782	2552.605894
572.336884	2549.248486
572.691931	2549.026675
573.046923	2551.965667
573.401860	2548.308310
573.756743	2553.583878
574.111570	2553.296532
574.466342	2551.189330
574.821059	2549.389638
575.175722	2553.263765
575.530330	2554.166131
575.884882	2553.689742
576.239380	2554.554300
576.593823	2554.347613
576.948211	2554.226625
577.302544	2554.367777
577.656823	2554.629917
578.011047	2553.294012
578.365216	2554.392983
578.719330	2554.561862
579.073389	2552.227808
579.427394	2556.192675
579.781344	2554.768549
580.135239	2552.379042
580.489080	2555.055895
580.842866	2556.948848
581.196597	2556.684188
581.550273	2553.752757
581.903895	2553.883827
582.257463	2552.721841
582.610975	2556.137222
582.964434	2553.911553
583.317837	2554.420709
583.671186	2557.619322
584.024481	2555.451625
584.377721	2553.349464
584.730906	2554.788714
585.084037	2554.594629
585.437113	2553.485575
585.790135	2555.108827
586.143103	2552.885678
586.496016	2554.627397
586.848874	2556.326266
587.201679	2554.665205
587.554428	2556.066646
587.907124	2554.075390
588.259765	2555.071018
588.612352	2553.664536
588.964884	2554.352654
589.317362	2554.934907
589.669786	2553.299053
590.022155	2554.045143
590.374470	2550.667570
590.726731	2551.330482
591.078937	2552.336192
591.431090	2554.801317
591.783188	2553.654454
592.135232	2555.136553
592.487222	2556.321224
592.839157	2553.979608
593.191038	2552.573127
593.542866	2554.561862
593.894639	2555.804506
594.246358	2553.810730
594.598022	2554.350133
594.949633	2554.745864
595.301190	2553.543549
595.652692	2552.978939
596.004141	2553.951882
596.355535	2555.358364
596.706876	2553.283929
597.058162	2559.267779
597.409395	2557.732747
597.760573	2559.187120
598.111698	2553.472972
598.462768	2553.997252
598.813785	2555.370967
599.164748	2555.345761
599.515657	2555.169321
599.866511	2555.433981
600.217312	2553.740154
600.568060	2555.131512
600.918753	2555.736451
601.269392	2556.233004
601.619978	2554.231666
601.970510	2554.576985
602.320988	2553.621687
602.671412	2555.290308
603.021783	2553.525905
603.372100	2553.011707
603.722363	2553.553631
604.072572	2553.097407
604.422728	2553.498178
604.772830	2555.509599
605.122878	2553.571275
605.472872	2555.789383
605.822813	2555.675957
606.172701	2552.663867
606.522534	2557.573951
606.872314	2555.776780
607.222041	2552.273178
607.571714	2552.968857
607.921333	2553.009186
608.270899	2552.374001
608.620411	2552.285781
608.969870	2556.850546
609.319276	2557.813406
609.668627	2561.339693
610.017926	2565.473439
610.367171	2567.303378
610.716362	2568.732545
611.065500	2565.705332
611.414585	2564.417317
611.763616	2563.013356
612.112594	2559.124106
612.461518	2557.594116
612.810389	2554.342572
613.159207	2558.720814
613.507971	2556.288457
613.856682	2557.236194
614.205340	2556.530432
614.553945	2557.669733
614.902496	2555.978426
615.250994	2556.316183
615.599439	2556.903478
615.947830	2558.602347
616.296169	2554.738302
616.644454	2551.937941
616.992686	2554.035061
617.340864	2553.243600
617.688990	2555.595298
618.037063	2554.491286
618.385082	2557.843653
618.733048	2557.145453
619.080961	2554.355174
619.428821	2556.316183
619.776628	2555.106306
620.124382	2555.882644
620.472083	2555.249979
620.819731	2556.278375
621.167326	2556.464897
621.514868	2557.190823
621.862357	2554.818961
622.209793	2553.984650
622.557176	2557.077397
622.904506	2551.199412
623.251783	2555.824671
623.599007	2554.864331
623.946179	2556.953889
624.293297	2556.248128
624.640363	2552.462221
624.987376	2552.091696
625.334336	2551.224618
625.681243	2554.254351
626.028097	2548.961140
626.374899	2554.637479
626.721647	2552.442057
627.068343	2555.038251
627.414987	2554.682849
627.761577	2551.489278
628.108115	2554.435833
628.454600	2554.108158
628.801032	2554.329969
629.147412	2553.974567
629.493739	2555.020607
629.840014	2554.090514
630.186236	2553.704866
630.532405	2554.559341
630.878521	2556.122099
631.224585	2554.221584
631.570597	2554.340051
631.916556	2556.974054
632.262462	2552.903322
632.608316	2555.373487
632.954117	2556.512788
633.299866	2551.673281
633.645562	2552.810061
633.991206	2552.588250
634.336797	2554.340051
634.682336	2552.147149
635.027823	2550.450801
635.373257	2555.814588
635.718639	2556.462377
636.063968	2556.883313
636.409245	2554.682849
636.754470	2551.764021
637.099642	2551.887530
637.444762	2557.309291
637.789829	2553.316697
638.134845	2555.499516
638.479808	2551.277550
638.824719	2555.922973
639.169577	2551.315359
639.514383	2554.307283
639.859137	2555.595298
640.203839	2553.777962
640.548489	2550.377704
640.893086	2552.774773
641.237632	2551.476676
641.582125	2554.561862
641.926566	2551.650595
642.270955	2553.825853
642.615292	2550.823846
642.959576	2552.570606
643.303809	2548.076417
643.647990	2548.585574
643.992118	2551.814433
644.336195	2555.612942
644.680219	2553.959444
645.024192	2553.591440
645.368112	2554.433312
645.711981	2555.620504
646.055797	2550.886861
646.399562	2554.458518
646.743274	2552.265616
647.086935	2555.113868
647.430544	2554.438353
647.774101	2552.177396
648.117606	2552.757129
648.461059	2553.225956
648.804460	2555.938097
649.147810	2553.021789
649.491108	2553.712427
649.834354	2552.603373
650.177548	2554.098076
650.520690	2556.059084
650.863781	2552.928528
651.206820	2554.367777
651.549807	2554.670247
651.892742	2552.235369
652.235626	2554.327448
652.578458	2551.370811
652.921238	2553.515822
653.263967	2556.185113
653.606644	2554.728220
653.949269	2551.897612
654.291843	2552.318548
654.634365	2554.914742
654.976836	2553.087324
655.319255	2553.593960
655.661622	2552.631100
656.003938	2556.790052
656.346203	2552.774773
656.688416	2553.967006
657.030577	2553.856100
657.372687	2554.309804
657.714746	2553.593960
658.056753	2552.726882
658.398708	2553.140256
658.740612	2554.874413
659.082465	2553.669578
659.424266	2549.450132
659.766016	2550.344937
660.107715	2551.406099
660.449362	2549.659340
660.790958	2554.950031
661.132503	2553.263765
661.473996	2553.994732
661.815438	2552.779814
662.156829	2551.433826
662.498168	2552.230328
662.839456	2553.087324
663.180693	2551.837118
663.521879	2554.531615
663.863013	2555.620504
664.204097	2553.551110
664.545129	2551.499361
664.886110	2551.879968
665.227040	2552.946172
665.567918	2553.087324
665.908746	2552.482386
666.249522	2553.566234
666.590248	2550.854093
666.930922	2551.882488
667.271545	2551.345606
667.612118	2553.682180
667.952639	2550.559186
668.293109	2550.412992
668.633528	2553.180586
668.973896	2552.865513
669.314213	2552.782334
669.654480	2552.336192
669.994695	2554.292160
670.334859	2554.912222
670.674973	2552.437015
671.015035	2554.264434
671.355047	2551.557334
671.695008	2554.740823
672.034918	2549.374514
672.374777	2554.135884
672.714585	2552.220246
673.054342	2553.823333
673.394049	2551.128836
673.733705	2552.426933
674.073310	2551.302756
674.412864	2554.433312
674.752368	2548.441901
675.091820	2552.457180
675.431223	2552.046326
675.770574	2554.695452
676.109875	2552.656306
676.449125	2551.673281
676.788324	2548.726726
677.127473	2550.987684
677.466571	2546.634647
677.805619	2553.296532
678.144616	2554.634958
678.483562	2552.525236
678.822458	2550.982643
679.161303	2552.926007
679.500098	2551.282591
679.838842	2553.074721
680.177535	2553.440205
680.516179	2550.725544
680.854771	2551.002807
681.193314	2555.345761
681.531805	2550.400389
681.870247	2553.815771
682.208638	2552.106820
682.546978	2553.183106
682.885268	2554.718137
683.223508	2555.489434
683.561697	2549.092210
683.899836	2554.705535
684.237925	2552.245452
684.575963	2550.889381
684.913951	2549.631613
685.251889	2553.125133
685.589776	2551.053219
685.927614	2552.288301
686.265401	2552.381563
686.603137	2550.425595
686.940824	2550.866696
687.278460	2554.771070
687.616046	2552.316028
687.953582	2551.567416
688.291068	2552.638662
688.628504	2550.349978
688.965889	2554.531615
689.303224	2551.489278
689.640510	2552.615976
689.977745	2552.890719
690.314930	2550.909546
690.652065	2553.218394
690.989150	2550.922149
691.326185	2553.230997
691.663170	2550.614638
692.000105	2550.841490
692.336990	2552.177396
692.673825	2552.812581
693.010610	2553.039433
693.347345	2550.264278
693.684030	2547.947868
694.020665	2549.803012
694.357251	2546.745553
694.693786	2551.771583
695.030272	2551.832077
695.366707	2550.057591
695.703093	2552.295863
696.039429	2554.524053
696.375716	2553.006666
696.711952	2553.919115
697.048139	2550.211346
697.384276	2550.821326
697.720363	2554.166131
698.056400	2555.630586
698.392388	2552.701676
698.728326	2551.915256
699.064214	2553.291491
699.400053	2553.616645
699.735842	2550.405430
700.071581	2553.041954
700.407270	2552.704197
700.742910	2551.063301
701.078501	2552.522715
701.414042	2550.566747
701.749533	2553.939279
702.084974	2551.295194
702.420366	2553.639331
702.755709	2550.385266
703.091002	2553.838456
703.426246	2551.580019
703.761440	2553.455328
704.096584	2551.756460
704.431679	2549.717313
704.766725	2552.515153
705.101721	2553.586398
705.436668	2552.855431
705.771565	2552.235369
706.106413	2553.155380
706.441212	2550.677653
706.775961	2551.537169
707.110661	2551.022972
707.445311	2552.484906
707.779913	2552.865513
708.114465	2552.862993
708.448967	2552.431974
708.783421	2551.040616
709.117825	2550.665050
709.452180	2552.484906
709.786485	2555.252500
710.120742	2550.531459
710.454949	2549.061963
710.789107	2550.135729
711.123216	2547.864689
711.457275	2554.655123
711.791286	2551.017931
712.125247	2554.723179
712.459159	2549.074566
712.793023	2553.321738
713.126837	2552.328631
713.460602	2552.187478
713.794318	2550.546583
714.127985	2551.970709
714.461602	2550.339895
714.795171	2551.925338
715.128691	2552.192519
715.462162	2551.212015
715.795584	2549.480379
716.128957	2551.373332
716.462281	2550.637323
716.795556	2551.068342
717.128782	2552.656306
717.461960	2552.590771
717.795088	2551.146480
718.128167	2549.603887
718.461198	2550.082797
718.794180	2549.082127
719.127113	2551.338044
719.459997	2552.631100
719.792833	2552.457180
720.125619	2551.937941
720.458357	2551.393497
720.791046	2553.291491
721.123686	2550.780996
721.456278	2551.544731
721.788821	2548.734288
722.121315	2549.908877
722.453761	2550.844011
722.786158	2550.899463
723.118506	2553.268806
723.450805	2552.736964
723.783056	2550.808723
724.115259	2552.069011
724.447412	2551.622869
724.779518	2548.724206
725.111574	2550.831408
725.443582	2551.995914
725.775542	2552.530277
726.107453	2554.970195
726.439315	2549.760163
726.771129	2554.657644
727.102895	2547.962991
727.434612	2549.820657
727.766281	2545.008875
728.097901	2552.973898
728.429473	2549.626572
728.760996	2551.963147
729.092471	2551.161603
729.423897	2551.423743
729.755276	2548.641027
730.086606	2551.275029
730.417887	2552.273178
730.749120	2548.830070
731.080305	2553.490617
731.411442	2548.983825
731.742530	2552.195040
732.073570	2552.726882
732.404562	2552.696635
732.735506	2551.161603
733.066401	2553.924156
733.397249	2554.352654
733.728048	2553.901471
734.058798	2552.255534
734.389501	2550.859134
734.720156	2548.802343
735.050762	2553.127653
735.381320	2550.284443
735.711831	2549.424926
736.042293	2550.533980
736.372707	2552.126984
736.703073	2551.199412
737.033391	2551.116233
737.363661	2550.115564
737.693883	2551.849721
738.024056	2549.314021
738.354182	2552.807540
738.684260	2550.438198
739.014290	2553.336861
739.344272	2550.831408
739.674207	2549.031716
740.004093	2551.751418
740.333931	2551.058260
740.663722	2551.930379
740.993464	2548.441901
741.323159	2549.039278
741.652806	2549.881150
741.982405	2551.622869
742.311956	2551.111192
742.641460	2551.574978
742.970915	2549.167827
743.300323	2548.109185
743.629683	2545.150027
743.958996	2548.217570
744.288260	2545.593649
744.617477	2551.524567
744.946647	2552.477345
745.275768	2550.125646
745.604842	2550.783517
745.933869	2547.118598
746.262847	2550.576830
746.591778	2549.104813
746.920662	2550.349978
747.249498	2553.861141
747.578286	2550.849052
747.907027	2549.397200
748.235720	2552.172355
748.564365	2551.189330
748.892963	2549.288815
749.221514	2552.532797
749.550017	2551.433826
749.878473	2551.343085
750.206881	2549.750080
750.535242	2549.868547
750.863555	2552.041285
751.191821	2552.333672
751.520039	2551.716130
751.848210	2550.589432
752.176334	2550.052550
752.504411	2550.662529
752.832440	2549.432488
753.160421	2553.077242
753.488356	2549.465255
753.816243	2551.060780
754.144082	2549.624052
754.471875	2550.907025
754.799620	2551.141439
755.127318	2549.901315
755.454969	2549.225800
755.782572	2550.347457
756.110129	2549.364432
756.437638	2550.644885
756.765100	2548.784699
757.092515	2552.076573
757.419882	2550.193702
757.747203	2548.144473
758.074477	2550.554144
758.401703	2550.100441
758.728882	2549.329144
759.056014	2551.469114
759.383099	2550.705379
759.710138	2547.844524
760.037129	2545.507949
760.364073	2548.605738
760.690970	2544.812270
761.017820	2550.092879
761.344623	2551.685883
761.671379	2549.548434
761.998088	2550.294525
762.324751	2549.770245
762.651366	2552.273178
762.977935	2548.578012
763.304456	2550.402910
763.630931	2550.191181
763.957359	2551.040616
764.283740	2550.728064
764.610074	2550.589432
764.936362	2549.175389
765.262602	2548.983825
765.588796	2550.453321
765.914943	2550.072714
766.241044	2551.426264
766.567097	2550.521377
766.893104	2546.596839
767.219064	2551.451470
767.544978	2549.187992
767.870845	2551.360729
768.196665	2546.954761
768.522438	2548.772097
768.848165	2550.135729
769.173846	2548.535162
769.499479	2550.249155
769.825066	2549.445091
770.150607	2551.673281
770.476101	2552.414330
770.801548	2549.941644
771.126949	2551.017931
771.452303	2550.302087
771.777611	2549.336706
772.102872	2550.667570
772.428087	2550.813764
772.753256	2547.481561
773.078378	2549.447611
773.403453	2548.688917
773.728482	2550.604556
774.053465	2552.721841
774.378401	2552.704197
774.703291	2549.364432
775.028135	2550.964998
775.352932	2554.302242
775.677683	2551.007848
776.002388	2546.649771
776.327046	2545.220604
776.651658	2546.422919
776.976224	2544.834955
777.300743	2549.162786
777.625216	2550.050029
777.949643	2548.673794
778.274024	2550.753270
778.598359	2549.724875
778.922647	2550.440718
779.246889	2550.433157
779.571086	2547.751263
779.895236	2551.963147
780.219339	2550.763352
780.543397	2550.715461
780.867409	2550.357539
781.191374	2550.619679
781.515294	2550.095399
781.839167	2550.148332
782.162995	2549.117416
782.486776	2549.377035
782.810511	2546.609442
783.134201	2551.927859
783.457844	2548.336037
783.781441	2550.896943
784.104993	2550.435677
784.428498	2552.411810
784.751958	2549.001469
785.075372	2550.604556
785.398739	2548.189843
785.722061	2549.389638
786.045337	2547.181612
786.368568	2551.088507
786.691752	2547.821839
787.014891	2549.765204
787.337983	2549.072045
787.661030	2551.232180
787.984031	2551.048178
788.306987	2551.290153
788.629897	2549.634134
788.952760	2548.910728
789.275579	2551.721172
789.598351	2548.522559
789.921078	2549.795451
790.243759	2550.362581
790.566395	2550.685214
790.888984	2551.461552
791.211529	2547.768907
791.534027	2549.581202
791.856480	2549.578681
792.178888	2546.475851
792.501249	2546.556509
792.823566	2548.091541
793.145836	2543.115922
793.468062	2547.889895
793.790241	2547.778989
794.112375	2546.450645
794.434464	2549.165307
794.756507	2548.840152
795.078505	2549.979453
795.400457	2548.106664
795.722364	2548.923331
796.044226	2550.092879
796.366042	2548.280584
796.687812	2547.862168
797.009538	2548.507436
797.331218	2549.848383
797.652852	2548.499874
797.974442	2551.184289
798.295986	2548.320913
798.617484	2550.269319
798.938938	2549.374514
799.260346	2548.225131
799.581709	2548.429298
799.903026	2549.024154
800.224299	2549.813095
800.545526	2550.760832
800.866708	2545.686910
801.187845	2550.937272
801.508936	2548.313352
801.829983	2549.853424
802.150984	2549.003990
802.471940	2550.627241
802.792851	2548.764535
803.113717	2548.492312
803.434538	2550.347457
803.755314	2549.808054
804.076045	2550.317210
804.396731	2549.709751
804.717372	2547.176571
805.037967	2548.479710
805.358518	2547.728578
805.679024	2550.072714
805.999485	2551.993394
806.319901	2549.578681
806.640272	2548.247817
806.960598	2549.480379
807.280879	2549.593805
807.601115	2550.423074
807.921306	2549.810574
808.241453	2546.317055
808.561554	2546.521221
808.881611	2552.394166
809.201623	2544.600542
809.521590	2549.755122
809.841513	2549.331665
810.161390	2547.479041
810.481223	2547.473999
810.801011	2549.150183
811.120755	2547.652960
811.440453	2547.589946
811.760107	2548.797302
812.079716	2550.770914
812.399281	2547.960471
812.718801	2548.446942
813.038276	2551.252344
813.357707	2551.141439
813.677093	2550.092879
813.996434	2548.179761
814.315731	2548.671273
814.634983	2549.354350
814.954191	2547.524411
815.273354	2549.296377
815.592473	2548.338557
815.911547	2550.090358
816.230577	2549.339226
816.549562	2549.102292
816.868502	2545.744884
817.187399	2549.941644
817.506250	2548.013403
817.825058	2551.564896
818.143821	2550.317210
818.462539	2548.923331
818.781213	2548.454504
819.099843	2547.912580
819.418429	2549.656819
819.736970	2546.904349
820.055466	2548.199926
820.373919	2549.810574
820.692327	2546.571633
821.010691	2549.319062
821.329011	2547.607590
821.647286	2546.929555
821.965517	2546.559030
822.283704	2547.320244
822.601847	2549.515667
822.919945	2547.416026
823.237999	2546.087682
823.556010	2549.913918
823.873976	2547.542055
824.191897	2546.818649
824.509775	2545.318906
824.827609	2546.667415
825.145398	2542.730274
825.463144	2547.458876
825.780845	2546.604400
826.098502	2548.454504
826.416116	2550.770914
826.733685	2548.693959
827.051210	2548.504915
827.368692	2548.235214
827.686129	2549.422405
828.003522	2546.412837
828.320872	2546.372507
828.638177	2546.720347
828.955439	2550.191181
829.272656	2545.666746
829.589830	2546.513660
829.906960	2548.872920
830.224046	2547.736139
830.541088	2548.696479
830.858086	2549.019113
831.175041	2550.445760
831.491952	2547.055584
831.808819	2547.942827
832.125642	2548.696479
832.442421	2548.457024
832.759157	2546.823691
833.075849	2548.179761
833.392497	2545.671787
833.709101	2547.524411
834.025662	2547.496685
834.342179	2549.175389
834.658653	2547.095913
834.975083	2549.256047
835.291469	2550.614638
835.607811	2545.606252
835.924110	2546.979966
836.240366	2544.819832
836.556578	2547.390820
836.872746	2545.855789
837.188871	2550.922149
837.504952	2547.355532
837.820990	2546.276725
838.136984	2549.258568
838.452935	2548.210008
838.768842	2546.097764
839.084706	2546.977446
839.400526	2547.259750
839.716303	2548.514998
840.032037	2543.370500
840.347727	2546.622044
840.663373	2547.925183
840.978977	2542.604245
841.294537	2548.010882
841.610054	2548.666232
841.925527	2548.646068
842.240957	2546.017106
842.556344	2548.265461
842.871687	2547.872251
843.186987	2549.218239
843.502244	2549.553475
843.817458	2547.632796
844.132629	2549.258568
844.447756	2550.395348
844.762840	2544.827394
845.077881	2547.158927
845.392879	2546.884184
845.707833	2548.063814
846.022745	2546.884184
846.337613	2545.694472
846.652438	2550.982643
846.967221	2547.438711
847.281960	2545.976777
847.596656	2550.092879
847.911309	2546.281767
848.225919	2548.416695
848.540485	2548.590615
848.855009	2550.841490
849.169490	2548.078938
849.483928	2546.213711
849.798323	2550.549103
850.112675	2549.079607
850.426984	2549.823177
850.741251	2547.852086
851.055474	2547.219421
851.369654	2546.649771
851.683792	2547.000131
851.997887	2546.359904
852.311938	2546.763197
852.625947	2545.157589
852.939914	2547.776469
853.253837	2548.817467
853.567718	2546.246478
853.881555	2547.879812
854.195350	2548.066335
854.509103	2546.506098
854.822812	2548.512477
855.136479	2546.493495
855.450103	2546.886705
855.763685	2544.797147
856.077224	2544.885367
856.390720	2542.760521
856.704173	2544.144317
857.017584	2548.956099
857.330953	2548.328475
857.644278	2547.794113
857.957561	2550.360060
858.270802	2546.501057
858.584000	2543.947712
858.897155	2548.058773
859.210268	2544.978628
859.523339	2546.904349
859.836367	2546.806047
860.149352	2547.620193
860.462295	2545.041643
860.775195	2549.268650
861.088054	2547.733619
861.400869	2548.754453
861.713642	2545.830583
862.026373	2545.838145
862.339062	2545.119781
862.651708	2548.958619
862.964312	2545.787733
863.276873	2545.417209
863.589392	2547.806716
863.901869	2544.383772
864.214303	2546.097764
864.526696	2546.871582
864.839045	2545.633978
865.151353	2548.396531
865.463619	2547.269833
865.775842	2550.886861
866.088023	2546.266643
866.400162	2548.159596
866.712258	2545.951571
867.024313	2546.947199
867.336325	2548.391489
867.648296	2546.702703
867.960224	2545.588608
868.272110	2547.141283
868.583954	2547.521890
868.895755	2546.115408
869.207515	2549.739998
869.519233	2547.544576
869.830909	2548.691438
870.142542	2547.945347
870.454134	2546.304452
870.765684	2549.515667
871.077191	2545.702034
871.388657	2544.852599
871.700081	2541.361600
872.011463	2545.933927
872.322803	2542.833617
872.634101	2547.249668
872.945357	2547.484082
873.256571	2547.534493
873.567744	2546.064997
873.878874	2547.894936
874.189963	2547.395862
874.501010	2546.009544
874.812015	2547.116077
875.122979	2547.521890
875.433900	2546.869061
875.744780	2542.619368
876.055618	2546.228834
876.366415	2544.761859
876.677169	2548.545245
876.987882	2548.187323
877.298554	2546.841335
877.609183	2549.172868
877.919771	2545.828063
878.230317	2549.114895
878.540822	2548.381407
878.851285	2545.505429
879.161707	2548.356201
879.472087	2547.763866
879.782425	2545.008875
880.092722	2546.526262
880.402977	2548.383928
880.713191	2546.627086
881.023363	2545.276056
881.333494	2547.118598
881.643583	2546.874102
881.953631	2547.093392
882.263637	2545.845707
882.573602	2547.889895
882.883526	2543.557023
883.193408	2550.027344
883.503248	2546.576674
883.813048	2548.230172
884.122806	2546.274205
884.432522	2546.087682
884.742197	2545.782692
885.051831	2547.073228
885.361424	2545.767569
885.670975	2546.644730
885.980485	2547.317724
886.289954	2547.166489
886.599382	2546.662374
886.908768	2542.279090
887.218113	2543.347815
887.527417	2542.163144
887.836680	2542.752959
888.145901	2548.595656
888.455082	2545.696993
888.764221	2549.409802
889.073319	2545.276056
889.382376	2546.254040
889.691392	2546.627086
890.000366	2548.038609
890.309300	2547.292518
890.618193	2545.873433
890.927044	2546.107847
891.235855	2548.414175
891.544625	2547.690769
891.853353	2548.724206
892.162041	2548.522559
892.470687	2546.226314
892.779293	2548.260419
893.087858	2546.289328
893.396381	2545.467620
893.704864	2546.057435
894.013306	2548.159596
894.321707	2546.243958
894.630068	2546.927034
894.938387	2544.855120
895.246665	2546.160779
895.554903	2543.804039
895.863100	2547.191695
896.171256	2542.957126
896.479371	2547.365615
896.787446	2550.183620
897.095480	2547.063145
897.403473	2546.072559
897.711425	2547.229503
898.019336	2547.766386
898.327207	2545.003834
898.635038	2547.491643
898.942827	2548.356201
899.250576	2547.927703
899.558284	2547.042981
899.865952	2546.669935
900.173579	2547.262271
900.481165	2545.233207
900.788711	2545.772610
901.096216	2548.061294
901.403681	2544.681200
901.711105	2547.181613
902.018489	2547.237065
902.325832	2545.170192
902.633135	2545.361756
902.940397	2543.138607
903.247619	2541.611137
903.554800	2542.866385
903.861941	2544.842517
904.169041	2546.521221
904.476101	2544.401416
904.783121	2545.281097
905.090100	2545.359235
905.397039	2544.204811
905.703938	2544.048535
906.010796	2546.992569
906.317614	2547.673125
906.624391	2547.746222
906.931129	2546.921993
907.237826	2548.489792
907.544483	2546.019627
907.851099	2545.255892
908.157675	2544.640871
908.464211	2547.378218
908.770707	2548.018444
909.077163	2545.434853
909.383578	2544.522404
909.689954	2547.894936
909.996289	2543.282280
910.302584	2543.594832
910.608839	2544.411498
910.915054	2547.647919
911.221229	2547.242106
911.527363	2545.923845
911.833458	2543.768751
912.139513	2546.795964
912.445527	2544.661036
912.751502	2545.807898
913.057436	2547.113557
913.363331	2547.060625
913.669186	2547.844524
913.975000	2543.040305
914.280775	2546.264123
914.586510	2548.240255
914.892205	2545.699513
915.197859	2547.262271
915.503475	2545.797816
915.809050	2546.309493
916.114585	2545.477703
916.420081	2545.770089
916.725536	2548.141952
917.030952	2545.918803
917.336328	2546.317055
917.641665	2540.020653
917.946961	2540.471837
918.252218	2540.771785
918.557435	2543.405788
918.862612	2545.205480
919.167750	2546.974925
919.472848	2544.111550
919.777906	2545.823022
920.082925	2543.373021
920.387904	2545.485264
920.692843	2545.807898
920.997743	2542.924358
921.302603	2543.678011
921.607423	2548.018444
921.912204	2544.386293
922.216946	2545.054246
922.521647	2545.626417
922.826310	2545.268495
923.130932	2548.351160
923.435516	2545.109698
923.740059	2544.383772
924.044564	2545.200439
924.349028	2548.691438
924.653454	2544.847558
924.957840	2544.920655
925.262186	2544.494678
925.566493	2545.298742
925.870761	2544.252702
926.174989	2545.046684
926.479178	2543.743546
926.783328	2545.286139
927.087438	2545.568443
927.391509	2545.742363
927.695541	2545.147507
927.999533	2545.296221
928.303486	2547.458876
928.607400	2544.900490
928.911275	2545.742363
929.215110	2545.981818
929.518906	2544.688762
929.822663	2546.241437
930.126381	2543.844369
930.430060	2543.763710
930.733699	2543.398227
931.037299	2543.380583
931.340861	2547.264792
931.644383	2546.622044
931.947866	2546.334699
932.251309	2546.869061
932.554714	2542.851261
932.858080	2543.113401
933.161407	2543.163813
933.464694	2541.275901
933.767943	2540.577701
934.071153	2545.497867
934.374323	2545.518032
934.677455	2545.651622
934.980548	2544.217414
935.283602	2545.691952
935.586617	2543.773793
935.889593	2546.180943
936.192530	2545.495347
936.495428	2545.293700
936.798287	2542.702547
937.101108	2544.454348
937.403890	2543.645243
937.706632	2545.792775
938.009336	2543.909904
938.312002	2544.237579
938.614628	2543.211704
938.917216	2545.281098
939.219765	2545.712116
939.522275	2545.515511
939.824747	2541.170037
940.127179	2545.296221
940.429573	2545.439894
940.731929	2546.155738
941.034246	2548.285625
941.336524	2546.213711
941.638763	2545.681869
941.940964	2545.709596
942.243126	2541.787578
942.545250	2544.575336
942.847335	2545.787733
943.149381	2545.875954
943.451389	2543.700696
943.753359	2543.471323
944.055290	2546.584236
944.357182	2545.898639
944.659036	2546.695141
944.960851	2543.733463
945.262628	2544.164482
945.564367	2545.676828
945.866067	2542.715150
946.167729	2543.766231
946.469352	2545.875954
946.770937	2539.448483
947.072484	2544.739173
947.373992	2545.268495
947.675462	2545.374359
947.976893	2543.027702
948.278286	2542.032074
948.579641	2542.551313
948.880958	2540.091230
949.182236	2542.700027
949.483476	2545.180274
949.784678	2542.521066
950.085841	2541.878319
950.386967	2545.946530
950.688054	2547.403423
950.989103	2542.223638
951.290114	2545.240768
951.591087	2544.968546
951.892021	2543.514173
952.192917	2543.907383
952.493776	2544.507280
952.794596	2542.334543
953.095378	2544.776982
953.396122	2544.466951
953.696828	2545.616334
953.997496	2542.992414
954.298126	2545.492826
954.598718	2544.887887
954.899272	2544.562733
955.199788	2544.492157
955.500266	2543.889739
955.800706	2546.077600
956.101108	2544.484595
956.401472	2546.064997
956.701798	2544.507280
957.002087	2544.603062
957.302337	2546.259081
957.602550	2547.973074
957.902724	2543.791437
958.202861	2548.217570
958.502960	2541.785057
958.803022	2543.486447
959.103045	2545.094575
959.403031	2542.984852
959.702979	2543.768751
960.002889	2543.373021
960.302762	2547.174051
960.602596	2544.386293
960.902393	2545.013916
961.202153	2544.484595
961.501875	2546.203629
961.801559	2542.911755
962.101205	2546.821170
962.400814	2545.528114
962.700385	2547.201777
962.999918	2543.264636
963.299414	2539.095602
963.598873	2542.836138
963.898293	2539.745911
964.197677	2544.187167
964.497022	2544.204811
964.796331	2543.531817
965.095601	2544.393854
965.394835	2544.071221
965.694030	2547.297559
965.993189	2544.461910
966.292309	2543.277239
966.591393	2545.956612
966.890439	2544.199770
967.189447	2542.523586
967.488419	2545.810419
967.787353	2543.425953
968.086249	2541.182639
968.385108	2543.252033
968.683930	2545.437373
968.982714	2540.958308
969.281462	2542.087527
969.580172	2543.481406
969.878844	2544.698844
970.177480	2544.088865
970.476078	2541.976621
970.774639	2543.312527
971.073162	2542.599204
971.371649	2545.465100
971.670098	2544.144317
971.968510	2543.415871
972.266885	2543.055428
972.565223	2545.538196
972.863524	2545.190357
973.161788	2542.410160
973.460014	2543.030222
973.758204	2546.359904
974.056356	2544.356046
974.354471	2545.109698
974.652550	2546.180943
974.950591	2545.175233
975.248595	2543.070552
975.546563	2541.545602
975.844493	2545.964174
976.142386	2545.006355
976.440243	2544.532486
976.738062	2543.645243
977.035845	2545.281097
977.333590	2546.175902
977.631299	2544.998793
977.928971	2539.995448
978.226606	2543.020140
978.524204	2540.635674
978.821765	2539.551826
979.119290	2542.861344
979.416777	2548.353681
979.714228	2541.351518
980.011642	2544.096426
980.309020	2542.944523
980.606360	2542.566436
980.903664	2543.698175
981.200931	2544.918134
981.498162	2543.289842
981.795356	2540.880170
982.092513	2547.232024
982.389633	2542.453010
982.686717	2544.638350
982.983764	2543.940151
983.280775	2543.746066
983.577749	2544.131714
983.874686	2544.109029
984.171587	2544.736653
984.468451	2545.518032
984.765279	2544.960984
985.062070	2544.928217
985.358824	2545.288659
985.655543	2544.005686
985.952224	2544.456869
986.248869	2543.912424
986.545478	2541.638864
986.842050	2541.280942
987.138586	2545.107178
987.435086	2545.702034
987.731549	2545.785213
988.027975	2543.869574
988.324366	2545.056766
988.620719	2546.513660
988.917037	2542.863864
989.213318	2545.220604
989.509563	2542.596683
989.805772	2544.484595
990.101944	2544.419060
990.398080	2544.787064
990.694180	2544.444266
990.990244	2542.596683
991.286271	2541.850592
991.582262	2543.050387
991.878217	2543.128525
992.174136	2543.592311
992.470019	2543.688093
992.765865	2541.548123
993.061676	2537.603420
993.357450	2542.364790
993.653188	2539.461085
993.948890	2541.139790
994.244556	2543.748587
994.540186	2543.027702
994.835780	2542.969728
995.131337	2544.595501
995.426859	2544.514842
995.722345	2544.106509
996.017795	2545.500388
996.313208	2541.117104
996.608586	2546.831252
996.903928	2542.140459
997.199234	2543.574667
997.494504	2542.256405
997.789738	2542.437887
998.084936	2542.276570
998.380099	2542.931920
998.675225	2546.052394
998.970316	2541.278421
999.265371	2543.304965
999.560390	2544.663556
999.855373	2543.047866
1000.150320	2544.618186
1000.445232	2541.480067
1000.740108	2544.519883
1001.034948	2543.395706
1001.329752	2542.959646
1001.624521	2544.043494
1001.919254	2542.258926
1002.213951	2543.985521
1002.508613	2544.121632
1002.803239	2543.856972
1003.097829	2544.323278
1003.392384	2542.942002
1003.686903	2544.212373
1003.981386	2541.964018
1004.275834	2542.158103
1004.570246	2544.807229
1004.864623	2543.428473
1005.158964	2543.423432
1005.453270	2542.541230
1005.747540	2540.035777
1006.041775	2543.950233
1006.335974	2544.078782
1006.630138	2542.120294
1006.924266	2545.699513
1007.218359	2542.596683
1007.512416	2539.493853
1007.806438	2539.413194
1008.100425	2539.755993
1008.394376	2540.648277
1008.688292	2540.910417
1008.982172	2544.822353
1009.276017	2545.928886
1009.569827	2539.803884
1009.863602	2542.944523
1010.157341	2542.135417
1010.451045	2540.711292
1010.744714	2542.755479
1011.038347	2546.095244
1011.331945	2542.694986
1011.625508	2543.181457
1011.919036	2543.274718
1012.212528	2543.055428
1012.505986	2541.772454
1012.799408	2542.178267
1013.092795	2544.474513
1013.386147	2542.596683
1013.679464	2541.381765
1013.972745	2544.966025
1014.265992	2540.267670
1014.559204	2544.439225
1014.852380	2540.912938
1015.145521	2544.340922
1015.438628	2543.705737
1015.731699	2541.535520
1016.024736	2542.619368
1016.317737	2541.611137
1016.610703	2541.938813
1016.903635	2544.552651
1017.196531	2542.740356
1017.489393	2547.302600
1017.782219	2542.326981
1018.075011	2542.589121
1018.367768	2542.085006
1018.660490	2542.155582
1018.953177	2542.155582
1019.245829	2542.155582
