Dividing Wavelength (nm)	Counts (n)	Blue Motor Position (mm): 0.000000	Red Motor Position (mm): 0.000000	
326.493990	2056.750440
326.888308	2056.750440
327.282561	2056.750440
327.676750	2030.607016
328.070874	2034.408046
328.464933	2040.371731
328.858929	2048.182999
329.252859	2059.520554
329.646726	2071.236196
330.040528	2089.361664
330.434265	2106.337750
330.827938	2128.070164
331.221547	2148.302835
331.615091	2166.634991
332.008571	2190.194823
332.401986	2208.340457
332.795338	2228.071533
333.188625	2248.783113
333.581847	2265.297933
333.975006	2284.784514
334.368100	2300.528037
334.761129	2321.138795
335.154095	2335.644715
335.546996	2350.858917
335.939833	2363.416431
336.332606	2376.273894
336.725315	2387.208157
337.117960	2400.995713
337.510540	2409.406878
337.903056	2418.551531
338.295508	2424.636204
338.687896	2431.219951
339.080220	2433.521237
339.472480	2438.340580
339.864676	2443.401899
340.256807	2447.717127
340.648875	2450.920780
341.040879	2449.831891
341.432818	2452.843980
341.824694	2452.430605
342.216506	2451.566047
342.608253	2451.835749
342.999937	2449.141253
343.391557	2448.891715
343.783113	2448.256530
344.174605	2446.749225
344.566033	2446.247630
344.957397	2443.268308
345.348697	2442.376024
345.739934	2438.948039
346.131106	2439.613472
346.522215	2437.430652
346.913260	2433.281782
347.304241	2432.361772
347.695159	2433.972421
348.086012	2430.136103
348.476802	2425.694846
348.867528	2426.050247
349.258191	2420.346182
349.648789	2424.560586
350.039324	2418.044895
350.429796	2423.648137
350.820203	2422.339958
351.210548	2421.356933
351.600828	2421.959351
351.991045	2418.843918
352.381198	2419.905081
352.771288	2419.010276
353.161314	2421.379618
353.551276	2422.019845
353.941175	2420.683939
354.331010	2417.480286
354.720782	2419.436253
355.110490	2421.966913
355.500135	2421.251069
355.889717	2423.643096
356.279235	2422.062695
356.668689	2423.509506
357.058080	2422.322314
357.447408	2421.697211
357.836672	2423.811975
358.225873	2424.820206
358.615010	2421.387180
359.004084	2425.606626
359.393095	2424.510175
359.782043	2426.337593
360.170927	2426.221647
360.559748	2426.798859
360.948505	2425.959507
361.337199	2431.061154
361.725830	2426.952614
362.114398	2429.213571
362.502903	2429.044693
362.891344	2431.698860
363.279722	2428.850608
363.668037	2432.354210
364.056289	2432.124838
364.444478	2432.843202
364.832603	2432.417225
365.220665	2433.465785
365.608665	2431.126689
365.996601	2433.483429
366.384474	2430.995619
366.772284	2431.698860
367.160031	2433.952256
367.547715	2430.289858
367.935336	2435.081474
368.322893	2435.109201
368.710388	2431.615681
369.097820	2431.938315
369.485189	2430.995619
369.872495	2433.329673
370.259738	2435.015939
370.646918	2434.572318
371.034035	2436.550971
371.421090	2434.451330
371.808081	2435.905703
372.195010	2433.866556
372.581875	2436.981989
372.968678	2435.699016
373.355418	2434.491659
373.742096	2436.596341
374.128710	2436.750096
374.515262	2435.998964
374.901751	2437.201280
375.288177	2437.980138
375.674540	2439.742021
376.060841	2437.685230
376.447079	2437.750765
376.833254	2439.285797
377.219367	2437.171033
377.605417	2437.561722
377.991404	2436.470312
378.377329	2437.791095
378.763191	2441.110694
379.148991	2442.058431
379.534727	2441.264450
379.920402	2438.617844
380.306013	2439.028698
380.691563	2441.650098
381.077049	2438.496856
381.462474	2443.240582
381.847835	2439.258070
382.233134	2441.428287
382.618371	2441.826538
383.003545	2445.125973
383.388657	2441.748400
383.773706	2441.082968
384.158693	2442.769234
384.543618	2443.220417
384.928480	2443.101950
385.313280	2442.391147
385.698017	2445.176385
386.082692	2443.384255
386.467305	2443.646395
386.851856	2445.151179
387.236344	2444.712599
387.620770	2438.711105
388.005133	2441.566919
388.389435	2442.854934
388.773674	2439.353852
389.157851	2444.321909
389.541965	2445.620007
389.926018	2445.662856
390.310008	2446.822322
390.693936	2447.205449
391.077802	2444.982301
391.461606	2446.824842
391.845348	2446.973556
392.229027	2449.650409
392.612645	2446.071190
392.996200	2447.762497
393.379694	2445.068000
393.763125	2449.945317
394.146494	2445.962805
394.529801	2449.093362
394.913047	2447.253340
395.296230	2448.649740
395.679351	2449.156376
396.062410	2451.215687
396.445408	2447.202929
396.828343	2448.430450
397.211217	2449.771397
397.594028	2447.810388
397.976778	2449.852055
398.359466	2450.522529
398.742092	2450.630913
399.124656	2450.809874
399.507158	2449.536983
399.889598	2452.886830
400.271977	2450.635955
400.654294	2450.298197
401.036549	2449.741150
401.418742	2452.115533
401.800874	2453.252313
402.182944	2451.767694
402.564952	2451.729885
402.946898	2451.994546
403.328783	2452.087807
403.710606	2453.751388
404.092367	2453.426233
404.474067	2453.842128
404.855705	2453.010338
405.237282	2454.184927
405.618797	2453.431274
406.000250	2454.842797
406.381642	2451.573609
406.762972	2452.904474
407.144240	2453.068311
407.525447	2450.308280
407.906593	2447.800306
408.287677	2455.951851
408.668700	2456.773559
409.049661	2453.892540
409.430560	2453.161573
409.811399	2454.011007
410.192176	2455.944290
410.572891	2454.255503
410.953545	2454.368929
411.334138	2455.281378
411.714669	2453.960596
412.095139	2455.525874
412.475547	2454.401697
412.855894	2454.517643
413.236180	2456.801286
413.616405	2456.440843
413.996568	2456.208950
414.376670	2457.570062
414.756711	2456.377829
415.136691	2456.723148
415.516609	2457.214660
415.896466	2459.276492
416.276262	2458.714404
416.655997	2458.051492
417.035670	2456.960082
417.415283	2459.011832
417.794834	2457.086111
418.174324	2457.905298
418.553753	2456.841615
418.933121	2458.001080
419.312428	2458.227932
419.691674	2458.316153
420.070859	2454.595781
420.449983	2459.460494
420.829045	2459.742799
421.208047	2460.509054
421.586988	2457.880093
421.965867	2460.811524
422.344686	2460.927470
422.723444	2459.430247
423.102141	2461.552573
423.480777	2459.145422
423.859352	2460.614919
424.237866	2459.659620
424.616319	2459.115175
424.994712	2463.455609
425.373044	2460.912347
425.751314	2456.604681
426.129524	2458.033848
426.507673	2458.709362
426.885762	2454.333641
427.263789	2461.910495
427.641756	2461.126596
428.019662	2461.119034
428.397508	2461.734055
428.775292	2460.524178
429.153016	2461.721452
429.530679	2460.995526
429.908282	2461.209775
430.285824	2463.470732
430.663305	2465.114148
431.040726	2461.557614
431.418086	2461.978551
431.795385	2463.574076
432.172624	2460.854373
432.549802	2462.414611
432.926920	2462.916205
433.303977	2464.189097
433.680974	2465.741772
434.057910	2462.896041
434.434786	2462.646504
434.811601	2462.588530
435.188355	2463.730352
435.565050	2464.453757
435.941683	2463.926957
436.318257	2464.635239
436.694770	2463.309415
437.071222	2463.004426
437.447614	2463.195989
437.823946	2463.891669
438.200218	2461.398818
438.576429	2466.122379
438.952580	2464.710856
439.328670	2462.926288
439.704700	2462.291102
440.080670	2464.138685
440.456580	2467.052472
440.832429	2467.415435
441.208218	2466.548357
441.583947	2463.861422
441.959616	2465.109107
442.335224	2461.933180
442.710773	2465.300671
443.086261	2465.736731
443.461689	2464.153809
443.837057	2466.845785
444.212365	2465.212451
444.587612	2466.447534
444.962800	2459.634414
445.337927	2463.677420
445.712995	2461.814713
446.088002	2467.370065
446.462949	2465.101546
446.837837	2467.622122
447.212664	2466.860908
447.587431	2468.496763
447.962139	2467.518779
448.336786	2466.704633
448.711374	2468.831999
449.085901	2466.195476
449.460369	2464.640280
449.834776	2467.927112
450.209124	2466.180352
450.583412	2467.990127
450.957640	2466.387040
451.331808	2468.166567
451.705917	2468.393419
452.079965	2468.418625
452.453954	2468.184211
452.827883	2467.483491
453.201752	2467.284365
453.575562	2466.991978
453.949311	2468.829479
454.323001	2465.938377
454.696632	2468.524489
455.070202	2467.271762
455.443713	2467.236474
455.817164	2463.397636
456.190556	2469.552884
456.563888	2470.946763
456.937160	2468.958028
457.310373	2467.687658
457.683526	2468.504324
458.056619	2468.322843
458.429653	2465.492235
458.802628	2468.746300
459.175542	2469.033646
459.548398	2469.177318
459.921194	2469.585652
460.293930	2469.126907
460.666607	2468.514407
461.039224	2466.124900
461.411782	2469.424335
461.784280	2470.137658
462.156719	2468.456433
462.529099	2470.644294
462.901419	2469.484829
463.273680	2469.212607
463.645882	2462.656586
464.018024	2469.046248
464.390106	2465.968624
464.762130	2471.975159
465.134094	2469.636063
465.505999	2469.993985
465.877845	2472.809470
466.249631	2468.723615
466.621358	2471.181177
466.993026	2469.953656
467.364634	2475.347691
467.736184	2470.835858
468.107674	2470.349387
468.479105	2467.894345
468.850477	2469.320991
469.221790	2472.960704
469.593043	2468.905096
469.964238	2472.413739
470.335373	2469.537761
470.706449	2470.755200
471.077467	2473.429532
471.448425	2472.292752
471.819324	2471.251753
472.190164	2471.798718
472.560945	2472.501959
472.931667	2470.359469
473.302330	2469.832668
473.672934	2469.825107
474.043479	2471.418111
474.413965	2471.234109
474.784393	2471.720581
475.154761	2473.973976
475.525070	2470.790488
475.895321	2470.102370
476.265513	2473.056486
476.635645	2471.650004
477.005719	2473.303503
477.375734	2471.229068
477.745691	2470.440128
478.115588	2471.508852
478.485427	2472.292752
478.855207	2473.668987
479.224928	2473.127063
479.594591	2473.873153
479.964194	2475.657722
480.333739	2474.155458
480.703226	2472.980869
481.072653	2475.030098
481.442022	2471.239150
481.811333	2472.202011
482.180584	2468.688327
482.549777	2471.118163
482.918912	2466.868470
483.287988	2471.012298
483.657005	2473.215283
484.025964	2472.257463
484.394864	2472.842237
484.763706	2473.308544
485.132489	2472.549850
485.501213	2472.018009
485.869879	2473.961373
486.238487	2475.418267
486.607036	2472.307875
486.975527	2474.195787
487.343959	2472.524645
487.712333	2476.061014
488.080648	2474.886425
488.448905	2473.442135
488.817104	2473.048925
489.185244	2473.066569
489.553326	2473.636219
489.921350	2474.740232
490.289315	2472.322998
490.657222	2473.280818
491.025070	2475.503967
491.392861	2472.721250
491.760593	2475.014975
492.128267	2470.971969
492.495883	2474.036991
492.863440	2474.508339
493.230939	2473.648822
493.598380	2473.701754
493.965763	2472.940540
494.333088	2474.873822
494.700354	2475.521611
495.067563	2475.461117
495.434713	2475.075468
495.801805	2472.829634
496.168839	2473.376600
496.535815	2473.981538
496.902733	2476.076138
497.269593	2476.360963
497.636395	2472.990951
498.003139	2473.711836
498.369825	2475.904738
498.736453	2473.616054
499.103023	2477.139821
499.469535	2474.001703
499.835989	2474.611682
500.202385	2473.114460
500.568723	2470.588842
500.935003	2473.243009
501.301226	2468.113635
501.667390	2472.804429
502.033497	2475.196456
502.399546	2475.524131
502.765537	2475.589666
503.131470	2476.129070
503.497345	2473.855509
503.863163	2475.554378
504.228923	2474.533544
504.594625	2475.468678
504.960269	2476.965901
505.325856	2477.243165
505.691385	2472.975828
506.056856	2474.914152
506.422270	2474.296610
506.787625	2475.781230
507.152924	2475.120839
507.518164	2477.457414
507.883347	2475.309882
508.248472	2473.933647
508.613540	2476.542444
508.978550	2473.656384
509.343503	2476.713843
509.708398	2477.462455
510.073236	2474.125211
510.438016	2476.320633
510.802738	2474.901549
511.167403	2477.626292
511.532010	2477.671663
511.896561	2475.882053
512.261053	2475.350211
512.625488	2474.611682
512.989866	2477.777527
513.354186	2474.533544
513.718449	2475.748462
514.082655	2476.618062
514.446803	2476.388689
514.810894	2478.173257
515.174927	2477.328864
515.538904	2478.352218
515.902822	2477.961529
516.266684	2478.032105
516.630488	2474.054635
516.994235	2474.904069
517.357925	2477.119656
517.721558	2475.738380
518.085133	2476.209728
518.448651	2475.211580
518.812112	2473.129583
519.175516	2479.428505
519.538863	2474.410036
519.902152	2478.208546
520.265385	2477.185191
520.628560	2476.144193
520.991678	2476.668473
521.354739	2476.179481
521.717743	2477.825418
522.080690	2477.515387
522.443580	2478.377424
522.806413	2476.436580
523.169189	2474.031950
523.531908	2476.918010
523.894569	2477.308700
524.257174	2478.158134
524.619722	2475.163689
524.982213	2476.822228
525.344647	2476.809625
525.707025	2477.656539
526.069345	2476.275263
526.431608	2476.282825
526.793815	2477.371714
527.155964	2478.107723
527.518057	2479.123515
527.880093	2478.747949
528.242072	2476.537403
528.603995	2478.901704
528.965860	2475.158648
529.327669	2475.319964
529.689421	2476.670994
530.051117	2479.562095
530.412755	2480.837507
530.774337	2475.622434
531.135862	2478.382465
531.497331	2476.670994
531.858743	2478.160655
532.220098	2480.552682
532.581396	2475.327526
532.942638	2478.793319
533.303824	2476.812146
533.664953	2476.318113
534.026025	2477.548154
534.387040	2478.969760
534.747999	2477.825418
535.108902	2479.247023
535.469748	2476.933134
535.830537	2478.211066
536.191270	2476.857516
536.551947	2476.839872
536.912567	2473.129583
537.273131	2474.457927
537.633638	2474.387351
537.994089	2479.388176
538.354483	2475.577063
538.714821	2479.088227
539.075103	2480.030923
539.435328	2477.553196
539.795497	2480.154431
540.155609	2479.277270
540.515665	2476.655870
540.875665	2478.727784
541.235609	2481.094606
541.595496	2477.901035
541.955328	2476.441621
542.315102	2480.661067
542.674821	2474.727629
543.034483	2478.241313
543.394090	2478.221148
543.753640	2479.957826
544.113134	2477.212918
544.472571	2477.704430
544.831953	2476.108905
545.191278	2479.940182
545.550548	2474.634367
545.909761	2477.008751
546.268918	2478.236272
546.628019	2478.702579
546.987064	2474.836014
547.346053	2479.073103
547.704986	2479.211735
548.063863	2477.210397
548.422684	2475.801395
548.781449	2478.629482
549.140158	2479.725933
549.498811	2478.508494
549.857408	2477.921200
550.215949	2478.195943
550.574434	2478.848772
550.932864	2475.791312
551.291237	2480.918166
551.649555	2477.482619
552.007817	2478.790799
552.366022	2475.471199
552.724173	2477.996817
553.082267	2474.641929
553.440305	2475.231744
553.798288	2475.642598
554.156215	2479.350367
554.514086	2477.061683
554.871902	2472.504480
555.229661	2474.147896
555.587365	2475.141003
555.945014	2479.395737
556.302606	2477.298617
556.660143	2477.835500
557.017625	2480.540079
557.375050	2480.041005
557.732421	2480.401448
558.089735	2480.068731
558.446994	2478.914307
558.804197	2480.376242
559.161345	2477.001189
559.518437	2478.160655
559.875474	2478.473206
560.232455	2477.669142
560.589381	2476.708802
560.946251	2480.197281
561.303065	2475.839203
561.659825	2480.454380
562.016528	2476.683597
562.373177	2479.259626
562.729770	2476.413895
563.086307	2476.008082
563.442789	2476.285345
563.799216	2481.190388
564.155587	2479.723412
564.511904	2478.616879
564.868164	2476.486992
565.224370	2478.221148
565.580520	2477.384317
565.936615	2479.241982
566.292654	2479.423464
566.648638	2477.207877
567.004567	2480.436736
567.360441	2474.659573
567.716260	2478.712661
568.072023	2478.879019
568.427732	2477.742239
568.783385	2480.852631
569.138982	2477.530510
569.494525	2479.163844
569.850013	2479.637713
570.205445	2479.010089
570.560823	2477.593525
570.916145	2478.367342
571.271412	2477.313741
571.626625	2477.180150
571.981782	2478.750470
572.336884	2477.805253
572.691931	2475.297279
573.046923	2478.190902
573.401860	2472.542289
573.756743	2479.509163
574.111570	2478.304328
574.466342	2478.563947
574.821059	2476.673514
575.175722	2479.199132
575.530330	2478.989924
575.884882	2479.950264
576.239380	2478.158134
576.593823	2478.591673
576.948211	2478.586632
577.302544	2479.657877
577.656823	2479.788947
578.011047	2481.182826
578.365216	2479.630151
578.719330	2479.299955
579.073389	2479.942702
579.427394	2479.778865
579.781344	2478.407671
580.135239	2479.796509
580.489080	2480.809781
580.842866	2480.963536
581.196597	2480.202322
581.550273	2478.894143
581.903895	2479.599904
582.257463	2479.544451
582.610975	2479.398258
582.964434	2479.327682
583.317837	2477.175109
583.671186	2479.244503
584.024481	2477.185191
584.377721	2478.911787
584.730906	2477.643936
585.084037	2482.241469
585.437113	2478.062352
585.790135	2477.510346
586.143103	2476.978504
586.496016	2479.909935
586.848874	2480.197281
587.201679	2478.531179
587.554428	2476.870119
587.907124	2479.027733
588.259765	2481.727271
588.612352	2474.404995
588.964884	2477.316261
589.317362	2480.151910
589.669786	2476.156796
590.022155	2477.069245
590.374470	2473.008595
590.726731	2476.517238
591.078937	2474.813328
591.431090	2479.211735
591.783188	2478.437918
592.135232	2480.809781
592.487222	2478.677373
592.839157	2478.448000
593.191038	2476.691158
593.542866	2478.374904
593.894639	2480.469503
594.246358	2479.695686
594.598022	2478.412712
594.949633	2478.997486
595.301190	2477.102012
595.652692	2479.471355
596.004141	2477.157465
596.355535	2479.607466
596.706876	2477.124698
597.058162	2476.262660
597.409395	2477.306179
597.760573	2480.721561
598.111698	2478.684935
598.462768	2477.527990
598.813785	2476.403812
599.164748	2479.620069
599.515657	2478.533700
599.866511	2482.342292
600.217312	2476.880202
600.568060	2478.896663
600.918753	2478.599235
601.269392	2482.314565
601.619978	2478.276601
601.970510	2476.799543
602.320988	2479.247023
602.671412	2479.431025
603.021783	2478.112764
603.372100	2478.579070
603.722363	2477.515387
604.072572	2478.826087
604.422728	2480.542600
604.772830	2479.378093
605.122878	2475.940026
605.472872	2479.458752
605.822813	2477.038998
606.172701	2479.037815
606.522534	2478.626961
606.872314	2479.715851
607.222041	2477.391879
607.571714	2478.357260
607.921333	2474.195787
608.270899	2476.295428
608.620411	2475.062866
608.969870	2476.461786
609.319276	2478.246354
609.668627	2480.212404
610.017926	2481.137456
610.367171	2480.121663
610.716362	2477.800212
611.065500	2479.206694
611.414585	2475.700572
611.763616	2477.154944
612.112594	2478.258957
612.461518	2475.476240
612.810389	2481.424802
613.159207	2479.355408
613.507971	2476.739049
613.856682	2479.136118
614.205340	2479.667960
614.553945	2479.718371
614.902496	2476.086220
615.250994	2480.814822
615.599439	2476.386168
615.947830	2481.283649
616.296169	2476.237454
616.644454	2478.087558
616.992686	2477.384317
617.340864	2478.405151
617.688990	2480.804740
618.037063	2479.098309
618.385082	2479.030254
618.733048	2479.168885
619.080961	2479.930100
619.428821	2479.390696
619.776628	2478.740387
620.124382	2480.023361
620.472083	2479.199132
620.819731	2480.779534
621.167326	2477.533031
621.514868	2479.879688
621.862357	2475.992958
622.209793	2478.085037
622.557176	2479.249544
622.904506	2479.095789
623.251783	2479.486478
623.599007	2478.513535
623.946179	2477.510346
624.293297	2479.443628
624.640363	2478.657208
624.987376	2475.347691
625.334336	2473.916003
625.681243	2475.125880
626.028097	2471.622278
626.374899	2476.766776
626.721647	2480.106540
627.068343	2479.448669
627.414987	2480.681232
627.761577	2478.682414
628.108115	2477.691827
628.454600	2477.926241
628.801032	2478.347177
629.147412	2479.637713
629.493739	2480.875316
629.840014	2478.778196
630.186236	2480.267857
630.532405	2477.769965
630.878521	2476.819708
631.224585	2476.320633
631.570597	2479.741056
631.916556	2480.834987
632.262462	2478.193422
632.608316	2478.014461
632.954117	2478.405151
633.299866	2478.430356
633.645562	2477.908597
633.991206	2479.287352
634.336797	2476.481950
634.682336	2477.956488
635.027823	2477.648978
635.373257	2476.660911
635.718639	2475.934985
636.063968	2477.149903
636.409245	2477.180150
636.754470	2479.158803
637.099642	2477.843062
637.444762	2480.708958
637.789829	2479.642754
638.134845	2479.093268
638.479808	2479.287353
638.824719	2477.601087
639.169577	2479.385655
639.514383	2479.110912
639.859137	2476.862557
640.203839	2477.462455
640.548489	2479.698207
640.893086	2479.057980
641.237632	2479.597383
641.582125	2480.041005
641.926566	2478.329533
642.270955	2477.185191
642.615292	2474.536065
642.959576	2475.365335
643.303809	2471.607155
643.647990	2478.816005
643.992118	2481.069400
644.336195	2475.813997
644.680219	2476.353401
645.024192	2478.200984
645.368112	2477.399440
645.711981	2477.596045
646.055797	2476.310551
646.399562	2479.083186
646.743274	2480.358598
647.086935	2477.575881
647.430544	2478.395068
647.774101	2479.005048
648.117606	2477.477578
648.461059	2478.984883
648.804460	2481.318937
649.147810	2476.789461
649.491108	2477.694348
649.834354	2476.822228
650.177548	2474.465489
650.520690	2479.733495
650.863781	2480.164513
651.206820	2478.483288
651.549807	2481.071921
651.892742	2480.098978
652.235626	2478.137969
652.578458	2477.752321
652.921238	2477.104533
653.263967	2476.978504
653.606644	2476.718885
653.949269	2478.765593
654.291843	2476.250057
654.634365	2480.575367
654.976836	2476.207207
655.319255	2476.222331
655.661622	2477.447331
656.003938	2481.094606
656.346203	2479.012610
656.688416	2477.810294
657.030577	2480.257775
657.372687	2477.364152
657.714746	2476.330716
658.056753	2477.180150
658.398708	2476.376086
658.740612	2479.894812
659.082465	2477.507825
659.424266	2477.323823
659.766016	2475.355253
660.107715	2475.173771
660.449362	2475.473720
660.790958	2478.639564
661.132503	2475.836683
661.473996	2478.808443
661.815438	2480.119143
662.156829	2478.347177
662.498168	2479.781386
662.839456	2474.881384
663.180693	2475.451034
663.521879	2477.472537
663.863013	2478.455562
664.204097	2479.259626
664.545129	2479.148721
664.886110	2476.345839
665.227040	2477.462455
665.567918	2479.252064
665.908746	2476.381127
666.249522	2477.041518
666.590248	2479.022692
666.930922	2479.788947
667.271545	2476.973463
667.612118	2478.392548
667.952639	2478.604276
668.293109	2478.541262
668.633528	2475.471199
668.973896	2478.783237
669.314213	2475.819039
669.654480	2478.599235
669.994695	2477.530510
670.334859	2479.456231
670.674973	2475.294759
671.015035	2478.589153
671.355047	2474.621765
671.695008	2479.015130
672.034918	2477.931282
672.374777	2479.247023
672.714585	2476.902887
673.054342	2481.142497
673.394049	2478.211066
673.733705	2480.300624
674.073310	2479.156283
674.412864	2478.972280
674.752368	2480.265336
675.091820	2477.873309
675.431223	2474.319295
675.770574	2478.256437
676.109875	2478.752990
676.449125	2476.716364
676.788324	2473.416929
677.127473	2476.197125
677.466571	2473.580766
677.805619	2478.334574
678.144616	2473.273256
678.483562	2478.327013
678.822458	2478.306848
679.161303	2477.585963
679.500098	2478.586632
679.838842	2477.941364
680.177535	2476.134111
680.516179	2478.997486
680.854771	2478.586632
681.193314	2478.755511
681.531805	2476.814667
681.870247	2479.486478
682.208638	2474.566312
682.546978	2480.330871
682.885268	2474.914152
683.223508	2478.763073
683.561697	2475.889615
683.899836	2477.210397
684.237925	2480.262816
684.575963	2478.175778
684.913951	2477.217959
685.251889	2477.170068
685.589776	2474.657053
685.927614	2475.516569
686.265401	2479.640233
686.603137	2474.725108
686.940824	2478.541262
687.278460	2477.780047
687.616046	2475.393061
687.953582	2478.183340
688.291068	2477.807774
688.628504	2478.029585
688.965889	2478.140490
689.303224	2476.983545
689.640510	2477.338947
689.977745	2479.362970
690.314930	2477.671663
690.652065	2477.991776
690.989150	2477.399440
691.326185	2476.998669
691.663170	2478.022023
692.000105	2476.358442
692.336990	2476.640747
692.673825	2481.046715
693.010610	2476.849955
693.347345	2474.997331
693.684030	2471.521455
694.020665	2472.789305
694.357251	2471.133286
694.693786	2478.568988
695.030272	2476.615541
695.366707	2476.955819
695.703093	2478.758031
696.039429	2476.507156
696.375716	2479.221818
696.711952	2474.931796
697.048139	2478.211066
697.384276	2478.435397
697.720363	2476.101343
698.056400	2475.960191
698.392388	2478.258957
698.728326	2479.867085
699.064214	2476.315592
699.400053	2477.659060
699.735842	2477.303658
700.071581	2476.960860
700.407270	2478.485809
700.742910	2476.118987
701.078501	2477.659060
701.414042	2475.083030
701.749533	2478.299286
702.084974	2476.078658
702.420366	2476.245016
702.755709	2477.822897
703.091002	2477.941364
703.426246	2476.781899
703.761440	2478.581591
704.096584	2478.957157
704.431679	2476.890284
704.766725	2476.401292
705.101721	2477.137300
705.436668	2477.921200
705.771565	2475.292238
706.106413	2478.468165
706.441212	2476.751652
706.775961	2477.525469
707.110661	2478.107722
707.445311	2477.757362
707.779913	2476.552527
708.114465	2478.770634
708.448967	2476.348360
708.783421	2475.821559
709.117825	2476.620582
709.452180	2478.122846
709.786485	2474.498256
710.120742	2473.207721
710.454949	2472.345684
710.789107	2475.496405
711.123216	2469.038687
711.457275	2477.966570
711.791286	2476.423977
712.125247	2476.267701
712.459159	2475.977835
712.793023	2475.088071
713.126837	2476.129070
713.460602	2479.511684
713.794318	2474.752835
714.127985	2480.116622
714.461602	2476.716364
714.795171	2475.456076
715.128691	2477.051601
715.462162	2479.201653
715.795584	2476.701241
716.128957	2476.083699
716.462281	2476.686117
716.795556	2476.809625
717.128782	2475.980356
717.461960	2476.426498
717.795088	2475.892135
718.128167	2479.214256
718.461198	2475.609831
718.794180	2474.767958
719.127113	2475.433390
719.459997	2478.422795
719.792833	2474.679738
720.125619	2472.509521
720.458357	2478.611838
720.791046	2478.039667
721.123686	2476.035808
721.456278	2474.399954
721.788821	2477.336426
722.121315	2477.860706
722.453761	2476.673514
722.786158	2473.986579
723.118506	2477.580922
723.450805	2479.113433
723.783056	2476.860037
724.115259	2475.062866
724.447412	2477.835500
724.779518	2479.151241
725.111574	2478.140490
725.443582	2477.986735
725.775542	2476.668473
726.107453	2477.117136
726.439315	2477.601087
726.771129	2476.794502
727.102895	2470.041876
727.434612	2474.122690
727.766281	2472.461630
728.097901	2475.657722
728.429473	2476.101343
728.760996	2479.090747
729.092471	2478.889101
729.423897	2475.161168
729.755276	2475.705613
730.086606	2476.786940
730.417887	2475.884574
730.749120	2474.561271
731.080305	2478.286683
731.411442	2474.992289
731.742530	2475.819039
732.073570	2475.950109
732.404562	2476.166878
732.735506	2477.848103
733.066401	2474.205869
733.397249	2476.789461
733.728048	2476.373566
734.058798	2476.960860
734.389501	2475.204018
734.720156	2478.644605
735.050762	2475.763586
735.381320	2472.701085
735.711831	2476.383648
736.042293	2476.154275
736.372707	2474.309213
736.703073	2475.733339
737.033391	2473.031281
737.363661	2477.117136
737.693883	2474.654532
738.024056	2476.275263
738.354182	2476.620582
738.684260	2477.096971
739.014290	2475.909779
739.344272	2472.149079
739.674207	2477.041518
740.004093	2475.350211
740.333931	2476.668473
740.663722	2475.627475
740.993464	2475.461117
741.323159	2476.267701
741.652806	2475.990438
741.982405	2477.165027
742.311956	2474.916672
742.641460	2475.451034
742.970915	2477.321303
743.300323	2473.555561
743.629683	2474.228555
743.958996	2474.389872
744.288260	2470.016671
744.617477	2475.806436
744.946647	2477.611169
745.275768	2476.504636
745.604842	2474.024388
745.933869	2475.753504
746.262847	2475.319964
746.591778	2474.752835
746.920662	2475.277115
747.249498	2479.385655
747.578286	2474.185705
747.907027	2475.375417
748.235720	2475.503967
748.564365	2475.501446
748.892963	2475.715695
749.221514	2475.987917
749.550017	2474.077320
749.878473	2474.863740
750.206881	2478.130408
750.535242	2474.636888
750.863555	2475.440952
751.191821	2473.348873
751.520039	2477.001189
751.848210	2473.376600
752.176334	2475.907259
752.504411	2474.364666
752.832440	2476.701241
753.160421	2473.706795
753.488356	2475.967753
753.816243	2476.958339
754.144082	2473.515231
754.471875	2473.767289
754.799620	2474.352063
755.127318	2474.941878
755.454969	2473.704275
755.782572	2475.927423
756.110129	2474.911631
756.437638	2475.670325
756.765100	2474.120170
757.092515	2475.967753
757.419882	2473.633698
757.747203	2475.181333
758.074477	2474.785602
758.401703	2471.589511
758.728882	2475.272073
759.056014	2474.382310
759.383099	2475.904738
759.710138	2473.588328
760.037129	2469.759572
760.364073	2474.195787
760.690970	2471.839048
761.017820	2475.549337
761.344623	2473.210242
761.671379	2474.583956
761.998088	2474.999851
762.324751	2475.201497
762.651366	2474.573874
762.977935	2475.934985
763.304456	2474.858699
763.630931	2476.214769
763.957359	2473.212762
764.283740	2477.114615
764.610074	2473.502628
764.936362	2475.788792
765.262602	2476.066055
765.588796	2476.731488
765.914943	2474.097485
766.241044	2475.998000
766.567097	2476.159317
766.893104	2474.183184
767.219064	2473.805098
767.544978	2473.971456
767.870845	2476.860037
768.196665	2473.611013
768.522438	2472.940540
768.848165	2477.669142
769.173846	2473.558081
769.499479	2476.149234
769.825066	2472.559933
770.150607	2478.253916
770.476101	2474.440283
770.801548	2476.262660
771.126949	2473.724439
771.452303	2478.112764
771.777611	2475.307362
772.102872	2478.100161
772.428087	2473.684110
772.753256	2473.197639
773.078378	2475.929944
773.403453	2471.201342
773.728482	2476.514718
774.053465	2475.655201
774.378401	2476.144193
774.703291	2475.302320
775.028135	2474.455407
775.352932	2473.374079
775.677683	2473.439614
776.002388	2474.599079
776.327046	2469.416773
776.651658	2474.125211
776.976224	2468.615230
777.300743	2475.103195
777.625216	2477.711992
777.949643	2476.302989
778.274024	2473.162351
778.598359	2474.941878
778.922647	2474.079841
779.246889	2477.570840
779.571086	2473.863071
779.895236	2477.734677
780.219339	2474.704944
780.543397	2476.368524
780.867409	2473.300982
781.191374	2475.143524
781.515294	2475.698051
781.839167	2473.212762
782.162995	2475.816518
782.486776	2473.449696
782.810511	2476.091261
783.134201	2476.454224
783.457844	2475.075468
783.781441	2476.219810
784.104993	2475.065386
784.428498	2476.713843
784.751958	2473.323668
785.075372	2472.927937
785.398739	2474.218472
785.722061	2476.741570
786.045337	2473.300982
786.368568	2473.737042
786.691752	2474.944398
787.014891	2473.381641
787.337983	2476.252578
787.661030	2475.730818
787.984031	2475.002372
788.306987	2476.355922
788.629897	2473.537917
788.952760	2475.481281
789.275579	2474.725108
789.598351	2474.979687
789.921078	2478.246354
790.243759	2472.733853
790.566395	2476.444142
790.888984	2472.663276
791.211529	2472.491877
791.534027	2477.223000
791.856480	2472.451548
792.178888	2471.783595
792.501249	2469.741928
792.823566	2472.070941
793.145836	2469.182360
793.468062	2474.805767
793.790241	2474.755355
794.112375	2473.916003
794.434464	2473.668987
794.756507	2474.772999
795.078505	2475.602269
795.400457	2475.556899
795.722364	2474.631847
796.044226	2474.883905
796.366042	2473.162351
796.687812	2475.635037
797.009538	2475.113277
797.331218	2475.977835
797.652852	2473.479943
797.974442	2474.246199
798.295986	2472.822073
798.617484	2476.413895
798.938938	2475.367855
799.260346	2473.772330
799.581709	2473.653863
799.903026	2472.829634
800.224299	2474.909110
800.545526	2474.805767
800.866708	2475.536734
801.187845	2474.813328
801.508936	2475.657722
801.829983	2473.036322
802.150984	2471.493729
802.471940	2473.958853
802.792851	2474.959522
803.113717	2474.967084
803.434538	2472.867443
803.755314	2474.888946
804.076045	2472.975828
804.396731	2474.941878
804.717372	2471.992803
805.037967	2476.426498
805.358518	2472.983390
805.679024	2475.050263
805.999485	2472.179326
806.319901	2474.241158
806.640272	2473.379120
806.960598	2474.599079
807.280879	2470.082206
807.601115	2473.348873
807.921306	2473.689151
808.241453	2468.945425
808.561554	2467.685137
808.881611	2470.412401
809.201623	2468.227061
809.521590	2471.839048
809.841513	2472.910293
810.161390	2474.672176
810.481223	2470.419963
810.801011	2473.764768
811.120755	2475.529172
811.440453	2473.893318
811.760107	2475.017495
812.079716	2475.360294
812.399281	2471.534058
812.718801	2469.784778
813.038276	2473.661425
813.357707	2470.238481
813.677093	2474.911631
813.996434	2474.263843
814.315731	2472.791826
814.634983	2473.048925
814.954191	2472.663276
815.273354	2472.138996
815.592473	2471.438276
815.911547	2475.932465
816.230577	2475.264512
816.549562	2474.097485
816.868502	2470.818214
817.187399	2474.422639
817.506250	2475.738380
817.825058	2473.066569
818.143821	2472.549850
818.462539	2472.020529
818.781213	2473.081692
819.099843	2474.392392
819.418429	2473.321147
819.736970	2471.894500
820.055466	2471.123204
820.373919	2473.215283
820.692327	2472.645632
821.010691	2473.721919
821.329011	2473.343832
821.647286	2473.222844
821.965517	2476.912969
822.283704	2472.859881
822.601847	2471.806280
822.919945	2473.182515
823.237999	2471.108080
823.556010	2474.024388
823.873976	2473.137145
824.191897	2471.158492
824.509775	2469.411732
824.827609	2471.728142
825.145398	2468.927781
825.463144	2475.778709
825.780845	2471.350056
826.098502	2474.226034
826.416116	2472.025570
826.733685	2474.341981
827.051210	2472.759058
827.368692	2472.544809
827.686129	2475.665283
828.003522	2473.580766
828.320872	2472.310396
828.638177	2474.836014
828.955439	2474.374748
829.272656	2475.090592
829.589830	2473.174953
829.906960	2474.137814
830.224046	2474.583956
830.541088	2475.352732
830.858086	2472.766620
831.175041	2473.840386
831.491952	2474.354583
831.808819	2474.437762
832.125642	2472.754017
832.442421	2472.091105
832.759157	2472.685962
833.075849	2470.286372
833.392497	2473.656384
833.709101	2474.130252
834.025662	2471.531537
834.342179	2474.657053
834.658653	2473.726960
834.975083	2472.358287
835.291469	2477.623772
835.607811	2472.779223
835.924110	2470.964408
836.240366	2473.116980
836.556578	2469.860395
836.872746	2471.445838
837.188871	2473.071610
837.504952	2473.351394
837.820990	2471.627319
838.136984	2473.132104
838.452935	2472.610344
838.768842	2473.732001
839.084706	2471.836527
839.400526	2474.788123
839.716303	2472.507001
840.032037	2470.581280
840.347727	2469.835189
840.663373	2473.016157
840.978977	2468.224540
841.294537	2474.241157
841.610054	2472.388533
841.925527	2474.631847
842.240957	2472.950622
842.556344	2473.442135
842.871687	2473.646301
843.186987	2474.833493
843.502244	2471.602113
843.817458	2475.219141
844.132629	2471.718060
844.447756	2473.132104
844.762840	2471.879377
845.077881	2474.157978
845.392879	2472.222175
845.707833	2472.602783
846.022745	2472.827114
846.337613	2471.486167
846.652438	2472.559933
846.967221	2472.534727
847.281960	2472.128914
847.596656	2475.730818
847.911309	2471.786116
848.225919	2471.788636
848.540485	2470.384675
848.855009	2473.835345
849.169490	2469.298306
849.483928	2470.956846
849.798323	2471.745786
850.112675	2473.822742
850.426984	2472.252422
850.741251	2472.973307
851.055474	2471.471043
851.369654	2472.386013
851.683792	2471.135807
851.997887	2470.301496
852.311938	2473.313585
852.625947	2473.641260
852.939914	2473.910962
853.253837	2472.171764
853.567718	2472.355766
853.881555	2472.408698
854.195350	2474.760396
854.509103	2471.748307
854.822812	2470.601444
855.136479	2472.612865
855.450103	2471.352576
855.763685	2471.720581
856.077224	2465.643470
856.390720	2470.979531
856.704173	2465.983748
857.017584	2471.811321
857.330953	2472.312916
857.644278	2473.701754
857.957561	2473.358956
858.270802	2472.557412
858.584000	2469.578090
858.897155	2471.894500
859.210268	2470.220837
859.523339	2473.462299
859.836367	2472.464151
860.149352	2471.443317
860.462295	2471.511373
860.775195	2471.420632
861.088054	2471.100519
861.400869	2470.772844
861.713642	2471.342494
862.026373	2471.738225
862.339062	2471.231589
862.651708	2472.328040
862.964312	2468.025415
863.276873	2470.614047
863.589392	2471.637402
863.901869	2472.108749
864.214303	2472.436424
864.526696	2472.287710
864.839045	2471.153451
865.151353	2472.522124
865.463619	2469.313430
865.775842	2473.918524
866.088023	2472.179326
866.400162	2472.572536
866.712258	2471.097998
867.024313	2471.831486
867.336325	2472.065900
867.648296	2474.067238
867.960224	2471.178657
868.272110	2469.043728
868.583954	2472.844758
868.895755	2472.486836
869.207515	2471.087916
869.519233	2470.077164
869.830909	2472.592700
870.142542	2471.433235
870.454134	2470.770323
870.765684	2472.862402
871.077191	2472.285190
871.388657	2470.982052
871.700081	2465.519961
872.011463	2467.206227
872.322803	2468.698409
872.634101	2469.779736
872.945357	2475.892135
873.256571	2469.920889
873.567744	2471.902062
873.878874	2471.738225
874.189963	2469.487349
874.501010	2471.985241
874.812015	2473.404326
875.122979	2471.897021
875.433900	2471.891980
875.744780	2470.818214
876.055618	2468.978193
876.366415	2472.726291
876.677169	2472.761579
876.987882	2470.188070
877.298554	2471.866774
877.609183	2472.587659
877.919771	2472.827114
878.230317	2472.746455
878.540822	2472.597741
878.851285	2470.833338
879.161707	2472.131435
879.472087	2472.282669
879.782425	2472.151599
880.092722	2469.648666
880.402977	2472.766620
880.713191	2468.088429
881.023363	2473.941209
881.333494	2471.982721
881.643583	2468.393419
881.953631	2473.432052
882.263637	2471.347535
882.573602	2472.590180
882.883526	2473.245530
883.193408	2472.375931
883.503248	2470.072123
883.813048	2471.571867
884.122806	2471.523976
884.432522	2468.963069
884.742197	2470.903914
885.051831	2471.186218
885.361424	2470.220837
885.670975	2472.234778
885.980485	2472.605303
886.289954	2471.377782
886.599382	2471.947433
886.908768	2467.244036
887.218113	2466.782770
887.527417	2466.752523
887.836680	2465.933336
888.145901	2473.137145
888.455082	2470.581280
888.764221	2471.894500
889.073319	2472.443986
889.382376	2472.688482
889.691392	2470.971969
890.000366	2471.450879
890.309300	2471.266877
890.618193	2473.658904
890.927044	2470.316619
891.235855	2472.670838
891.544625	2472.648153
891.853353	2471.410550
892.162041	2472.093626
892.470687	2471.637402
892.779293	2470.979531
893.087858	2471.665128
893.396381	2472.075982
893.704864	2471.992803
894.013306	2470.959366
894.321707	2472.259984
894.630068	2469.278142
894.938387	2471.201342
895.246665	2471.206383
895.554903	2470.561115
895.863100	2471.211424
896.171256	2472.363328
896.479371	2470.876187
896.787446	2470.684623
897.095480	2469.893162
897.403473	2468.723615
897.711425	2472.343163
898.019336	2470.994654
898.327207	2468.453913
898.635038	2468.708491
898.942827	2471.448358
899.250576	2469.573049
899.558284	2471.791157
899.865952	2469.293265
900.173579	2471.269397
900.481165	2472.055817
900.788711	2470.825776
901.096216	2470.263687
901.403681	2470.445169
901.711105	2473.023719
902.018489	2468.274952
902.325832	2470.304016
902.633135	2466.344190
902.940397	2467.067596
903.247619	2467.622122
903.554800	2468.605148
903.861941	2472.564974
904.169041	2471.183698
904.476101	2472.272587
904.783121	2470.389716
905.090100	2469.779736
905.397039	2471.516414
905.703938	2469.323512
906.010796	2468.602627
906.317614	2470.919037
906.624391	2468.383337
906.931129	2472.859881
907.237826	2469.144551
907.544483	2470.810652
907.851099	2470.616568
908.157675	2471.377782
908.464211	2471.733183
908.770707	2471.468523
909.077163	2471.667648
909.383578	2469.323512
909.689954	2471.236630
909.996289	2467.841413
910.302584	2472.496918
910.608839	2469.991465
910.915054	2472.234778
911.221229	2470.808132
911.527363	2469.220168
911.833458	2469.099181
912.139513	2471.067751
912.445527	2472.033132
912.751502	2471.024901
913.057436	2469.946094
913.363331	2469.956177
913.669186	2471.075313
913.975000	2472.136476
914.280775	2471.569346
914.586510	2469.414253
914.892205	2472.464151
915.197859	2471.113122
915.503475	2471.097998
915.809050	2470.414922
916.114585	2472.433904
916.420081	2468.537092
916.725536	2472.060858
917.030952	2471.413070
917.336328	2470.583800
917.641665	2468.519448
917.946961	2469.071454
918.252218	2468.547174
918.557435	2464.357975
918.862612	2469.688996
919.167750	2470.281331
919.472848	2470.603965
919.777906	2473.500108
920.082925	2469.439458
920.387904	2470.029273
920.692843	2469.789819
920.997743	2469.071454
921.302603	2472.436424
921.607423	2467.065075
921.912204	2473.152268
922.216946	2471.289562
922.521647	2470.818214
922.826310	2470.235961
923.130932	2469.605817
923.435516	2472.658235
923.740059	2471.534058
924.044564	2468.274952
924.349028	2470.999696
924.653454	2470.969449
924.957840	2472.131435
925.262186	2470.092288
925.566493	2470.369551
925.870761	2471.224027
926.174989	2470.644294
926.479178	2470.629171
926.783328	2470.089767
927.087438	2470.850982
927.391509	2470.770323
927.695541	2470.392237
927.999533	2471.040025
928.303486	2471.196301
928.607400	2467.919551
928.911275	2468.428707
929.215110	2468.579942
929.518906	2467.223871
929.822663	2468.834520
930.126381	2467.014663
930.430060	2469.008440
930.733699	2469.676393
931.037299	2468.859726
931.340861	2470.185549
931.644383	2470.235961
931.947866	2471.531537
932.251309	2472.070941
932.554714	2468.789150
932.858080	2467.259159
933.161407	2466.669344
933.464694	2465.502317
933.767943	2466.439972
934.071153	2472.640591
934.374323	2470.810652
934.677455	2470.833337
934.980548	2469.290744
935.283602	2468.620271
935.586617	2469.343677
935.889593	2467.659931
936.192530	2470.256125
936.495428	2469.885601
936.798287	2468.171608
937.101108	2469.348718
937.403890	2469.525158
937.706632	2470.810652
938.009336	2469.618419
938.312002	2469.661269
938.614628	2471.123204
938.917216	2469.878039
939.219765	2467.906948
939.522275	2470.021712
939.824747	2469.936012
940.127179	2470.190590
940.429573	2468.695888
940.731929	2471.977679
941.034246	2470.437607
941.336524	2469.941053
941.638763	2469.946094
941.940964	2469.189921
942.243126	2469.557926
942.545250	2470.495580
942.847335	2471.902062
943.149381	2468.947946
943.451389	2468.327884
943.753359	2469.353759
944.055290	2470.586321
944.357182	2472.138996
944.659036	2472.093626
944.960851	2470.074644
945.262628	2470.014150
945.564367	2471.443317
945.866067	2469.590693
946.167729	2467.864098
946.469352	2470.334263
946.770937	2469.545323
947.072484	2471.738225
947.373992	2469.983903
947.675462	2468.068265
947.976893	2468.138841
948.278286	2463.616926
948.579641	2468.282514
948.880958	2465.240177
949.182236	2469.878039
949.483476	2469.489870
949.784678	2468.854685
950.085841	2471.198821
950.386967	2468.610189
950.688054	2471.657566
950.989103	2468.406022
951.290114	2467.919551
951.591087	2470.551033
951.892021	2467.949798
952.192917	2468.748820
952.493776	2469.384006
952.794596	2469.668831
953.095378	2469.525158
953.396122	2470.251084
953.696828	2470.626650
953.997496	2468.584983
954.298126	2470.135138
954.598718	2468.920220
954.899272	2467.680096
955.199788	2471.065231
955.500266	2468.542133
955.800706	2469.928450
956.101108	2467.738069
956.401472	2468.844602
956.701798	2468.385857
957.002087	2467.203707
957.302337	2470.094808
957.602550	2471.339973
957.902724	2468.895014
958.202861	2468.670683
958.502960	2467.758234
958.803022	2468.786629
959.103045	2468.252267
959.403031	2470.024232
959.702979	2468.910137
960.002889	2468.895014
960.302762	2470.099850
960.602596	2466.951649
960.902393	2468.214458
961.202153	2467.798563
961.501875	2469.865436
961.801559	2472.073461
962.101205	2468.663121
962.400814	2470.639253
962.700385	2470.009109
962.999918	2465.542647
963.299414	2463.939560
963.598873	2469.147072
963.898293	2464.806638
964.197677	2471.244192
964.497022	2468.322843
964.796331	2470.117494
965.095601	2468.771506
965.394835	2467.516258
965.694030	2468.718573
965.993189	2470.046918
966.292309	2469.880559
966.591393	2469.522638
966.890439	2466.898717
967.189447	2467.949797
967.488419	2469.444500
967.787353	2468.927781
968.086249	2469.540282
968.385108	2467.672534
968.683930	2466.755044
968.982714	2470.122535
969.281462	2468.771506
969.580172	2471.571867
969.878844	2466.843264
970.177480	2470.200673
970.476078	2466.465178
970.774639	2470.785447
971.073162	2467.244036
971.371649	2469.164716
971.670098	2469.472226
971.968510	2469.716722
972.266885	2466.286217
972.565223	2470.704788
972.863524	2469.000878
973.161788	2469.532720
973.460014	2468.201855
973.758204	2467.836372
974.056356	2469.184880
974.354471	2470.435086
974.652550	2467.188583
974.950591	2469.124386
975.248595	2468.486680
975.546563	2467.506176
975.844493	2467.256639
976.142386	2467.158336
976.440243	2470.500621
976.738062	2470.445169
977.035845	2468.854685
977.333590	2467.483491
977.631299	2468.660600
977.928971	2463.997533
978.226606	2464.511731
978.524204	2467.264201
978.821765	2465.305712
979.119290	2469.920889
979.416777	2467.619602
979.714228	2469.232771
980.011642	2467.838892
980.309020	2470.382154
980.606360	2467.317133
980.903664	2469.021043
981.200931	2468.141361
981.498162	2468.330405
981.795356	2467.727987
982.092513	2468.446351
982.389633	2466.760085
982.686717	2469.134469
982.983764	2465.794704
983.280775	2466.694550
983.577749	2467.642287
983.874686	2469.416773
984.171587	2471.924747
984.468451	2468.489201
984.765279	2471.307206
985.062070	2469.096660
985.358824	2468.700929
985.655543	2469.333594
985.952224	2466.800414
986.248869	2470.286372
986.545478	2464.484004
986.842050	2467.977524
987.138586	2466.354272
987.435086	2470.520786
987.731549	2467.213789
988.027975	2467.725466
988.324366	2467.470888
988.620719	2467.753192
988.917037	2467.854016
989.213318	2469.373923
989.509563	2468.118676
989.805772	2468.138841
990.101944	2467.785960
990.398080	2468.897534
990.694180	2467.143213
990.990244	2471.183698
991.286271	2468.527010
991.582262	2468.537092
991.878217	2467.372585
992.174136	2469.820066
992.470019	2465.555249
992.765865	2466.044241
993.061676	2463.274127
993.357450	2468.796711
993.653188	2464.292440
993.948890	2467.395271
994.244556	2468.242184
994.540186	2466.994499
994.835780	2469.268059
995.131337	2466.737400
995.426859	2469.285703
995.722345	2468.907617
996.017795	2467.758234
996.313208	2465.782101
996.608586	2468.315281
996.903928	2468.620271
997.199234	2468.111114
997.494504	2466.364355
997.789738	2469.547843
998.084936	2466.034159
998.380099	2467.226392
998.675225	2470.082206
998.970316	2467.007102
999.265371	2469.719242
999.560390	2468.514407
999.855373	2468.728656
1000.150320	2467.596917
1000.445232	2468.136320
1000.740108	2469.348718
1001.034948	2468.032977
1001.329752	2469.200004
1001.624521	2469.411732
1001.919254	2469.068934
1002.213951	2466.623974
1002.508613	2467.657411
1002.803239	2466.122379
1003.097829	2470.500621
1003.392384	2470.946763
1003.686903	2467.362503
1003.981386	2468.713532
1004.275834	2467.543985
1004.570246	2467.221351
1004.864623	2467.846454
1005.158964	2466.813017
1005.453270	2466.394602
1005.747540	2468.201855
1006.041775	2466.671865
1006.335974	2466.064406
1006.630138	2468.587503
1006.924266	2468.799232
1007.218359	2464.776391
1007.512416	2467.647328
1007.806438	2464.045424
1008.100425	2466.618933
1008.394376	2463.886627
1008.688292	2466.777729
1008.982172	2465.991309
1009.276017	2468.771506
1009.569827	2470.109932
1009.863602	2467.183542
1010.157341	2468.058182
1010.451045	2464.970476
1010.744714	2467.256639
1011.038347	2467.765795
1011.331945	2467.367544
1011.625508	2466.671865
1011.919036	2467.453244
1012.212528	2469.744448
1012.505986	2466.429890
1012.799408	2468.317802
1013.092795	2467.254118
1013.386147	2468.249746
1013.679464	2468.801753
1013.972745	2468.625312
1014.265992	2469.247895
1014.559204	2468.882411
1014.852380	2468.900055
1015.145521	2467.029787
1015.438628	2467.969962
1015.731699	2467.680096
1016.024736	2466.868470
1016.317737	2469.714201
1016.610703	2465.918213
1016.903635	2466.180352
1017.196531	2466.472739
1017.489393	2466.460137
1017.782219	2467.869139
1018.075011	2465.658593
1018.367768	2464.620115
1018.660490	2466.588686
1018.953177	2466.588686
1019.245829	2466.588686
