Dividing Wavelength (nm)	Counts (n)	Blue Motor Position (mm): 31.000000	Red Motor Position (mm): 0.000000	
326.493990	2100.623602
326.888308	2100.623602
327.282561	2100.623602
327.676750	2073.378686
328.070874	2078.576116
328.464933	2082.475448
328.858929	2093.293764
329.252859	2106.398244
329.646726	2120.616818
330.040528	2134.381689
330.434265	2158.407828
330.827938	2174.400888
331.221547	2195.528364
331.615091	2216.749101
332.008571	2238.022771
332.401986	2258.542787
332.795338	2278.299069
333.188625	2298.977882
333.581847	2316.364822
333.975006	2333.991216
334.368100	2351.403362
334.761129	2370.529499
335.154095	2387.329145
335.546996	2428.969075
335.939833	2510.792043
336.332606	2524.027593
336.725315	2536.053265
337.117960	2547.244627
337.510540	2552.046326
337.903056	2562.242060
338.295508	2566.411094
338.687896	2576.148083
339.080220	2583.399782
339.472480	2587.034454
339.864676	2590.293560
340.256807	2593.416555
340.648875	2593.298088
341.040879	2598.603902
341.432818	2597.613316
341.824694	2596.993254
342.216506	2597.998964
342.608253	2598.273707
342.999937	2595.677512
343.391557	2596.988212
343.783113	2595.521237
344.174605	2592.698191
344.566033	2592.431009
344.957397	2588.211564
345.348697	2585.779207
345.739934	2590.628797
346.131106	2586.051429
346.522215	2584.665112
346.913260	2583.616552
347.304241	2583.016655
347.695159	2578.721592
348.086012	2579.074472
348.476802	2575.102043
348.867528	2574.396282
349.258191	2573.632547
349.648789	2572.251271
350.039324	2569.564336
350.429796	2570.983420
350.820203	2571.613565
351.210548	2571.986610
351.600828	2567.626012
351.991045	2567.789849
352.381198	2566.290106
352.771288	2570.620457
353.161314	2568.009140
353.551276	2564.913871
353.941175	2565.783470
354.331010	2563.983778
354.720782	2568.838409
355.110490	2573.463668
355.500135	2568.800601
355.889717	2569.808832
356.279235	2569.334963
356.668689	2569.758420
357.058080	2570.035683
357.447408	2564.893707
357.836672	2567.179870
358.225873	2571.026270
358.615010	2569.463512
359.004084	2571.525344
359.393095	2571.056517
359.782043	2573.803946
360.170927	2574.749162
360.559748	2573.814028
360.948505	2573.640108
361.337199	2579.336612
361.725830	2575.417115
362.114398	2576.513566
362.502903	2579.399627
362.891344	2577.428536
363.279722	2575.502815
363.668037	2581.814339
364.056289	2581.481623
364.444478	2578.562795
364.832603	2581.257292
365.220665	2581.176633
365.608665	2580.717888
365.996601	2581.111098
366.384474	2582.807447
366.772284	2584.662591
367.160031	2582.792323
367.547715	2581.605132
367.935336	2583.954309
368.322893	2584.927252
368.710388	2583.765266
369.097820	2585.693507
369.485189	2586.734506
369.872495	2587.815833
370.259738	2585.199474
370.646918	2587.286512
371.034035	2587.868765
371.421090	2588.687953
371.808081	2589.184506
372.195010	2586.852973
372.581875	2590.608632
372.968678	2589.202150
373.355418	2590.172572
373.742096	2588.357757
374.128710	2590.822881
374.515262	2593.310691
374.901751	2593.282964
375.288177	2595.390167
375.674540	2593.892944
376.060841	2594.578541
376.447079	2596.741196
376.833254	2592.844384
377.219367	2588.957654
377.605417	2592.075608
377.991404	2590.631317
378.377329	2592.264651
378.763191	2590.815320
379.148991	2598.656834
379.534727	2598.031731
379.920402	2596.370671
380.306013	2601.595827
380.691563	2599.508789
381.077049	2598.372009
381.462474	2599.065168
381.847835	2601.721856
382.233134	2601.651280
382.618371	2600.461567
383.003545	2602.422576
383.388657	2603.498863
383.773706	2603.483739
384.158693	2604.045828
384.543618	2602.949377
384.928480	2602.898965
385.313280	2604.789398
385.698017	2606.271497
386.082692	2605.159923
386.467305	2606.755448
386.851856	2608.106477
387.236344	2604.617999
387.620770	2608.121601
388.005133	2609.134873
388.389435	2609.749893
388.773674	2608.872733
389.157851	2610.390120
389.541965	2609.669235
389.926018	2613.535800
390.310008	2610.672425
390.693936	2610.105295
391.077802	2614.029833
391.461606	2612.693927
391.845348	2611.990686
392.229027	2614.228959
392.612645	2614.055039
392.996200	2616.575616
393.379694	2618.380349
393.763125	2619.970833
394.146494	2618.788682
394.529801	2620.036368
394.913047	2624.112141
395.296230	2619.746502
395.679351	2622.214146
396.062410	2622.256996
396.445408	2623.209774
396.828343	2622.055350
397.211217	2618.198867
397.594028	2620.714403
397.976778	2621.788169
398.359466	2621.667181
398.742092	2620.033847
399.124656	2625.052316
399.507158	2627.464508
399.889598	2625.710187
400.271977	2628.896196
400.654294	2629.992647
401.036549	2628.291257
401.418742	2627.703963
401.800874	2630.905096
402.182944	2631.565487
402.564952	2631.542802
402.946898	2633.087915
403.328783	2632.241001
403.710606	2632.540950
404.092367	2635.918523
404.474067	2633.947432
404.855705	2636.049593
405.237282	2636.626805
405.618797	2635.787453
406.000250	2638.116466
406.381642	2640.803401
406.762972	2642.587970
407.144240	2642.119142
407.525447	2645.897487
407.906593	2643.651653
408.287677	2643.470172
408.668700	2645.121149
409.049661	2647.001500
409.430560	2644.851448
409.811399	2647.122487
410.192176	2648.213897
410.572891	2646.779689
410.953545	2651.357057
411.334138	2650.613487
411.714669	2652.650113
412.095139	2653.406286
412.475547	2652.496357
412.855894	2654.406955
413.236180	2656.002480
413.616405	2658.475166
413.996568	2658.255876
414.376670	2660.756288
414.756711	2659.175886
415.136691	2662.671927
415.516609	2664.002791
415.896466	2669.510252
416.276262	2669.911023
416.655997	2669.946312
417.035670	2672.280366
417.415283	2675.161385
417.794834	2677.109791
418.174324	2680.099195
418.553753	2682.773527
418.933121	2687.925587
419.312428	2690.796524
419.691674	2696.614015
420.070859	2701.219109
420.449983	2701.798842
420.829045	2709.874771
421.208047	2716.498847
421.586988	2722.031513
421.965867	2733.137175
422.344686	2739.284862
422.723444	2753.926893
423.102141	2750.897160
423.480777	2773.012702
423.859352	2778.941099
424.237866	2805.457568
424.616319	2817.747901
424.994712	2842.086592
425.373044	2858.049406
425.751314	2892.036865
426.129524	2902.403998
426.507673	2949.896708
426.885762	2974.487457
427.263789	3012.318796
427.641756	3051.289435
428.019662	3087.381576
428.397508	3133.309008
428.775292	3188.668439
429.153016	3237.250039
429.530679	3291.903708
429.908282	3351.185157
430.285824	3393.964389
430.663305	3493.630521
431.040726	3546.885270
431.418086	3608.689816
431.795385	3725.405131
432.172624	3835.788756
432.549802	3895.279412
432.926920	4002.439220
433.303977	4086.203032
433.680974	4209.970921
434.057910	4343.546374
434.434786	4456.828663
434.811601	4561.732554
435.188355	4801.414213
435.565050	4888.974014
435.941683	5009.228219
436.318257	5254.518162
436.694770	5364.228793
437.071222	5598.082879
437.447614	5602.113282
437.823946	5750.212299
438.200218	5929.087561
438.576429	6050.039965
438.952580	6262.801863
439.328670	6422.125010
439.704700	6673.512229
440.080670	6747.027376
440.456580	7054.454581
440.832429	7278.312059
441.208218	7212.033489
441.583947	7499.280955
441.959616	7721.164821
442.335224	7976.458934
442.710773	8210.779327
443.086261	8567.607320
443.461689	8572.487157
443.837057	8812.251995
444.212365	9228.515192
444.587612	9434.126213
444.962800	9512.858954
445.337927	9870.475887
445.712995	9607.609961
446.088002	10521.288849
446.462949	10835.025058
446.837837	11142.996708
447.212664	11386.923020
447.587431	12923.065940
447.962139	14503.704605
448.336786	15810.739686
448.711374	15336.014229
449.085901	13873.434346
449.460369	14136.963183
449.834776	14422.191668
450.209124	15987.134701
450.583412	16003.178173
450.957640	16501.491189
451.331808	16047.079061
451.705917	15571.073150
452.079965	15844.258318
452.453954	16329.146742
452.827883	16537.227929
453.201752	16647.142727
453.575562	16995.821694
453.949311	17984.061768
454.323001	18290.417728
454.696632	18407.042302
455.070202	19700.705723
455.443713	20076.100285
455.817164	20733.650748
456.190556	21376.662524
456.563888	21214.493646
456.937160	21770.575765
457.310373	20821.301290
457.683526	21376.546578
458.056619	21629.587295
458.429653	21845.386488
458.802628	22534.653372
459.175542	22872.899671
459.548398	24136.162413
459.921194	25627.983509
460.293930	26391.259572
460.666607	28268.945707
461.039224	29946.437540
461.411782	30510.514929
461.784280	29746.228115
462.156719	29578.125799
462.529099	29365.628562
462.901419	28488.361928
463.273680	27816.396285
463.645882	28137.210275
464.018024	28337.258383
464.390106	29340.412710
464.762130	32008.675276
465.134094	35915.745947
465.505999	40937.418254
465.877845	45335.842629
466.249631	46619.781664
466.621358	45210.040635
466.993026	43460.505672
467.364634	41743.972623
467.736184	40119.216300
468.107674	39129.499168
468.479105	38526.834267
468.850477	38035.702374
469.221790	36842.814140
469.593043	35326.805588
469.964238	34618.367196
470.335373	34681.495045
470.706449	36609.948120
471.077467	39388.523735
471.448425	43919.462401
471.819324	46625.798281
472.190164	44787.874247
472.560945	41421.487491
472.931667	38492.506530
473.302330	37540.998824
473.672934	36802.442059
474.043479	37410.251458
474.413965	36710.551907
474.784393	36406.484630
475.154761	37379.961685
475.525070	37487.950762
475.895321	37056.352375
476.265513	37747.403827
476.635645	38787.716499
477.005719	38681.842186
477.375734	39230.972554
477.745691	39995.148463
478.115588	41414.462643
478.485427	43541.383424
478.855207	47031.558234
479.224928	49672.293579
479.594591	51263.682505
479.964194	50235.274517
480.333739	50443.275046
480.703226	50555.027344
481.072653	51214.962273
481.442022	51711.989796
481.811333	51945.347328
482.180584	50683.876716
482.549777	50191.630728
482.918912	49680.918993
483.287988	49389.552904
483.657005	48584.253783
484.025964	47928.233309
484.394864	47962.427456
484.763706	47544.326759
485.132489	46662.780186
485.501213	46509.919798
485.869879	46676.744182
486.238487	46261.148938
486.607036	46468.360526
486.975527	45908.676502
487.343959	46155.022568
487.712333	46219.821559
488.080648	46131.263609
488.448905	46607.002339
488.817104	46408.317863
489.185244	47445.535267
489.553326	49233.826621
489.921350	51968.876913
490.289315	54725.899075
490.657222	55224.759057
491.025070	55474.034033
491.392861	54577.172434
491.760593	53369.193505
492.128267	51714.744786
492.495883	50190.246931
492.863440	48809.951282
493.230939	47426.774613
493.598380	46318.388720
493.965763	45988.475447
494.333088	45170.959090
494.700354	44664.486966
495.067563	44368.130134
495.434713	44232.112242
495.801805	44303.701667
496.168839	43915.396710
496.535815	43590.595168
496.902733	43599.833082
497.269593	43173.603524
497.636395	43113.843166
498.003139	43525.811300
498.369825	42954.981285
498.736453	43285.595278
499.103023	42797.614106
499.469535	42666.675176
499.835989	42776.290025
500.202385	42418.940273
500.568723	42456.948052
500.935003	42648.088442
501.301226	42441.917852
501.667390	43076.316817
502.033497	43339.356663
502.399546	42744.976898
502.765537	42043.686863
503.131470	42436.299486
503.497345	42808.210611
503.863163	41444.399535
504.228923	42074.052253
504.594625	42506.454704
504.960269	41748.247521
505.325856	42468.154538
505.691385	41815.604898
506.056856	41958.206538
506.422270	42402.548961
506.787625	41957.709984
507.152924	42179.150229
507.518164	42268.424022
507.883347	41449.392798
508.248472	41707.404093
508.613540	42208.159548
508.978550	42508.188861
509.343503	42269.102057
509.708398	42467.085813
510.073236	43010.988504
510.438016	43008.452804
510.802738	42443.944396
511.167403	43086.192437
511.532010	43308.570336
511.896561	43620.398469
512.261053	44488.762425
512.625488	44021.379408
512.989866	43900.366510
513.354186	43726.449223
513.718449	43726.504675
514.082655	44433.914671
514.446803	44065.204679
514.810894	44605.490342
515.174927	44515.097413
515.538904	44420.681642
515.902822	45087.573364
516.266684	44527.125606
516.630488	44958.615607
516.994235	44800.877904
517.357925	45407.177477
517.721558	45576.141830
518.085133	45884.410908
518.448651	45988.263719
518.812112	45760.743843
519.175516	45869.337858
519.538863	46202.359002
519.902152	46170.536718
520.265385	46632.608880
520.628560	46674.082453
520.991678	46446.466795
521.354739	46680.076385
521.717743	47006.705345
522.080690	46877.324132
522.443580	47434.212835
522.806413	47472.601222
523.169189	47438.044112
523.531908	47613.057850
523.894569	47464.185016
524.257174	47624.914644
524.619722	47914.576824
524.982213	47893.663597
525.344647	47812.473294
525.707025	47859.802167
526.069345	48246.919932
526.431608	48168.570319
526.793815	48496.116770
527.155964	48022.717135
527.518057	48171.216925
527.880093	47970.674784
528.242072	48480.216970
528.603995	48195.328764
528.965860	48192.480512
529.327669	48271.266185
529.689421	48176.489972
530.051117	48114.929922
530.412755	48263.109598
530.774337	48340.881999
531.135862	48152.917536
531.497331	48335.445114
531.858743	48219.264162
532.220098	48558.889217
532.581396	48273.436401
532.942638	47918.937422
533.303824	48250.751209
533.664953	48212.927432
534.026025	47923.918082
534.387040	48399.024147
534.747999	48333.494188
535.108902	48499.007871
535.469748	47994.617744
535.830537	48108.751988
536.191270	48303.186771
536.551947	47955.276579
536.912567	48256.455275
537.273131	48396.453158
537.633638	47871.895895
537.994089	48199.028971
538.354483	47780.257800
538.714821	48375.028254
539.075103	48709.168534
539.435328	48479.319645
539.795497	48351.828864
540.155609	48340.302266
540.515665	48811.327517
540.875665	48250.748688
541.235609	48574.902443
541.595496	48552.552487
541.955328	49232.704964
542.315102	48579.197506
542.674821	48342.071711
543.034483	48391.845543
543.394090	48355.690388
543.753640	48306.526535
544.113134	49334.347228
544.472571	48301.462696
544.831953	49568.730635
545.191278	48753.518085
545.550548	48494.357407
545.909761	48945.432291
546.268918	49131.085385
546.628019	49448.627665
546.987064	49010.420326
547.346053	48250.340355
547.704986	49140.164503
548.063863	48685.528043
548.422684	48868.020333
548.781449	48706.579902
549.140158	49096.170353
549.498811	48935.697823
549.857408	48338.535342
550.215949	49201.495180
550.574434	49128.032966
550.932864	48873.749604
551.291237	49598.947311
551.649555	49200.925530
552.007817	49426.696126
552.366022	49083.547304
552.724173	49234.630685
553.082267	49638.590945
553.440305	49908.900135
553.798288	49213.306604
554.156215	49520.877482
554.514086	49724.918184
554.871902	49459.599737
555.229661	49469.508125
555.587365	49298.466816
555.945014	49407.597714
556.302606	49315.074897
556.660143	49533.666890
557.017625	49608.013827
557.375050	49385.386390
557.732421	49731.179297
558.089735	49709.325895
558.446994	49617.304673
558.804197	50066.315205
559.161345	50001.009578
559.518437	49226.582482
559.875474	49541.513446
560.232455	49723.131095
560.589381	49889.849615
560.946251	49566.197455
561.303065	50245.860940
561.659825	50032.539474
562.016528	49691.991888
562.373177	49404.139483
562.729770	49890.371374
563.086307	49389.535260
563.442789	49867.260204
563.799216	49874.128776
564.155587	49663.267393
564.511904	49696.067661
564.868164	49766.215317
565.224370	49992.495069
565.580520	49729.581252
565.936615	49934.610020
566.292654	49636.365276
566.648638	49893.842208
567.004567	49845.263129
567.360441	49887.961703
567.716260	49732.094267
568.072023	50009.773623
568.427732	49988.084059
568.783385	49499.833186
569.138982	49892.947404
569.494525	49842.296410
569.850013	49610.909969
570.205445	49585.827708
570.560823	49519.922184
570.916145	49401.782743
571.271412	49422.186813
571.626625	49165.829017
571.981782	49198.200786
572.336884	48874.157938
572.691931	49199.355211
573.046923	48791.861101
573.401860	48633.992327
573.756743	48583.081715
574.111570	48698.914827
574.466342	48537.282832
574.821059	48627.819434
575.175722	48147.019386
575.530330	48167.466306
575.884882	47845.583592
576.239380	47800.840831
576.593823	47788.374058
576.948211	47705.908343
577.302544	47205.987198
577.656823	47209.770584
578.011047	47441.898074
578.365216	47152.384609
578.719330	46914.505162
579.073389	46762.050587
579.427394	46836.006835
579.781344	46783.399874
580.135239	46436.124868
580.489080	46498.713313
580.842866	45966.185986
581.196597	46412.668379
581.550273	46352.671086
581.903895	46209.361165
582.257463	46611.012577
582.610975	45974.478684
582.964434	46266.535411
583.317837	45888.431229
583.671186	45714.458489
584.024481	45928.659636
584.377721	45424.050219
584.730906	45717.730198
585.084037	45774.874197
585.437113	45467.618391
585.790135	45480.871584
586.143103	45070.304892
586.496016	45177.409246
586.848874	45205.012084
587.201679	45209.037445
587.554428	44661.774825
587.907124	44854.155338
588.259765	44615.693638
588.612352	44856.083579
588.964884	44208.257502
589.317362	44500.513355
589.669786	44434.096153
590.022155	44196.471284
590.374470	44611.897649
590.726731	44136.549609
591.078937	43632.761899
591.431090	43740.834155
591.783188	43368.665931
592.135232	43034.797874
592.487222	43298.218327
592.839157	43360.012791
593.191038	43020.528888
593.542866	42767.591514
593.894639	42156.419666
594.246358	42440.244189
594.598022	42422.602671
594.949633	42007.965247
595.301190	41946.508540
595.652692	41777.597119
596.004141	42103.943775
596.355535	41118.924999
596.706876	41055.756820
597.058162	40884.014791
597.409395	41346.704494
597.760573	41425.303644
598.111698	41015.770388
598.462768	41007.187824
598.813785	41041.165201
599.164748	40480.311629
599.515657	40858.188960
599.866511	40342.410866
600.217312	40968.607873
600.568060	39925.709089
600.918753	40662.952633
601.269392	40609.196289
601.619978	40247.294375
601.970510	40469.236214
602.320988	40663.734012
602.671412	40962.503036
603.021783	40708.224715
603.372100	40339.308036
603.722363	40430.220204
604.072572	40517.817814
604.422728	40520.051045
604.772830	40322.273977
605.122878	40448.398605
605.472872	40360.516170
605.822813	40631.261420
606.172701	40457.321447
606.522534	40716.323329
606.872314	40961.439352
607.222041	40713.318801
607.571714	41097.689138
607.921333	40530.876923
608.270899	40824.904742
608.620411	41168.018275
608.969870	40959.982459
609.319276	40969.295991
609.668627	40996.220793
610.017926	41484.756492
610.367171	41638.972950
610.716362	41722.966135
611.065500	41649.037614
611.414585	41840.772859
611.763616	42128.315233
612.112594	42069.086717
612.461518	42284.638893
612.810389	42592.005605
613.159207	42449.149388
613.507971	42540.648850
613.856682	42998.728418
614.205340	42893.869898
614.553945	43606.053866
614.902496	43027.944425
615.250994	43499.655273
615.599439	43568.961056
615.947830	43759.509110
616.296169	43841.715205
616.644454	43940.499136
616.992686	44116.929438
617.340864	44615.088699
617.688990	44325.287888
618.037063	44945.460717
618.385082	44908.491415
618.733048	45196.550507
619.080961	45201.059819
619.428821	45228.350106
619.776628	45322.821329
620.124382	45164.360219
620.472083	45307.158464
620.819731	45423.926710
621.167326	45100.415703
621.514868	45092.639724
621.862357	44627.963806
622.209793	44685.969843
622.557176	44343.730949
622.904506	44079.148510
623.251783	43727.487700
623.599007	43512.767314
623.946179	43275.777631
624.293297	43233.293307
624.640363	42640.425888
624.987376	42606.778707
625.334336	42374.484858
625.681243	41998.611386
626.028097	41969.619710
626.374899	41826.745848
626.721647	41807.208857
627.068343	41689.039169
627.414987	41452.188118
627.761577	41220.184135
628.108115	41565.104923
628.454600	40975.799079
628.801032	41182.035204
629.147412	41132.359674
629.493739	41129.377831
629.840014	40764.930134
630.186236	41122.385751
630.532405	40699.911853
630.878521	40917.692219
631.224585	40774.999839
631.570597	40482.565025
631.916556	40647.473770
632.262462	40580.905334
632.608316	40604.530701
632.954117	40513.800014
633.299866	40489.105922
633.645562	40426.194843
633.991206	39928.587588
634.336797	39489.233386
634.682336	39497.843677
635.027823	39242.998227
635.373257	39047.363649
635.718639	38816.877054
636.063968	38670.101339
636.409245	38091.913760
636.754470	38158.139398
637.099642	37905.333095
637.444762	37399.206290
637.789829	37564.866167
638.134845	37192.539147
638.479808	37147.446025
638.824719	37056.155770
639.169577	36659.832858
639.514383	36728.115287
639.859137	36412.067708
640.203839	36653.992681
640.548489	36272.072345
640.893086	36375.741153
641.237632	36102.359380
641.582125	36216.405404
641.926566	36153.728738
642.270955	36090.026197
642.615292	36110.795751
642.959576	36087.359427
643.303809	36089.764058
643.647990	36249.989571
643.992118	36196.412188
644.336195	36173.933683
644.680219	36267.643692
645.024192	36567.841882
645.368112	37085.722138
645.711981	37066.807728
646.055797	37942.773744
646.399562	37871.201962
646.743274	38835.690640
647.086935	39270.752299
647.430544	39154.636882
647.774101	39278.389647
648.117606	39528.448522
648.461059	39829.269295
648.804460	39437.133061
649.147810	38827.801234
649.491108	38559.024555
649.834354	38206.307623
650.177548	37356.520319
650.520690	36928.077695
650.863781	36947.428164
651.206820	36779.272916
651.549807	36329.254153
651.892742	35852.875197
652.235626	35648.781563
652.578458	35524.262543
652.921238	34903.961165
653.263967	35232.906535
653.606644	34916.445582
653.949269	34850.759348
654.291843	34428.683701
654.634365	34817.911189
654.976836	34430.538845
655.319255	34442.171308
655.661622	34433.921459
656.003938	34204.768250
656.346203	34083.309209
656.688416	34289.210097
657.030577	34086.376752
657.372687	33928.873461
657.714746	34195.094275
658.056753	34310.861853
658.398708	33756.395424
658.740612	33812.274093
659.082465	34090.082000
659.424266	33912.469547
659.766016	34035.014956
660.107715	33892.070518
660.449362	34024.922566
660.790958	34003.822816
661.132503	33999.774770
661.473996	34041.825554
661.815438	34166.120244
662.156829	34363.176427
662.498168	34120.344046
662.839456	34145.219620
663.180693	34302.032272
663.521879	34454.635561
663.863013	34416.927730
664.204097	34404.907098
664.545129	34860.435842
664.886110	34810.896423
665.227040	34874.150301
665.567918	34995.319475
665.908746	35065.898150
666.249522	35228.581225
666.590248	35235.359057
666.930922	35326.092264
667.271545	35295.172347
667.612118	35364.606680
667.952639	35143.249614
668.293109	35219.257611
668.633528	35101.186227
668.973896	35030.847007
669.314213	35094.796564
669.654480	34811.516485
669.994695	34833.246379
670.334859	34722.918207
670.674973	34608.660455
671.015035	34776.094818
671.355047	34716.667176
671.695008	34642.244622
672.034918	34566.196295
672.374777	34641.753109
672.714585	34472.385463
673.054342	34693.712282
673.394049	34440.084270
673.733705	34719.023915
674.073310	34385.377668
674.412864	34442.952687
674.752368	34059.222576
675.091820	34379.658479
675.431223	33936.296560
675.770574	33652.661080
676.109875	33504.713297
676.449125	33234.426793
676.788324	33153.087775
677.127473	32601.726697
677.466571	32529.494524
677.805619	32191.288554
678.144616	32175.083765
678.483562	32098.251539
678.822458	31772.779523
679.161303	31699.551722
679.500098	31593.258993
679.838842	31498.447493
680.177535	31634.830869
680.516179	31921.906936
680.854771	32149.709117
681.193314	33013.936806
681.531805	34138.706449
681.870247	34878.347062
682.208638	35592.204693
682.546978	35803.628165
682.885268	35901.025778
683.223508	35401.480199
683.561697	35071.970219
683.899836	34871.849015
684.237925	34366.932087
684.575963	34198.073597
684.913951	33734.708380
685.251889	33886.880650
685.589776	33877.990575
685.927614	33863.141856
686.265401	33989.473172
686.603137	34096.806899
686.940824	34582.365796
687.278460	34950.811128
687.616046	35070.215898
687.953582	35665.987021
688.291068	35525.409405
688.628504	35820.576524
688.965889	35752.228561
689.303224	35381.073609
689.640510	35075.078091
689.977745	34321.838965
690.314930	33522.977398
690.652065	33033.993036
690.989150	32311.310865
691.326185	31394.692985
691.663170	30687.880366
692.000105	29934.192578
692.336990	29248.872918
692.673825	28791.312589
693.010610	28270.967210
693.347345	27675.254060
693.684030	26997.228950
694.020665	26713.235548
694.357251	26032.808328
694.693786	25969.660314
695.030272	25745.825522
695.366707	25198.147006
695.703093	24906.513736
696.039429	24882.096907
696.375716	24610.935762
696.711952	24577.815381
697.048139	24404.505553
697.384276	24225.564756
697.720363	24355.379509
698.056400	24150.945597
698.392388	23926.667183
698.728326	23888.193097
699.064214	23692.041801
699.400053	23624.971769
699.735842	23260.118260
700.071581	22985.619871
700.407270	22694.878885
700.742910	22500.295387
701.078501	22241.452302
701.414042	21952.919341
701.749533	21645.290489
702.084974	21287.517280
702.420366	21499.076863
702.755709	21045.967873
703.091002	20747.294631
703.426246	20769.314391
703.761440	20657.693163
704.096584	20387.706607
704.431679	20335.800366
704.766725	20230.079808
705.101721	20172.424132
705.436668	20248.525390
705.771565	19924.316184
706.106413	20267.946436
706.441212	20258.307749
706.775961	20390.113758
707.110661	20448.565937
707.445311	20808.421142
707.779913	20637.672220
708.114465	20885.228162
708.448967	21162.342910
708.783421	21851.781192
709.117825	22116.797170
709.452180	22325.619407
709.786485	22731.341551
710.120742	23515.016642
710.454949	23523.760524
710.789107	23991.743438
711.123216	24697.787281
711.457275	24797.619771
711.791286	25353.187693
712.125247	25429.951863
712.459159	25122.801921
712.793023	25813.734905
713.126837	24704.892787
713.460602	24993.997919
713.794318	24624.809018
714.127985	24259.791670
714.461602	23347.267207
714.795171	23315.202948
715.128691	22290.245630
715.462162	21742.917475
715.795584	21328.171666
716.128957	21067.695246
716.462281	20664.062661
716.795556	20417.812378
717.128782	19901.326002
717.461960	19353.569348
717.795088	19266.014588
718.128167	18858.848154
718.461198	18396.370179
718.794180	18262.063758
719.127113	17890.092140
719.459997	17676.803441
719.792833	17327.365780
720.125619	17298.681614
720.458357	16963.018906
720.791046	16786.081968
721.123686	16626.990714
721.456278	16381.922582
721.788821	16333.184706
722.121315	16067.316773
722.453761	16146.016746
722.786158	16066.588326
723.118506	16072.867083
723.450805	15929.511792
723.783056	16097.314159
724.115259	15990.507232
724.447412	15907.555046
724.779518	16158.405382
725.111574	16172.102197
725.443582	16375.001078
725.775542	16356.905856
726.107453	16819.265363
726.439315	16705.458794
726.771129	17100.836491
727.102895	17458.435780
727.434612	17669.932348
727.766281	17801.178789
728.097901	18059.772337
728.429473	18106.324872
728.760996	18089.694106
729.092471	18180.326490
729.423897	18052.084577
729.755276	17922.612623
730.086606	18046.509061
730.417887	18575.870544
730.749120	19080.255631
731.080305	19246.848121
731.411442	19576.552186
731.742530	19648.711262
732.073570	19757.973230
732.404562	20060.145033
732.735506	19870.272494
733.066401	19575.264171
733.397249	19049.073573
733.728048	18425.467719
734.058798	17588.316068
734.389501	16896.392496
734.720156	16432.109789
735.050762	15897.550876
735.381320	15528.954310
735.711831	15294.336489
736.042293	14937.342138
736.372707	14945.574343
736.703073	14730.516199
737.033391	14918.279015
737.363661	14869.977200
737.693883	14965.844822
738.024056	15130.667868
738.354182	15304.222192
738.684260	15570.836216
739.014290	15800.080167
739.344272	15971.330683
739.674207	16248.011892
740.004093	16376.382354
740.333931	16367.303236
740.663722	16412.693785
740.993464	16411.027683
741.323159	16237.811117
741.652806	15972.777494
741.982405	15756.635503
742.311956	15431.584423
742.641460	15316.900694
742.970915	15012.793088
743.300323	14676.311192
743.629683	14474.843999
743.958996	14199.193707
744.288260	13910.320468
744.617477	13613.565385
744.946647	13550.372001
745.275768	13266.406326
745.604842	13092.824275
745.933869	12914.622008
746.262847	12861.815921
746.591778	12782.327007
746.920662	12672.928928
747.249498	12672.490347
747.578286	12782.773149
747.907027	12934.181684
748.235720	13144.624652
748.564365	13177.419878
748.892963	13067.537848
749.221514	13133.622333
749.550017	12980.275475
749.878473	12937.029936
750.206881	12715.796379
750.535242	12619.356586
750.863555	12538.153679
751.191821	12424.405084
751.520039	12447.675050
751.848210	12356.687264
752.176334	12381.940925
752.504411	12285.995164
752.832440	12127.362655
753.160421	12186.984382
753.488356	12063.302193
753.816243	11980.082825
754.144082	11836.150321
754.471875	11774.350816
754.799620	11720.448279
755.127318	11688.610872
755.454969	11653.090902
755.782572	11602.855803
756.110129	11610.662030
756.437638	11528.425688
756.765100	11522.691375
757.092515	11517.788853
757.419882	11532.461131
757.747203	11534.742253
758.074477	11606.762698
758.401703	11557.200594
758.728882	11717.405942
759.056014	11762.393199
759.383099	11865.930937
759.710138	11964.382152
760.037129	12060.736246
760.364073	12069.414592
760.690970	12058.747510
761.017820	12061.694065
761.344623	12254.939136
761.671379	12592.734252
761.998088	13255.996343
762.324751	14856.391290
762.651366	17766.286442
762.977935	21358.216942
763.304456	23478.077588
763.630931	23897.108378
763.957359	22730.169482
764.283740	20845.917245
764.610074	18985.875148
764.936362	16874.029938
765.262602	15362.903743
765.588796	13900.263366
765.914943	12884.450702
766.241044	12017.067250
766.567097	11384.145344
766.893104	10835.566982
767.219064	10474.970727
767.544978	10091.590977
767.870845	9781.118915
768.196665	9585.018030
768.522438	9386.920848
768.848165	9222.364984
769.173846	9052.599087
769.499479	8932.788504
769.825066	8782.801574
770.150607	8589.972399
770.476101	8529.347483
770.801548	8421.718848
771.126949	8275.626209
771.452303	8181.482661
771.777611	8026.086573
772.102872	8003.509766
772.428087	7883.616004
772.753256	7759.913650
773.078378	7673.220928
773.403453	7529.762292
773.728482	7415.978409
774.053465	7354.693101
774.378401	7263.266735
774.703291	7168.009092
775.028135	7069.583084
775.352932	7030.783843
775.677683	6949.580937
776.002388	6861.577514
776.327046	6858.784715
776.651658	6771.529904
776.976224	6695.020312
777.300743	6681.121851
777.625216	6613.134329
777.949643	6566.591877
778.274024	6576.225522
778.598359	6510.534246
778.922647	6509.715058
779.246889	6468.279294
779.571086	6468.980015
779.895236	6475.155428
780.219339	6475.818340
780.543397	6471.616538
780.867409	6519.343662
781.191374	6519.918354
781.515294	6481.875286
781.839167	6535.523245
782.162995	6507.653226
782.486776	6459.326205
782.810511	6421.134423
783.134201	6342.227763
783.457844	6333.025137
783.781441	6287.304392
784.104993	6240.416620
784.428498	6210.119285
784.751958	6196.240989
785.075372	6173.306259
785.398739	6131.368900
785.722061	6155.281614
786.045337	6153.860008
786.368568	6273.116064
786.691752	6293.482326
787.014891	6549.711573
787.337983	6821.162584
787.661030	7253.459170
787.984031	7682.479007
788.306987	7920.544977
788.629897	8003.905497
788.952760	7917.956344
789.275579	7746.181547
789.598351	7449.721372
789.921078	7186.885693
790.243759	6907.293218
790.566395	6707.073711
790.888984	6514.872159
791.211529	6378.324945
791.534027	6212.150870
791.856480	6075.664150
792.178888	6021.655749
792.501249	5955.818279
792.823566	5846.296692
793.145836	5842.730075
793.468062	5821.620243
793.790241	5780.955776
794.112375	5823.319112
794.434464	5916.557773
794.756507	5949.514317
795.078505	6068.581329
795.400457	6277.751405
795.722364	6511.784452
796.044226	6705.793258
796.366042	6855.762543
796.687812	6803.536190
797.009538	6836.709503
797.331218	6748.028045
797.652852	6680.516912
797.974442	6558.498304
798.295986	6492.169322
798.617484	6363.582091
798.938938	6254.249546
799.260346	6191.567839
799.581709	6048.119286
799.903026	5998.877295
800.224299	5926.819042
800.545526	5812.276465
800.866708	5749.151136
801.187845	5701.708837
801.508936	5617.849243
801.829983	5590.596766
802.150984	5480.510568
802.471940	5461.071879
802.792851	5438.316111
803.113717	5416.966824
803.434538	5390.876332
803.755314	5356.735118
804.076045	5346.599878
804.396731	5306.232839
804.717372	5321.129448
805.037967	5322.964428
805.358518	5348.916288
805.679024	5402.223970
805.999485	5411.325773
806.319901	5425.231796
806.640272	5441.701246
806.960598	5491.764944
807.280879	5481.203727
807.601115	5513.567935
807.921306	5477.836236
808.241453	5473.147963
808.561554	5487.386702
808.881611	5459.640192
809.201623	5459.708247
809.521590	5406.856790
809.841513	5393.144852
810.161390	5408.689250
810.481223	5324.832176
810.801011	5305.809382
811.120755	5287.628461
811.440453	5231.026385
811.760107	5205.566038
812.079716	5183.992420
812.399281	5130.170541
812.718801	5123.387668
813.038276	5092.815591
813.357707	5056.037853
813.677093	5084.321247
813.996434	5020.059138
814.315731	5043.477818
814.634983	5036.213515
814.954191	5045.307757
815.273354	5107.092138
815.592473	5146.939939
815.911547	5221.886773
816.230577	5274.029948
816.549562	5360.407599
816.868502	5415.910702
817.187399	5473.919260
817.506250	5555.326333
817.825058	5587.345221
818.143821	5740.631586
818.462539	5908.398666
818.781213	6149.658207
819.099843	6516.412231
819.418429	7148.736761
819.736970	7765.905062
820.055466	8475.790264
820.373919	9415.768851
820.692327	10926.834552
821.010691	13767.272687
821.329011	20172.880356
821.647286	29671.298925
821.965517	39672.537302
822.283704	44667.380588
822.601847	45896.623104
822.919945	41371.799358
823.237999	36422.724707
823.556010	31383.531870
823.873976	26801.143188
824.191897	22677.784332
824.509775	19656.812396
824.827609	16946.746062
825.145398	15412.294448
825.463144	14695.528071
825.780845	15040.728642
826.098502	16336.158987
826.416116	18735.546572
826.733685	20849.554437
827.051210	21192.282323
827.368692	19711.662670
827.686129	17197.417437
828.003522	14800.298371
828.320872	12644.610246
828.638177	11039.302694
828.955439	9817.223658
829.272656	8767.264738
829.589830	7936.275897
829.906960	7208.255144
830.224046	6683.193765
830.541088	6279.167969
830.858086	6024.403177
831.175041	5824.496222
831.491952	5766.255771
831.808819	5808.896371
832.125642	6064.061935
832.442421	6639.171889
832.759157	7779.889223
833.075849	9533.963744
833.392497	11325.272229
833.709101	12342.458608
834.025662	12038.910570
834.342179	10982.216668
834.658653	9712.985200
834.975083	8643.549782
835.291469	7762.721573
835.607811	7030.572115
835.924110	6521.433220
836.240366	6035.539086
836.556578	5580.290127
836.872746	5230.045881
837.188871	4962.902536
837.504952	4741.361468
837.820990	4581.428342
838.136984	4464.937359
838.452935	4415.400460
838.768842	4461.020382
839.084706	4762.751084
839.400526	5518.677144
839.716303	6399.212966
840.032037	6922.129334
840.347727	6741.358598
840.663373	6142.109079
840.978977	5581.885652
841.294537	5158.184233
841.610054	4828.293646
841.925527	4586.409002
842.240957	4383.179926
842.556344	4202.215105
842.871687	4041.137637
843.186987	3895.896954
843.502244	3776.819859
843.817458	3688.592105
844.132629	3617.547123
844.447756	3570.881162
844.762840	3518.974922
845.077881	3481.284735
845.392879	3446.092440
845.707833	3419.666712
846.022745	3395.406159
846.337613	3381.797564
846.652438	3357.569778
846.967221	3350.512163
847.281960	3325.649192
847.596656	3319.216680
847.911309	3308.985658
848.225919	3293.920170
848.540485	3286.040847
848.855009	3277.294445
849.169490	3263.605191
849.483928	3256.340889
849.798323	3249.910897
850.112675	3239.667272
850.426984	3242.472674
850.741251	3234.653845
851.055474	3228.881724
851.369654	3230.484811
851.683792	3227.954151
851.997887	3231.571179
852.311938	3230.799883
852.625947	3231.004049
852.939914	3224.788307
853.253837	3232.821385
853.567718	3230.058833
853.881555	3220.599108
854.195350	3225.945252
854.509103	3226.025910
854.822812	3222.454252
855.136479	3215.953685
855.450103	3222.063563
855.763685	3215.255485
856.077224	3218.002914
856.390720	3225.463821
856.704173	3235.135275
857.017584	3239.175760
857.330953	3242.081985
857.644278	3252.691093
857.957561	3255.499016
858.270802	3251.448449
858.584000	3252.986001
858.897155	3246.727408
859.210268	3240.501583
859.523339	3223.888461
859.836367	3222.998697
860.149352	3216.094837
860.462295	3213.158365
860.775195	3203.658310
861.088054	3201.551108
861.400869	3200.280737
861.713642	3198.612115
862.026373	3204.611088
862.339062	3207.353476
862.651708	3215.620968
862.964312	3235.218454
863.276873	3243.662387
863.589392	3272.840585
863.901869	3297.756488
864.214303	3319.113336
864.526696	3336.989268
864.839045	3353.844366
865.151353	3370.157540
865.463619	3368.829196
865.775842	3371.564022
866.088023	3374.223230
866.400162	3370.006305
866.712258	3367.752909
867.024313	3368.783825
867.336325	3366.429606
867.648296	3369.272817
867.960224	3366.986654
868.272110	3371.087633
868.583954	3369.587889
868.895755	3375.843961
869.207515	3373.404043
869.519233	3394.118144
869.830909	3403.361099
870.142542	3413.871905
870.454134	3418.202256
870.765684	3431.112651
871.077191	3447.463634
871.388657	3465.253866
871.700081	3478.749035
872.011463	3499.541274
872.322803	3519.083307
872.634101	3536.041748
872.945357	3554.560427
873.256571	3586.632247
873.567744	3601.047427
873.878874	3605.372737
874.189963	3621.088534
874.501010	3623.760346
874.812015	3621.159110
875.122979	3636.597644
875.433900	3634.709732
875.744780	3636.890031
876.055618	3644.550064
876.366415	3643.302378
876.677169	3654.405520
876.987882	3670.219619
877.298554	3690.434646
877.609183	3730.489134
877.919771	3782.934778
878.230317	3849.770396
878.540822	3957.061273
878.851285	4114.062969
879.161707	4342.712063
879.472087	4734.233277
879.782425	5383.614550
880.092722	6600.455828
880.402977	8545.496819
880.713191	10866.849863
881.023363	13149.522133
881.333494	14371.707033
881.643583	14767.109935
881.953631	14347.272560
882.263637	13549.542732
882.573602	12562.114284
882.883526	11643.777370
883.193408	10714.687675
883.503248	9825.705400
883.813048	9009.328343
884.122806	8251.761387
884.432522	7492.901375
884.742197	6839.625810
885.051831	6280.995388
885.361424	5791.678310
885.670975	5399.569802
885.980485	5080.215227
886.289954	4814.460719
886.599382	4596.173717
886.908768	4418.508332
887.218113	4253.942385
887.527417	4120.772744
887.836680	3999.064167
888.145901	3897.918456
888.455082	3823.150583
888.764221	3749.602669
889.073319	3689.980942
889.382376	3660.245697
889.691392	3634.626553
890.000366	3627.480717
890.309300	3618.651136
890.618193	3623.493164
890.927044	3619.891260
891.235855	3625.612970
891.544625	3640.670896
891.853353	3674.207172
892.162041	3732.823188
892.470687	3828.529494
892.779293	3951.042136
893.087858	4128.992346
893.396381	4416.617899
893.704864	4835.923432
894.013306	5396.582919
894.321707	5949.267300
894.630068	6271.346619
894.938387	6281.718793
895.246665	6109.407114
895.554903	5797.886491
895.863100	5470.574454
896.171256	5206.791038
896.479371	4977.002643
896.787446	4753.838324
897.095480	4564.795055
897.403473	4414.435079
897.711425	4273.802011
898.019336	4151.536386
898.327207	4029.689177
898.635038	3930.091100
898.942827	3826.502950
899.250576	3737.612285
899.558284	3654.750839
899.865952	3603.205041
900.173579	3537.062582
900.481165	3490.063904
900.788711	3451.796506
901.096216	3420.087648
901.403681	3391.779048
901.711105	3384.363511
902.018489	3377.147099
902.325832	3414.207142
902.633135	3478.217193
902.940397	3657.858710
903.247619	4082.263370
903.554800	4846.071275
903.861941	5782.490807
904.169041	6443.703669
904.476101	6618.966944
904.783121	6343.858576
905.090100	5950.648576
905.397039	5548.293923
905.703938	5203.751222
906.010796	4886.428232
906.317614	4639.325994
906.624391	4399.924118
906.931129	4204.692833
907.237826	4027.198847
907.544483	3860.407231
907.851099	3683.641692
908.157675	3527.060933
908.464211	3384.366032
908.770707	3285.007410
909.077163	3204.238043
909.383578	3146.468941
909.689954	3102.542847
909.996289	3074.692992
910.302584	3053.515105
910.608839	3040.513969
910.915054	3026.323121
911.221229	3022.895136
911.527363	3026.350847
911.833458	3031.371837
912.139513	3047.601831
912.445527	3063.368040
912.751502	3095.013883
913.057436	3141.947026
913.363331	3199.877445
913.669186	3290.119140
913.975000	3416.410126
914.280775	3608.939353
914.586510	3880.607134
914.892205	4262.472017
915.197859	4757.089868
915.503475	5321.699099
915.809050	5788.310819
916.114585	6054.869391
916.420081	6099.740701
916.725536	6034.172934
917.030952	5802.237007
917.336328	5605.211071
917.641665	5405.407458
917.946961	5182.921175
918.252218	4983.430114
918.557435	4767.487248
918.862612	4570.088266
919.167750	4401.673398
919.472848	4212.698185
919.777906	4047.376065
920.082925	3890.954102
920.387904	3739.525402
920.692843	3630.298722
920.997743	3531.240049
921.302603	3437.409053
921.607423	3372.622664
921.912204	3308.163950
922.216946	3255.549427
922.521647	3206.322560
922.826310	3169.242353
923.130932	3132.366313
923.435516	3090.575147
923.740059	3061.311249
924.044564	3034.267979
924.349028	3007.741428
924.653454	2980.153713
924.957840	2954.201853
925.262186	2932.078750
925.566493	2910.616037
925.870761	2883.965978
926.174989	2874.788557
926.479178	2859.448326
926.783328	2845.232272
927.087438	2834.313133
927.391509	2817.074907
927.695541	2808.106694
927.999533	2797.109417
928.303486	2788.244548
928.607400	2783.291615
928.911275	2774.756941
929.215110	2769.632608
929.518906	2763.643717
929.822663	2765.065323
930.126381	2765.776126
930.430060	2769.393153
930.733699	2768.311826
931.037299	2773.111004
931.340861	2773.768875
931.644383	2775.878598
931.947866	2774.953546
932.251309	2772.745521
932.554714	2769.309974
932.858080	2769.320057
933.161407	2766.444078
933.464694	2761.788573
933.767943	2758.968047
934.071153	2755.250196
934.374323	2747.597725
934.677455	2749.253744
934.980548	2746.692838
935.283602	2745.798033
935.586617	2740.043556
935.889593	2745.926582
936.192530	2744.220152
936.495428	2749.508322
936.798287	2762.370826
937.101108	2770.640839
937.403890	2795.455919
937.706632	2820.001297
938.009336	2851.306862
938.312002	2882.995555
938.614628	2902.477094
938.917216	2920.320258
939.219765	2931.088163
939.522275	2945.372273
939.824747	2944.174998
940.127179	2935.322732
940.429573	2931.075560
940.731929	2929.704366
941.034246	2920.970567
941.336524	2921.172213
941.638763	2912.856830
941.940964	2910.943712
942.243126	2891.515105
942.545250	2880.202756
942.847335	2867.877135
943.149381	2853.214939
943.451389	2840.453258
943.753359	2829.433296
944.055290	2819.519867
944.357182	2808.608289
944.659036	2805.823052
944.960851	2803.814152
945.262628	2796.370888
945.564367	2795.269396
945.866067	2798.047072
946.167729	2795.471042
946.469352	2790.898716
946.770937	2790.394600
947.072484	2786.417130
947.373992	2784.156172
947.675462	2782.404372
947.976893	2778.343722
948.278286	2774.454472
948.579641	2768.662186
948.880958	2767.805190
949.182236	2766.759151
949.483476	2765.319901
949.784678	2765.115734
950.085841	2764.115065
950.386967	2766.731424
950.688054	2769.478853
950.989103	2780.997890
951.290114	2788.007614
951.591087	2800.227371
951.892021	2811.635502
952.192917	2822.494147
952.493776	2833.864470
952.794596	2836.115345
953.095378	2838.724142
953.396122	2836.410253
953.696828	2832.941939
953.997496	2830.827175
954.298126	2820.505412
954.598718	2811.353197
954.899272	2802.526137
955.199788	2790.071967
955.500266	2778.958743
955.800706	2763.497524
956.101108	2747.963208
956.401472	2739.809142
956.701798	2724.257182
957.002087	2712.039946
957.302337	2702.842361
957.602550	2693.256607
957.902724	2680.111798
958.202861	2672.484532
958.502960	2663.470949
958.803022	2658.230670
959.103045	2651.447797
959.403031	2643.903711
959.702979	2639.066724
960.002889	2633.826444
960.302762	2627.759416
960.602596	2622.340175
960.902393	2621.702469
961.202153	2620.863117
961.501875	2617.730040
961.801559	2615.390945
962.101205	2611.746190
962.400814	2608.277877
962.700385	2606.609255
962.999918	2603.650097
963.299414	2606.251333
963.598873	2603.987855
963.898293	2601.684047
964.197677	2602.931733
964.497022	2601.938626
964.796331	2596.864704
965.095601	2596.912595
965.394835	2597.598192
965.694030	2595.433017
965.993189	2597.341093
966.292309	2594.265989
966.591393	2592.652820
966.890439	2592.728437
967.189447	2592.473859
967.488419	2592.267172
967.787353	2596.239601
968.086249	2592.834302
968.385108	2593.981164
968.683930	2595.490990
968.982714	2597.363778
969.281462	2598.664396
969.580172	2600.015425
969.878844	2604.905345
970.177480	2604.270159
970.476078	2608.368617
970.774639	2610.730398
971.073162	2612.721654
971.371649	2610.838783
971.670098	2614.609566
971.968510	2618.854217
972.266885	2612.850203
972.565223	2619.559979
972.863524	2622.680453
973.161788	2621.825978
973.460014	2624.596092
973.758204	2625.460649
974.056356	2623.050978
974.354471	2626.282357
974.652550	2626.020217
974.950591	2624.964096
975.248595	2622.551904
975.546563	2625.319497
975.844493	2620.285905
976.142386	2619.648199
976.440243	2615.345574
976.738062	2615.950513
977.035845	2611.524380
977.333590	2612.575460
977.631299	2609.243257
977.928971	2608.449276
978.226606	2605.427104
978.524204	2602.674634
978.821765	2604.507093
979.119290	2600.242277
979.416777	2601.396702
979.714228	2605.301075
980.011642	2602.268821
980.309020	2610.201077
980.606360	2615.033023
980.903664	2624.165073
981.200931	2635.132103
981.498162	2652.012407
981.795356	2681.878723
982.092513	2718.800133
982.389633	2758.509302
982.686717	2801.162505
982.983764	2829.047647
983.280775	2849.991121
983.577749	2847.896522
983.874686	2839.588700
984.171587	2819.519867
984.468451	2808.688948
984.765279	2789.779580
985.062070	2771.223092
985.358824	2751.708786
985.655543	2732.247411
985.952224	2713.721171
986.248869	2687.360977
986.545478	2659.526247
986.842050	2641.098309
987.138586	2620.641306
987.435086	2610.629575
987.731549	2600.869901
988.027975	2596.151381
988.324366	2588.473704
988.620719	2583.939186
988.917037	2581.007755
989.213318	2576.448031
989.509563	2573.602300
989.805772	2573.937537
990.101944	2572.044583
990.398080	2571.593400
990.694180	2571.600962
990.990244	2571.328739
991.286271	2573.612382
991.582262	2573.002403
991.878217	2571.941240
992.174136	2572.957032
992.470019	2573.990469
992.765865	2577.363001
993.061676	2578.149421
993.357450	2582.376428
993.653188	2585.396079
993.948890	2588.569486
994.244556	2596.713470
994.540186	2607.914913
994.835780	2614.463372
995.131337	2631.499952
995.426859	2646.701551
995.722345	2660.562204
996.017795	2679.300172
996.313208	2694.000177
996.608586	2702.313040
996.903928	2705.105839
997.199234	2704.742876
997.494504	2702.860005
997.789738	2697.523944
998.084936	2684.611028
998.380099	2674.843792
998.675225	2662.772750
998.970316	2650.996614
999.265371	2640.180819
999.560390	2625.069960
999.855373	2614.884309
1000.150320	2604.791919
1000.445232	2595.518716
1000.740108	2590.895978
1001.034948	2582.250399
1001.329752	2579.288721
1001.624521	2575.452403
1001.919254	2567.499983
1002.213951	2569.231619
1002.508613	2562.660475
1002.803239	2562.446226
1003.097829	2557.684857
1003.392384	2559.943293
1003.686903	2557.573951
1003.981386	2556.114537
1004.275834	2556.076728
1004.570246	2556.134702
1004.864623	2553.029351
1005.158964	2555.655792
1005.453270	2552.270657
1005.747540	2551.776624
1006.041775	2552.805020
1006.335974	2552.540359
1006.630138	2551.237221
1006.924266	2550.279402
1007.218359	2550.433157
1007.512416	2549.515667
1007.806438	2549.954247
1008.100425	2551.769063
1008.394376	2549.145142
1008.688292	2548.983825
1008.982172	2550.105482
1009.276017	2550.801161
1009.569827	2548.895605
1009.863602	2550.067673
1010.157341	2547.302600
1010.451045	2548.638506
1010.744714	2547.405944
1011.038347	2547.035419
1011.331945	2547.506767
1011.625508	2547.509288
1011.919036	2544.837476
1012.212528	2545.956612
1012.505986	2542.694986
1012.799408	2547.232024
1013.092795	2544.875285
1013.386147	2547.627755
1013.679464	2545.938968
1013.972745	2545.770089
1014.265992	2543.743546
1014.559204	2544.119112
1014.852380	2543.854451
1015.145521	2545.714637
1015.438628	2543.836807
1015.731699	2546.687579
1016.024736	2544.847558
1016.317737	2545.820501
1016.610703	2550.113043
1016.903635	2541.598535
1017.196531	2541.956457
1017.489393	2541.684234
1017.782219	2541.969059
1018.075011	2542.755479
1018.367768	2546.422919
1018.660490	2546.274205
1018.953177	2546.274205
1019.245829	2546.274205
