Dividing Wavelength (nm)	Counts (n)	Blue Motor Position (mm): 27.500000	Red Motor Position (mm): 0.000000	
326.493990	2098.397933
326.888308	2098.397933
327.282561	2098.397933
327.676750	2076.050498
328.070874	2077.129304
328.464933	2082.782958
328.858929	2093.142530
329.252859	2108.873450
329.646726	2126.189814
330.040528	2137.749179
330.434265	2158.256593
330.827938	2176.644202
331.221547	2196.075329
331.615091	2218.873948
332.008571	2236.938923
332.401986	2258.545308
332.795338	2280.585233
333.188625	2298.569549
333.581847	2317.075625
333.975006	2335.523727
334.368100	2353.475276
334.761129	2371.078985
335.154095	2388.750750
335.546996	2427.519744
335.939833	2508.465551
336.332606	2521.217150
336.725315	2532.789118
337.117960	2540.144162
337.510540	2546.979966
337.903056	2555.859959
338.295508	2564.014025
338.687896	2572.029460
339.080220	2578.721592
339.472480	2583.583784
339.864676	2584.327355
340.256807	2589.335741
340.648875	2590.631317
341.040879	2592.841863
341.432818	2594.608788
341.824694	2593.908067
342.216506	2593.172059
342.608253	2594.661720
342.999937	2590.696852
343.391557	2590.500247
343.783113	2591.584096
344.174605	2587.876327
344.566033	2590.457398
344.957397	2585.940524
345.348697	2584.145873
345.739934	2583.359453
346.131106	2580.458269
346.522215	2578.093968
346.913260	2577.128587
347.304241	2574.895356
347.695159	2572.062227
348.086012	2575.923751
348.476802	2569.307237
348.867528	2570.224727
349.258191	2568.377144
349.648789	2570.202042
350.039324	2564.560990
350.429796	2567.162226
350.820203	2565.642318
351.210548	2562.103428
351.600828	2565.912020
351.991045	2563.613253
352.381198	2560.817934
352.771288	2562.920095
353.161314	2562.542008
353.551276	2560.636452
353.941175	2562.065619
354.331010	2562.625187
354.720782	2567.391598
355.110490	2565.924622
355.500135	2561.904302
355.889717	2563.993861
356.279235	2563.378840
356.668689	2566.219530
357.058080	2565.632236
357.447408	2562.652914
357.836672	2563.159550
358.225873	2563.711556
358.615010	2559.688715
359.004084	2565.750703
359.393095	2569.392936
359.782043	2566.690878
360.170927	2568.906465
360.559748	2566.973182
360.948505	2567.056362
361.337199	2573.083061
361.725830	2570.819583
362.114398	2575.046590
362.502903	2573.859399
362.891344	2573.314954
363.279722	2572.904100
363.668037	2574.802094
364.056289	2575.217990
364.444478	2573.171281
364.832603	2575.127249
365.220665	2577.335274
365.608665	2575.555747
365.996601	2576.130438
366.384474	2576.987435
366.772284	2574.976014
367.160031	2578.792168
367.547715	2577.849472
367.935336	2578.656057
368.322893	2578.071283
368.710388	2578.676221
369.097820	2580.768300
369.485189	2580.347364
369.872495	2582.641089
370.259738	2582.366346
370.646918	2578.862744
371.034035	2578.131777
371.421090	2580.687642
371.808081	2582.532704
372.195010	2581.690831
372.581875	2583.442632
372.968678	2584.786100
373.355418	2583.114957
373.742096	2584.397931
374.128710	2585.754001
374.515262	2587.049578
374.901751	2584.826429
375.288177	2588.027562
375.674540	2584.448342
376.060841	2584.962540
376.447079	2588.506471
376.833254	2585.431367
377.219367	2584.004721
377.605417	2586.414392
377.991404	2587.268868
378.377329	2588.100658
378.763191	2585.370873
379.148991	2591.140474
379.534727	2591.246338
379.920402	2591.349682
380.306013	2589.978488
380.691563	2591.682398
381.077049	2591.412696
381.462474	2590.109558
381.847835	2591.185844
382.233134	2593.454364
382.618371	2594.006370
383.003545	2592.315063
383.388657	2593.265320
383.773706	2597.101638
384.158693	2593.340938
384.543618	2597.076433
384.928480	2593.265320
385.313280	2595.664910
385.698017	2595.422934
386.082692	2596.249683
386.467305	2596.161463
386.851856	2597.774632
387.236344	2599.919643
387.620770	2599.627257
388.005133	2598.417380
388.389435	2599.884355
388.773674	2599.100456
389.157851	2600.421238
389.541965	2603.743359
389.926018	2602.747731
390.310008	2603.203955
390.693936	2603.272011
391.077802	2605.984152
391.461606	2606.412650
391.845348	2601.258070
392.229027	2602.828389
392.612645	2603.536671
392.996200	2604.365941
393.379694	2607.345263
393.763125	2606.452979
394.146494	2605.283431
394.529801	2606.110180
394.913047	2609.636467
395.296230	2610.397682
395.679351	2607.567074
396.062410	2606.339553
396.445408	2608.623196
396.828343	2611.428598
397.211217	2605.714450
397.594028	2608.482043
397.976778	2605.583380
398.359466	2607.781323
398.742092	2605.283431
399.124656	2609.873402
399.507158	2612.063783
399.889598	2612.303238
400.271977	2612.187291
400.654294	2614.009668
401.036549	2612.207456
401.418742	2612.943464
401.800874	2616.106788
402.182944	2615.726181
402.564952	2617.109978
402.946898	2618.844135
403.328783	2616.315996
403.710606	2619.209619
404.092367	2618.153497
404.474067	2619.943107
404.855705	2620.558127
405.237282	2619.857407
405.618797	2623.834877
406.000250	2623.199692
406.381642	2622.153652
406.762972	2622.211626
407.144240	2624.084414
407.525447	2624.268417
407.906593	2625.077522
408.287677	2622.279681
408.668700	2624.036523
409.049661	2627.308232
409.430560	2625.054837
409.811399	2627.439302
410.192176	2628.235805
410.572891	2626.098355
410.953545	2628.233284
411.334138	2627.131792
411.714669	2626.410907
412.095139	2628.167749
412.475547	2631.865435
412.855894	2628.918881
413.236180	2627.845115
413.616405	2629.183542
413.996568	2629.516258
414.376670	2634.073461
414.756711	2631.676392
415.136691	2633.604633
415.516609	2630.375774
415.896466	2632.583800
416.276262	2635.381640
416.655997	2634.007926
417.035670	2632.122534
417.415283	2635.674027
417.794834	2633.980199
418.174324	2631.658748
418.553753	2637.355252
418.933121	2639.603607
419.312428	2641.531848
419.691674	2640.949595
420.070859	2638.318112
420.449983	2638.509676
420.829045	2641.640233
421.208047	2642.454379
421.586988	2644.155768
421.965867	2646.610810
422.344686	2643.598721
422.723444	2646.905718
423.102141	2646.497384
423.480777	2647.069555
423.859352	2646.250368
424.237866	2650.845380
424.616319	2650.616007
424.994712	2652.088024
425.373044	2652.234217
425.751314	2654.964002
426.129524	2652.133394
426.507673	2656.597336
426.885762	2658.823006
427.263789	2662.659324
427.641756	2657.643376
428.019662	2661.386432
428.397508	2664.159067
428.775292	2668.229799
429.153016	2668.817093
429.530679	2668.648214
429.908282	2671.735921
430.285824	2674.831190
430.663305	2673.031498
431.040726	2674.390089
431.418086	2676.517456
431.795385	2678.639781
432.172624	2684.353929
432.549802	2686.125895
432.926920	2686.251924
433.303977	2690.433561
433.680974	2695.376412
434.057910	2695.154601
434.434786	2699.270703
434.811601	2703.976621
435.188355	2709.279914
435.565050	2713.380893
435.941683	2715.500698
436.318257	2724.292471
436.694770	2724.287429
437.071222	2736.267732
437.447614	2733.842937
437.823946	2741.351735
438.200218	2751.287849
438.576429	2757.793458
438.952580	2769.430962
439.328670	2780.597118
439.704700	2792.756381
440.080670	2798.699901
440.456580	2815.134063
440.832429	2834.217351
441.208218	2839.334122
441.583947	2860.900178
441.959616	2877.213352
442.335224	2903.553381
442.710773	2925.275713
443.086261	2957.055147
443.461689	2974.376551
443.837057	3002.249091
444.212365	3045.179557
444.587612	3077.175760
444.962800	3105.554936
445.337927	3152.180568
445.712995	3157.897236
446.088002	3250.389807
446.462949	3305.371151
446.837837	3362.852908
447.212664	3419.248296
447.587431	3601.546501
447.962139	3797.791059
448.336786	3974.259170
448.711374	3974.833861
449.085901	3878.857854
449.460369	3960.963126
449.834776	4057.365111
450.209124	4312.969255
450.583412	4387.820308
450.957640	4514.353269
451.331808	4531.049571
451.705917	4540.542063
452.079965	4652.193539
452.453954	4798.951610
452.827883	4915.382099
453.201752	5021.087533
453.575562	5157.329757
453.949311	5409.765536
454.323001	5568.803857
454.696632	5691.452610
455.070202	6034.616555
455.443713	6220.420883
455.817164	6464.541279
456.190556	6714.743826
456.563888	6808.526932
456.937160	7036.921448
457.310373	6957.185518
457.683526	7205.878240
458.056619	7396.096098
458.429653	7590.845953
458.802628	7899.707367
459.175542	8132.432234
459.548398	8619.954661
459.921194	9193.355664
460.293930	9615.426270
460.666607	10338.307567
461.039224	11028.123936
461.411782	11394.179761
461.784280	11344.045486
462.156719	11464.347581
462.529099	11583.538102
462.901419	11499.484423
463.273680	11468.635082
463.645882	11763.787078
464.018024	12034.512163
464.390106	12612.437602
464.762130	13875.120612
465.134094	15665.282233
465.505999	17984.419690
465.877845	20122.176431
466.249631	20971.540278
466.621358	20658.338431
466.993026	20211.009123
467.364634	19770.256002
467.736184	19348.329069
468.107674	19203.360607
468.479105	19234.167099
468.850477	19281.546383
469.221790	19005.422222
469.593043	18534.379327
469.964238	18461.292679
470.335373	18763.605634
470.706449	20039.758607
471.077467	21791.531842
471.448425	24562.429780
471.819324	26385.991566
472.190164	25624.482428
472.560945	24049.555390
472.931667	22698.901726
473.302330	22455.033388
473.672934	22321.616731
474.043479	22948.015384
474.413965	22808.171256
474.784393	22886.601527
475.154761	23761.208952
475.525070	24095.618934
475.895321	24103.818370
476.265513	24808.896833
476.635645	25762.194148
477.005719	25962.509438
477.375734	26596.464781
477.745691	27386.794195
478.115588	28634.139494
478.485427	30390.996733
478.855207	33143.191990
479.224928	35398.243779
479.594591	36953.719524
479.964194	36511.494385
480.333739	37041.370066
480.703226	37470.228586
481.072653	38345.718212
481.442022	39053.440760
481.811333	39591.389848
482.180584	38851.547589
482.549777	38764.219681
482.918912	38639.332656
483.287988	38704.527378
483.657005	38341.052624
484.025964	38096.105480
484.394864	38416.753111
484.763706	38351.167700
485.132489	37888.639314
485.501213	38022.797020
485.869879	38418.701517
486.238487	38327.696087
486.607036	38735.918643
486.975527	38499.831327
487.343959	38920.772714
487.712333	39228.462059
488.080648	39365.639417
488.448905	40010.718066
488.817104	40074.680226
489.185244	41195.548017
489.553326	43001.284283
489.921350	45747.997285
490.289315	48712.064677
490.657222	49470.743207
491.025070	49928.474935
491.392861	49195.390343
491.760593	48161.789967
492.128267	46753.901562
492.495883	45485.408623
492.863440	44342.349673
493.230939	43227.503541
493.598380	42369.980587
493.965763	42215.900240
494.333088	41598.328647
494.700354	41275.510799
495.067563	41122.156378
495.434713	41134.545014
495.801805	41320.319095
496.168839	41073.547052
496.535815	40892.718343
496.902733	41028.509384
497.269593	40738.481721
497.636395	40770.944231
498.003139	41271.687084
498.369825	40833.467142
498.736453	41218.087015
499.103023	40856.207787
499.469535	40820.990286
499.835989	41001.975271
500.202385	40761.436615
500.568723	40842.420231
500.935003	41117.047169
501.301226	40977.145067
501.667390	41668.423371
502.033497	41991.647032
502.399546	41476.990595
502.765537	40871.971475
503.131470	41305.561117
503.497345	41718.908006
503.863163	40433.050812
504.228923	41114.055244
504.594625	41592.395209
504.960269	40886.739535
505.325856	41644.387149
505.691385	41059.527603
506.056856	41222.233364
506.422270	41705.269164
506.787625	41310.342651
507.152924	41546.803014
507.518164	41685.956504
507.883347	40910.609398
508.248472	41192.969466
508.613540	41726.562998
508.978550	42049.133830
509.343503	41834.668022
509.708398	42060.635222
510.073236	42629.978097
510.438016	42647.299501
510.802738	42106.802109
511.167403	42768.302317
511.532010	43007.205118
511.896561	43339.870861
512.261053	44230.103342
512.625488	43779.109116
512.989866	43677.469372
513.354186	43534.353535
513.718449	43538.169688
514.082655	44242.038273
514.446803	43917.231690
514.810894	44469.779960
515.174927	44395.370009
515.538904	44282.675015
515.902822	44994.254045
516.266684	44447.777844
516.630488	44871.965735
516.994235	44726.311677
517.357925	45331.850035
517.721558	45515.317788
518.085133	45835.534401
518.448651	45964.492158
518.812112	45732.208392
519.175516	45852.092071
519.538863	46195.084617
519.902152	46179.119283
520.265385	46645.708318
520.628560	46685.220882
520.991678	46481.805283
521.354739	46703.064046
521.717743	47029.506484
522.080690	46928.005372
522.443580	47485.136051
522.806413	47526.556692
523.169189	47497.025612
523.531908	47674.454063
523.894569	47526.004685
524.257174	47703.939772
524.619722	48007.996966
524.982213	47985.674737
525.344647	47901.885719
525.707025	47949.605281
526.069345	48351.811220
526.431608	48273.935476
526.793815	48610.908884
527.155964	48133.604876
527.518057	48309.125250
527.880093	48096.648177
528.242072	48631.055855
528.603995	48316.984409
528.965860	48321.622270
529.327669	48413.837577
529.689421	48319.323504
530.051117	48292.597827
530.412755	48446.504254
530.774337	48520.412611
531.135862	48309.064756
531.497331	48489.681737
531.858743	48403.417512
532.220098	48734.618799
532.581396	48455.868197
532.942638	48105.097151
533.303824	48435.960681
533.664953	48400.460875
534.026025	48107.889950
534.387040	48598.172409
534.747999	48544.547135
535.108902	48688.850163
535.469748	48207.780414
535.830537	48335.866051
536.191270	48515.308442
536.551947	48167.917490
536.912567	48472.239344
537.273131	48615.894585
537.633638	48107.227038
537.994089	48434.481102
538.354483	48017.494500
538.714821	48593.216954
539.075103	48940.290314
539.435328	48700.580928
539.795497	48580.248586
540.155609	48550.208350
540.515665	49034.373369
540.875665	48483.644955
541.235609	48799.044745
541.595496	48789.990833
541.955328	49471.937961
542.315102	48824.303447
542.674821	48581.357640
543.034483	48630.471081
543.394090	48598.295917
543.753640	48557.520544
544.113134	49566.066385
544.472571	48546.122495
544.831953	49805.843827
545.191278	48996.904993
545.550548	48722.494824
545.909761	49184.214105
546.268918	49382.830525
546.628019	49705.164423
546.987064	49232.891487
547.346053	48481.719234
547.704986	49372.483557
548.063863	48936.862330
548.422684	49096.505590
548.781449	48931.274211
549.140158	49328.416311
549.498811	49161.294499
549.857408	48582.910315
550.215949	49426.605385
550.574434	49361.879490
550.932864	49102.111353
551.291237	49839.430514
551.649555	49433.461354
552.007817	49660.429224
552.366022	49285.100196
552.724173	49457.558069
553.082267	49858.075222
553.440305	50124.578341
553.798288	49409.800698
554.156215	49740.828066
554.514086	49934.420976
554.871902	49675.661070
555.229661	49691.460046
555.587365	49491.326238
555.945014	49606.231779
556.302606	49510.873313
556.660143	49752.057236
557.017625	49807.953550
557.375050	49584.214539
557.732421	49942.237285
558.089735	49899.979813
558.446994	49831.793166
558.804197	50280.259254
559.161345	50207.724612
559.518437	49438.875553
559.875474	49753.667885
560.232455	49916.834911
560.589381	50082.335992
560.946251	49778.684611
561.303065	50437.465116
561.659825	50222.921170
562.016528	49891.422455
562.373177	49598.223906
562.729770	50095.049782
563.086307	49599.625347
563.442789	50047.398275
563.799216	50082.278019
564.155587	49870.105936
564.511904	49879.789992
564.868164	49951.160128
565.224370	50202.202028
565.580520	49915.420867
565.936615	50136.049486
566.292654	49850.163131
566.648638	50092.768660
567.004567	50028.685512
567.360441	50085.093503
567.716260	49938.524476
568.072023	50218.467310
568.427732	50185.646878
568.783385	49716.028109
569.138982	50085.829512
569.494525	50045.643954
569.850013	49806.436163
570.205445	49764.203896
570.560823	49714.944261
570.916145	49596.146950
571.271412	49629.179111
571.626625	49351.159476
571.981782	49386.603829
572.336884	49072.870140
572.691931	49388.625332
573.046923	48984.483590
573.401860	48816.184668
573.756743	48784.269123
574.111570	48890.607223
574.466342	48721.552128
574.821059	48819.942849
575.175722	48348.100931
575.530330	48364.850165
575.884882	48043.489210
576.239380	48008.624590
576.593823	47976.635948
576.948211	47887.689830
577.302544	47402.846776
577.656823	47398.239162
578.011047	47645.386770
578.365216	47350.050772
578.719330	47107.719986
579.073389	46948.938763
579.427394	47037.317752
579.781344	46986.540730
580.135239	46614.609440
580.489080	46679.350458
580.842866	46157.185223
581.196597	46604.247348
581.550273	46544.809624
581.903895	46398.462407
582.257463	46798.215825
582.610975	46162.942220
582.964434	46441.153419
583.317837	46066.804896
583.671186	45893.001035
584.024481	46110.501617
584.377721	45611.820597
584.730906	45893.921045
585.084037	45954.949254
585.437113	45643.998282
585.790135	45665.206416
586.143103	45237.898051
586.496016	45363.546290
586.848874	45377.923661
587.201679	45367.138112
587.554428	44838.981465
587.907124	45034.406835
588.259765	44776.783709
588.612352	45018.769176
588.964884	44376.805960
589.317362	44676.547926
589.669786	44594.634217
590.022155	44365.707860
590.374470	44796.257686
590.726731	44296.157581
591.078937	43801.794308
591.431090	43895.340479
591.783188	43526.796845
592.135232	43199.537740
592.487222	43468.097650
592.839157	43540.423084
593.191038	43175.884647
593.542866	42920.356120
593.894639	42311.636793
594.246358	42617.171045
594.598022	42566.895618
594.949633	42163.389061
595.301190	42104.047119
595.652692	41942.851183
596.004141	42274.314610
596.355535	41272.758329
596.706876	41210.633669
597.058162	41039.254603
597.409395	41496.764521
597.760573	41581.440782
598.111698	41158.820690
598.462768	41159.715495
598.813785	41206.996477
599.164748	40627.599021
599.515657	41022.041583
599.866511	40500.382983
600.217312	41127.159723
600.568060	40062.024410
600.918753	40836.557369
601.269392	40758.787488
601.619978	40411.058778
601.970510	40616.226178
602.320988	40811.976703
602.671412	41108.751950
603.021783	40860.956553
603.372100	40506.240804
603.722363	40603.560279
604.072572	40680.909223
604.422728	40678.446620
604.772830	40511.027380
605.122878	40606.532039
605.472872	40524.625892
605.822813	40798.572275
606.172701	40627.714968
606.522534	40871.767308
606.872314	41134.323203
607.222041	40881.438762
607.571714	41275.425099
607.921333	40701.512419
608.270899	40982.408032
608.620411	41351.042407
608.969870	41123.696451
609.319276	41142.625983
609.668627	41180.800121
610.017926	41660.690241
610.367171	41808.539721
610.716362	41886.980075
611.065500	41832.064266
611.414585	42019.007894
611.763616	42339.216946
612.112594	42244.400403
612.461518	42466.561533
612.810389	42774.765076
613.159207	42642.540652
613.507971	42717.227867
613.856682	43180.814895
614.205340	43066.332812
614.553945	43776.402016
614.902496	43215.636665
615.250994	43700.399060
615.599439	43763.226961
615.947830	43957.969254
616.296169	44033.329463
616.644454	44135.163291
616.992686	44293.977282
617.340864	44825.821533
617.688990	44528.254824
618.037063	45149.745914
618.385082	45100.607267
618.733048	45396.260858
619.080961	45414.262818
619.428821	45415.477737
619.776628	45518.418098
620.124382	45376.247477
620.472083	45497.293143
620.819731	45649.493139
621.167326	45306.195603
621.514868	45298.134798
621.862357	44851.173496
622.209793	44899.845836
622.557176	44552.379266
622.904506	44303.076564
623.251783	43944.653046
623.599007	43723.018717
623.946179	43502.740459
624.293297	43455.043582
624.640363	42849.303577
624.987376	42844.617824
625.334336	42597.238323
625.681243	42239.427305
626.028097	42200.262581
626.374899	42050.063923
626.721647	42017.051927
627.068343	41913.766246
627.414987	41676.302694
627.761577	41433.435025
628.108115	41776.392283
628.454600	41215.596685
628.801032	41396.634602
629.147412	41358.359642
629.493739	41352.516944
629.840014	40995.406647
630.186236	41350.319001
630.532405	40924.341501
630.878521	41130.431432
631.224585	41004.115240
631.570597	40698.618797
631.916556	40860.091996
632.262462	40816.133134
632.608316	40830.084527
632.954117	40731.169527
633.299866	40718.032280
633.645562	40657.409885
633.991206	40171.561121
634.336797	39714.169671
634.682336	39713.950381
635.027823	39475.259308
635.373257	39290.095206
635.718639	39045.155623
636.063968	38901.223119
636.409245	38326.440840
636.754470	38368.610092
637.099642	38121.071794
637.444762	37636.374934
637.789829	37789.552914
638.134845	37435.205169
638.479808	37373.549337
638.824719	37277.031406
639.169577	36885.306025
639.514383	36953.873279
639.859137	36636.940978
640.203839	36866.928499
640.548489	36514.781218
640.893086	36582.982988
641.237632	36328.868505
641.582125	36441.331606
641.926566	36370.727726
642.270955	36320.900961
642.615292	36343.389549
642.959576	36310.556514
643.303809	36311.713458
643.647990	36466.638198
643.992118	36417.958296
644.336195	36413.285147
644.680219	36482.621177
645.024192	36792.082488
645.368112	37315.790317
645.711981	37300.598800
646.055797	38178.387193
646.399562	38093.894934
646.743274	39063.245804
647.086935	39497.586578
647.430544	39389.821832
647.774101	39492.290846
648.117606	39766.030541
648.461059	40056.678266
648.804460	39670.198206
649.147810	39072.486239
649.491108	38816.201539
649.834354	38439.405536
650.177548	37598.485622
650.520690	37148.978536
650.863781	37175.300921
651.206820	37019.110851
651.549807	36571.317758
651.892742	36056.366413
652.235626	35874.305142
652.578458	35730.695272
652.921238	35129.545237
653.263967	35458.024302
653.606644	35124.176409
653.949269	35066.334209
654.291843	34649.768544
654.634365	35054.721912
654.976836	34643.225126
655.319255	34657.657949
655.661622	34657.148793
656.003938	34428.421561
656.346203	34302.516223
656.688416	34522.030746
657.030577	34323.931044
657.372687	34134.217302
657.714746	34418.208183
658.056753	34534.028693
658.398708	33986.133407
658.740612	34016.249260
659.082465	34319.630940
659.424266	34136.868948
659.766016	34261.919811
660.107715	34114.234168
660.449362	34240.187397
660.790958	34222.838266
661.132503	34230.531066
661.473996	34275.591420
661.815438	34376.190166
662.156829	34582.338070
662.498168	34338.499979
662.839456	34367.779000
663.180693	34505.213457
663.521879	34678.944222
663.863013	34629.145183
664.204097	34627.317765
664.545129	35079.269810
664.886110	35031.840114
665.227040	35111.939008
665.567918	35223.169547
665.908746	35283.060975
666.249522	35447.132889
666.590248	35442.989060
666.930922	35552.450154
667.271545	35529.008789
667.612118	35585.666317
667.952639	35375.757712
668.293109	35437.363133
668.633528	35324.315257
668.973896	35260.426194
669.314213	35308.614584
669.654480	35033.710382
669.994695	35060.418415
670.334859	34939.367709
670.674973	34838.355588
671.015035	35001.310887
671.355047	34923.079741
671.695008	34882.821086
672.034918	34781.786281
672.374777	34858.739494
672.714585	34681.772309
673.054342	34899.469497
673.394049	34653.980428
673.733705	34945.588493
674.073310	34599.566213
674.412864	34670.646482
674.752368	34278.442192
675.091820	34585.997947
675.431223	34150.021319
675.770574	33885.459044
676.109875	33731.350971
676.449125	33456.565237
676.788324	33379.750655
677.127473	32823.287929
677.466571	32745.944026
677.805619	32402.160019
678.144616	32392.221384
678.483562	32320.455518
678.822458	31979.411378
679.161303	31898.871384
679.500098	31815.687304
679.838842	31694.772708
680.177535	31835.665397
680.516179	32143.604279
680.854771	32372.906203
681.193314	33228.092583
681.531805	34359.330027
681.870247	35082.730562
682.208638	35808.762580
682.546978	36009.518971
682.885268	36115.431092
683.223508	35611.270337
683.561697	35281.977127
683.899836	35088.487560
684.237925	34568.391718
684.575963	34421.270684
684.913951	33938.691108
685.251889	34096.660705
685.589776	34074.860236
685.927614	34061.816250
686.265401	34203.873445
686.603137	34279.616781
686.940824	34780.742762
687.278460	35157.490874
687.616046	35270.790807
687.953582	35863.252412
688.291068	35709.514864
688.628504	36014.774373
688.965889	35945.829033
689.303224	35578.026448
689.640510	35253.769351
689.977745	34532.309659
690.314930	33716.053590
690.652065	33219.968763
690.989150	32485.394510
691.326185	31579.839442
691.663170	30876.422040
692.000105	30111.668919
692.336990	29442.198647
692.673825	28969.565268
693.010610	28451.659808
693.347345	27848.095060
693.684030	27166.710021
694.020665	26884.932207
694.357251	26201.480294
694.693786	26144.858054
695.030272	25894.988223
695.366707	25344.015313
695.703093	25042.962647
696.039429	25034.087695
696.375716	24753.862556
696.711952	24731.684000
697.048139	24543.485124
697.384276	24375.657550
697.720363	24494.298586
698.056400	24287.989364
698.392388	24060.207348
698.728326	24033.191805
699.064214	23833.446166
699.400053	23774.063894
699.735842	23410.921857
700.071581	23126.242858
700.407270	22822.485612
700.742910	22636.318321
701.078501	22366.150284
701.414042	22072.528278
701.749533	21771.470570
702.084974	21413.828431
702.420366	21628.710134
702.755709	21162.446253
703.091002	20863.510872
703.426246	20882.004344
703.761440	20779.621030
704.096584	20497.908751
704.431679	20453.052564
704.766725	20356.590085
705.101721	20286.689446
705.436668	20382.146214
705.771565	20038.299193
706.106413	20393.042668
706.441212	20383.777027
706.775961	20507.653301
707.110661	20563.103473
707.445311	20929.852456
707.779913	20755.216805
708.114465	20991.536015
708.448967	21276.540168
708.783421	21962.179941
709.117825	22238.130182
709.452180	22440.472015
709.786485	22836.305935
710.120742	23631.177430
710.454949	23633.004848
710.789107	24101.322999
711.123216	24814.948738
711.457275	24926.038124
711.791286	25477.250489
712.125247	25551.161366
712.459159	25247.615849
712.793023	25931.662617
713.126837	24809.153931
713.460602	25122.716221
713.794318	24745.116154
714.127985	24359.296486
714.461602	23466.790444
714.795171	23434.340537
715.128691	22402.935583
715.462162	21861.987008
715.795584	21434.096390
716.128957	21183.961898
716.462281	20771.129207
716.795556	20522.804489
717.128782	20004.488174
717.461960	19456.923084
717.795088	19382.422392
718.128167	18957.092680
718.461198	18496.777361
718.794180	18348.446450
719.127113	17986.756265
719.459997	17781.664482
719.792833	17398.546872
720.125619	17393.127632
720.458357	17051.586938
720.791046	16871.824433
721.123686	16697.834049
721.456278	16464.201774
721.788821	16421.581339
722.121315	16148.010523
722.453761	16236.119810
722.786158	16144.126314
723.118506	16156.353632
723.450805	16012.103536
723.783056	16165.626835
724.115259	16057.902418
724.447412	15988.679814
724.779518	16228.500106
725.111574	16245.750934
725.443582	16450.852799
725.775542	16438.685974
726.107453	16901.602529
726.439315	16773.874814
726.771129	17169.902819
727.102895	17542.605405
727.434612	17747.117455
727.766281	17861.712964
728.097901	18135.583729
728.429473	18174.042692
728.760996	18168.368873
729.092471	18262.131814
729.423897	18133.731105
729.755276	18009.733844
730.086606	18132.112895
730.417887	18655.858532
730.749120	19160.722528
731.080305	19330.001954
731.411442	19662.145937
731.742530	19732.691844
732.073570	19838.306537
732.404562	20138.330808
732.735506	19959.400094
733.066401	19660.852881
733.397249	19132.693713
733.728048	18505.606942
734.058798	17674.101383
734.389501	16968.533928
734.720156	16503.222826
735.050762	15968.754654
735.381320	15605.312667
735.711831	15360.360481
736.042293	14997.314225
736.372707	15012.727553
736.703073	14788.610456
737.033391	14976.421163
737.363661	14945.294559
737.693883	15025.688360
738.024056	15183.514284
738.354182	15364.801738
738.684260	15629.888292
739.014290	15848.888618
739.344272	16030.188675
739.674207	16308.009184
740.004093	16421.848520
740.333931	16418.473468
740.663722	16467.622197
740.993464	16467.992722
741.323159	16299.242617
741.652806	16029.868562
741.982405	15815.483412
742.311956	15486.706920
742.641460	15372.960845
742.970915	15073.203755
743.300323	14729.026538
743.629683	14529.172514
743.958996	14248.778496
744.288260	13968.571001
744.617477	13673.532431
744.946647	13599.452675
745.275768	13320.893637
745.604842	13142.930824
745.933869	12964.463896
746.262847	12910.826019
746.591778	12828.713184
746.920662	12721.881052
747.249498	12717.684291
747.578286	12838.175430
747.907027	12988.542967
748.235720	13199.164895
748.564365	13214.716855
748.892963	13113.034261
749.221514	13168.101305
749.550017	13023.818441
749.878473	12985.432575
750.206881	12758.726845
750.535242	12660.389057
750.863555	12578.853435
751.191821	12474.809061
751.520039	12488.664672
751.848210	12398.763255
752.176334	12433.879933
752.504411	12330.445538
752.832440	12157.649908
753.160421	12223.250443
753.488356	12099.222935
753.816243	12014.428206
754.144082	11865.653674
754.471875	11799.818725
754.799620	11748.923236
755.127318	11721.574977
755.454969	11682.561487
755.782572	11631.688683
756.110129	11643.537915
756.437638	11563.005482
756.765100	11551.945191
757.092515	11554.848895
757.419882	11564.933724
757.747203	11564.333826
758.074477	11634.524332
758.401703	11586.804770
758.728882	11749.641601
759.056014	11783.661827
759.383099	11899.336143
759.710138	12004.507216
760.037129	12085.475708
760.364073	12097.272008
760.690970	12085.344638
761.017820	12089.233888
761.344623	12280.868311
761.671379	12624.748100
761.998088	13285.630766
762.324751	14886.640734
762.651366	17804.135425
762.977935	21406.107904
763.304456	23536.844838
763.630931	23949.841367
763.957359	22776.958952
764.283740	20894.095552
764.610074	19042.028561
764.936362	16921.290755
765.262602	15409.037863
765.588796	13936.947843
765.914943	12916.898088
766.241044	12052.647714
766.567097	11409.633418
766.893104	10860.107319
767.219064	10495.954530
767.544978	10116.985790
767.870845	9799.783787
768.196665	9612.419222
768.522438	9410.873891
768.848165	9250.421526
769.173846	9077.993900
769.499479	8955.725754
769.825066	8800.901837
770.150607	8610.315975
770.476101	8543.568578
770.801548	8439.385572
771.126949	8294.205382
771.452303	8206.217083
771.777611	8044.242289
772.102872	8020.430399
772.428087	7906.611227
772.753256	7774.341433
773.078378	7693.181376
773.403453	7538.536420
773.728482	7428.309071
774.053465	7369.521655
774.378401	7282.143336
774.703291	7182.953593
775.028135	7085.843326
775.352932	7041.829011
775.677683	6961.664583
776.002388	6874.402210
776.327046	6871.785851
776.651658	6790.396422
776.976224	6708.742333
777.300743	6689.480084
777.625216	6623.040197
777.949643	6580.621408
778.274024	6587.270690
778.598359	6515.446850
778.922647	6516.475246
779.246889	6476.556869
779.571086	6482.873435
779.895236	6487.927191
780.219339	6482.024000
780.543397	6478.422096
780.867409	6528.649632
781.191374	6524.132758
781.515294	6493.137224
781.839167	6545.860131
782.162995	6513.697570
782.486776	6470.681404
782.810511	6429.454848
783.134201	6354.777715
783.457844	6343.737588
783.781441	6290.588703
784.104993	6250.347693
784.428498	6228.307768
784.751958	6205.312545
785.075372	6182.087949
785.398739	6142.005735
785.722061	6167.841648
786.045337	6163.982645
786.368568	6277.975737
786.691752	6299.937523
787.014891	6552.607716
787.337983	6833.589028
787.661030	7269.248064
787.984031	7684.235849
788.306987	7937.558871
788.629897	8015.056529
788.952760	7930.682737
789.275579	7759.485152
789.598351	7456.912578
789.921078	7199.044956
790.243759	6919.807882
790.566395	6718.433951
790.888984	6527.303644
791.211529	6390.088477
791.534027	6223.569084
791.856480	6089.734011
792.178888	6029.635895
792.501249	5960.718281
792.823566	5855.310275
793.145836	5850.397670
793.468062	5826.923537
793.790241	5786.843844
794.112375	5829.255071
794.434464	5925.914155
794.756507	5952.375171
795.078505	6071.459828
795.400457	6282.565707
795.722364	6518.716038
796.044226	6709.271654
796.366042	6865.507094
796.687812	6811.095400
797.009538	6842.645461
797.331218	6755.632625
797.652852	6687.801380
797.974442	6566.493574
798.295986	6503.713565
798.617484	6376.661364
798.938938	6267.613645
799.260346	6199.298448
799.581709	6059.955915
799.903026	6003.152193
800.224299	5931.930772
800.545526	5819.923895
800.866708	5754.096508
801.187845	5704.121030
801.508936	5628.642354
801.829983	5596.744453
802.150984	5491.366693
802.471940	5460.391323
802.792851	5442.860711
803.113717	5417.541516
803.434538	5388.955653
803.755314	5362.832394
804.076045	5348.719683
804.396731	5313.459333
804.717372	5328.839893
805.037967	5324.978369
805.358518	5350.834448
805.679024	5408.603550
805.999485	5415.842647
806.319901	5431.540800
806.640272	5439.934321
806.960598	5493.030274
807.280879	5485.697916
807.601115	5524.406416
807.921306	5483.200024
808.241453	5479.749354
808.561554	5489.166230
808.881611	5465.127487
809.201623	5462.601869
809.521590	5412.543212
809.841513	5403.227159
810.161390	5417.765847
810.481223	5330.508515
810.801011	5323.241692
811.120755	5295.086848
811.440453	5240.163477
811.760107	5213.556267
812.079716	5189.356208
812.399281	5135.292353
812.718801	5130.752794
813.038276	5098.191981
813.357707	5063.755859
813.677093	5087.834931
813.996434	5026.431156
814.315731	5046.961255
814.634983	5044.912026
814.954191	5048.720618
815.273354	5111.130103
815.592473	5151.850023
815.911547	5222.030446
816.230577	5278.020021
816.549562	5367.601325
816.868502	5421.513945
817.187399	5477.632070
817.506250	5557.499070
817.825058	5586.921764
818.143821	5745.314818
818.462539	5915.085756
818.781213	6151.054606
819.099843	6518.592530
819.418429	7152.363871
819.736970	7764.085205
820.055466	8474.739183
820.373919	9422.423174
820.692327	10932.999883
821.010691	13772.437349
821.329011	20172.401447
821.647286	29647.426541
821.965517	39625.155497
822.283704	44574.623357
822.601847	45817.146793
822.919945	41310.768629
823.237999	36378.637296
823.556010	31347.754801
823.873976	26791.433926
824.191897	22680.743489
824.509775	19657.180400
824.827609	16945.090042
825.145398	15420.050263
825.463144	14707.689854
825.780845	15053.271033
826.098502	16336.685788
826.416116	18739.060256
826.733685	20842.103612
827.051210	21181.015344
827.368692	19691.172901
827.686129	17193.046756
828.003522	14799.637980
828.320872	12639.750573
828.638177	11034.213650
828.955439	9820.926386
829.272656	8772.956201
829.589830	7939.275384
829.906960	7211.852007
830.224046	6687.950094
830.541088	6283.773063
830.858086	6024.602303
831.175041	5828.209032
831.491952	5776.484272
831.808819	5811.394263
832.125642	6073.561989
832.442421	6642.899822
832.759157	7780.088348
833.075849	9534.629177
833.392497	11319.442134
833.709101	12348.578568
834.025662	12031.734488
834.342179	10976.699125
834.658653	9707.460095
834.975083	8641.119946
835.291469	7758.620594
835.607811	7033.614451
835.924110	6520.246029
836.240366	6036.985897
836.556578	5584.093677
836.872746	5232.621910
837.188871	4966.887568
837.504952	4747.781377
837.820990	4582.779371
838.136984	4466.132112
838.452935	4425.666770
838.768842	4457.718426
839.084706	4767.978760
839.400526	5521.104460
839.716303	6400.886629
840.032037	6919.712101
840.347727	6740.743577
840.663373	6144.909440
840.978977	5586.077371
841.294537	5148.671575
841.610054	4826.030167
841.925527	4591.820680
842.240957	4386.910379
842.556344	4199.192934
842.871687	4041.084705
843.186987	3894.296387
843.502244	3769.958848
843.817458	3689.154193
844.132629	3614.514869
844.447756	3568.073240
844.762840	3524.036240
845.077881	3477.879436
845.392879	3447.882050
845.707833	3420.579160
846.022745	3394.760891
846.337613	3381.318654
846.652438	3358.774614
846.967221	3350.192050
847.281960	3329.634224
847.596656	3320.595436
847.911309	3309.152016
848.225919	3292.841363
848.540485	3283.028757
848.855009	3275.348559
849.169490	3265.203237
849.483928	3256.197216
849.798323	3252.083634
850.112675	3239.760534
850.426984	3241.542582
850.741251	3234.674009
851.055474	3231.528329
851.369654	3233.660738
851.683792	3226.792165
851.997887	3231.006570
852.311938	3229.645458
852.625947	3230.227712
852.939914	3227.951631
853.253837	3228.949779
853.567718	3227.669326
853.881555	3221.720765
854.195350	3227.772670
854.509103	3221.919890
854.822812	3220.248748
855.136479	3217.690362
855.450103	3223.021382
855.763685	3213.380176
856.077224	3214.615258
856.390720	3223.507854
856.704173	3230.885582
857.017584	3240.877149
857.330953	3244.421080
857.644278	3250.654467
857.957561	3252.769231
858.270802	3251.219076
858.584000	3250.246134
858.897155	3246.853437
859.210268	3236.629977
859.523339	3223.573389
859.836367	3225.083214
860.149352	3214.063252
860.462295	3212.538303
860.775195	3205.503373
861.088054	3198.770912
861.400869	3201.649411
861.713642	3199.292671
862.026373	3205.573949
862.339062	3209.826162
862.651708	3218.184395
862.964312	3234.893300
863.276873	3244.252202
863.589392	3273.178343
863.901869	3296.881848
864.214303	3320.141732
864.526696	3336.651511
864.839045	3353.425950
865.151353	3365.799462
865.463619	3365.716283
865.775842	3369.413969
866.088023	3373.368755
866.400162	3369.769371
866.712258	3371.586707
867.024313	3367.831047
867.336325	3366.159905
867.648296	3370.616285
867.960224	3366.233001
868.272110	3370.606202
868.583954	3370.742313
868.895755	3377.731873
869.207515	3374.190463
869.519233	3392.305849
869.830909	3397.989750
870.142542	3408.545926
870.454134	3414.832245
870.765684	3432.776232
871.077191	3450.896660
871.388657	3460.253041
871.700081	3480.611741
872.011463	3502.316429
872.322803	3516.146834
872.634101	3538.146430
872.945357	3557.811971
873.256571	3583.352977
873.567744	3595.940738
873.878874	3602.658076
874.189963	3618.000827
874.501010	3621.401086
874.812015	3621.403606
875.122979	3636.184269
875.433900	3633.109165
875.744780	3635.256697
876.055618	3645.918737
876.366415	3646.450579
876.677169	3651.007782
876.987882	3667.152077
877.298554	3688.740819
877.609183	3730.899988
877.919771	3778.158285
878.230317	3850.443390
878.540822	3956.050522
878.851285	4113.732773
879.161707	4342.230633
879.472087	4728.456114
879.782425	5379.669848
880.092722	6592.228664
880.402977	8524.195423
880.713191	10836.544966
881.023363	13099.019853
881.333494	14310.356191
881.643583	14707.205904
881.953631	14290.844405
882.263637	13499.647911
882.573602	12517.134588
882.883526	11599.841193
883.193408	10687.213386
883.503248	9799.193972
883.813048	8984.495619
884.122806	8236.912668
884.432522	7480.694221
884.742197	6828.298337
885.051831	6274.227639
885.361424	5786.027177
885.670975	5396.207353
885.980485	5076.893106
886.289954	4810.697498
886.599382	4592.377728
886.908768	4413.399122
887.218113	4248.565994
887.527417	4115.837455
887.836680	3993.775997
888.145901	3893.847725
888.455082	3818.641271
888.764221	3746.288110
889.073319	3689.126467
889.382376	3654.556754
889.691392	3627.372332
890.000366	3620.733133
890.309300	3617.816825
890.618193	3618.721712
890.927044	3618.341105
891.235855	3624.355202
891.544625	3641.311123
891.853353	3670.935463
892.162041	3731.953589
892.470687	3824.975481
892.779293	3950.485088
893.087858	4125.415647
893.396381	4414.672014
893.704864	4830.783976
894.013306	5389.621085
894.321707	5936.619045
894.630068	6254.622591
894.938387	6268.253871
895.246665	6089.245019
895.554903	5787.589934
895.863100	5458.868895
896.171256	5199.269637
896.479371	4969.503927
896.787446	4751.559722
897.095480	4557.475299
897.403473	4407.929470
897.711425	4267.016618
898.019336	4149.046056
898.327207	4026.293960
898.635038	3925.511212
898.942827	3822.374245
899.250576	3734.022983
899.558284	3654.148421
899.865952	3600.608847
900.173579	3534.047972
900.481165	3489.705983
900.788711	3447.488840
901.096216	3418.766866
901.403681	3390.725447
901.711105	3383.587173
902.018489	3377.507542
902.325832	3411.172367
902.633135	3475.116883
902.940397	3653.737567
903.247619	4074.782298
903.554800	4831.446887
903.861941	5768.834322
904.169041	6422.203148
904.476101	6602.391631
904.783121	6328.266287
905.090100	5940.041988
905.397039	5540.865783
905.703938	5191.975087
906.010796	4879.126120
906.317614	4631.124036
906.624391	4396.763315
906.931129	4204.249211
907.237826	4022.684493
907.544483	3853.407588
907.851099	3685.300231
908.157675	3524.767207
908.464211	3385.618758
908.770707	3285.549334
909.077163	3205.604196
909.383578	3142.546923
909.689954	3102.925974
909.996289	3072.353897
910.302584	3051.478479
910.608839	3039.664535
910.915054	3027.588451
911.221229	3021.382790
911.527363	3026.310518
911.833458	3032.697660
912.139513	3046.908673
912.445527	3061.094480
912.751502	3094.552618
913.057436	3141.243785
913.363331	3199.509441
913.669186	3289.118471
913.975000	3411.457193
914.280775	3603.260493
914.586510	3880.944891
914.892205	4253.178650
915.197859	4747.799022
915.503475	5310.908509
915.809050	5772.763901
916.114585	6035.392893
916.420081	6081.736220
916.725536	6019.861098
917.030952	5787.617661
917.336328	5590.619451
917.641665	5388.564963
917.946961	5172.254093
918.252218	4975.644052
918.557435	4754.158437
918.862612	4561.949323
919.167750	4390.935741
919.472848	4203.712328
919.777906	4043.539747
920.082925	3887.032085
920.387904	3738.870053
920.692843	3624.577012
920.997743	3527.975902
921.302603	3436.010132
921.607423	3368.816593
921.912204	3302.918630
922.216946	3256.177051
922.521647	3209.954712
922.826310	3167.888803
923.130932	3130.914460
923.435516	3091.331320
923.740059	3063.365519
924.044564	3030.466949
924.349028	3007.353259
924.653454	2980.284783
924.957840	2951.267902
925.262186	2932.623194
925.566493	2910.008578
925.870761	2882.814074
926.174989	2876.374000
926.479178	2857.883047
926.783328	2842.242868
927.087438	2829.455981
927.391509	2816.580874
927.695541	2802.816003
927.999533	2795.125723
928.303486	2785.567696
928.607400	2780.438322
928.911275	2774.288114
929.215110	2769.559512
929.518906	2767.112031
929.822663	2765.834099
930.126381	2764.901485
930.430060	2769.241919
930.733699	2771.512959
931.037299	2773.942795
931.340861	2770.212341
931.644383	2775.863474
931.947866	2774.252826
932.251309	2771.361724
932.554714	2769.085643
932.858080	2771.389450
933.161407	2764.624222
933.464694	2762.557349
933.767943	2760.344282
934.071153	2755.590474
934.374323	2749.606625
934.677455	2749.314238
934.980548	2745.795512
935.283602	2741.686972
935.586617	2740.298134
935.889593	2745.006572
936.192530	2745.666963
936.495428	2750.241810
936.798287	2759.159611
937.101108	2772.097732
937.403890	2794.924077
937.706632	2818.451142
938.009336	2851.011955
938.312002	2878.771068
938.614628	2902.870304
938.917216	2921.197419
939.219765	2931.161260
939.522275	2941.175512
939.824747	2940.467230
940.127179	2933.901127
940.429573	2930.846188
940.731929	2930.740323
941.034246	2920.184147
941.336524	2919.160793
941.638763	2911.750297
941.940964	2907.470357
942.243126	2891.114334
942.545250	2881.158055
942.847335	2866.478215
943.149381	2852.715865
943.451389	2841.464009
943.753359	2826.242245
944.055290	2819.005669
944.357182	2810.188691
944.659036	2805.139975
944.960851	2801.044038
945.262628	2798.979685
945.564367	2797.046403
945.866067	2797.106897
946.167729	2795.181176
946.469352	2793.668830
946.770937	2792.514406
947.072484	2783.921759
947.373992	2787.004424
947.675462	2779.878753
947.976893	2774.278032
948.278286	2772.271652
948.579641	2769.579676
948.880958	2766.829727
949.182236	2768.014398
949.483476	2763.815117
949.784678	2762.098604
950.085841	2762.244797
950.386967	2765.907196
950.688054	2770.718977
950.989103	2780.055194
951.290114	2787.430402
951.591087	2798.853657
951.892021	2809.069555
952.192917	2823.794765
952.493776	2829.347596
952.794596	2837.027794
953.095378	2836.959738
953.396122	2838.033504
953.696828	2830.353306
953.997496	2824.981957
954.298126	2819.585402
954.598718	2812.938640
954.899272	2799.380457
955.199788	2790.787810
955.500266	2778.474792
955.800706	2762.317894
956.101108	2746.493712
956.401472	2738.251426
956.701798	2723.228787
957.002087	2710.809905
957.302337	2702.285313
957.602550	2690.045392
957.902724	2680.046263
958.202861	2670.853719
958.502960	2664.469098
958.803022	2657.013231
959.103045	2649.005358
959.403031	2643.308855
959.702979	2639.379275
960.002889	2635.061527
960.302762	2630.373254
960.602596	2627.872842
960.902393	2622.325052
961.202153	2620.172479
961.501875	2618.529063
961.801559	2615.832046
962.101205	2613.714761
962.400814	2611.342898
962.700385	2608.482043
962.999918	2607.521703
963.299414	2600.781681
963.598873	2605.437186
963.898293	2600.643049
964.197677	2602.437700
964.497022	2600.330497
964.796331	2599.652462
965.095601	2596.892431
965.394835	2599.602051
965.694030	2596.799169
965.993189	2595.289344
966.292309	2594.288675
966.591393	2596.158943
966.890439	2592.690629
967.189447	2594.553335
967.488419	2596.549632
967.787353	2593.025866
968.086249	2595.410331
968.385108	2596.274889
968.683930	2596.471494
968.982714	2595.112903
969.281462	2597.928388
969.580172	2603.481219
969.878844	2605.137238
970.177480	2604.950715
970.476078	2604.635643
970.774639	2611.622682
971.073162	2614.448249
971.371649	2613.518156
971.670098	2613.929010
971.968510	2616.295832
972.266885	2615.653085
972.565223	2620.089300
972.863524	2616.681480
973.161788	2623.245062
973.460014	2621.558796
973.758204	2626.231946
974.056356	2625.541308
974.354471	2624.437295
974.652550	2623.950824
974.950591	2625.616925
975.248595	2624.321349
975.546563	2626.708335
975.844493	2620.563168
976.142386	2620.827829
976.440243	2617.883795
976.738062	2612.956067
977.035845	2613.561006
977.333590	2612.272991
977.631299	2610.299379
977.928971	2605.676641
978.226606	2606.883998
978.524204	2605.079264
978.821765	2605.754779
979.119290	2605.157402
979.416777	2602.689758
979.714228	2602.878801
980.011642	2605.119594
980.309020	2608.991200
980.606360	2611.849534
980.903664	2622.176338
981.200931	2633.466002
981.498162	2653.466780
981.795356	2682.881912
982.092513	2716.829042
982.389633	2758.733634
982.686717	2799.337607
982.983764	2826.224601
983.280775	2847.581450
983.577749	2844.690348
983.874686	2837.922599
984.171587	2821.982470
984.468451	2804.449337
984.765279	2787.763118
985.062070	2772.082609
985.358824	2752.492685
985.655543	2732.499469
985.952224	2710.184802
986.248869	2685.919207
986.545478	2658.414672
986.842050	2641.494039
987.138586	2624.321349
987.435086	2610.765686
987.731549	2598.518203
988.027975	2594.936463
988.324366	2589.479414
988.620719	2585.650657
988.917037	2583.387179
989.213318	2579.140007
989.509563	2576.243864
989.805772	2574.691189
990.101944	2571.671538
990.398080	2571.545509
990.694180	2568.301527
990.990244	2572.190777
991.286271	2572.939388
991.582262	2572.059707
991.878217	2572.548699
992.174136	2572.891497
992.470019	2574.358473
992.765865	2575.606158
993.061676	2579.079513
993.357450	2579.674370
993.653188	2582.890626
993.948890	2588.108220
994.244556	2599.067688
994.540186	2606.735283
994.835780	2618.161059
995.131337	2630.164046
995.426859	2646.328506
995.722345	2661.336021
996.017795	2679.448887
996.313208	2695.348686
996.608586	2702.928061
996.903928	2705.930068
997.199234	2704.682382
997.494504	2702.512165
997.789738	2695.089066
998.084936	2685.218487
998.380099	2671.257012
998.675225	2662.145126
998.970316	2651.183137
999.265371	2638.860036
999.560390	2626.110958
999.855373	2614.042436
1000.150320	2606.493308
1000.445232	2597.978799
1000.740108	2591.319435
1001.034948	2580.859041
1001.329752	2579.041705
1001.624521	2576.379976
1001.919254	2568.044428
1002.213951	2565.556618
1002.508613	2565.823799
1002.803239	2564.576114
1003.097829	2559.713921
1003.392384	2561.984961
1003.686903	2558.972871
1003.981386	2559.819785
1004.275834	2553.110009
1004.570246	2555.103786
1004.864623	2555.451625
1005.158964	2556.056564
1005.453270	2554.909701
1005.747540	2556.064126
1006.041775	2550.919628
1006.335974	2553.417520
1006.630138	2551.506922
1006.924266	2552.958775
1007.218359	2551.385935
1007.512416	2551.000287
1007.806438	2550.382745
1008.100425	2550.559186
1008.394376	2550.586912
1008.688292	2549.059442
1008.982172	2547.950388
1009.276017	2549.205636
1009.569827	2549.155224
1009.863602	2548.512477
1010.157341	2551.048177
1010.451045	2546.438042
1010.744714	2549.823177
1011.038347	2550.569268
1011.331945	2546.778320
1011.625508	2546.264122
1011.919036	2548.779658
1012.212528	2545.049204
1012.505986	2547.980635
1012.799408	2545.979297
1013.092795	2548.646068
1013.386147	2546.914431
1013.679464	2545.202960
1013.972745	2546.788402
1014.265992	2546.009544
1014.559204	2544.668597
1014.852380	2545.954092
1015.145521	2544.439225
1015.438628	2544.000644
1015.731699	2545.318906
1016.024736	2546.130532
1016.317737	2546.692621
1016.610703	2548.567930
1016.903635	2542.843700
1017.196531	2542.193391
1017.489393	2542.894111
1017.782219	2544.182126
1018.075011	2547.239586
1018.367768	2546.861499
1018.660490	2547.728578
1018.953177	2547.728578
1019.245829	2547.728578
