Dividing Wavelength (nm)	Counts (n)	Blue Motor Position (mm): 40.700000	Red Motor Position (mm): 0.000000	
326.493990	2251.528022
326.888308	2251.528022
327.282561	2251.528022
327.676750	2211.229038
328.070874	2207.788450
328.464933	2205.887935
328.858929	2211.297093
329.252859	2217.958978
329.646726	2224.535163
330.040528	2237.470764
330.434265	2249.735892
330.827938	2269.804725
331.221547	2285.001283
331.615091	2302.804118
332.008571	2321.055616
332.401986	2340.169150
332.795338	2357.326718
333.188625	2377.057794
333.581847	2399.725342
333.975006	2415.970460
334.368100	2438.819490
334.761129	2453.353137
335.154095	2471.110601
335.546996	2497.559015
335.939833	2535.649973
336.332606	2554.408107
336.725315	2566.849674
337.117960	2577.713361
337.510540	2587.899012
337.903056	2602.931733
338.295508	2610.743001
338.687896	2618.728188
339.080220	2626.857049
339.472480	2634.088584
339.864676	2637.035139
340.256807	2639.633853
340.648875	2647.273722
341.040879	2647.792961
341.432818	2651.442756
341.824694	2653.698673
342.216506	2653.572644
342.608253	2655.710093
342.999937	2656.509116
343.391557	2656.708242
343.783113	2656.557007
344.174605	2657.444250
344.566033	2655.810916
344.957397	2653.892757
345.348697	2653.255051
345.739934	2651.273878
346.131106	2648.589463
346.522215	2646.981335
346.913260	2646.232724
347.304241	2644.133083
347.695159	2641.725932
348.086012	2641.438587
348.476802	2639.444810
348.867528	2635.048924
349.258191	2631.661269
349.648789	2629.254118
350.039324	2628.621453
350.429796	2631.308388
350.820203	2631.620939
351.210548	2627.093983
351.600828	2629.397791
351.991045	2627.772018
352.381198	2626.728500
352.771288	2624.870834
353.161314	2624.943931
353.551276	2622.682974
353.941175	2621.097531
354.331010	2624.344034
354.720782	2622.700618
355.110490	2623.877727
355.500135	2622.680453
355.889717	2624.480145
356.279235	2624.180196
356.668689	2623.255145
357.058080	2623.925618
357.447408	2626.045423
357.836672	2623.595422
358.225873	2623.968468
358.615010	2625.811010
359.004084	2625.735392
359.393095	2627.320835
359.782043	2628.013994
360.170927	2628.644138
360.559748	2627.204889
360.948505	2627.467029
361.337199	2633.191259
361.725830	2632.183028
362.114398	2631.520116
362.502903	2631.983902
362.891344	2631.084057
363.279722	2632.543471
363.668037	2631.535240
364.056289	2634.431383
364.444478	2636.024387
364.832603	2638.625623
365.220665	2635.394243
365.608665	2637.390540
365.996601	2636.417597
366.384474	2638.875160
366.772284	2638.537402
367.160031	2636.425159
367.547715	2639.863226
367.935336	2637.642598
368.322893	2634.784263
368.710388	2636.926754
369.097820	2639.901035
369.485189	2637.125879
369.872495	2642.472023
370.259738	2643.502939
370.646918	2643.339102
371.034035	2645.277425
371.421090	2643.979328
371.808081	2644.881695
372.195010	2643.540748
372.581875	2644.982518
372.968678	2644.773310
373.355418	2645.988228
373.742096	2646.641057
374.128710	2646.993938
374.515262	2646.888074
374.901751	2652.309835
375.288177	2649.053249
375.674540	2647.727426
376.060841	2650.190030
376.447079	2649.617859
376.833254	2652.506440
377.219367	2651.195740
377.605417	2651.999804
377.991404	2653.892757
378.377329	2654.258241
378.763191	2654.522901
379.148991	2653.847387
379.534727	2656.463746
379.920402	2654.689259
380.306013	2658.744868
380.691563	2661.046154
381.077049	2658.669250
381.462474	2656.831750
381.847835	2658.535660
382.233134	2659.959786
382.618371	2661.383912
383.003545	2660.456339
383.388657	2662.810558
383.773706	2662.674447
384.158693	2663.072698
384.543618	2665.038748
384.928480	2667.728204
385.313280	2667.995385
385.698017	2670.528565
386.082692	2678.317147
386.467305	2683.779238
386.851856	2691.449353
387.236344	2701.531661
387.620770	2712.821325
388.005133	2727.513768
388.389435	2747.993455
388.773674	2765.750920
389.157851	2802.095118
389.541965	2836.805983
389.926018	2863.861856
390.310008	2916.105854
390.693936	2963.986733
391.077802	3015.033457
391.461606	3058.447874
391.845348	3118.666977
392.229027	3181.628468
392.612645	3233.305336
392.996200	3315.087975
393.379694	3389.553379
393.763125	3485.058039
394.146494	3552.793502
394.529801	3638.026811
394.913047	3736.876276
395.296230	3773.016308
395.679351	3884.556878
396.062410	3980.434583
396.445408	4029.076677
396.828343	4126.333137
397.211217	4224.620514
397.594028	4206.910940
397.976778	4343.259028
398.359466	4435.726393
398.742092	4507.482177
399.124656	4496.036237
399.507158	4634.738544
399.889598	4740.242332
400.271977	4885.803129
400.654294	4923.095064
401.036549	5001.217825
401.418742	4978.368796
401.800874	5191.165982
402.182944	5279.683602
402.564952	5411.814765
402.946898	5493.738556
403.328783	5388.451538
403.710606	5423.369090
404.092367	5751.777577
404.474067	5790.455830
404.855705	5727.295214
405.237282	5682.023132
405.618797	5940.099962
406.000250	5938.910249
406.381642	6137.277133
406.762972	6178.622156
407.144240	6251.945739
407.525447	6239.259675
407.906593	6279.641838
408.287677	6436.792247
408.668700	6355.710329
409.049661	6482.654144
409.430560	6514.133630
409.811399	6373.601384
410.192176	6654.300392
410.572891	6658.857595
410.953545	6862.076589
411.334138	6596.488439
411.714669	6768.732063
412.095139	6568.184881
412.475547	6815.143446
412.855894	6874.578650
413.236180	7050.532563
413.616405	6741.756849
413.996568	6958.907072
414.376670	6987.434961
414.756711	6892.031125
415.136691	6984.881617
415.516609	7186.547935
415.896466	7180.039806
416.276262	7373.115998
416.655997	7361.755758
417.035670	7552.056795
417.415283	7892.299392
417.794834	7939.681197
418.174324	7801.523334
418.553753	7711.639561
418.933121	8035.309364
419.312428	8133.637070
419.691674	7909.711537
420.070859	8387.711224
420.449983	8066.599806
420.829045	8429.565404
421.208047	8204.132566
421.586988	8509.412240
421.965867	8522.052933
422.344686	8633.389336
422.723444	8664.747834
423.102141	8040.617699
423.480777	8793.624932
423.859352	8314.130543
424.237866	8934.126931
424.616319	8807.067168
424.994712	9211.561791
425.373044	8778.070452
425.751314	9243.893232
426.129524	9114.428839
426.507673	9224.459583
426.885762	9378.486998
427.263789	9285.626424
427.641756	9215.992966
428.019662	9315.160023
428.397508	9556.767404
428.775292	9245.904652
429.153016	9621.183268
429.530679	9460.239390
429.908282	9491.139143
430.285824	9211.546668
430.663305	9894.713755
431.040726	9342.571298
431.418086	9331.160646
431.795385	9655.344647
432.172624	9743.501825
432.549802	9653.991097
432.926920	9740.182225
433.303977	9616.575653
433.680974	9819.217435
434.057910	9906.976362
434.434786	9975.909099
434.811601	9804.857708
435.188355	10379.771057
435.565050	10110.820458
435.941683	10039.198265
436.318257	10525.097440
436.694770	10664.855869
437.071222	10723.837369
437.447614	10570.029245
437.823946	10470.264810
438.200218	10594.274674
438.576429	10427.210836
438.952580	10664.906281
439.328670	10710.344721
439.704700	10491.722481
440.080670	10488.291976
440.456580	11036.872858
440.832429	10798.852259
441.208218	10400.656558
441.583947	10713.656759
441.959616	10874.230112
442.335224	10685.746411
442.710773	10816.869343
443.086261	11021.532627
443.461689	10303.584099
443.837057	10967.993053
444.212365	11227.327651
444.587612	10864.750222
444.962800	11094.342012
445.337927	10851.839827
445.712995	10476.601540
446.088002	11537.439271
446.462949	11205.567510
446.837837	11179.855105
447.212664	11138.951182
447.587431	11687.736231
447.962139	12420.359558
448.336786	14696.649727
448.711374	15222.578185
449.085901	13055.673492
449.460369	12681.592150
449.834776	12133.056639
450.209124	13032.968135
450.583412	13451.348616
450.957640	14387.558941
451.331808	13491.251870
451.705917	12505.053463
452.079965	11792.362859
452.453954	12701.701313
452.827883	12336.741939
453.201752	12627.896300
453.575562	12155.998930
453.949311	12567.097464
454.323001	12546.963096
454.696632	12775.397941
455.070202	13061.072568
455.443713	13283.042133
455.817164	13756.469494
456.190556	13735.079878
456.563888	14098.852060
456.937160	14262.064457
457.310373	13602.144651
457.683526	13695.113611
458.056619	13239.385741
458.429653	13418.331579
458.802628	12813.199033
459.175542	13204.866440
459.548398	14160.432275
459.921194	14500.626981
460.293930	14574.943671
460.666607	15434.178097
461.039224	16489.783109
461.411782	17201.110082
461.784280	17016.639139
462.156719	17107.755474
462.529099	16778.212727
462.901419	15720.810543
463.273680	15508.255332
463.645882	15381.886208
464.018024	15111.738335
464.390106	15344.944633
464.762130	16063.989612
465.134094	16838.963672
465.505999	18862.475264
465.877845	22124.648768
466.249631	24949.718945
466.621358	24585.825775
466.993026	23168.775073
467.364634	22591.056321
467.736184	21113.852051
468.107674	20316.376801
468.479105	20457.680343
468.850477	19917.969371
469.221790	19507.019551
469.593043	18826.166353
469.964238	18253.022449
470.335373	17905.515550
470.706449	18372.470069
471.077467	17936.813553
471.448425	19806.267484
471.819324	23883.053641
472.190164	25811.781458
472.560945	22184.124301
472.931667	19864.233192
473.302330	19229.592252
473.672934	18817.956834
474.043479	19093.448330
474.413965	18915.278830
474.784393	18521.796608
475.154761	19247.309387
475.525070	19193.585810
475.895321	18900.218383
476.265513	19483.920984
476.635645	20083.896429
477.005719	19854.831440
477.375734	20024.057933
477.745691	20522.517143
478.115588	21054.056405
478.485427	21595.113365
478.855207	22671.684536
479.224928	24448.323263
479.594591	26678.028129
479.964194	26652.860169
480.333739	26871.739507
480.703226	26439.626923
481.072653	26145.891491
481.442022	26745.382986
481.811333	27661.569848
482.180584	27557.444815
482.549777	26603.784536
482.918912	26261.732165
483.287988	26391.206640
483.657005	26036.334615
484.025964	25801.404243
484.394864	25697.755599
484.763706	25367.426432
485.132489	24813.426309
485.501213	24989.138247
485.869879	24901.112139
486.238487	24729.228958
486.607036	24875.966864
486.975527	24600.026705
487.343959	24911.469190
487.712333	24832.975904
488.080648	24496.378062
488.448905	24996.377344
488.817104	24749.443985
489.185244	25443.711692
489.553326	25388.727827
489.921350	26423.775014
490.289315	28747.265507
490.657222	30489.092546
491.025070	30984.655613
491.392861	30748.495199
491.760593	29889.870753
492.128267	28982.788215
492.495883	27931.077494
492.863440	27050.173668
493.230939	26185.509919
493.598380	26032.142896
493.965763	25640.848534
494.333088	25162.173332
494.700354	25120.263700
495.067563	24978.798841
495.434713	24720.938780
495.801805	24903.032819
496.168839	24689.018194
496.535815	24537.428177
496.902733	24756.204172
497.269593	24447.231853
497.636395	24621.708708
498.003139	24567.869185
498.369825	24300.619975
498.736453	24513.500341
499.103023	24388.610795
499.469535	24379.602253
499.835989	24609.304949
500.202385	24632.534586
500.568723	24153.667820
500.935003	24358.825138
501.301226	24023.464899
501.667390	24874.295721
502.033497	25071.271246
502.399546	24819.185827
502.765537	24369.648495
503.131470	24749.433902
503.497345	24883.027000
503.863163	24114.266162
504.228923	24683.525857
504.594625	24908.535238
504.960269	24452.832575
505.325856	24948.108296
505.691385	24345.030020
506.056856	24949.383708
506.422270	24926.781695
506.787625	24469.271777
507.152924	24901.525514
507.518164	24939.190495
507.883347	24737.998045
508.248472	24416.377471
508.613540	25203.258736
508.978550	24992.286448
509.343503	25002.008313
509.708398	25229.195473
510.073236	25395.160340
510.438016	25607.891991
510.802738	25264.859116
511.167403	25525.872418
511.532010	25265.577480
511.896561	26017.276533
512.261053	25975.543341
512.625488	25803.473637
512.989866	25691.612953
513.354186	25535.725353
513.718449	25659.029455
514.082655	26039.245881
514.446803	25754.082932
514.810894	26235.634112
515.174927	25721.542284
515.538904	25752.121923
515.902822	26251.680104
516.266684	26000.691137
516.630488	25910.943475
516.994235	25861.741813
517.357925	26187.594436
517.721558	26361.806631
518.085133	26474.042880
518.448651	26362.555242
518.812112	26116.970391
519.175516	26330.107855
519.538863	26489.488975
519.902152	26277.437880
520.265385	26534.284668
520.628560	26344.858272
520.991678	26331.690778
521.354739	26399.789204
521.717743	26477.405330
522.080690	26256.799396
522.443580	26574.255977
522.806413	26566.853043
523.169189	26684.551382
523.531908	26716.159417
523.894569	26343.597983
524.257174	26426.056137
524.619722	26584.328203
524.982213	26282.549610
525.344647	26308.730842
525.707025	26478.456410
526.069345	26441.061131
526.431608	26410.471409
526.793815	26591.151404
527.155964	26067.609933
527.518057	26239.878763
527.880093	26160.848594
528.242072	26388.912915
528.603995	26106.492353
528.965860	25895.227678
529.327669	25936.723936
529.689421	25920.861945
530.051117	25776.579081
530.412755	25932.050786
530.774337	25728.725928
531.135862	25619.617715
531.497331	25812.739277
531.858743	25385.967796
532.220098	25850.497520
532.581396	25544.363370
532.942638	25453.073115
533.303824	25575.827732
533.664953	25564.762399
534.026025	25228.714042
534.387040	25467.833613
534.747999	25519.737333
535.108902	25689.036924
535.469748	25180.452556
535.830537	25352.013104
536.191270	25483.662837
536.551947	25323.613764
536.912567	24965.011285
537.273131	25374.529417
537.633638	25039.063314
537.994089	25272.458655
538.354483	24779.307780
538.714821	25281.454594
539.075103	25327.175339
539.435328	25101.389620
539.795497	24691.647156
540.155609	25052.326590
540.515665	25355.299936
540.875665	24578.304373
541.235609	24902.652212
541.595496	24838.463200
541.955328	25206.658994
542.315102	25129.574711
542.674821	24647.877337
543.034483	24525.621795
543.394090	24705.248189
543.753640	24506.495657
544.113134	25136.103005
544.472571	24724.351641
544.831953	25021.648648
545.191278	24676.097717
545.550548	24575.083076
545.909761	24769.953919
546.268918	25005.658108
546.628019	24974.977646
546.987064	24652.013604
547.346053	24406.532097
547.704986	24509.779969
548.063863	24678.151987
548.422684	24690.979203
548.781449	24207.093969
549.140158	24611.631441
549.498811	24193.573594
549.857408	23960.135403
550.215949	24356.138203
550.574434	24045.371233
550.932864	24237.381221
551.291237	24426.051445
551.649555	24272.744915
552.007817	24336.364277
552.366022	24185.855587
552.724173	24201.190777
553.082267	24169.781868
553.440305	24650.899509
553.798288	23896.324478
554.156215	24400.323916
554.514086	24524.724470
554.871902	23901.776486
555.229661	24184.532285
555.587365	24035.218349
555.945014	23931.471403
556.302606	24152.026925
556.660143	24128.031032
557.017625	24375.231573
557.375050	23883.595565
557.732421	24278.708600
558.089735	24086.978396
558.446994	24145.475945
558.804197	24166.210211
559.161345	24088.647018
559.518437	23879.968454
559.875474	24041.822260
560.232455	24227.034253
560.589381	24049.061357
560.946251	24050.566142
561.303065	24346.134033
561.659825	24441.245483
562.016528	24047.236460
562.373177	23780.514051
562.729770	24143.111644
563.086307	23989.469878
563.442789	24176.950389
563.799216	24011.003166
564.155587	24004.497557
564.511904	23987.569363
564.868164	23939.544811
565.224370	23912.834257
565.580520	23834.446835
565.936615	23964.606907
566.292654	23653.005626
566.648638	23908.176231
567.004567	23740.925870
567.360441	23683.764226
567.716260	23412.214913
568.072023	23728.582604
568.427732	23517.575028
568.783385	23281.865797
569.138982	23527.995093
569.494525	23554.456109
569.850013	23313.388132
570.205445	23417.689606
570.560823	23233.064908
570.916145	22995.379545
571.271412	23179.467360
571.626625	22927.540738
571.981782	23028.293238
572.336884	22845.939580
572.691931	22983.462257
573.046923	22725.098082
573.401860	22601.073094
573.756743	22619.443059
574.111570	22523.489736
574.466342	22445.533333
574.821059	22530.070963
575.175722	22234.223288
575.530330	22194.574612
575.884882	22204.621632
576.239380	22129.226135
576.593823	22031.415148
576.948211	22001.914315
577.302544	21846.732477
577.656823	21717.245399
578.011047	21819.283394
578.365216	21694.199764
578.719330	21568.559087
579.073389	21456.655554
579.427394	21608.220365
579.781344	21358.728620
580.135239	21252.400603
580.489080	21203.677851
580.842866	20977.617389
581.196597	21192.882220
581.550273	21153.107516
581.903895	21042.726411
582.257463	21346.292093
582.610975	20887.171527
582.964434	21208.144313
583.317837	20878.810773
583.671186	20969.901903
584.024481	20965.957200
584.377721	20721.277236
584.730906	20802.081891
585.084037	20797.998557
585.437113	20718.320600
585.790135	20928.229205
586.143103	20374.748321
586.496016	20397.912423
586.848874	20645.780916
587.201679	20554.949406
587.554428	20253.962275
587.907124	20582.312789
588.259765	20345.204639
588.612352	20421.986453
588.964884	19980.953547
589.317362	20151.152983
589.669786	20220.846935
590.022155	20234.140458
590.374470	20458.877617
590.726731	20207.089626
591.078937	20012.140645
591.431090	20088.801472
591.783188	19860.033910
592.135232	19821.985802
592.487222	19922.246790
592.839157	19933.612071
593.191038	19815.407096
593.542866	19706.734942
593.894639	19411.245189
594.246358	19630.366503
594.598022	19520.071098
594.949633	19265.328991
595.301190	19257.066540
595.652692	19423.263300
596.004141	19644.809409
596.355535	18981.262492
596.706876	18995.198762
597.058162	18901.748373
597.409395	19130.097519
597.760573	19183.450570
598.111698	18966.123907
598.462768	18908.143077
598.813785	18876.698879
599.164748	18670.624072
599.515657	18725.963338
599.866511	18530.759779
600.217312	18879.433705
600.568060	18396.352535
600.918753	18698.108443
601.269392	18597.988607
601.619978	18400.360253
601.970510	18581.299867
602.320988	18543.839053
602.671412	18743.035206
603.021783	18668.337909
603.372100	18377.367550
603.722363	18531.682310
604.072572	18465.940623
604.422728	18625.954408
604.772830	18365.165437
605.122878	18328.193615
605.472872	18304.263257
605.822813	18298.924675
606.172701	18282.694681
606.522534	18465.481878
606.872314	18493.344335
607.222041	18331.104881
607.571714	18537.784627
607.921333	18374.657930
608.270899	18443.257951
608.620411	18607.874309
608.969870	18385.216626
609.319276	18383.616060
609.668627	18418.379857
610.017926	18558.173574
610.367171	18669.174740
610.716362	18714.545125
611.065500	18517.496503
611.414585	18670.253547
611.763616	18668.975615
612.112594	18602.838197
612.461518	18565.790757
612.810389	18758.534233
613.159207	18614.763046
613.507971	18525.196866
613.856682	18781.491648
614.205340	18702.476603
614.553945	18851.861114
614.902496	18603.405327
615.250994	18823.686106
615.599439	18770.512015
615.947830	18759.814686
616.296169	18830.572322
616.644454	18784.324776
616.992686	18761.198483
617.340864	18989.141816
617.688990	18726.101970
618.037063	18899.484895
618.385082	18764.271066
618.733048	19030.990955
619.080961	18919.762936
619.428821	18943.393345
619.776628	18819.161670
620.124382	18758.909799
620.472083	18819.209561
620.819731	18819.627977
621.167326	18505.538886
621.514868	18549.404487
621.862357	18331.694696
622.209793	18329.325354
622.557176	18162.100198
622.904506	17999.041557
623.251783	17919.592972
623.599007	17666.448911
623.946179	17614.088967
624.293297	17545.937608
624.640363	17281.879449
624.987376	17301.688663
625.334336	17097.327848
625.681243	16956.130169
626.028097	16972.450905
626.374899	16888.792957
626.721647	16751.892863
627.068343	16590.321361
627.414987	16520.052718
627.761577	16496.883575
628.108115	16523.924324
628.454600	16243.321098
628.801032	16344.275245
629.147412	16287.153931
629.493739	16302.763863
629.840014	16113.448372
630.186236	16207.906992
630.532405	15972.500231
630.878521	16169.740416
631.224585	16068.990436
631.570597	15887.831532
631.916556	15922.242448
632.262462	15898.241514
632.608316	15821.535317
632.954117	15759.067859
633.299866	15750.530665
633.645562	15664.674774
633.991206	15422.515388
634.336797	15295.148115
634.682336	15261.105203
635.027823	15139.467202
635.373257	15018.411454
635.718639	14921.880920
636.063968	14870.322519
636.409245	14623.971413
636.754470	14651.743129
637.099642	14505.952960
637.444762	14276.802271
637.789829	14317.683508
638.134845	14148.928362
638.479808	14178.267878
638.824719	14096.762502
639.169577	13969.049911
639.514383	14000.970497
639.859137	13837.316999
640.203839	13928.380402
640.548489	13778.222073
640.893086	13756.345986
641.237632	13632.686482
641.582125	13790.963589
641.926566	13612.098410
642.270955	13624.640800
642.615292	13579.252772
642.959576	13581.425509
643.303809	13619.292136
643.647990	13550.402248
643.992118	13617.925983
644.336195	13383.388821
644.680219	13604.067852
645.024192	13507.832225
645.368112	13760.769598
645.711981	13799.024394
646.055797	13991.067150
646.399562	13963.988592
646.743274	14231.247884
647.086935	14501.110932
647.430544	14465.840499
647.774101	14506.053783
648.117606	14644.657787
648.461059	14619.583088
648.804460	14604.283186
649.147810	14337.149923
649.491108	14243.024019
649.834354	14253.514660
650.177548	13934.901134
650.520690	13741.950971
650.863781	13666.386595
651.206820	13717.801323
651.549807	13546.757494
651.892742	13345.691073
652.235626	13277.519549
652.578458	13285.885344
652.921238	12981.077018
653.263967	13172.373683
653.606644	13009.035257
653.949269	12995.091426
654.291843	12782.364816
654.634365	12948.697687
654.976836	12791.640539
655.319255	12794.924851
655.661622	12762.734563
656.003938	12668.099502
656.346203	12598.395468
656.688416	12677.753312
657.030577	12629.663225
657.372687	12545.112992
657.714746	12525.230682
658.056753	12718.122872
658.398708	12527.721012
658.740612	12532.537834
659.082465	12644.080925
659.424266	12617.693005
659.766016	12631.581384
660.107715	12550.590206
660.449362	12628.244140
660.790958	12573.235069
661.132503	12519.130885
661.473996	12589.157553
661.815438	12600.142228
662.156829	12621.521761
662.498168	12606.327723
662.839456	12604.354112
663.180693	12615.074125
663.521879	12712.411244
663.863013	12680.891430
664.204097	12650.566369
664.545129	12787.358079
664.886110	12760.670210
665.227040	12850.125485
665.567918	12847.393180
665.908746	12877.380483
666.249522	12862.199049
666.590248	12921.820775
666.930922	13032.045604
667.271545	13009.907377
667.612118	13091.884100
667.952639	12989.163029
668.293109	13017.852235
668.633528	12964.902476
668.973896	12939.374073
669.314213	13006.507119
669.654480	12752.732913
669.994695	12834.389523
670.334859	12854.954911
670.674973	12798.884677
671.015035	12829.718894
671.355047	12775.375256
671.695008	12744.034403
672.034918	12752.465732
672.374777	12807.295842
672.714585	12708.148949
673.054342	12749.395670
673.394049	12701.391282
673.733705	12796.681693
674.073310	12696.866847
674.412864	12714.362171
674.752368	12563.631671
675.091820	12607.295625
675.431223	12588.419024
675.770574	12446.412241
676.109875	12371.606559
676.449125	12325.658963
676.788324	12284.462653
677.127473	12120.736059
677.466571	12103.429777
677.805619	11993.520021
678.144616	11922.354052
678.483562	11897.614589
678.822458	11763.472006
679.161303	11735.823798
679.500098	11736.418654
679.838842	11683.302537
680.177535	11719.671941
680.516179	11785.038062
680.854771	11719.150182
681.193314	11936.338213
681.531805	12100.997421
681.870247	12543.918239
682.208638	12953.242287
682.546978	13250.919901
682.885268	13282.417030
683.223508	12977.838077
683.561697	12823.919047
683.899836	12737.614493
684.237925	12521.653983
684.575963	12445.966099
684.913951	12362.915610
685.251889	12312.960296
685.589776	12417.796131
685.927614	12334.609531
686.265401	12306.525263
686.603137	12363.628933
686.940824	12505.620593
687.278460	12642.422385
687.616046	12674.685770
687.953582	12830.480109
688.291068	12777.172427
688.628504	13008.226152
688.965889	13009.186492
689.303224	12967.395327
689.640510	12851.310156
689.977745	12535.262578
690.314930	12314.434833
690.652065	12224.157850
690.989150	11929.063828
691.326185	11708.019314
691.663170	11503.973571
692.000105	11263.311407
692.336990	11142.537963
692.673825	10882.379137
693.010610	10768.544842
693.347345	10566.984388
693.684030	10367.896619
694.020665	10309.552825
694.357251	10117.822621
694.693786	10036.080312
695.030272	9889.939782
695.366707	9768.427810
695.703093	9708.183501
696.039429	9703.331390
696.375716	9614.476012
696.711952	9486.821394
697.048139	9525.003093
697.384276	9484.356270
697.720363	9506.708746
698.056400	9440.248694
698.392388	9388.276919
698.728326	9357.752732
699.064214	9294.067836
699.400053	9328.602260
699.735842	9153.409561
700.071581	9110.963046
700.407270	9031.527064
700.742910	8959.183986
701.078501	8856.306639
701.414042	8727.341320
701.749533	8673.779061
702.084974	8533.743369
702.420366	8653.808530
702.755709	8530.910240
703.091002	8396.999550
703.426246	8427.866535
703.761440	8376.487095
704.096584	8331.383892
704.431679	8272.097402
704.766725	8250.148218
705.101721	8206.675828
705.436668	8260.109538
705.771565	8144.215932
706.106413	8228.619970
706.441212	8267.570446
706.775961	8221.746357
707.110661	8270.849716
707.445311	8401.753358
707.779913	8299.186042
708.114465	8429.293182
708.448967	8466.716187
708.783421	8625.734344
709.117825	8791.787431
709.452180	8830.211106
709.786485	8921.645034
710.120742	9209.066420
710.454949	9214.510866
710.789107	9315.061721
711.123216	9543.622595
711.457275	9706.373727
711.791286	9852.292445
712.125247	9865.873314
712.459159	9841.310292
712.793023	10074.897196
713.126837	9654.800202
713.460602	9807.584972
713.794318	9641.327718
714.127985	9666.067181
714.461602	9331.392539
714.795171	9280.575188
715.128691	9027.847022
715.462162	8790.234756
715.795584	8726.668326
716.128957	8565.159839
716.462281	8398.295127
716.795556	8442.513608
717.128782	8233.973676
717.461960	7981.565623
717.795088	8053.069349
718.128167	7956.891696
718.461198	7795.756254
718.794180	7742.564519
719.127113	7732.726708
719.459997	7562.875111
719.792833	7339.380597
720.125619	7411.748881
720.458357	7262.588700
720.791046	7259.216168
721.123686	7250.000939
721.456278	7086.677637
721.788821	7106.746470
722.121315	7005.658732
722.453761	7079.010042
722.786158	7010.979670
723.118506	7019.615167
723.450805	6981.030175
723.783056	7045.269599
724.115259	6967.146838
724.447412	6964.724563
724.779518	7017.611308
725.111574	7017.956627
725.443582	7087.585044
725.775542	7066.918834
726.107453	7270.236130
726.439315	7173.990421
726.771129	7250.258038
727.102895	7422.617608
727.434612	7528.411263
727.766281	7567.739825
728.097901	7642.555589
728.429473	7648.925087
728.760996	7634.943447
729.092471	7603.864733
729.423897	7544.159828
729.755276	7541.258643
730.086606	7457.267979
730.417887	7568.397695
730.749120	7781.968698
731.080305	7965.320505
731.411442	8070.846978
731.742530	8063.020587
732.073570	8171.919592
732.404562	8258.508972
732.735506	8113.850541
733.066401	8247.539421
733.397249	8167.531268
733.728048	7929.372037
734.058798	7595.871984
734.389501	7370.038374
734.720156	7194.414656
735.050762	6969.072558
735.381320	6879.135853
735.711831	6819.501524
736.042293	6712.437498
736.372707	6728.745631
736.703073	6596.334684
737.033391	6637.667105
737.363661	6647.114227
737.693883	6679.044895
738.024056	6764.865498
738.354182	6804.559544
738.684260	6834.819070
739.014290	6960.021167
739.344272	7066.450007
739.674207	7096.593586
740.004093	7173.430853
740.333931	7187.750251
740.663722	7193.857608
740.993464	7269.300996
741.323159	7250.310970
741.652806	6999.322002
741.982405	7034.660491
742.311956	7071.854124
742.641460	6900.890953
742.970915	6705.896601
743.300323	6696.966197
743.629683	6650.358209
743.958996	6516.845770
744.288260	6426.634322
744.617477	6376.918463
744.946647	6373.056939
745.275768	6212.057609
745.604842	6166.344426
745.933869	6144.286857
746.262847	6103.745898
746.591778	6094.147541
746.920662	6051.595161
747.249498	6048.368823
747.578286	6097.477223
747.907027	6168.295352
748.235720	6231.171144
748.564365	6207.132402
748.892963	6244.484831
749.221514	6382.514144
749.550017	6199.484971
749.878473	6085.587662
750.206881	6147.258617
750.535242	6097.026040
750.863555	6024.604824
751.191821	6034.455238
751.520039	6035.425660
751.848210	5938.698521
752.176334	5972.456608
752.504411	6016.198700
752.832440	5938.050733
753.160421	5869.372573
753.488356	5918.039873
753.816243	5946.169511
754.144082	5795.824659
754.471875	5771.617038
754.799620	5816.410211
755.127318	5826.048897
755.454969	5784.401405
755.782572	5755.883597
756.110129	5791.396006
756.437638	5770.001349
756.765100	5713.870621
757.092515	5721.301282
757.419882	5773.749447
757.747203	5751.727166
758.074477	5810.852339
758.401703	5791.834586
758.728882	5749.811527
759.056014	5819.346683
759.383099	5936.349343
759.710138	5946.338390
760.037129	5934.640392
760.364073	5936.974446
760.690970	6023.142889
761.017820	5996.480226
761.344623	5959.624351
761.671379	6062.312654
761.998088	6194.524476
762.324751	6448.515451
762.651366	7080.245124
762.977935	8437.018750
763.304456	10089.783723
763.630931	10958.356887
763.957359	10502.744964
764.283740	9547.272391
764.610074	8679.730143
764.936362	7683.915736
765.262602	7098.272290
765.588796	6558.095012
765.914943	6230.669549
766.241044	6059.436676
766.567097	5846.805848
766.893104	5590.022074
767.219064	5421.496301
767.544978	5354.537175
767.870845	5274.345020
768.196665	5165.312424
768.522438	5096.077217
768.848165	5060.128749
769.173846	4992.524356
769.499479	4951.058345
769.825066	4894.786465
770.150607	4838.643134
770.476101	4815.514321
770.801548	4808.930574
771.126949	4726.951330
771.452303	4670.071991
771.777611	4633.193430
772.102872	4654.394002
772.428087	4617.709526
772.753256	4575.880552
773.078378	4527.533366
773.403453	4460.075166
773.728482	4442.962969
774.053465	4395.021596
774.378401	4383.593300
774.703291	4381.216396
775.028135	4306.546825
775.352932	4259.490175
775.677683	4249.264194
776.002388	4262.570320
776.327046	4274.159933
776.651658	4201.872307
776.976224	4138.905775
777.300743	4143.147906
777.625216	4166.959796
777.949643	4155.397910
778.274024	4116.016416
778.598359	4078.716918
778.922647	4103.597533
779.246889	4092.176799
779.571086	4085.829987
779.895236	4067.742327
780.219339	4057.221438
780.543397	4049.989903
780.867409	4106.244139
781.191374	4117.397692
781.515294	4051.870254
781.839167	4046.108215
782.162995	4070.396494
782.486776	4056.485430
782.810511	4070.177204
783.134201	4060.777972
783.457844	4008.992720
783.781441	3956.252168
784.104993	3966.359682
784.428498	3982.509018
784.751958	3980.421980
785.075372	3955.150676
785.398739	3917.621806
785.722061	3931.119496
786.045337	3977.770333
786.368568	4006.562883
786.691752	3921.805964
787.014891	3977.432576
787.337983	4108.237915
787.661030	4265.806741
787.984031	4429.286319
788.306987	4595.762863
788.629897	4680.555070
788.952760	4634.000015
789.275579	4566.078028
789.598351	4495.804344
789.921078	4351.108105
790.243759	4152.423629
790.566395	4140.193790
790.888984	4129.733395
791.211529	4022.939072
791.534027	3963.297181
791.856480	3946.847896
792.178888	3891.480903
792.501249	3840.998788
792.823566	3853.750387
793.145836	3878.169736
793.468062	3826.699555
793.790241	3786.196405
794.112375	3814.938543
794.434464	3881.995972
794.756507	3903.241915
795.078505	3882.343812
795.400457	3919.290428
795.722364	4064.069846
796.044226	4170.644879
796.366042	4241.629367
796.687812	4220.083475
797.009538	4219.115574
797.331218	4183.434287
797.652852	4154.961850
797.974442	4134.424189
798.295986	4131.006287
798.617484	4046.133421
798.938938	3962.203250
799.260346	4004.889220
799.581709	3999.354033
799.903026	3922.952826
800.224299	3883.989748
800.545526	3881.696023
800.866708	3837.868232
801.187845	3783.234727
801.508936	3818.210252
801.829983	3807.190290
802.150984	3735.061461
802.471940	3729.611973
802.792851	3734.935432
803.113717	3732.684557
803.434538	3733.652458
803.755314	3676.342101
804.076045	3656.298473
804.396731	3676.200948
804.717372	3697.157025
805.037967	3681.484078
805.358518	3674.476874
805.679024	3700.862273
805.999485	3713.858368
806.319901	3721.770459
806.640272	3733.707911
806.960598	3746.036053
807.280879	3723.529821
807.601115	3735.643714
807.921306	3750.840272
808.241453	3788.288484
808.561554	3764.726131
808.881611	3695.354813
809.201623	3739.895927
809.521590	3750.542844
809.841513	3720.961353
810.161390	3748.796084
810.481223	3721.639389
810.801011	3670.050741
811.120755	3667.709125
811.440453	3704.847305
811.760107	3702.097356
812.079716	3656.595901
812.399281	3628.990543
812.718801	3653.177999
813.038276	3626.535501
813.357707	3620.675159
813.677093	3636.312819
813.996434	3587.884974
814.315731	3598.773867
814.634983	3600.543312
814.954191	3615.505456
815.273354	3644.366062
815.592473	3636.390957
815.911547	3650.160868
816.230577	3693.363557
816.549562	3740.972214
816.868502	3783.685910
817.187399	3811.508038
817.506250	3803.568221
817.825058	3781.545940
818.143821	3876.848954
818.462539	3976.079026
818.781213	4022.104761
819.099843	4086.815532
819.418429	4346.172815
819.736970	4590.953602
820.055466	4843.565821
820.373919	5211.396132
820.692327	5628.148321
821.010691	6107.488955
821.329011	7569.647901
821.647286	10433.587895
821.965517	15134.723476
822.283704	19160.009205
822.601847	21176.889159
822.919945	19256.232229
823.237999	16612.978827
823.556010	14107.046456
823.873976	11961.488529
824.191897	9848.947640
824.509775	8516.273250
824.827609	7385.474387
825.145398	6859.661876
825.463144	6742.707107
825.780845	6851.306163
826.098502	7075.957623
826.416116	8003.923141
826.733685	9364.381850
827.051210	10466.294901
827.368692	10432.607391
827.686129	9115.437070
828.003522	7597.533044
828.320872	6579.986222
828.638177	5869.289394
828.955439	5298.313186
829.272656	4799.397752
829.589830	4520.833673
829.906960	4348.763968
830.224046	4159.171213
830.541088	4033.379301
830.858086	3988.583608
831.175041	3909.654262
831.491952	3898.210843
831.808819	3907.713418
832.125642	3982.166219
832.442421	4141.360817
832.759157	4429.916463
833.075849	5007.685626
833.392497	5898.205453
833.709101	6687.231729
834.025662	6997.776888
834.342179	6584.656851
834.658653	5912.474439
834.975083	5250.046659
835.291469	4672.610212
835.607811	4269.552318
835.924110	4125.367756
836.240366	3921.233793
836.556578	3721.972105
836.872746	3609.221658
837.188871	3569.217582
837.504952	3501.524968
837.820990	3416.763007
838.136984	3376.771533
838.452935	3397.848598
838.768842	3393.004049
839.084706	3418.955909
839.400526	3587.441353
839.716303	3943.498049
840.032037	4493.606401
840.347727	4729.275302
840.663373	4428.283129
840.978977	4035.705794
841.294537	3724.986715
841.610054	3500.020183
841.925527	3394.337434
842.240957	3326.120540
842.556344	3271.073661
842.871687	3207.996223
843.186987	3157.554438
843.502244	3123.045219
843.817458	3089.055239
844.132629	3059.811506
844.447756	3069.566139
844.762840	3050.041750
845.077881	3019.434384
845.392879	3000.530057
845.707833	3000.998885
846.022745	2996.255159
846.337613	2996.068636
846.652438	2985.250320
846.967221	2981.451811
847.281960	2968.037300
847.596656	2964.332052
847.911309	2965.657876
848.225919	2959.545477
848.540485	2953.380145
848.855009	2956.155301
849.169490	2939.955553
849.483928	2933.238215
849.798323	2933.139913
850.112675	2932.454316
850.426984	2942.793722
850.741251	2936.467074
851.055474	2929.207813
851.369654	2922.712286
851.683792	2926.299067
851.997887	2938.385233
852.311938	2937.729883
852.625947	2926.977102
852.939914	2928.834767
853.253837	2933.210489
853.567718	2919.276740
853.881555	2919.087696
854.195350	2935.698298
854.509103	2926.442740
854.822812	2920.889909
855.136479	2917.923190
855.450103	2922.646751
855.763685	2914.522932
856.077224	2913.101326
856.390720	2923.307142
856.704173	2933.964141
857.017584	2927.176228
857.330953	2922.495516
857.644278	2932.645880
857.957561	2940.510080
858.270802	2945.044598
858.584000	2941.649380
858.897155	2930.843667
859.210268	2931.032710
859.523339	2925.439550
859.836367	2926.215888
860.149352	2922.198088
860.462295	2916.683066
860.775195	2926.084818
861.088054	2924.693459
861.400869	2908.541603
861.713642	2908.274421
862.026373	2924.438881
862.339062	2921.953592
862.651708	2928.779315
862.964312	2931.201589
863.276873	2926.777977
863.589392	2937.674431
863.901869	2949.448045
864.214303	2971.190542
864.526696	2985.509939
864.839045	2982.185298
865.151353	2980.557006
865.463619	2976.377889
865.775842	2978.089361
866.088023	3001.525685
866.400162	3007.459123
866.712258	2973.393526
867.024313	2964.896661
867.336325	2976.292190
867.648296	2998.730365
867.960224	2991.647544
868.272110	2973.837148
868.583954	2981.419043
868.895755	2991.967658
869.207515	2980.725884
869.519233	2985.656133
869.830909	2997.880931
870.142542	3007.743948
870.454134	3007.055831
870.765684	3010.498939
871.077191	3007.703619
871.388657	3016.520597
871.700081	3034.895603
872.011463	3041.333157
872.322803	3044.914896
872.634101	3039.515821
872.945357	3059.332596
873.256571	3088.127667
873.567744	3078.720874
873.878874	3070.309709
874.189963	3093.703183
874.501010	3097.864656
874.812015	3087.018613
875.122979	3086.012903
875.433900	3082.232038
875.744780	3092.926846
876.055618	3098.341045
876.366415	3094.797114
876.677169	3103.465378
876.987882	3099.208123
877.298554	3095.021445
877.609183	3119.047584
877.919771	3147.736791
878.230317	3170.570697
878.540822	3222.504664
878.851285	3263.960593
879.161707	3307.130514
879.472087	3418.671084
879.782425	3665.753157
880.092722	4117.286787
880.402977	4662.406917
880.713191	5317.643491
881.023363	6529.796495
881.333494	7831.566091
881.643583	8356.370371
881.953631	8033.272738
882.263637	7359.318360
882.573602	6746.203147
882.883526	6161.199928
883.193408	5586.523513
883.503248	5134.231190
883.813048	4820.013550
884.122806	4496.500023
884.432522	4172.900796
884.742197	3936.468160
885.051831	3740.523551
885.361424	3613.809108
885.670975	3540.094836
885.980485	3448.239972
886.289954	3367.974720
886.599382	3324.794717
886.908768	3287.182668
887.218113	3243.506111
887.527417	3181.467151
887.836680	3132.799852
888.145901	3128.033441
888.455082	3114.066924
888.764221	3060.466856
889.073319	3033.627753
889.382376	3030.668596
889.691392	3035.883669
890.000366	3034.857794
890.309300	3022.234745
890.618193	3037.191849
890.927044	3049.887995
891.235855	3049.058725
891.544625	3036.344935
891.853353	3050.402192
892.162041	3069.001529
892.470687	3110.631378
892.779293	3164.561642
893.087858	3210.869681
893.396381	3282.917852
893.704864	3416.095054
894.013306	3665.813651
894.321707	3977.709839
894.630068	4178.746014
894.938387	4166.357378
895.246665	4124.016727
895.554903	3991.981346
895.863100	3787.701189
896.171256	3618.648616
896.479371	3476.462871
896.787446	3350.365970
897.095480	3246.039291
897.403473	3179.538910
897.711425	3145.359887
898.019336	3133.848412
898.327207	3104.090481
898.635038	3067.325346
898.942827	3054.409910
899.250576	3041.302910
899.558284	3011.613034
899.865952	2989.973881
900.173579	2967.520582
900.481165	2962.933132
900.788711	2946.559464
901.096216	2923.702873
901.403681	2912.103178
901.711105	2921.013417
902.018489	2918.477717
902.325832	2919.170875
902.633135	2928.244952
902.940397	2963.832978
903.247619	3052.292625
903.554800	3256.459356
903.861941	3625.565079
904.169041	4067.757450
904.476101	4364.139488
904.783121	4296.963592
905.090100	4034.957182
905.397039	3750.762134
905.703938	3496.710666
906.010796	3311.261739
906.317614	3198.811241
906.624391	3101.504369
906.931129	3029.531815
907.237826	2966.923205
907.544483	2921.988880
907.851099	2887.643499
908.157675	2867.680530
908.464211	2847.624299
908.770707	2835.601147
909.077163	2821.498520
909.383578	2804.623257
909.689954	2796.847277
909.996289	2794.649334
910.302584	2793.943573
910.608839	2795.713018
910.915054	2788.363015
911.221229	2781.282715
911.527363	2785.466872
911.833458	2790.608849
912.139513	2796.373409
912.445527	2799.791311
912.751502	2808.257929
913.057436	2817.495843
913.363331	2830.265086
913.669186	2856.731144
913.975000	2892.417472
914.280775	2954.685804
914.586510	3023.104344
914.892205	3109.366048
915.197859	3242.916296
915.503475	3451.100826
915.809050	3673.992923
916.114585	3816.254285
916.420081	3828.819361
916.725536	3764.224536
917.030952	3641.091832
917.336328	3510.462933
917.641665	3374.296327
917.946961	3270.541819
918.252218	3196.825026
918.557435	3120.340640
918.862612	3052.416133
919.167750	3008.553054
919.472848	2968.377578
919.777906	2940.686520
920.082925	2911.276428
920.387904	2882.448590
920.692843	2862.866228
920.997743	2851.911801
921.302603	2839.671879
921.607423	2830.887669
921.912204	2815.139104
922.216946	2805.318936
922.521647	2795.241670
922.826310	2787.952161
923.130932	2782.056532
923.435516	2769.861981
923.740059	2761.707914
924.044564	2755.189702
924.349028	2749.868765
924.653454	2741.969277
924.957840	2734.984758
925.262186	2733.301012
925.566493	2727.112996
925.870761	2723.357337
926.174989	2720.380535
926.479178	2715.157900
926.783328	2708.942157
927.087438	2707.076930
927.391509	2709.872250
927.695541	2703.495190
927.999533	2699.288347
928.303486	2699.600899
928.607400	2697.407997
928.911275	2696.737524
929.215110	2695.998995
929.518906	2692.076977
929.822663	2696.964376
930.126381	2693.274251
930.430060	2693.841381
930.733699	2695.789787
931.037299	2698.065868
931.340861	2698.391022
931.644383	2699.351362
931.947866	2695.144519
932.251309	2697.465970
932.554714	2695.946062
932.858080	2691.996318
933.161407	2688.691842
933.464694	2689.085052
933.767943	2687.600432
934.071153	2688.848118
934.374323	2689.296781
934.677455	2687.323169
934.980548	2684.709331
935.283602	2688.843077
935.586617	2685.684794
935.889593	2685.168076
936.192530	2686.877027
936.495428	2686.017510
936.798287	2687.275278
937.101108	2692.087059
937.403890	2694.073274
937.706632	2698.451516
938.009336	2705.473843
938.312002	2715.233517
938.614628	2726.198027
938.917216	2731.148440
939.219765	2729.999057
939.522275	2732.645662
939.824747	2728.259859
940.127179	2724.209292
940.429573	2721.209805
940.731929	2720.519167
941.034246	2716.743343
941.336524	2714.515153
941.638763	2710.139431
941.940964	2708.294369
942.243126	2708.974925
942.545250	2707.875953
942.847335	2705.481405
943.149381	2698.680888
943.451389	2694.970599
943.753359	2693.450691
944.055290	2690.700742
944.357182	2688.502799
944.659036	2688.258303
944.960851	2688.021369
945.262628	2684.963909
945.564367	2689.173272
945.866067	2689.400124
946.167729	2689.868952
946.469352	2690.776359
946.770937	2688.525484
947.072484	2687.723941
947.373992	2688.575896
947.675462	2684.147242
947.976893	2678.894360
948.278286	2680.547858
948.579641	2681.228414
948.880958	2678.203722
949.182236	2679.801767
949.483476	2678.349915
949.784678	2680.109278
950.085841	2680.719257
950.386967	2680.535255
950.688054	2681.440142
950.989103	2681.898887
951.290114	2681.727488
951.591087	2684.563137
951.892021	2686.193950
952.192917	2688.681760
952.493776	2692.452543
952.794596	2693.710311
953.095378	2693.609488
953.396122	2690.521781
953.696828	2688.459949
953.997496	2688.540607
954.298126	2684.502643
954.598718	2684.497602
954.899272	2681.346881
955.199788	2676.908145
955.500266	2676.146931
955.800706	2672.517300
956.101108	2671.408246
956.401472	2670.914213
956.701798	2667.702998
957.002087	2664.413645
957.302337	2665.530261
957.602550	2664.748882
957.902724	2657.845022
958.202861	2660.098417
958.502960	2660.922646
958.803022	2657.048519
959.103045	2655.568941
959.403031	2657.625732
959.702979	2655.425268
960.002889	2656.925011
960.302762	2655.480721
960.602596	2655.979795
960.902393	2654.590957
961.202153	2655.992398
961.501875	2652.851759
961.801559	2653.786893
962.101205	2653.126502
962.400814	2652.440905
962.700385	2649.544762
962.999918	2651.248672
963.299414	2647.039308
963.598873	2651.301604
963.898293	2648.778507
964.197677	2650.527787
964.497022	2651.581388
964.796331	2651.987201
965.095601	2650.512663
965.394835	2651.556182
965.694030	2651.805719
965.993189	2653.960813
966.292309	2648.047539
966.591393	2651.233548
966.890439	2651.462921
967.189447	2653.184475
967.488419	2650.779845
967.787353	2652.047695
968.086249	2650.232879
968.385108	2650.852941
968.683930	2650.666419
968.982714	2649.582571
969.281462	2650.505102
969.580172	2651.321769
969.878844	2649.562406
970.177480	2651.674649
970.476078	2650.734474
970.774639	2654.958961
971.073162	2650.822694
971.371649	2651.619197
971.670098	2652.443425
971.968510	2651.969557
972.266885	2651.011738
972.565223	2653.638179
972.863524	2656.667912
973.161788	2651.281439
973.460014	2653.630617
973.758204	2652.266985
974.056356	2650.618528
974.354471	2652.418220
974.652550	2651.357057
974.950591	2650.963847
975.248595	2650.744557
975.546563	2648.405461
975.844493	2649.701038
976.142386	2649.126346
976.440243	2651.969557
976.738062	2650.527787
977.035845	2650.646254
977.333590	2652.284629
977.631299	2649.030564
977.928971	2645.458907
978.226606	2642.043525
978.524204	2645.751294
978.821765	2644.959832
979.119290	2650.401758
979.416777	2647.523259
979.714228	2648.891932
980.011642	2647.540903
980.309020	2648.294556
980.606360	2648.075266
980.903664	2650.893271
981.200931	2650.817653
981.498162	2647.303969
981.795356	2648.622231
982.092513	2652.698004
982.389633	2651.513332
982.686717	2657.973571
982.983764	2662.939108
983.280775	2668.176867
983.577749	2664.922802
983.874686	2664.509427
984.171587	2662.676968
984.468451	2662.470280
984.765279	2656.882161
985.062070	2656.907367
985.358824	2655.987357
985.655543	2654.515340
985.952224	2650.893271
986.248869	2653.159269
986.545478	2648.201294
986.842050	2648.294556
987.138586	2647.301448
987.435086	2648.294556
987.731549	2644.697692
988.027975	2646.741880
988.324366	2643.235758
988.620719	2644.609472
988.917037	2644.816160
989.213318	2646.343629
989.509563	2643.618886
989.805772	2645.766417
990.101944	2643.402116
990.398080	2645.968063
990.694180	2643.757517
990.990244	2646.845224
991.286271	2645.411016
991.582262	2647.046870
991.878217	2645.789102
992.174136	2645.423619
992.470019	2644.468320
992.765865	2642.189718
993.061676	2640.740387
993.357450	2641.849441
993.653188	2642.653505
993.948890	2643.059317
994.244556	2644.869092
994.540186	2647.160296
994.835780	2647.525780
995.131337	2645.721047
995.426859	2648.123157
995.722345	2648.342447
996.017795	2647.167858
996.313208	2648.796151
996.608586	2649.779176
996.903928	2650.069042
997.199234	2649.446459
997.494504	2649.141470
997.789738	2652.219094
998.084936	2648.150883
998.380099	2648.700369
998.675225	2649.809422
998.970316	2648.786068
999.265371	2649.005358
999.560390	2646.651140
999.855373	2644.652322
1000.150320	2644.871612
1000.445232	2646.202477
1000.740108	2646.202477
1001.034948	2644.659884
1001.329752	2645.874802
1001.624521	2644.085192
1001.919254	2644.191057
1002.213951	2645.219452
1002.508613	2644.589308
1002.803239	2645.917652
1003.097829	2642.139307
1003.392384	2644.052425
1003.686903	2641.791467
1003.981386	2643.760038
1004.275834	2642.277939
1004.570246	2644.564102
1004.864623	2643.200470
1005.158964	2640.702578
1005.453270	2640.894142
1005.747540	2644.813639
1006.041775	2642.862712
1006.335974	2642.598052
1006.630138	2644.100316
1006.924266	2642.719040
1007.218359	2644.959832
1007.512416	2639.669142
1007.806438	2639.563277
1008.100425	2640.163175
1008.394376	2637.506487
1008.688292	2642.482105
1008.982172	2641.665438
1009.276017	2642.726601
1009.569827	2641.821714
1009.863602	2643.623927
1010.157341	2642.101498
1010.451045	2642.272897
1010.744714	2642.225007
1011.038347	2641.771303
1011.331945	2643.772641
1011.625508	2641.768782
1011.919036	2643.102167
1012.212528	2643.051756
1012.505986	2643.074441
1012.799408	2640.863895
1013.092795	2640.029584
1013.386147	2641.481436
1013.679464	2642.151910
1013.972745	2640.954636
1014.265992	2643.641571
1014.559204	2641.431025
1014.852380	2639.885911
1015.145521	2640.344656
1015.438628	2639.729635
1015.731699	2640.664769
1016.024736	2643.172743
1016.317737	2642.560243
1016.610703	2643.485295
1016.903635	2644.606952
1017.196531	2641.925058
1017.489393	2642.953453
1017.782219	2641.017650
1018.075011	2641.199132
1018.367768	2641.519245
1018.660490	2640.919348
1018.953177	2640.919348
1019.245829	2640.919348
