Dividing Wavelength (nm)	Counts (n)	Blue Motor Position (mm): 49.500000	Red Motor Position (mm): 0.000000	
326.493990	2284.045985
326.888308	2284.045985
327.282561	2284.045985
327.676750	2242.935375
328.070874	2241.231465
328.464933	2240.366907
328.858929	2247.071642
329.252859	2251.238155
329.646726	2259.062026
330.040528	2271.478388
330.434265	2283.909873
330.827938	2303.036011
331.221547	2321.756336
331.615091	2336.915086
332.008571	2357.238497
332.401986	2374.955632
332.795338	2394.989178
333.188625	2416.575399
333.581847	2436.989551
333.975006	2455.286419
334.368100	2474.107567
334.761129	2489.425113
335.154095	2508.168123
335.546996	2533.593182
335.939833	2574.847465
336.332606	2594.092070
336.725315	2604.265118
337.117960	2615.166613
337.510540	2627.038531
337.903056	2638.393730
338.295508	2647.329175
338.687896	2655.193375
339.080220	2663.468429
339.472480	2668.121414
339.864676	2673.003771
340.256807	2677.263546
340.648875	2682.050122
341.040879	2684.706810
341.432818	2690.534384
341.824694	2691.847604
342.216506	2690.879703
342.608253	2690.302491
342.999937	2695.099149
343.391557	2691.509847
343.783113	2692.283664
344.174605	2690.670495
344.566033	2690.690660
344.957397	2688.475072
345.348697	2690.010104
345.739934	2686.511543
346.131106	2684.346367
346.522215	2682.634896
346.913260	2682.357632
347.304241	2679.600121
347.695159	2676.792198
348.086012	2677.475275
348.476802	2675.521828
348.867528	2671.516631
349.258191	2669.603513
349.648789	2667.725683
350.039324	2665.517658
350.429796	2672.040911
350.820203	2667.720642
351.210548	2665.787360
351.600828	2666.654438
351.991045	2663.075219
352.381198	2661.588078
352.771288	2664.393481
353.161314	2664.015394
353.551276	2661.399035
353.941175	2661.305774
354.331010	2662.969355
354.720782	2661.421720
355.110490	2659.788387
355.500135	2662.944149
355.889717	2660.184117
356.279235	2661.946000
356.668689	2663.274344
357.058080	2663.251659
357.447408	2662.704694
357.836672	2664.685867
358.225873	2663.546567
358.615010	2661.925836
359.004084	2662.946669
359.393095	2664.819458
359.782043	2667.564366
360.170927	2666.248625
360.559748	2668.007988
360.948505	2668.872546
361.337199	2670.669717
361.725830	2669.560663
362.114398	2668.612926
362.502903	2670.891528
362.891344	2673.281035
363.279722	2671.647701
363.668037	2672.108967
364.056289	2671.524193
364.444478	2670.876404
364.832603	2673.223062
365.220665	2674.551406
365.608665	2676.729184
365.996601	2674.652229
366.384474	2678.042405
366.772284	2676.341015
367.160031	2677.268587
367.547715	2680.013496
367.935336	2676.588032
368.322893	2677.288752
368.710388	2676.837569
369.097820	2679.824452
369.485189	2679.562312
369.872495	2685.039526
370.259738	2686.083045
370.646918	2691.403983
371.034035	2695.510003
371.421090	2700.520910
371.808081	2708.853937
372.195010	2715.445246
372.581875	2723.556462
372.968678	2733.001064
373.355418	2743.300141
373.742096	2756.611308
374.128710	2771.530603
374.515262	2783.959567
374.901751	2802.637042
375.288177	2818.005000
375.674540	2839.752538
376.060841	2860.829602
376.447079	2884.180227
376.833254	2908.922210
377.219367	2927.982812
377.605417	2966.199800
377.991404	2987.987667
378.377329	3022.776669
378.763191	3045.580329
379.148991	3087.444591
379.534727	3127.108389
379.920402	3166.394101
380.306013	3186.041998
380.691563	3249.137080
381.077049	3269.604164
381.462474	3311.654949
381.847835	3367.402549
382.233134	3408.082140
382.618371	3436.322684
383.003545	3503.780884
383.388657	3522.964995
383.773706	3585.969336
384.158693	3617.358080
384.543618	3648.835045
384.928480	3704.925443
385.313280	3760.736057
385.698017	3782.286990
386.082692	3870.784446
386.467305	3873.698233
386.851856	3908.456988
387.236344	3988.180316
387.620770	4014.714429
388.005133	4062.998601
388.389435	4112.540540
388.773674	4122.194350
389.157851	4193.990463
389.541965	4267.596350
389.926018	4228.416503
390.310008	4329.473993
390.693936	4387.041449
391.077802	4419.277108
391.461606	4415.561777
391.845348	4476.796673
392.229027	4545.179925
392.612645	4540.874780
392.996200	4638.564779
393.379694	4705.377712
393.763125	4810.447961
394.146494	4837.372764
394.529801	4888.795053
394.913047	4979.293847
395.296230	4925.509777
395.679351	5033.443401
396.062410	5088.641515
396.445408	5056.539448
396.828343	5118.989262
397.211217	5175.533364
397.594028	5050.910999
397.976778	5173.942880
398.359466	5218.148758
398.742092	5239.092231
399.124656	5168.402652
399.507158	5285.339777
399.889598	5343.068550
400.271977	5465.424916
400.654294	5466.148321
401.036549	5513.681361
401.418742	5432.985091
401.800874	5638.243231
402.182944	5700.408220
402.564952	5802.826822
402.946898	5870.852152
403.328783	5695.160379
403.710606	5728.653805
404.092367	6051.781684
404.474067	6073.168779
404.855705	5958.820287
405.237282	5900.597480
405.618797	6166.730074
406.000250	6130.121215
406.381642	6345.103741
406.762972	6369.439911
407.144240	6416.839360
407.525447	6406.353760
407.906593	6411.422641
408.287677	6582.005204
408.668700	6502.420509
409.049661	6611.637107
409.430560	6633.679552
409.811399	6504.540314
410.192176	6764.678976
410.572891	6786.071112
410.953545	6974.438867
411.334138	6698.513832
411.714669	6874.198043
412.095139	6671.722619
412.475547	6913.244300
412.855894	6993.076012
413.236180	7178.424116
413.616405	6821.825496
413.996568	7041.576954
414.376670	7108.256296
414.756711	6998.777557
415.136691	7100.687003
415.516609	7300.525903
415.896466	7281.992101
416.276262	7490.408525
416.655997	7479.365877
417.035670	7643.405023
417.415283	7993.344279
417.794834	8068.459992
418.174324	7926.491017
418.553753	7853.288423
418.933121	8136.318964
419.312428	8244.572702
419.691674	8015.827825
420.070859	8497.557966
420.449983	8179.433432
420.829045	8544.975059
421.208047	8307.667783
421.586988	8629.578224
421.965867	8662.045775
422.344686	8738.270542
422.723444	8832.656065
423.102141	8145.347671
423.480777	8928.526209
423.859352	8451.973333
424.237866	9061.199296
424.616319	8933.842105
424.994712	9372.699753
425.373044	8899.665603
425.751314	9396.660358
426.129524	9276.832131
426.507673	9340.209517
426.885762	9500.732458
427.263789	9423.055839
427.641756	9367.683805
428.019662	9449.171537
428.397508	9728.111182
428.775292	9370.045586
429.153016	9769.239436
429.530679	9603.660217
429.908282	9596.602602
430.285824	9332.879679
430.663305	10017.662456
431.040726	9471.168612
431.418086	9445.216752
431.795385	9790.503022
432.172624	9893.173682
432.549802	9789.824987
432.926920	9862.576399
433.303977	9734.664682
433.680974	9932.403942
434.057910	10041.247494
434.434786	10114.253484
434.811601	9920.786603
435.188355	10492.236679
435.565050	10249.578218
435.941683	10159.956585
436.318257	10633.522577
436.694770	10825.020888
437.071222	10866.713751
437.447614	10682.194918
437.823946	10627.508481
438.200218	10693.817298
438.576429	10556.057687
438.952580	10808.695112
439.328670	10803.969030
439.704700	10624.685435
440.080670	10608.432755
440.456580	11107.436409
440.832429	10927.084089
441.208218	10523.862358
441.583947	10784.550505
441.959616	10997.831642
442.335224	10812.697788
442.710773	10902.936962
443.086261	11144.279682
443.461689	10407.333566
443.837057	11106.322314
444.212365	11321.965232
444.587612	10953.235075
444.962800	11158.034470
445.337927	10899.249358
445.712995	10608.110121
446.088002	11630.899742
446.462949	11333.809423
446.837837	11301.987139
447.212664	11196.359842
447.587431	11821.417549
447.962139	12598.098040
448.336786	14908.564712
448.711374	15357.895357
449.085901	13156.483966
449.460369	12822.462153
449.834776	12266.785847
450.209124	13236.597983
450.583412	13652.364626
450.957640	14571.666921
451.331808	13579.943410
451.705917	12681.662727
452.079965	11892.641491
452.453954	12813.680463
452.827883	12487.916061
453.201752	12768.819235
453.575562	12338.980212
453.949311	12743.076583
454.323001	12734.176426
454.696632	12973.255668
455.070202	13252.454932
455.443713	13424.791818
455.817164	13933.988686
456.190556	13894.029980
456.563888	14264.035548
456.937160	14392.521957
457.310373	13754.992436
457.683526	13880.799471
458.056619	13396.261408
458.429653	13624.000574
458.802628	12954.316053
459.175542	13382.040313
459.548398	14330.752699
459.921194	14716.476586
460.293930	14783.123160
460.666607	15605.317708
461.039224	16681.465423
461.411782	17410.769150
461.784280	17147.298285
462.156719	17292.702806
462.529099	16948.283613
462.901419	15930.320897
463.273680	15666.958417
463.645882	15582.430870
464.018024	15298.404700
464.390106	15530.537232
464.762130	16235.411528
465.134094	17053.079120
465.505999	19145.483120
465.877845	22427.919542
466.249631	25214.377001
466.621358	24804.919362
466.993026	23385.393453
467.364634	22785.133183
467.736184	21313.325467
468.107674	20519.583192
468.479105	20646.660598
468.850477	20098.853533
469.221790	19713.177537
469.593043	19012.560496
469.964238	18435.628165
470.335373	18066.172082
470.706449	18601.600593
471.077467	18206.250624
471.448425	20095.846484
471.819324	24278.214567
472.190164	26021.122933
472.560945	22297.283081
472.931667	20030.339211
473.302330	19441.582853
473.672934	19117.986147
474.043479	19304.770979
474.413965	19110.794941
474.784393	18677.843004
475.154761	19504.458644
475.525070	19367.571153
475.895321	19120.743658
476.265513	19734.559591
476.635645	20326.295271
477.005719	20073.216745
477.375734	20253.160731
477.745691	20748.875033
478.115588	21308.289355
478.485427	21879.036190
478.855207	22981.153409
479.224928	24791.472084
479.594591	27015.326692
479.964194	26871.530299
480.333739	27121.105223
480.703226	26714.783182
481.072653	26450.573788
481.442022	27098.099917
481.811333	28037.186221
482.180584	27895.829746
482.549777	26937.730731
482.918912	26623.321528
483.287988	26760.539215
483.657005	26367.296447
484.025964	26167.742372
484.394864	26033.680447
484.763706	25664.058006
485.132489	25151.216384
485.501213	25341.847617
485.869879	25254.779328
486.238487	25116.923935
486.607036	25224.479473
486.975527	24987.320911
487.343959	25274.618789
487.712333	25167.290103
488.080648	24829.394164
488.448905	25341.290570
488.817104	25124.309226
489.185244	25837.471178
489.553326	25773.209069
489.921350	26851.053132
490.289315	29251.101108
490.657222	30916.680695
491.025070	31436.975663
491.392861	31163.624136
491.760593	30290.264397
492.128267	29357.134217
492.495883	28277.450133
492.863440	27435.418645
493.230939	26565.945635
493.598380	26387.627421
493.965763	26024.596288
494.333088	25512.788103
494.700354	25489.182900
495.067563	25314.703524
495.434713	25076.229221
495.801805	25274.326403
496.168839	25023.549163
496.535815	24914.614870
496.902733	25136.655012
497.269593	24840.777089
497.636395	25003.142572
498.003139	24921.909419
498.369825	24650.342462
498.736453	24881.101279
499.103023	24737.153652
499.469535	24731.563012
499.835989	24962.334432
500.202385	24987.373843
500.568723	24535.938516
500.935003	24698.876170
501.301226	24411.719444
501.667390	25267.951863
502.033497	25439.764469
502.399546	25176.429715
502.765537	24695.503638
503.131470	25091.730769
503.497345	25241.349695
503.863163	24485.264838
504.228923	25007.598952
504.594625	25281.709172
504.960269	24852.573389
505.325856	25322.058568
505.691385	24706.100144
506.056856	25326.698950
506.422270	25320.712580
506.787625	24813.073428
507.152924	25260.175884
507.518164	25306.468799
507.883347	25109.760456
508.248472	24791.303206
508.613540	25561.460443
508.978550	25359.713466
509.343503	25403.372379
509.708398	25583.197899
510.073236	25762.196669
510.438016	25965.675282
510.802738	25625.213395
511.167403	25885.964557
511.532010	25645.801468
511.896561	26370.701747
512.261053	26354.522163
512.625488	26171.528279
512.989866	26058.147688
513.354186	25891.156946
513.718449	26025.949838
514.082655	26394.664872
514.446803	26099.580931
514.810894	26586.702586
515.174927	26103.397085
515.538904	26134.816076
515.902822	26636.302499
516.266684	26386.800672
516.630488	26289.279550
516.994235	26220.692132
517.357925	26575.685144
517.721558	26729.820944
518.085133	26857.263834
518.448651	26730.009987
518.812112	26518.095003
519.175516	26749.836845
519.538863	26891.281540
519.902152	26691.798041
520.265385	26931.111696
520.628560	26758.641220
520.991678	26713.903501
521.354739	26762.333866
521.717743	26885.774079
522.080690	26639.201162
522.443580	26978.065003
522.806413	26931.482221
523.169189	27051.013020
523.531908	27096.204444
523.894569	26747.172595
524.257174	26836.653076
524.619722	26955.072301
524.982213	26694.132095
525.344647	26687.366867
525.707025	26867.585596
526.069345	26796.197817
526.431608	26777.439683
526.793815	26934.610257
527.155964	26459.685674
527.518057	26627.727496
527.880093	26545.400413
528.242072	26760.380418
528.603995	26476.313920
528.965860	26272.487467
529.327669	26312.978015
529.689421	26299.815562
530.051117	26161.771126
530.412755	26318.735012
530.774337	26084.170124
531.135862	25999.705591
531.497331	26174.784864
531.858743	25794.354189
532.220098	26212.785082
532.581396	25919.904126
532.942638	25802.815766
533.303824	25917.103765
533.664953	25909.194194
534.026025	25575.525262
534.387040	25824.230588
534.747999	25866.924119
535.108902	26032.921754
535.469748	25527.198241
535.830537	25677.079307
536.191270	25828.835682
536.551947	25625.780525
536.912567	25251.951241
537.273131	25727.659724
537.633638	25380.472938
537.994089	25608.262516
538.354483	25081.106537
538.714821	25600.703305
539.075103	25652.528887
539.435328	25409.991414
539.795497	25031.204155
540.155609	25340.599932
540.515665	25667.463306
540.875665	24877.164138
541.235609	25232.187397
541.595496	25162.493446
541.955328	25518.159452
542.315102	25441.700272
542.674821	24930.819659
543.034483	24824.690768
543.394090	24998.403888
543.753640	24801.700585
544.113134	25440.077020
544.472571	25024.481777
544.831953	25329.516955
545.191278	24997.211655
545.550548	24870.416553
545.909761	25058.529730
546.268918	25306.562061
546.628019	25290.886593
546.987064	24959.226561
547.346053	24692.604975
547.704986	24783.350785
548.063863	24941.060763
548.422684	24987.351158
548.781449	24467.484688
549.140158	24882.028851
549.498811	24456.953718
549.857408	24228.039963
550.215949	24603.641213
550.574434	24318.276617
550.932864	24497.610624
551.291237	24713.155239
551.649555	24528.979203
552.007817	24606.106337
552.366022	24449.132368
552.724173	24451.287461
553.082267	24435.294400
553.440305	24920.376909
553.798288	24146.970647
554.156215	24616.629745
554.514086	24785.949500
554.871902	24162.625951
555.229661	24442.785555
555.587365	24281.163642
555.945014	24207.104051
556.302606	24387.605085
556.660143	24399.983638
557.017625	24627.548885
557.375050	24138.231807
557.732421	24514.652244
558.089735	24361.557443
558.446994	24399.441714
558.804197	24439.065183
559.161345	24304.219359
559.518437	24141.342199
559.875474	24286.666062
560.232455	24466.219359
560.589381	24270.088227
560.946251	24295.092350
561.303065	24578.027110
561.659825	24673.032695
562.016528	24284.926863
562.373177	24012.880996
562.729770	24381.850608
563.086307	24212.062026
563.442789	24393.548605
563.799216	24241.048660
564.155587	24221.267173
564.511904	24212.253590
564.868164	24172.340254
565.224370	24136.003617
565.580520	24078.821809
565.936615	24182.732593
566.292654	23898.182143
566.648638	24122.818479
567.004567	23948.470173
567.360441	23888.674527
567.716260	23615.355768
568.072023	23924.562501
568.427732	23710.840263
568.783385	23464.693324
569.138982	23733.404468
569.494525	23754.295010
569.850013	23518.305995
570.205445	23630.093582
570.560823	23454.053969
570.916145	23209.361402
571.271412	23410.352206
571.626625	23160.621006
571.981782	23256.465944
572.336884	23049.854253
572.691931	23197.451676
573.046923	22944.461371
573.401860	22815.130569
573.756743	22859.860727
574.111570	22735.240883
574.466342	22660.599039
574.821059	22741.930494
575.175722	22445.843364
575.530330	22400.982136
575.884882	22400.485583
576.239380	22326.799037
576.593823	22216.160833
576.948211	22194.020086
577.302544	22053.530690
577.656823	21899.906567
578.011047	22017.201614
578.365216	21879.147096
578.719330	21752.672108
579.073389	21632.117954
579.427394	21805.775622
579.781344	21539.070857
580.135239	21434.986154
580.489080	21366.250021
580.842866	21149.427474
581.196597	21386.008824
581.550273	21331.506389
581.903895	21202.687264
582.257463	21516.385665
582.610975	21062.896068
582.964434	21394.057026
583.317837	21040.220958
583.671186	21121.444029
584.024481	21118.505036
584.377721	20891.809389
584.730906	20995.004328
585.084037	20950.009510
585.437113	20889.424923
585.790135	21089.188206
586.143103	20539.878877
586.496016	20574.534289
586.848874	20803.500976
587.201679	20699.433917
587.554428	20427.599778
587.907124	20762.382805
588.259765	20500.333546
588.612352	20576.989331
588.964884	20138.635798
589.317362	20310.425718
589.669786	20370.455778
590.022155	20355.223932
590.374470	20628.797269
590.726731	20358.112513
591.078937	20169.830458
591.431090	20238.009543
591.783188	20015.021665
592.135232	19976.015737
592.487222	20074.058617
592.839157	20068.324305
593.191038	19952.972623
593.542866	19834.727318
593.894639	19538.395692
594.246358	19761.766698
594.598022	19645.583226
594.949633	19408.888450
595.301190	19405.377286
595.652692	19567.810825
596.004141	19775.045098
596.355535	19100.795812
596.706876	19137.843252
597.058162	19023.310757
597.409395	19272.318551
597.760573	19309.055960
598.111698	19081.576413
598.462768	19032.838537
598.813785	19009.470269
599.164748	18800.784144
599.515657	18861.588021
599.866511	18662.026384
600.217312	19012.648716
600.568060	18508.926542
600.918753	18823.365992
601.269392	18715.896154
601.619978	18523.808028
601.970510	18699.852682
602.320988	18664.947733
602.671412	18845.784003
603.021783	18794.122259
603.372100	18488.363675
603.722363	18650.870311
604.072572	18596.690510
604.422728	18741.958919
604.772830	18489.467688
605.122878	18461.156568
605.472872	18434.884595
605.822813	18423.476463
606.172701	18414.725020
606.522534	18569.599349
606.872314	18611.259444
607.222041	18452.364796
607.571714	18666.013937
607.921333	18488.119179
608.270899	18557.548471
608.620411	18704.044401
608.969870	18517.614970
609.319276	18506.842025
609.668627	18535.203556
610.017926	18671.246654
610.367171	18778.608108
610.716362	18842.618159
611.065500	18642.628024
611.414585	18793.620664
611.763616	18774.703734
612.112594	18710.136636
612.461518	18686.206278
612.810389	18881.815651
613.159207	18729.628257
613.507971	18663.659718
613.856682	18895.265449
614.205340	18814.962389
614.553945	18973.194126
614.902496	18716.249035
615.250994	18913.287574
615.599439	18874.100165
615.947830	18851.435137
616.296169	18940.179609
616.644454	18892.989368
616.992686	18868.532210
617.340864	19095.590821
617.688990	18833.793619
618.037063	19004.335854
618.385082	18866.301500
618.733048	19139.572367
619.080961	19042.172234
619.428821	19068.421522
619.776628	18925.683771
620.124382	18858.681796
620.472083	18924.100849
620.819731	18922.331404
621.167326	18605.111757
621.514868	18654.996495
621.862357	18445.508826
622.209793	18433.737732
622.557176	18263.687010
622.904506	18099.937730
623.251783	18048.459988
623.599007	17778.009646
623.946179	17713.472794
624.293297	17653.389802
624.640363	17370.528139
624.987376	17397.997386
625.334336	17198.665122
625.681243	17054.843523
626.028097	17074.320021
626.374899	16989.926065
626.721647	16849.812235
627.068343	16697.652568
627.414987	16622.224303
627.761577	16581.154023
628.108115	16603.803927
628.454600	16342.941860
628.801032	16441.304853
629.147412	16390.104374
629.493739	16384.067593
629.840014	16205.076384
630.186236	16297.516022
630.532405	16057.839404
630.878521	16263.773059
631.224585	16171.484656
631.570597	15983.361397
631.916556	16020.812129
632.262462	15975.114069
632.608316	15902.027421
632.954117	15849.652353
633.299866	15826.609239
633.645562	15750.888587
633.991206	15529.718045
634.336797	15393.317024
634.682336	15369.356420
635.027823	15228.025152
635.373257	15082.905456
635.718639	15015.442214
636.063968	14954.318224
636.409245	14695.298698
636.754470	14741.644546
637.099642	14582.475155
637.444762	14374.799781
637.789829	14407.403443
638.134845	14236.682248
638.479808	14267.193831
638.824719	14161.904292
639.169577	14031.471998
639.514383	14072.096136
639.859137	13912.473041
640.203839	14000.206762
640.548489	13856.032282
640.893086	13841.811187
641.237632	13720.639493
641.582125	13881.076735
641.926566	13689.122199
642.270955	13710.877299
642.615292	13655.845543
642.959576	13673.809694
643.303809	13685.532898
643.647990	13626.644659
643.992118	13691.801572
644.336195	13459.490080
644.680219	13705.453017
645.024192	13595.626439
645.368112	13840.147607
645.711981	13869.731618
646.055797	14066.692019
646.399562	14049.952868
646.743274	14309.955419
647.086935	14571.450151
647.430544	14537.140058
647.774101	14589.588223
648.117606	14722.160487
648.461059	14704.546695
648.804460	14666.859029
649.147810	14404.315737
649.491108	14319.299198
649.834354	14330.369571
650.177548	14006.823276
650.520690	13815.667764
650.863781	13741.104057
651.206820	13794.187407
651.549807	13617.830202
651.892742	13394.302919
652.235626	13337.426101
652.578458	13338.419208
652.921238	13053.316753
653.263967	13254.456271
653.606644	13080.165938
653.949269	13067.207652
654.291843	12857.170498
654.634365	13023.001774
654.976836	12868.266077
655.319255	12859.449099
655.661622	12826.474912
656.003938	12756.231474
656.346203	12667.683607
656.688416	12760.254315
657.030577	12709.462169
657.372687	12600.033843
657.714746	12598.849172
658.056753	12793.672124
658.398708	12586.737800
658.740612	12599.935540
659.082465	12711.362684
659.424266	12681.516533
659.766016	12714.699928
660.107715	12625.121145
660.449362	12702.424719
660.790958	12649.250628
661.132503	12590.720311
661.473996	12671.532528
661.815438	12682.481914
662.156829	12710.339330
662.498168	12674.048064
662.839456	12685.277234
663.180693	12686.257738
663.521879	12789.382102
663.863013	12762.013678
664.204097	12729.266342
664.545129	12869.826314
664.886110	12841.873116
665.227040	12930.264708
665.567918	12928.989296
665.908746	12949.295064
666.249522	12940.488168
666.590248	12996.843227
666.930922	13105.754835
667.271545	13075.792737
667.612118	13165.510152
667.952639	13062.978124
668.293109	13106.707613
668.633528	13041.873333
668.973896	13020.151002
669.314213	13072.805853
669.654480	12821.153974
669.994695	12908.998600
670.334859	12936.954319
670.674973	12872.747663
671.015035	12899.100295
671.355047	12856.787370
671.695008	12823.861074
672.034918	12842.422602
672.374777	12884.536401
672.714585	12792.575673
673.054342	12835.049915
673.394049	12785.233232
673.733705	12877.405689
674.073310	12781.674178
674.412864	12799.179584
674.752368	12642.714772
675.091820	12695.929192
675.431223	12662.559274
675.770574	12520.630629
676.109875	12435.551075
676.449125	12402.450859
676.788324	12354.184332
677.127473	12179.828464
677.466571	12177.814523
677.805619	12056.456306
678.144616	12006.256496
678.483562	11977.305149
678.822458	11845.882269
679.161303	11818.055099
679.500098	11805.802575
679.838842	11759.940678
680.177535	11802.399796
680.516179	11872.620549
680.854771	11807.377936
681.193314	12022.983044
681.531805	12202.465765
681.870247	12642.253506
682.208638	13043.516750
682.546978	13339.634127
682.885268	13345.617976
683.223508	13061.526272
683.561697	12917.566041
683.899836	12830.457423
684.237925	12618.423972
684.575963	12526.324612
684.913951	12438.646344
685.251889	12400.273081
685.589776	12506.200326
685.927614	12415.653641
686.265401	12404.197619
686.603137	12462.241464
686.940824	12611.315945
687.278460	12748.896595
687.616046	12768.685645
687.953582	12916.315835
688.291068	12866.279863
688.628504	13097.313423
688.965889	13102.354577
689.303224	13047.892471
689.640510	12926.357814
689.977745	12602.496447
690.314930	12393.618758
690.652065	12304.975108
690.989150	11994.994558
691.326185	11775.212853
691.663170	11572.926473
692.000105	11340.425937
692.336990	11209.078674
692.673825	10952.436052
693.010610	10839.327683
693.347345	10640.600357
693.684030	10444.960738
694.020665	10379.821469
694.357251	10183.171098
694.693786	10102.941135
695.030272	9957.728178
695.366707	9846.689203
695.703093	9788.100913
696.039429	9765.466132
696.375716	9665.802520
696.711952	9546.790960
697.048139	9600.590154
697.384276	9556.351509
697.720363	9583.724974
698.056400	9509.683027
698.392388	9451.803019
698.728326	9422.211446
699.064214	9368.467705
699.400053	9389.759018
699.735842	9215.176299
700.071581	9178.262450
700.407270	9098.710521
700.742910	9022.674798
701.078501	8926.771887
701.414042	8791.031258
701.749533	8742.137107
702.084974	8600.190817
702.420366	8724.808141
702.755709	8597.546732
703.091002	8470.207186
703.426246	8494.966813
703.761440	8448.439484
704.096584	8411.054287
704.431679	8340.115170
704.766725	8326.546904
705.101721	8279.699462
705.436668	8331.313315
705.771565	8227.707522
706.106413	8306.011764
706.441212	8336.533430
706.775961	8301.588152
707.110661	8360.073098
707.445311	8475.064338
707.779913	8377.119760
708.114465	8497.903285
708.448967	8534.464254
708.783421	8708.505049
709.117825	8872.619812
709.452180	8903.988392
709.786485	8990.461825
710.120742	9278.162995
710.454949	9283.670456
710.789107	9397.350996
711.123216	9628.800451
711.457275	9796.685998
711.791286	9931.988046
712.125247	9952.883629
712.459159	9938.657493
712.793023	10146.738680
713.126837	9727.962468
713.460602	9891.946161
713.794318	9723.768228
714.127985	9745.152802
714.461602	9394.417044
714.795171	9355.756435
715.128691	9104.293599
715.462162	8869.300213
715.795584	8796.390005
716.128957	8629.416907
716.462281	8462.774005
716.795556	8508.134307
717.128782	8297.421638
717.461960	8046.445273
717.795088	8111.637475
718.128167	8017.609873
718.461198	7863.181687
718.794180	7811.058677
719.127113	7809.889129
719.459997	7619.101621
719.792833	7403.128508
720.125619	7482.249417
720.458357	7334.828435
720.791046	7330.069585
721.123686	7309.514281
721.456278	7145.815412
721.788821	7170.595204
722.121315	7074.762869
722.453761	7151.479149
722.786158	7085.926505
723.118506	7090.226609
723.450805	7048.490896
723.783056	7107.479958
724.115259	7031.035901
724.447412	7036.402209
724.779518	7085.820640
725.111574	7085.709735
725.443582	7158.350241
725.775542	7132.277394
726.107453	7334.238620
726.439315	7236.606593
726.771129	7322.964079
727.102895	7501.105853
727.434612	7603.819363
727.766281	7649.217474
728.097901	7716.088379
728.429473	7738.972697
728.760996	7724.691108
729.092471	7694.618105
729.423897	7630.739124
729.755276	7623.855429
730.086606	7535.942747
730.417887	7647.322000
730.749120	7868.890794
731.080305	8056.446922
731.411442	8157.204464
731.742530	8135.640929
732.073570	8238.603976
732.404562	8328.729724
732.735506	8195.088736
733.066401	8319.544742
733.397249	8231.755568
733.728048	7992.832602
734.058798	7655.042527
734.389501	7421.546363
734.720156	7260.814214
735.050762	7037.072683
735.381320	6957.641742
735.711831	6882.823457
736.042293	6780.929135
736.372707	6795.878677
736.703073	6670.238000
737.033391	6705.896601
737.363661	6716.944290
737.693883	6757.623881
738.024056	6837.135480
738.354182	6872.030347
738.684260	6900.638895
739.014290	7038.395986
739.344272	7137.547920
739.674207	7169.251737
740.004093	7248.652430
740.333931	7258.686847
740.663722	7262.031652
740.993464	7336.965884
741.323159	7310.048643
741.652806	7062.631333
741.982405	7119.366999
742.311956	7146.621997
742.641460	6957.440096
742.970915	6773.717765
743.300323	6761.863491
743.629683	6723.223047
743.958996	6586.963179
744.288260	6488.706050
744.617477	6444.661488
744.946647	6430.911741
745.275768	6277.882475
745.604842	6232.413788
745.933869	6211.591302
746.262847	6169.608573
746.591778	6155.909237
746.920662	6113.911385
747.249498	6117.304081
747.578286	6164.438870
747.907027	6236.807154
748.235720	6298.057173
748.564365	6275.215705
748.892963	6324.876111
749.221514	6442.329955
749.550017	6248.033803
749.878473	6150.583258
750.206881	6219.374844
750.535242	6167.849210
750.863555	6098.147697
751.191821	6107.635148
751.520039	6097.106698
751.848210	6006.890209
752.176334	6045.495365
752.504411	6079.659265
752.832440	6001.352502
753.160421	5937.294560
753.488356	5985.765254
753.816243	6010.839953
754.144082	5859.607858
754.471875	5843.108162
754.799620	5884.261621
755.127318	5895.939454
755.454969	5853.941601
755.782572	5822.409184
756.110129	5862.987952
756.437638	5832.055432
756.765100	5781.628770
757.092515	5798.531759
757.419882	5850.385067
757.747203	5813.821578
758.074477	5875.704263
758.401703	5854.909503
758.728882	5822.618392
759.056014	5897.109002
759.383099	6001.591956
759.710138	6011.732237
760.037129	6002.489282
760.364073	6005.776114
760.690970	6081.897537
761.017820	6058.468775
761.344623	6028.365524
761.671379	6141.892309
761.998088	6266.002996
762.324751	6534.948554
762.651366	7187.994747
762.977935	8583.978467
763.304456	10249.207693
763.630931	11079.026987
763.957359	10596.583522
764.283740	9630.257345
764.610074	8737.000171
764.936362	7740.379179
765.262602	7151.090980
765.588796	6630.370034
765.914943	6303.388193
766.241044	6124.694413
766.567097	5905.978912
766.893104	5656.250233
767.219064	5483.988965
767.544978	5420.283903
767.870845	5330.684956
768.196665	5230.154266
768.522438	5156.555940
768.848165	5122.981855
769.173846	5050.066606
769.499479	5004.557590
769.825066	4954.070434
770.150607	4897.211260
770.476101	4878.271645
770.801548	4867.745716
771.126949	4779.079381
771.452303	4723.220876
771.777611	4695.857493
772.102872	4711.328794
772.428087	4672.002753
772.753256	4631.118995
773.078378	4577.392898
773.403453	4509.062578
773.728482	4496.878109
774.053465	4454.207263
774.378401	4442.279893
774.703291	4435.917957
775.028135	4359.703272
775.352932	4316.112415
775.677683	4299.973161
776.002388	4313.526303
776.327046	4323.265812
776.651658	4249.478443
776.976224	4191.414433
777.300743	4192.215977
777.625216	4213.819842
777.949643	4202.260476
778.274024	4167.232018
778.598359	4126.280205
778.922647	4160.348323
779.246889	4140.609685
779.571086	4129.395638
779.895236	4119.434318
780.219339	4109.188173
780.543397	4107.199438
780.867409	4159.667767
781.191374	4173.793080
781.515294	4099.912450
781.839167	4098.717696
782.162995	4129.655258
782.486776	4112.696816
782.810511	4122.937920
783.134201	4108.444603
783.457844	4057.730595
783.781441	4010.406763
784.104993	4017.527393
784.428498	4032.998694
784.751958	4025.444525
785.075372	4004.271679
785.398739	3972.625836
785.722061	3985.803412
786.045337	4025.119371
786.368568	4053.909400
786.691752	3963.098055
787.014891	4032.454250
787.337983	4163.660361
787.661030	4329.292512
787.984031	4489.565916
788.306987	4651.036594
788.629897	4737.421806
788.952760	4694.955126
789.275579	4624.585660
789.598351	4549.943815
789.921078	4393.226945
790.243759	4198.204868
790.566395	4194.439126
790.888984	4181.553936
791.211529	4077.123914
791.534027	4013.091178
791.856480	3991.918332
792.178888	3940.460754
792.501249	3894.498033
792.823566	3907.239550
793.145836	3925.266716
793.468062	3869.574569
793.790241	3833.056450
794.112375	3866.761605
794.434464	3935.996812
794.756507	3949.839820
795.078505	3926.201850
795.400457	3973.208089
795.722364	4120.999596
796.044226	4221.197570
796.366042	4295.909991
796.687812	4263.966719
797.009538	4268.027369
797.331218	4232.865321
797.652852	4208.776167
797.974442	4179.756765
798.295986	4181.569060
798.617484	4096.555041
798.938938	4014.858102
799.260346	4062.189496
799.581709	4046.045200
799.903026	3968.797079
800.224299	3937.060495
800.545526	3928.672015
800.866708	3888.441087
801.187845	3837.691791
801.508936	3866.595247
801.829983	3851.592773
802.150984	3783.567443
802.471940	3778.211217
802.792851	3778.644756
803.113717	3782.067700
803.434538	3784.910911
803.755314	3721.047053
804.076045	3701.358827
804.396731	3726.461252
804.717372	3748.425560
805.037967	3729.188517
805.358518	3718.745766
805.679024	3749.791712
805.999485	3766.520781
806.319901	3772.320629
806.640272	3779.864716
806.960598	3794.179072
807.280879	3770.634363
807.601115	3787.796971
807.921306	3804.614260
808.241453	3842.601875
808.561554	3808.712718
808.881611	3746.048656
809.201623	3791.071201
809.521590	3799.086635
809.841513	3770.367182
810.161390	3796.515647
810.481223	3771.377933
810.801011	3722.511508
811.120755	3721.626786
811.440453	3753.186929
811.760107	3748.667535
812.079716	3702.558621
812.399281	3680.417874
812.718801	3705.535423
813.038276	3676.415198
813.357707	3671.590813
813.677093	3688.337526
813.996434	3629.310656
814.315731	3648.124242
814.634983	3654.249244
814.954191	3669.803724
815.273354	3691.153011
815.592473	3683.994572
815.911547	3699.760781
816.230577	3746.782143
816.549562	3797.060091
816.868502	3836.544929
817.187399	3859.099051
817.506250	3856.223073
817.825058	3836.923015
818.143821	3936.246349
818.462539	4031.907284
818.781213	4076.511414
819.099843	4144.985406
819.418429	4419.710647
819.736970	4659.684693
820.055466	4920.624899
820.373919	5294.139111
820.692327	5709.900712
821.010691	6223.148147
821.329011	7752.971982
821.647286	10709.109638
821.965517	15497.094218
822.283704	19476.419747
822.601847	21367.769929
822.919945	19426.512324
823.237999	16733.550624
823.556010	14212.709041
823.873976	12030.993438
824.191897	9914.502804
824.509775	8599.462371
824.827609	7475.653067
825.145398	6954.435568
825.463144	6834.307393
825.780845	6942.336799
826.098502	7185.796803
826.416116	8167.130496
826.733685	9547.000168
827.051210	10628.287339
827.368692	10529.684890
827.686129	9177.755814
828.003522	7677.460538
828.320872	6645.153218
828.638177	5920.963742
828.955439	5350.133727
829.272656	4845.085729
829.589830	4582.270214
829.906960	4403.130292
830.224046	4204.839026
830.541088	4086.303855
830.858086	4035.690670
831.175041	3954.265953
831.491952	3950.109522
831.808819	3958.089669
832.125642	4046.118297
832.442421	4203.651834
832.759157	4506.421014
833.075849	5105.224391
833.392497	6013.418503
833.709101	6802.729605
834.025662	7090.173677
834.342179	6653.670248
834.658653	5968.746318
834.975083	5302.555317
835.291469	4717.194177
835.607811	4325.602387
835.924110	4177.445396
836.240366	3970.299343
836.556578	3767.193775
836.872746	3660.449863
837.188871	3612.884056
837.504952	3546.600445
837.820990	3463.852425
838.136984	3424.710386
838.452935	3447.622430
838.768842	3437.217489
839.084706	3466.093218
839.400526	3642.422697
839.716303	4016.569574
840.032037	4577.382816
840.347727	4795.264006
840.663373	4467.352071
840.978977	4077.935540
841.294537	3767.581944
841.610054	3544.203376
841.925527	3442.220834
842.240957	3367.705018
842.556344	3312.940443
842.871687	3250.944333
843.186987	3196.164635
843.502244	3160.828667
843.817458	3129.548308
844.132629	3100.392794
844.447756	3109.305554
844.762840	3087.865527
845.077881	3056.570044
845.392879	3043.344577
845.707833	3037.368289
846.022745	3036.831406
846.337613	3036.665048
846.652438	3024.523429
846.967221	3021.019827
847.281960	3007.537261
847.596656	3000.285561
847.911309	3007.053310
848.225919	3000.552743
848.540485	2994.049654
848.855009	2992.549911
849.169490	2982.192860
849.483928	2973.484267
849.798323	2974.033753
850.112675	2972.032415
850.426984	2984.070690
850.741251	2974.890749
851.055474	2966.905561
851.369654	2963.464974
851.683792	2968.894296
851.997887	2980.713282
852.311938	2978.885863
852.625947	2963.976651
852.939914	2967.402115
853.253837	2973.015440
853.567718	2957.408027
853.881555	2958.801906
854.195350	2978.086840
854.509103	2968.322125
854.822812	2960.833491
855.136479	2958.196968
855.450103	2958.587657
855.763685	2952.981894
856.077224	2953.712862
856.390720	2961.549335
856.704173	2970.817497
857.017584	2964.483287
857.330953	2963.775005
857.644278	2970.807414
857.957561	2980.466265
858.270802	2985.358705
858.584000	2981.325782
858.897155	2967.248360
859.210268	2967.273565
859.523339	2967.301292
859.836367	2965.778863
860.149352	2960.531022
860.462295	2956.344344
860.775195	2962.686115
861.088054	2961.808955
861.400869	2944.517797
861.713642	2946.826645
862.026373	2960.838533
862.339062	2963.336424
862.651708	2964.195941
862.964312	2970.809935
863.276873	2965.350365
863.589392	2977.779330
863.901869	2991.589571
864.214303	3009.531038
864.526696	3024.783048
864.839045	3018.353057
865.151353	3023.253058
865.463619	3020.505629
865.775842	3023.245497
866.088023	3044.541851
866.400162	3044.241902
866.712258	3012.349043
867.024313	3001.807990
867.336325	3016.271060
867.648296	3038.245450
867.960224	3031.414686
868.272110	3015.779548
868.583954	3015.860206
868.895755	3035.578679
869.207515	3021.954961
869.519233	3032.165818
869.830909	3040.067827
870.142542	3045.146789
870.454134	3048.438663
870.765684	3049.807336
871.077191	3050.462686
871.388657	3061.331414
871.700081	3075.345822
872.011463	3083.739343
872.322803	3084.049374
872.634101	3082.663056
872.945357	3103.611571
873.256571	3130.201137
873.567744	3118.364508
873.878874	3114.828138
874.189963	3138.554329
874.501010	3135.128865
874.812015	3124.713841
875.122979	3129.742392
875.433900	3126.077473
875.744780	3132.774646
876.055618	3141.374855
876.366415	3134.299595
876.677169	3146.393323
876.987882	3138.377889
877.298554	3142.246974
877.609183	3165.774039
877.919771	3190.921835
878.230317	3216.919066
878.540822	3271.214813
878.851285	3307.571615
879.161707	3360.420551
879.472087	3480.783140
879.782425	3736.110021
880.092722	4202.265517
880.402977	4749.437397
880.713191	5423.837917
881.023363	6666.699110
881.333494	7982.750294
881.643583	8487.387438
881.953631	8150.804720
882.263637	7441.496729
882.573602	6813.260575
882.883526	6227.697789
883.193408	5657.651673
883.503248	5210.221543
883.813048	4890.244385
884.122806	4552.189649
884.432522	4224.988518
884.742197	3982.607320
885.051831	3794.015234
885.361424	3668.301460
885.670975	3589.793051
885.980485	3496.004904
886.289954	3416.936927
886.599382	3368.730893
886.908768	3333.163032
887.218113	3288.478244
887.527417	3225.990622
887.836680	3178.896163
888.145901	3176.418436
888.455082	3157.279695
888.764221	3107.488218
889.073319	3077.700040
889.382376	3076.424628
889.691392	3083.298242
890.000366	3080.364290
890.309300	3066.339800
890.618193	3079.232551
890.927044	3089.942482
891.235855	3091.805189
891.544625	3082.345464
891.853353	3094.406424
892.162041	3115.576750
892.470687	3155.926145
892.779293	3208.001264
893.087858	3256.713934
893.396381	3340.366841
893.704864	3474.476657
894.013306	3728.507961
894.321707	4046.816497
894.630068	4239.073502
894.938387	4220.413671
895.246665	4181.470757
895.554903	4049.014440
895.863100	3839.113397
896.171256	3664.797858
896.479371	3520.265457
896.787446	3393.903895
897.095480	3288.790796
897.403473	3226.194789
897.711425	3193.742361
898.019336	3183.682738
898.327207	3145.415339
898.635038	3106.966459
898.942827	3096.460694
899.250576	3084.344281
899.558284	3054.170455
899.865952	3031.482742
900.173579	3010.501460
900.481165	3001.765140
900.788711	2986.573623
901.096216	2965.657876
901.403681	2954.277471
901.711105	2962.539922
902.018489	2959.479942
902.325832	2960.364664
902.633135	2972.120635
902.940397	3007.622961
903.247619	3104.496294
903.554800	3311.181081
903.861941	3693.726520
904.169041	4145.875170
904.476101	4437.533646
904.783121	4355.662787
905.090100	4088.527004
905.397039	3792.003814
905.703938	3542.872512
906.010796	3355.389479
906.317614	3240.005030
906.624391	3142.390647
906.931129	3066.937177
907.237826	3005.235974
907.544483	2960.833491
907.851099	2932.038421
908.157675	2907.581263
908.464211	2885.004455
908.770707	2870.783360
909.077163	2855.649816
909.383578	2841.408557
909.689954	2832.473112
909.996289	2834.454285
910.302584	2834.320694
910.608839	2833.675427
910.915054	2824.631597
911.221229	2817.831080
911.527363	2821.435505
911.833458	2832.402535
912.139513	2835.240705
912.445527	2837.105932
912.751502	2846.364011
913.057436	2856.567306
913.363331	2872.527599
913.669186	2892.510733
913.975000	2934.458174
914.280775	2998.896723
914.586510	3072.868094
914.892205	3154.358346
915.197859	3295.951755
915.503475	3507.559229
915.809050	3741.516658
916.114585	3884.718195
916.420081	3887.382445
916.725536	3816.362669
917.030952	3692.347764
917.336328	3559.868762
917.641665	3421.781476
917.946961	3316.514622
918.252218	3245.540217
918.557435	3164.370078
918.862612	3099.455140
919.167750	3049.361194
919.472848	3008.774864
919.777906	2981.114053
920.082925	2952.545834
920.387904	2919.261616
920.692843	2906.094122
920.997743	2895.454767
921.302603	2875.983310
921.607423	2867.614995
921.912204	2853.777028
922.216946	2841.811849
922.521647	2832.523523
922.826310	2824.790393
923.130932	2817.851245
923.435516	2807.151396
923.740059	2798.606640
924.044564	2791.387708
924.349028	2786.296142
924.653454	2779.525873
924.957840	2772.243926
925.262186	2768.329470
925.566493	2763.915940
925.870761	2758.274889
926.174989	2753.276585
926.479178	2750.287180
926.783328	2743.481623
927.087438	2743.932806
927.391509	2742.440624
927.695541	2739.161354
927.999533	2736.091291
928.303486	2732.754047
928.607400	2730.609036
928.911275	2731.380333
929.215110	2727.838922
929.518906	2728.418655
929.822663	2729.542832
930.126381	2728.398490
930.430060	2729.210116
930.733699	2731.319839
931.037299	2731.332442
931.340861	2734.488204
931.644383	2733.497617
931.947866	2731.211454
932.251309	2727.080229
932.554714	2730.873697
932.858080	2729.840260
933.161407	2726.208109
933.464694	2723.944631
933.767943	2718.333827
934.071153	2725.930846
934.374323	2724.985629
934.677455	2720.819116
934.980548	2721.015721
935.283602	2724.070660
935.586617	2721.842470
935.889593	2723.553942
936.192530	2719.463045
936.495428	2724.166442
936.798287	2721.991184
937.101108	2725.716597
937.403890	2732.060889
937.706632	2738.062382
938.009336	2743.108577
938.312002	2754.153745
938.614628	2760.571134
938.917216	2771.376847
939.219765	2769.133534
939.522275	2767.331322
939.824747	2764.780498
940.127179	2760.639190
940.429573	2761.385281
940.731929	2755.978643
941.034246	2750.708117
941.336524	2748.311048
941.638763	2747.832138
941.940964	2744.537744
942.243126	2742.024729
942.545250	2743.327867
942.847335	2738.979872
943.149381	2736.892835
943.451389	2730.147771
943.753359	2728.153994
944.055290	2727.743140
944.357182	2727.934704
944.659036	2724.597460
944.960851	2723.420351
945.262628	2719.732747
945.564367	2724.680639
945.866067	2727.130640
946.167729	2727.279354
946.469352	2724.741133
946.770937	2723.639641
947.072484	2723.637121
947.373992	2723.443036
947.675462	2722.923797
947.976893	2716.932386
948.278286	2715.372149
948.579641	2715.296532
948.880958	2713.678321
949.182236	2715.772921
949.483476	2714.739484
949.784678	2715.029350
950.085841	2714.709237
950.386967	2715.919114
950.688054	2715.977087
950.989103	2715.059597
951.290114	2716.559341
951.591087	2719.710062
951.892021	2724.380691
952.192917	2727.947307
952.493776	2729.961248
952.794596	2726.467728
953.095378	2725.419168
953.396122	2724.695763
953.696828	2725.169631
953.997496	2722.820454
954.298126	2720.025134
954.598718	2720.372973
954.899272	2716.450956
955.199788	2713.350646
955.500266	2710.646067
955.800706	2710.847713
956.101108	2707.843186
956.401472	2702.865046
956.701798	2701.892103
957.002087	2699.553008
957.302337	2698.433872
957.602550	2699.888245
957.902724	2695.620908
958.202861	2696.722400
958.502960	2692.863397
958.803022	2693.145702
959.103045	2694.882379
959.403031	2692.223170
959.702979	2690.184024
960.002889	2691.555217
960.302762	2692.366843
960.602596	2688.792665
960.902393	2690.032789
961.202153	2689.528674
961.501875	2688.268385
961.801559	2689.097655
962.101205	2688.258303
962.400814	2688.762418
962.700385	2690.103365
962.999918	2685.420133
963.299414	2684.003569
963.598873	2686.559434
963.898293	2682.629855
964.197677	2686.831656
964.497022	2685.417613
964.796331	2685.767973
965.095601	2687.905422
965.394835	2686.410720
965.694030	2685.473065
965.993189	2685.977181
966.292309	2686.554393
966.591393	2684.192612
966.890439	2683.897705
967.189447	2687.252593
967.488419	2685.740247
967.787353	2685.336954
968.086249	2686.924918
968.385108	2686.846780
968.683930	2686.506502
968.982714	2687.514733
969.281462	2684.870647
969.580172	2684.767304
969.878844	2685.130267
970.177480	2685.175637
970.476078	2684.749660
970.774639	2684.243024
971.073162	2686.856862
971.371649	2685.722602
971.670098	2686.178827
971.968510	2684.227900
972.266885	2686.559434
972.565223	2687.033302
972.863524	2687.149249
973.161788	2686.970288
973.460014	2685.460462
973.758204	2685.546162
974.056356	2685.926769
974.354471	2685.410051
974.652550	2685.805782
974.950591	2687.265196
975.248595	2684.782427
975.546563	2685.599094
975.844493	2682.256809
976.142386	2685.347037
976.440243	2686.733354
976.738062	2685.364681
977.035845	2682.879392
977.333590	2683.900225
977.631299	2682.778569
977.928971	2681.409895
978.226606	2681.586336
978.524204	2680.545337
978.821765	2678.924607
979.119290	2682.728157
979.416777	2684.865606
979.714228	2681.730009
980.011642	2684.071625
980.309020	2683.733867
980.606360	2683.018023
980.903664	2684.611028
981.200931	2685.334434
981.498162	2684.502643
981.795356	2684.295956
982.092513	2687.141687
982.389633	2689.301822
982.686717	2692.162677
982.983764	2696.462781
983.280775	2701.123327
983.577749	2699.852957
983.874686	2700.415045
984.171587	2697.249201
984.468451	2694.816844
984.765279	2692.434899
985.062070	2691.935825
985.358824	2689.863910
985.655543	2688.999352
985.952224	2686.652695
986.248869	2686.377952
986.545478	2685.959537
986.842050	2682.521470
987.138586	2683.534742
987.435086	2682.811336
987.731549	2679.743794
988.027975	2684.079186
988.324366	2679.587518
988.620719	2679.723629
988.917037	2680.119360
989.213318	2681.730009
989.509563	2680.804957
989.805772	2682.574402
990.101944	2680.252951
990.398080	2680.310924
990.694180	2680.777231
990.990244	2679.418640
991.286271	2680.830163
991.582262	2679.398475
991.878217	2677.344205
992.174136	2681.281346
992.470019	2680.855368
992.765865	2678.579287
993.061676	2678.365038
993.357450	2676.709019
993.653188	2674.937054
993.948890	2680.752025
994.244556	2680.865451
994.540186	2681.152797
994.835780	2681.150276
995.131337	2681.561130
995.426859	2680.918383
995.722345	2681.157838
996.017795	2683.973322
996.313208	2680.799916
996.608586	2685.301666
996.903928	2685.160514
997.199234	2682.440811
997.494504	2685.662109
997.789738	2686.254444
998.084936	2683.585153
998.380099	2681.946778
998.675225	2682.445852
998.970316	2681.495595
999.265371	2680.300842
999.560390	2681.956861
999.855373	2681.629186
1000.150320	2680.207580
1000.445232	2680.550379
1000.740108	2680.691531
1001.034948	2679.116170
1001.329752	2676.766993
1001.624521	2678.158351
1001.919254	2677.611386
1002.213951	2679.153979
1002.508613	2681.619103
1002.803239	2676.819925
1003.097829	2676.187260
1003.392384	2678.125584
1003.686903	2678.493588
1003.981386	2676.940912
1004.275834	2677.205573
1004.570246	2676.514935
1004.864623	2678.738084
1005.158964	2676.285562
1005.453270	2677.555933
1005.747540	2678.362518
1006.041775	2677.376972
1006.335974	2677.913855
1006.630138	2677.666839
1006.924266	2679.030471
1007.218359	2680.144566
1007.512416	2675.841941
1007.806438	2672.388751
1008.100425	2674.904286
1008.394376	2672.232475
1008.688292	2677.666839
1008.982172	2674.949657
1009.276017	2676.671211
1009.569827	2678.402847
1009.863602	2676.076355
1010.157341	2674.926972
1010.451045	2675.846982
1010.744714	2677.192970
1011.038347	2675.216838
1011.331945	2676.290604
1011.625508	2677.455110
1011.919036	2677.339164
1012.212528	2677.949143
1012.505986	2676.734225
1012.799408	2676.681293
1013.092795	2677.649195
1013.386147	2677.669359
1013.679464	2677.636592
1013.972745	2674.211128
1014.265992	2676.688855
1014.559204	2675.327743
1014.852380	2677.210614
1015.145521	2676.550223
1015.438628	2677.145079
1015.731699	2677.802950
1016.024736	2675.824297
1016.317737	2678.639781
1016.610703	2678.914524
1016.903635	2677.145079
1017.196531	2677.550892
1017.489393	2675.252126
1017.782219	2676.933351
1018.075011	2675.027795
1018.367768	2677.558454
1018.660490	2675.526869
1018.953177	2675.526869
1019.245829	2675.526869
