Dividing Wavelength (nm)	Counts (n)	Blue Motor Position (mm): 36.700000	Red Motor Position (mm): 0.000000	
326.493990	2235.751731
326.888308	2235.751731
327.282561	2235.751731
327.676750	2195.772860
328.070874	2194.595751
328.464933	2194.356296
328.858929	2196.690350
329.252859	2204.572194
329.646726	2213.910932
330.040528	2224.404093
330.434265	2235.892883
330.827938	2254.499782
331.221547	2271.405291
331.615091	2287.506737
332.008571	2305.949798
332.401986	2328.539208
332.795338	2344.159224
333.188625	2363.920547
333.581847	2384.140615
333.975006	2408.204563
334.368100	2420.827612
334.761129	2438.706064
335.154095	2458.152315
335.546996	2483.758856
335.939833	2523.082377
336.332606	2538.430169
336.725315	2550.080276
337.117960	2566.637946
337.510540	2571.744635
337.903056	2585.970771
338.295508	2595.932091
338.687896	2603.995416
339.080220	2612.910697
339.472480	2616.981429
339.864676	2625.143057
340.256807	2626.277316
340.648875	2630.968110
341.040879	2633.828965
341.432818	2636.664614
341.824694	2640.720222
342.216506	2642.338433
342.608253	2642.051087
342.999937	2641.904893
343.391557	2640.148051
343.783113	2642.648463
344.174605	2640.397588
344.566033	2640.453041
344.957397	2637.982876
345.348697	2638.842392
345.739934	2635.515231
346.131106	2631.197482
346.522215	2632.407359
346.913260	2631.472225
347.304241	2627.885444
347.695159	2625.846298
348.086012	2628.359313
348.476802	2624.570886
348.867528	2617.072169
349.258191	2618.166100
349.648789	2615.839607
350.039324	2614.516304
350.429796	2616.855400
350.820203	2616.000924
351.210548	2616.689042
351.600828	2613.066973
351.991045	2610.579163
352.381198	2611.763834
352.771288	2610.001951
353.161314	2608.219903
353.551276	2607.675459
353.941175	2609.707044
354.331010	2608.628237
354.720782	2609.583535
355.110490	2608.673607
355.500135	2606.205962
355.889717	2606.841148
356.279235	2605.911055
356.668689	2608.199739
357.058080	2610.367435
357.447408	2610.422887
357.836672	2608.781992
358.225873	2608.454317
358.615010	2607.451127
359.004084	2612.562857
359.393095	2611.211828
359.782043	2610.057404
360.170927	2611.743670
360.559748	2611.804164
360.948505	2614.150821
361.337199	2615.416150
361.725830	2613.999586
362.114398	2614.972529
362.502903	2616.447066
362.891344	2616.489916
363.279722	2613.135028
363.668037	2617.906480
364.056289	2615.433794
364.444478	2619.504526
364.832603	2617.382200
365.220665	2618.992849
365.608665	2619.602829
365.996601	2620.739609
366.384474	2619.260030
366.772284	2619.199536
367.160031	2620.727006
367.547715	2622.125926
367.935336	2618.239197
368.322893	2618.914711
368.710388	2618.720627
369.097820	2620.227932
369.485189	2618.924793
369.872495	2621.004269
370.259738	2624.165073
370.646918	2625.362347
371.034035	2624.936369
371.421090	2625.216153
371.808081	2626.463839
372.195010	2627.698922
372.581875	2625.783283
372.968678	2625.984929
373.355418	2626.698253
373.742096	2628.543315
374.128710	2626.398304
374.515262	2629.934673
374.901751	2628.356792
375.288177	2631.603295
375.674540	2627.527522
376.060841	2631.056330
376.447079	2629.957359
376.833254	2632.296454
377.219367	2629.755712
377.605417	2631.540281
377.991404	2631.391567
378.377329	2636.447844
378.763191	2633.297123
379.148991	2634.905251
379.534727	2634.703605
379.920402	2633.748306
380.306013	2632.619088
380.691563	2636.115128
381.077049	2634.640591
381.462474	2635.873153
381.847835	2635.961373
382.233134	2635.668986
382.618371	2637.022536
383.003545	2638.963380
383.388657	2641.791467
383.773706	2640.105201
384.158693	2642.656025
384.543618	2641.163844
384.928480	2643.064359
385.313280	2644.816160
385.698017	2643.349184
386.082692	2643.828093
386.467305	2643.639050
386.851856	2645.065697
387.236344	2644.712816
387.620770	2643.202990
388.005133	2645.138793
388.389435	2644.667446
388.773674	2645.751294
389.157851	2649.837149
389.541965	2649.872437
389.926018	2648.448311
390.310008	2650.792447
390.693936	2651.243631
391.077802	2651.732623
391.461606	2652.577016
391.845348	2653.282777
392.229027	2655.808396
392.612645	2654.260761
392.996200	2655.374856
393.379694	2655.392500
393.763125	2657.240083
394.146494	2657.129178
394.529801	2659.261586
394.913047	2662.931546
395.296230	2660.511792
395.679351	2661.545229
396.062410	2666.132679
396.445408	2666.883811
396.828343	2666.624191
397.211217	2671.103256
397.594028	2672.844975
397.976778	2676.769513
398.359466	2685.624300
398.742092	2692.134950
399.124656	2700.193235
399.507158	2712.339895
399.889598	2728.237173
400.271977	2748.116964
400.654294	2768.548760
401.036549	2793.343675
401.418742	2816.966522
401.800874	2862.460415
402.182944	2902.086405
402.564952	2952.140022
402.946898	3005.533403
403.328783	3041.126469
403.710606	3090.358378
404.092367	3202.398022
404.474067	3270.811521
404.855705	3320.507215
405.237282	3370.144937
405.618797	3497.955831
406.000250	3569.578024
406.381642	3697.603167
406.762972	3784.603400
407.144240	3875.984396
407.525447	3954.248309
407.906593	4049.768092
408.287677	4197.967933
408.668700	4246.942743
409.049661	4386.449114
409.430560	4487.690607
409.811399	4500.064119
410.192176	4721.585022
410.572891	4808.812107
410.953545	5015.070916
411.334138	4951.310402
411.714669	5135.988032
412.095139	5100.311787
412.475547	5330.195964
412.855894	5455.501404
413.236180	5657.838196
413.616405	5526.821128
413.996568	5758.318475
414.376670	5845.472463
414.756711	5843.105641
415.136691	5986.191231
415.516609	6206.134253
415.896466	6280.531602
416.276262	6496.444221
416.655997	6537.065838
417.035670	6767.870026
417.415283	7102.711026
417.794834	7194.858277
418.174324	7146.420351
418.553753	7127.853781
418.933121	7465.560677
419.312428	7603.620237
419.691674	7451.339582
420.070859	7930.944877
420.449983	7675.509612
420.829045	8049.923669
421.208047	7882.171713
421.586988	8186.612035
421.965867	8233.872853
422.344686	8377.959112
422.723444	8414.898167
423.102141	7849.820109
423.480777	8591.126823
423.859352	8139.757031
424.237866	8767.599975
424.616319	8652.084455
424.994712	9060.707783
425.373044	8655.373808
425.751314	9102.909803
426.129524	8987.578285
426.507673	9124.054922
426.885762	9287.441239
427.263789	9206.011481
427.641756	9126.401579
428.019662	9235.560204
428.397508	9473.119538
428.775292	9179.570629
429.153016	9558.967867
429.530679	9388.861693
429.908282	9444.551319
430.285824	9158.574223
430.663305	9843.377165
431.040726	9289.966857
431.418086	9280.575187
431.795385	9600.733827
432.172624	9688.649030
432.549802	9607.741031
432.926920	9694.471562
433.303977	9574.872708
433.680974	9778.810066
434.057910	9863.854332
434.434786	9926.241131
434.811601	9773.491649
435.188355	10338.231950
435.565050	10064.865300
435.941683	9995.768725
436.318257	10488.047480
436.694770	10616.491039
437.071222	10687.568788
437.447614	10540.107476
437.823946	10421.486605
438.200218	10571.896992
438.576429	10375.213854
438.952580	10614.754362
439.328670	10675.260811
439.704700	10457.787954
440.080670	10446.084916
440.456580	11011.188179
440.832429	10764.199367
441.208218	10355.465134
441.583947	10693.600528
441.959616	10831.909625
442.335224	10643.347786
442.710773	10794.506784
443.086261	10988.762607
443.461689	10280.198187
443.837057	10922.075703
444.212365	11204.753364
444.587612	10848.116935
444.962800	11081.204765
445.337927	10849.089878
445.712995	10431.059757
446.088002	11519.084429
446.462949	11172.409321
446.837837	11150.142544
447.212664	11138.081583
447.587431	11654.492342
447.962139	12366.237730
448.336786	14630.600530
448.711374	15180.991186
449.085901	13041.495247
449.460369	12654.536278
449.834776	12097.035074
450.209124	12965.492291
450.583412	13373.961864
450.957640	14331.730683
451.331808	13471.422491
451.705917	12458.178294
452.079965	11771.192533
452.453954	12667.121518
452.827883	12303.659367
453.201752	12592.943460
453.575562	12103.276022
453.949311	12523.297399
454.323001	12489.388078
454.696632	12716.870145
455.070202	13006.386131
455.443713	13234.790729
455.817164	13703.915465
456.190556	13691.610009
456.563888	14051.871027
456.937160	14233.213934
457.310373	13570.397985
457.683526	13656.145491
458.056619	13196.087271
458.429653	13344.904653
458.802628	12781.056636
459.175542	13154.162515
459.548398	14103.469757
459.921194	14434.509727
460.293930	14500.440458
460.666607	15371.531678
461.039224	16421.687203
461.411782	17123.269625
461.784280	16988.121332
462.156719	17053.396712
462.529099	16736.207312
462.901419	15670.905640
463.273680	15458.516788
463.645882	15329.254041
464.018024	15062.012394
464.390106	15278.381237
464.762130	16013.557908
465.134094	16765.932476
465.505999	18752.247914
465.877845	22001.616887
466.249631	24842.695248
466.621358	24528.180181
466.993026	23091.499225
467.364634	22537.438609
467.736184	21072.857388
468.107674	20273.312744
468.479105	20404.375182
468.850477	19861.788232
469.221790	19453.207754
469.593043	18764.744935
469.964238	18208.710707
470.335373	17868.866361
470.706449	18305.158062
471.077467	17864.556175
471.448425	19690.555359
471.819324	23734.097627
472.190164	25752.333651
472.560945	22196.986805
472.931667	19830.797739
473.302330	19187.977527
473.672934	18720.070229
474.043479	19039.218118
474.413965	18849.930353
474.784393	18474.382035
475.154761	19168.387603
475.525070	19155.883021
475.895321	18819.287699
476.265513	19412.051774
476.635645	19989.485700
477.005719	19783.955337
477.375734	19962.954107
477.745691	20450.685742
478.115588	20965.475770
478.485427	21495.462356
478.855207	22571.741140
479.224928	24334.526776
479.594591	26552.077421
479.964194	26572.612561
480.333739	26799.197303
480.703226	26348.770207
481.072653	26040.579267
481.442022	26624.649872
481.811333	27528.463221
482.180584	27449.256612
482.549777	26497.118762
482.918912	26148.008776
483.287988	26278.506605
483.657005	25941.470182
484.025964	25683.796644
484.394864	25606.606497
484.763706	25287.967765
485.132489	24714.990219
485.501213	24887.168308
485.869879	24803.459948
486.238487	24627.649708
486.607036	24771.738488
486.975527	24471.046263
487.343959	24809.910104
487.712333	24732.697272
488.080648	24406.065790
488.448905	24878.361412
488.817104	24632.920234
489.185244	25314.562372
489.553326	25284.610356
489.921350	26282.300073
490.289315	28560.447908
490.657222	30338.253661
491.025070	30846.094458
491.392861	30627.815018
491.760593	29772.401786
492.128267	28873.579179
492.495883	27826.826432
492.863440	26953.786806
493.230939	26071.156385
493.598380	25926.387050
493.965763	25523.903847
494.333088	25080.630148
494.700354	25011.233624
495.067563	24867.507808
495.434713	24625.529902
495.801805	24785.641990
496.168839	24584.260497
496.535815	24426.484984
496.902733	24645.513036
497.269593	24327.862371
497.636395	24499.531303
498.003139	24466.655418
498.369825	24205.768145
498.736453	24412.717593
499.103023	24278.098621
499.469535	24296.178719
499.835989	24508.963302
500.202385	24536.770307
500.568723	24040.962744
500.935003	24278.141470
501.301226	23905.438884
501.667390	24743.646658
502.033497	24970.564116
502.399546	24704.552510
502.765537	24254.995013
503.131470	24647.186699
503.497345	24787.434120
503.863163	24009.815975
504.228923	24598.244657
504.594625	24815.175590
504.960269	24357.383368
505.325856	24824.960469
505.691385	24234.696807
506.056856	24853.122875
506.422270	24812.420599
506.787625	24372.854669
507.152924	24795.976355
507.518164	24826.636653
507.883347	24629.449400
508.248472	24326.738193
508.613540	25112.737257
508.978550	24898.513424
509.343503	24882.991712
509.708398	25132.417922
510.073236	25294.080164
510.438016	25503.933316
510.802738	25169.077193
511.167403	25435.159375
511.532010	25135.016637
511.896561	25918.575782
512.261053	25881.800564
512.625488	25703.835231
512.989866	25605.008451
513.354186	25440.031650
513.718449	25549.278495
514.082655	25939.093278
514.446803	25675.743401
514.810894	26146.004917
515.174927	25624.437058
515.538904	25661.439127
515.902822	26145.117674
516.266684	25887.945731
516.630488	25809.462527
516.994235	25779.908763
517.357925	26080.290956
517.721558	26264.855160
518.085133	26369.617899
518.448651	26273.069720
518.812112	26012.686562
519.175516	26226.020631
519.538863	26383.166000
519.902152	26157.503789
520.265385	26433.053258
520.628560	26236.261735
520.991678	26243.735246
521.354739	26300.060058
521.717743	26360.596754
522.080690	26160.294068
522.443580	26491.160118
522.806413	26477.521276
523.169189	26582.899036
523.531908	26619.301208
523.894569	26230.913071
524.257174	26324.973440
524.619722	26490.386301
524.982213	26175.649422
525.344647	26225.604736
525.707025	26377.842541
526.069345	26349.521339
526.431608	26319.027399
526.793815	26486.751629
527.155964	25961.907020
527.518057	26135.410932
527.880093	26056.045527
528.242072	26286.332996
528.603995	26003.738514
528.965860	25791.140454
529.327669	25834.307854
529.689421	25836.775499
530.051117	25668.864747
530.412755	25835.535375
530.774337	25640.099923
531.135862	25514.807085
531.497331	25709.032660
531.858743	25278.785303
532.220098	25752.114361
532.581396	25427.890031
532.942638	25357.404618
533.303824	25468.753624
533.664953	25470.686907
534.026025	25136.571833
534.387040	25382.149122
534.747999	25434.446052
535.108902	25590.474804
535.469748	25081.542597
535.830537	25264.488591
536.191270	25405.376238
536.551947	25243.691311
536.912567	24881.217226
537.273131	25279.682628
537.633638	24974.097965
537.994089	25180.137484
538.354483	24706.808426
538.714821	25205.935589
539.075103	25247.051240
539.435328	25022.493042
539.795497	24595.663587
540.155609	24973.195598
540.515665	25283.823936
540.875665	24498.603731
541.235609	24812.294570
541.595496	24771.264619
541.955328	25125.725790
542.315102	25053.402876
542.674821	24580.882923
543.034483	24455.194355
543.394090	24641.298632
543.753640	24428.095633
544.113134	25054.310284
544.472571	24640.832325
544.831953	24946.696773
545.191278	24585.518264
545.550548	24497.998793
545.909761	24691.082547
546.268918	24929.874443
546.628019	24901.248250
546.987064	24582.589354
547.346053	24337.997611
547.704986	24455.272493
548.063863	24613.252172
548.422684	24625.171981
548.781449	24143.822447
549.140158	24556.456012
549.498811	24140.850687
549.857408	23878.219174
550.215949	24299.233658
550.574434	23981.426717
550.932864	24180.481717
551.291237	24352.755588
551.649555	24215.142171
552.007817	24267.444142
552.366022	24125.593634
552.724173	24158.466999
553.082267	24113.552838
553.440305	24589.404994
553.798288	23843.601571
554.156215	24353.587379
554.514086	24463.476971
554.871902	23835.560930
555.229661	24126.871567
555.587365	23985.285720
555.945014	23849.232539
556.302606	24096.624644
556.660143	24051.952459
557.017625	24304.297497
557.375050	23819.464526
557.732421	24213.720565
558.089735	24034.963771
558.446994	24084.699794
558.804197	24121.538026
559.161345	24038.691704
559.518437	23812.744668
559.875474	24006.123329
560.232455	24187.826679
560.589381	23998.173430
560.946251	23980.194155
561.303065	24307.652385
561.659825	24393.644387
562.016528	24000.510005
562.373177	23725.429363
562.729770	24098.217648
563.086307	23944.487662
563.442789	24135.479337
563.799216	23952.654331
564.155587	23956.838489
564.511904	23943.068577
564.868164	23884.835688
565.224370	23858.805691
565.580520	23779.795686
565.936615	23905.675818
566.292654	23593.048663
566.648638	23867.186609
567.004567	23710.454615
567.360441	23644.821313
567.716260	23370.559858
568.072023	23694.131359
568.427732	23463.188540
568.783385	23239.086566
569.138982	23481.848371
569.494525	23526.029043
569.850013	23262.696810
570.205445	23361.861347
570.560823	23178.333100
570.916145	22939.432820
571.271412	23122.343525
571.626625	22870.686605
571.981782	22991.346622
572.336884	22781.317029
572.691931	22917.443307
573.046923	22661.677846
573.401860	22545.078478
573.756743	22569.734761
574.111570	22464.926652
574.466342	22385.357080
574.821059	22459.759469
575.175722	22170.072084
575.530330	22142.318012
575.884882	22173.696674
576.239380	22075.978948
576.593823	21971.541363
576.948211	21954.517387
577.302544	21798.748254
577.656823	21659.718272
578.011047	21769.297833
578.365216	21632.420424
578.719330	21504.160867
579.073389	21396.418806
579.427394	21554.738763
579.781344	21318.762352
580.135239	21195.443126
580.489080	21160.823002
580.842866	20934.765061
581.196597	21138.803242
581.550273	21105.546750
581.903895	20995.815954
582.257463	21304.498407
582.610975	20836.553301
582.964434	21161.052374
583.317837	20849.415805
583.671186	20938.273704
584.024481	20917.920045
584.377721	20673.930719
584.730906	20752.797051
585.084037	20760.527660
585.437113	20668.632467
585.790135	20880.940661
586.143103	20332.632001
586.496016	20362.004284
586.848874	20598.003381
587.201679	20510.788899
587.554428	20206.078875
587.907124	20534.610871
588.259765	20301.311312
588.612352	20380.424660
588.964884	19950.167221
589.317362	20114.768455
589.669786	20173.606282
590.022155	20195.333656
590.374470	20405.847199
590.726731	20194.713594
591.078937	19962.276072
591.431090	20061.957328
591.783188	19817.070677
592.135232	19770.858419
592.487222	19876.662156
592.839157	19885.156501
593.191038	19770.382030
593.542866	19667.383696
593.894639	19379.397700
594.246358	19600.268294
594.598022	19495.949177
594.949633	19247.505992
595.301190	19214.743533
595.652692	19386.573782
596.004141	19612.172979
596.355535	18941.381924
596.706876	18957.750551
597.058162	18852.650055
597.409395	19090.032948
597.760573	19142.259302
598.111698	18934.848589
598.462768	18866.916520
598.813785	18835.333692
599.164748	18647.749836
599.515657	18691.212144
599.866511	18483.375453
600.217312	18837.261933
600.568060	18352.980968
600.918753	18667.002003
601.269392	18574.464062
601.619978	18363.280045
601.970510	18555.751299
602.320988	18498.140993
602.671412	18708.140339
603.021783	18631.275346
603.372100	18344.121140
603.722363	18501.432867
604.072572	18428.094160
604.422728	18580.425227
604.772830	18334.704265
605.122878	18286.712480
605.472872	18276.937683
605.822813	18266.184902
606.172701	18245.674967
606.522534	18413.454650
606.872314	18455.502914
607.222041	18287.813972
607.571714	18506.489144
607.921333	18325.264704
608.270899	18408.806706
608.620411	18582.572758
608.969870	18355.176391
609.319276	18358.501032
609.668627	18379.021048
610.017926	18519.011370
610.367171	18626.458523
610.716362	18677.538014
611.065500	18495.668307
611.414585	18636.319020
611.763616	18620.210013
612.112594	18568.092044
612.461518	18526.817597
612.810389	18719.097287
613.159207	18568.626406
613.507971	18496.190067
613.856682	18746.405217
614.205340	18685.276186
614.553945	18833.647426
614.902496	18576.843487
615.250994	18798.699627
615.599439	18738.735102
615.947830	18729.161950
616.296169	18803.839083
616.644454	18746.213653
616.992686	18722.820179
617.340864	18945.059446
617.688990	18689.626701
618.037063	18868.348208
618.385082	18720.894458
618.733048	18996.053238
619.080961	18872.219814
619.428821	18909.226925
619.776628	18784.108007
620.124382	18711.878354
620.472083	18765.629657
620.819731	18775.308673
621.167326	18463.878791
621.514868	18516.515999
621.862357	18283.859187
622.209793	18285.255587
622.557176	18120.248539
622.904506	17960.862378
623.251783	17873.292494
623.599007	17623.258825
623.946179	17571.085404
624.293297	17502.283736
624.640363	17247.556753
624.987376	17267.345802
625.334336	17068.999083
625.681243	16909.991009
626.028097	16927.514060
626.374899	16841.481728
626.721647	16713.249898
627.068343	16545.747479
627.414987	16486.065258
627.761577	16458.951412
628.108115	16490.153634
628.454600	16215.478805
628.801032	16320.070145
629.147412	16249.604896
629.493739	16266.500323
629.840014	16068.405662
630.186236	16169.095149
630.532405	15927.465083
630.878521	16135.422762
631.224585	16033.281423
631.570597	15855.134608
631.916556	15879.826179
632.262462	15858.522263
632.608316	15775.983451
632.954117	15721.042436
633.299866	15711.950715
633.645562	15632.429034
633.991206	15388.711930
634.336797	15257.636889
634.682336	15233.988837
635.027823	15110.616678
635.373257	14986.737884
635.718639	14886.814653
636.063968	14835.074771
636.409245	14590.704838
636.754470	14628.258914
637.099642	14464.406290
637.444762	14240.735335
637.789829	14276.908135
638.134845	14121.045740
638.479808	14145.790244
638.824719	14075.229213
639.169577	13934.873408
639.514383	13985.577333
639.859137	13810.132577
640.203839	13896.177511
640.548489	13734.968973
640.893086	13732.103077
641.237632	13601.801853
641.582125	13751.040171
641.926566	13579.315786
642.270955	13590.257611
642.615292	13544.103327
642.959576	13555.443402
643.303809	13592.579062
643.647990	13522.474256
643.992118	13581.276795
644.336195	13347.437833
644.680219	13571.060897
645.024192	13487.493689
645.368112	13724.216192
645.711981	13776.079582
646.055797	13951.862097
646.399562	13931.820989
646.743274	14197.207492
647.086935	14469.689420
647.430544	14432.775571
647.774101	14478.062776
648.117606	14607.693527
648.461059	14593.986629
648.804460	14575.117591
649.147810	14302.791939
649.491108	14207.836765
649.834354	14219.955699
650.177548	13910.194439
650.520690	13714.728740
650.863781	13642.977998
651.206820	13683.292105
651.549807	13518.320345
651.892742	13309.578767
652.235626	13251.106424
652.578458	13255.716559
652.921238	12952.788583
653.263967	13140.972336
653.606644	12984.200013
653.949269	12952.932256
654.291843	12758.021084
654.634365	12917.129982
654.976836	12760.007298
655.319255	12771.357456
655.661622	12724.484808
656.003938	12645.462201
656.346203	12571.218607
656.688416	12645.898261
657.030577	12608.255965
657.372687	12510.845749
657.714746	12495.122390
658.056753	12691.445086
658.398708	12501.504491
658.740612	12500.529028
659.082465	12610.330400
659.424266	12568.314903
659.766016	12602.700613
660.107715	12512.290040
660.449362	12585.394332
660.790958	12541.140563
661.132503	12481.438178
661.473996	12557.068089
661.815438	12572.385635
662.156829	12593.288779
662.498168	12566.124522
662.839456	12565.416239
663.180693	12583.574476
663.521879	12677.297087
663.863013	12650.861277
664.204097	12620.700053
664.545129	12752.659817
664.886110	12719.612533
665.227040	12813.851863
665.567918	12819.886124
665.908746	12843.095596
666.249522	12831.412722
666.590248	12884.536401
666.930922	12999.104184
667.271545	12970.160399
667.612118	13057.022001
667.952639	12952.478552
668.293109	12977.686842
668.633528	12934.254781
668.973896	12903.871747
669.314213	12980.315804
669.654480	12719.362996
669.994695	12790.443265
670.334859	12821.945435
670.674973	12765.441662
671.015035	12804.051860
671.355047	12740.752611
671.695008	12715.047768
672.034918	12731.068555
672.374777	12765.713885
672.714585	12677.448322
673.054342	12713.827809
673.394049	12662.919717
673.733705	12762.243050
674.073310	12667.131601
674.412864	12680.810772
674.752368	12541.241386
675.091820	12574.838156
675.431223	12554.897872
675.770574	12422.754106
676.109875	12337.538442
676.449125	12301.040488
676.788324	12243.694842
677.127473	12078.748288
677.466571	12075.506826
677.805619	11963.789816
678.144616	11890.047817
678.483562	11861.217459
678.822458	11733.033519
679.161303	11709.403111
679.500098	11697.132942
679.838842	11645.960189
680.177535	11680.824809
680.516179	11746.972310
680.854771	11681.563338
681.193314	11901.687842
681.531805	12058.969321
681.870247	12492.997544
682.208638	12904.852251
682.546978	13204.173282
682.885268	13258.043052
683.223508	12952.589458
683.561697	12791.789253
683.899836	12690.827544
684.237925	12494.683810
684.575963	12410.753639
684.913951	12322.230978
685.251889	12274.700459
685.589776	12376.526725
685.927614	12297.799026
686.265401	12266.385076
686.603137	12318.326604
686.940824	12468.250520
687.278460	12597.488060
687.616046	12628.952422
687.953582	12800.631437
688.291068	12732.883370
688.628504	12961.315695
688.965889	12975.894712
689.303224	12938.796861
689.640510	12828.647649
689.977745	12511.806089
690.314930	12294.371041
690.652065	12202.579191
690.989150	11910.187227
691.326185	11672.025475
691.663170	11477.993984
692.000105	11240.779970
692.336990	11119.310847
692.673825	10864.384738
693.010610	10743.986861
693.347345	10533.493482
693.684030	10348.357107
694.020665	10281.604668
694.357251	10089.778682
694.693786	10021.687817
695.030272	9866.763077
695.366707	9744.512576
695.703093	9682.705509
696.039429	9676.046145
696.375716	9590.903577
696.711952	9461.628228
697.048139	9507.036421
697.384276	9466.394639
697.720363	9487.486827
698.056400	9417.457638
698.392388	9365.342189
698.728326	9327.067229
699.064214	9265.207230
699.400053	9307.313468
699.735842	9122.656002
700.071581	9086.165610
700.407270	9012.355556
700.742910	8933.358155
701.078501	8836.058844
701.414042	8700.035911
701.749533	8644.941140
702.084974	8504.474429
702.420366	8625.005897
702.755709	8505.270932
703.091002	8369.777319
703.426246	8394.368068
703.761440	8350.252930
704.096584	8309.331364
704.431679	8238.853513
704.766725	8224.251811
705.101721	8178.987290
705.436668	8228.879590
705.771565	8115.554451
706.106413	8200.384468
706.441212	8231.314467
706.775961	8197.546298
707.110661	8241.633709
707.445311	8376.320737
707.779913	8268.177905
708.114465	8402.461640
708.448967	8433.875590
708.783421	8587.933252
709.117825	8767.904965
709.452180	8803.213206
709.786485	8888.706134
710.120742	9179.003499
710.454949	9174.504269
710.789107	9282.760528
711.123216	9506.282769
711.457275	9669.792594
711.791286	9819.330861
712.125247	9822.484102
712.459159	9805.749992
712.793023	10043.316888
713.126837	9628.538311
713.460602	9783.878946
713.794318	9610.430487
714.127985	9635.331266
714.461602	9304.278693
714.795171	9254.502340
715.128691	9006.031428
715.462162	8754.669415
715.795584	8700.834933
716.128957	8549.247437
716.462281	8377.339050
716.795556	8426.568438
717.128782	8224.745844
717.461960	7963.891338
717.795088	8030.542953
718.128167	7944.306455
718.461198	7776.037781
718.794180	7714.492854
719.127113	7707.556227
719.459997	7541.480454
719.792833	7319.168090
720.125619	7389.068729
720.458357	7243.066832
720.791046	7233.740697
721.123686	7226.793987
721.456278	7067.574184
721.788821	7085.377019
722.121315	6980.422716
722.453761	7047.233128
722.786158	6987.838254
723.118506	6999.957188
723.450805	6963.754141
723.783056	7025.578852
724.115259	6944.262520
724.447412	6943.581964
724.779518	6989.063254
725.111574	6989.849674
725.443582	7071.478558
725.775542	7048.264044
726.107453	7241.592294
726.439315	7155.622977
726.771129	7221.384829
727.102895	7392.043010
727.434612	7498.013105
727.766281	7537.495422
728.097901	7619.578010
728.429473	7610.967719
728.760996	7596.691171
729.092471	7564.722694
729.423897	7509.927872
729.755276	7517.071187
730.086606	7438.759383
730.417887	7543.728809
730.749120	7749.612053
731.080305	7944.145138
731.411442	8054.075060
731.742530	8038.197946
732.073570	8150.792117
732.404562	8240.844768
732.735506	8090.867921
733.066401	8231.269097
733.397249	8162.275865
733.728048	7926.546470
734.058798	7583.874038
734.389501	7352.747216
734.720156	7176.435381
735.050762	6952.764426
735.381320	6856.586772
735.711831	6799.757845
736.042293	6693.792791
736.372707	6708.785183
736.703073	6574.309883
737.033391	6611.846315
737.363661	6619.302181
737.693883	6656.400032
738.024056	6737.423978
738.354182	6777.700276
738.684260	6811.702859
739.014290	6932.448576
739.344272	7045.582150
739.674207	7075.803868
740.004093	7142.009341
740.333931	7156.981568
740.663722	7164.278638
740.993464	7247.808037
741.323159	7224.669141
741.652806	6977.607232
741.982405	7004.353074
742.311956	7052.929632
742.641460	6875.982612
742.970915	6685.958838
743.300323	6680.741244
743.629683	6632.419263
743.958996	6499.239541
744.288260	6407.248565
744.617477	6351.417786
744.946647	6352.322673
745.275768	6183.895203
745.604842	6142.126723
745.933869	6129.538962
746.262847	6084.034986
746.591778	6073.103244
746.920662	6029.411564
747.249498	6023.941912
747.578286	6075.694397
747.907027	6150.300954
748.235720	6207.823040
748.564365	6182.738258
748.892963	6217.116407
749.221514	6361.318612
749.550017	6183.139030
749.878473	6067.270629
750.206881	6127.885463
750.535242	6078.426703
750.863555	6002.622872
751.191821	6016.213823
751.520039	6013.945304
751.848210	5916.925778
752.176334	5945.337721
752.504411	5993.105174
752.832440	5919.794194
753.160421	5850.561508
753.488356	5899.470782
753.816243	5923.320481
754.144082	5774.798007
754.471875	5748.032000
754.799620	5795.219721
755.127318	5808.228418
755.454969	5762.250575
755.782572	5728.772272
756.110129	5770.165186
756.437638	5751.606178
756.765100	5690.835069
757.092515	5695.790523
757.419882	5748.152988
757.747203	5726.617179
758.074477	5788.882990
758.401703	5773.084014
758.728882	5726.816304
759.056014	5787.479029
759.383099	5912.852525
759.710138	5924.364000
760.037129	5904.310290
760.364073	5909.106948
760.690970	5994.380586
761.017820	5976.098841
761.344623	5933.821205
761.671379	6035.927255
761.998088	6160.385782
762.324751	6419.780874
762.651366	7031.842486
762.977935	8374.818473
763.304456	10016.331591
763.630931	10906.649772
763.957359	10482.900462
764.283740	9532.426192
764.610074	8672.271756
764.936362	7672.973911
765.262602	7080.671102
765.588796	6547.453136
765.914943	6206.444284
766.241044	6039.309869
766.567097	5829.290359
766.893104	5574.613787
767.219064	5397.061828
767.544978	5329.427188
767.870845	5254.687041
768.196665	5149.147964
768.522438	5076.883024
768.848165	5040.027148
769.173846	4972.904185
769.499479	4927.453142
769.825066	4881.717273
770.150607	4818.576822
770.476101	4795.972288
770.801548	4789.333088
771.126949	4708.823341
771.452303	4656.564219
771.777611	4618.279176
772.102872	4635.247700
772.428087	4597.577678
772.753256	4558.506215
773.078378	4508.492928
773.403453	4435.595323
773.728482	4426.309517
774.053465	4380.462744
774.378401	4369.011763
774.703291	4369.140312
775.028135	4291.388076
775.352932	4241.541147
775.677683	4233.739961
776.002388	4250.768979
776.327046	4261.332717
776.651658	4185.760779
776.976224	4125.234166
777.300743	4130.754229
777.625216	4150.505470
777.949643	4142.134634
778.274024	4100.371195
778.598359	4061.592119
778.922647	4086.185388
779.246889	4073.993357
779.571086	4066.759302
779.895236	4048.469995
780.219339	4040.565466
780.543397	4031.481307
780.867409	4087.047425
781.191374	4100.918160
781.515294	4034.485835
781.839167	4027.410575
782.162995	4047.746590
782.486776	4037.742420
782.810511	4047.340777
783.134201	4039.196793
783.457844	3993.723065
783.781441	3941.937812
784.104993	3946.240437
784.428498	3965.293477
784.751958	3962.379691
785.075372	3938.076288
785.398739	3900.557500
785.722061	3915.965787
786.045337	3956.647899
786.368568	3990.413547
786.691752	3901.716966
787.014891	3956.451294
787.337983	4086.192950
787.661030	4246.562136
787.984031	4409.424172
788.306987	4576.067075
788.629897	4662.416999
788.952760	4613.870687
789.275579	4552.865164
789.598351	4481.484946
789.921078	4337.481866
790.243759	4136.402842
790.566395	4120.634113
790.888984	4113.447948
791.211529	4006.489787
791.534027	3945.098615
791.856480	3929.539094
792.178888	3871.790156
792.501249	3825.139318
792.823566	3836.449147
793.145836	3861.584340
793.468062	3811.064417
793.790241	3762.704628
794.112375	3797.798620
794.434464	3858.789020
794.756507	3888.327661
795.078505	3862.285060
795.400457	3902.311822
795.722364	4041.089746
796.044226	4144.319974
796.366042	4219.997776
796.687812	4197.310063
797.009538	4200.054971
797.331218	4159.382942
797.652852	4138.222698
797.974442	4113.858802
798.295986	4110.771095
798.617484	4029.795041
798.938938	3943.858491
799.260346	3988.732322
799.581709	3980.832834
799.903026	3904.237543
800.224299	3871.991802
800.545526	3863.121892
800.866708	3822.845593
801.187845	3765.943569
801.508936	3800.057057
801.829983	3791.928197
802.150984	3717.603945
802.471940	3709.364179
802.792851	3718.143348
803.113717	3717.162844
803.434538	3717.409861
803.755314	3660.134791
804.076045	3638.593941
804.396731	3655.945592
804.717372	3680.208666
805.037967	3664.714679
805.358518	3657.296622
805.679024	3682.646064
805.999485	3698.530739
806.319901	3704.222202
806.640272	3717.924058
806.960598	3725.833629
807.280879	3701.061399
807.601115	3716.570508
807.921306	3736.052048
808.241453	3772.943211
808.561554	3747.417329
808.881611	3681.035415
809.201623	3721.707444
809.521590	3731.015935
809.841513	3703.314794
810.161390	3736.737644
810.481223	3710.284190
810.801011	3657.936848
811.120755	3650.402844
811.440453	3688.070345
811.760107	3687.094882
812.079716	3640.723828
812.399281	3612.692492
812.718801	3637.376502
813.038276	3611.875825
813.357707	3608.410032
813.677093	3623.394862
813.996434	3570.099783
814.315731	3583.494129
814.634983	3585.190477
814.954191	3602.196810
815.273354	3625.950727
815.592473	3623.964512
815.911547	3631.271665
816.230577	3674.343283
816.549562	3721.220973
816.868502	3769.137140
817.187399	3788.641364
817.506250	3785.047022
817.825058	3764.857201
818.143821	3858.927652
818.462539	3960.378352
818.781213	3999.621215
819.099843	4068.185948
819.418429	4321.188857
819.736970	4562.791196
820.055466	4812.403929
820.373919	5181.547460
820.692327	5598.334937
821.010691	6065.148303
821.329011	7496.430183
821.647286	10317.117077
821.965517	14971.995030
822.283704	18994.820676
822.601847	21079.491546
822.919945	19217.581702
823.237999	16594.563492
823.556010	14093.737810
823.873976	11968.359622
824.191897	9853.096509
824.509775	8506.483329
824.827609	7374.038529
825.145398	6834.899728
825.463144	6718.693570
825.780845	6829.989644
826.098502	7034.380707
826.416116	7946.945499
826.733685	9297.634452
827.051210	10405.014635
827.368692	10399.940714
827.686129	9102.483825
828.003522	7589.792352
828.320872	6569.218318
828.638177	5858.375296
828.955439	5290.932937
829.272656	4787.172954
829.589830	4512.477960
829.906960	4330.288139
830.224046	4143.215961
830.541088	4018.369266
830.858086	3967.995536
831.175041	3891.606932
831.491952	3878.978841
831.808819	3887.934451
832.125642	3964.975885
832.442421	4116.318885
832.759157	4403.284047
833.075849	4967.540397
833.392497	5851.705850
833.709101	6635.267515
834.025662	6961.412525
834.342179	6570.337454
834.658653	5893.121449
834.975083	5241.529629
835.291469	4661.413809
835.607811	4254.199484
835.924110	4111.275211
836.240366	3910.087802
836.556578	3703.811348
836.872746	3593.679781
837.188871	3554.260478
837.504952	3487.263543
837.820990	3403.494690
838.136984	3359.969368
838.452935	3384.285373
838.768842	3377.288252
839.084706	3405.692633
839.400526	3564.204154
839.716303	3917.150458
840.032037	4452.851192
840.347727	4707.898289
840.663373	4413.527672
840.978977	4025.920914
841.294537	3716.192422
841.610054	3487.583657
841.925527	3383.221690
842.240957	3311.004640
842.556344	3258.276692
842.871687	3193.719676
843.186987	3145.178405
843.502244	3107.785647
843.817458	3073.893969
844.132629	3045.892880
844.447756	3053.497461
844.762840	3037.005326
845.077881	3005.959380
845.392879	2984.602532
845.707833	2983.901811
846.022745	2982.245792
846.337613	2983.012048
846.652438	2970.842702
846.967221	2971.452682
847.281960	2953.503654
847.596656	2949.700103
847.911309	2950.017696
848.225919	2943.106274
848.540485	2939.713577
848.855009	2939.544699
849.169490	2924.393511
849.483928	2918.238262
849.798323	2917.532500
850.112675	2915.387489
850.426984	2923.710434
850.741251	2922.848397
851.055474	2909.910276
851.369654	2907.203176
851.683792	2914.056625
851.997887	2921.835125
852.311938	2924.128850
852.625947	2911.498239
852.939914	2913.691141
853.253837	2918.150042
853.567718	2903.127403
853.881555	2902.353586
854.195350	2920.947882
854.509103	2912.219124
854.822812	2905.705953
855.136479	2899.008781
855.450103	2908.135790
855.763685	2899.840571
856.077224	2893.581978
856.390720	2909.073444
856.704173	2919.748088
857.017584	2909.539751
857.330953	2907.195614
857.644278	2915.589136
857.957561	2926.639345
858.270802	2930.021959
858.584000	2928.134047
858.897155	2914.142324
859.210268	2913.023188
859.523339	2911.470513
859.836367	2913.229876
860.149352	2908.715522
860.462295	2903.429873
860.775195	2908.029925
861.088054	2907.551016
861.400869	2892.248593
861.713642	2890.945455
862.026373	2909.688465
862.339062	2911.296593
862.651708	2914.459917
862.964312	2916.168868
863.276873	2908.493712
863.589392	2920.708427
863.901869	2932.850046
864.214303	2957.455918
864.526696	2971.205665
864.839045	2965.312557
865.151353	2965.141157
865.463619	2964.473204
865.775842	2965.312557
866.088023	2984.660505
866.400162	2991.851711
866.712258	2962.187041
867.024313	2950.282356
867.336325	2961.582103
867.648296	2982.545741
867.960224	2974.699185
868.272110	2959.268213
868.583954	2964.879017
868.895755	2978.666573
869.207515	2965.809110
869.519233	2971.293886
869.830909	2981.426605
870.142542	2990.891371
870.454134	2988.625373
870.765684	2994.203409
871.077191	2994.084942
871.388657	3002.148268
871.700081	3013.584125
872.011463	3025.188861
872.322803	3027.679191
872.634101	3027.233049
872.945357	3042.689227
873.256571	3070.400450
873.567744	3060.686146
873.878874	3055.385373
874.189963	3078.398240
874.501010	3077.652149
874.812015	3070.937332
875.122979	3069.548495
875.433900	3067.171591
875.744780	3071.045717
876.055618	3079.406471
876.366415	3076.598548
876.677169	3086.958119
876.987882	3083.847728
877.298554	3080.482757
877.609183	3102.394132
877.919771	3124.660909
878.230317	3156.047133
878.540822	3206.917416
878.851285	3246.220772
879.161707	3292.329686
879.472087	3396.757188
879.782425	3637.497490
880.092722	4084.678083
880.402977	4626.962564
880.713191	5268.189771
881.023363	6456.903931
881.333494	7754.325531
881.643583	8290.167418
881.953631	7982.795665
882.263637	7321.706311
882.573602	6725.602472
882.883526	6139.074304
883.193408	5567.465431
883.503248	5110.804948
883.813048	4800.897495
884.122806	4484.270184
884.432522	4158.034433
884.742197	3922.224380
885.051831	3727.038464
885.361424	3595.628187
885.670975	3521.621527
885.980485	3430.248093
886.289954	3354.267823
886.599382	3305.305616
886.908768	3271.038373
887.218113	3225.781414
887.527417	3163.742454
887.836680	3116.647995
888.145901	3114.044239
888.455082	3100.216354
888.764221	3046.097047
889.073319	3017.652336
889.382376	3015.630834
889.691392	3023.477390
890.000366	3022.655682
890.309300	3005.793022
890.618193	3018.756349
890.927044	3034.772095
891.235855	3034.010881
891.544625	3023.447143
891.853353	3035.067002
892.162041	3051.092830
892.470687	3092.503389
892.779293	3147.134373
893.087858	3192.703883
893.396381	3267.378495
893.704864	3395.726272
894.013306	3642.629384
894.321707	3950.709419
894.630068	4152.342970
894.938387	4144.761075
895.246665	4100.406483
895.554903	3975.292606
895.863100	3771.579579
896.171256	3603.406687
896.479371	3459.401086
896.787446	3333.949452
897.095480	3227.041702
897.403473	3164.657424
897.711425	3131.320273
898.019336	3119.387862
898.327207	3089.493820
898.635038	3052.290104
898.942827	3036.365099
899.250576	3027.230529
899.558284	2995.284737
899.865952	2974.724391
900.173579	2952.777728
900.481165	2947.625668
900.788711	2930.319387
901.096216	2911.702406
901.403681	2896.485683
901.711105	2906.646129
902.018489	2902.030952
902.325832	2900.372413
902.633135	2911.881367
902.940397	2946.965277
903.247619	3033.564738
903.554800	3237.875142
903.861941	3589.631734
904.169041	4028.287736
904.476101	4326.146832
904.783121	4268.244138
905.090100	4015.127804
905.397039	3739.790063
905.703938	3479.600990
906.010796	3300.715645
906.317614	3187.607277
906.624391	3089.004828
906.931129	3013.173271
907.237826	2951.469548
907.544483	2905.612692
907.851099	2873.336705
908.157675	2855.533870
908.464211	2833.531754
908.770707	2819.524908
909.077163	2808.799853
909.383578	2787.463169
909.689954	2778.827673
909.996289	2781.048301
910.302584	2778.288269
910.608839	2778.815070
910.915054	2773.111004
911.221229	2766.300406
911.527363	2770.051024
911.833458	2776.745676
912.139513	2783.281532
912.445527	2784.743467
912.751502	2794.714869
913.057436	2801.787608
913.363331	2816.837973
913.669186	2839.828155
913.975000	2873.492980
914.280775	2938.549071
914.586510	3010.007427
914.892205	3090.355857
915.197859	3221.612380
915.503475	3421.700817
915.809050	3641.812717
916.114585	3789.306797
916.420081	3801.962613
916.725536	3746.504880
917.030952	3619.543420
917.336328	3489.700941
917.641665	3357.663040
917.946961	3256.560179
918.252218	3184.005372
918.557435	3102.931015
918.862612	3040.473640
919.167750	2987.838953
919.472848	2954.698407
919.777906	2925.179931
920.082925	2898.973493
920.387904	2867.241950
920.692843	2849.552541
920.997743	2836.488391
921.302603	2824.825681
921.607423	2814.014927
921.912204	2800.413894
922.216946	2790.261010
922.521647	2778.038732
922.826310	2770.905500
923.130932	2764.621701
923.435516	2755.855135
923.740059	2747.678383
924.044564	2740.756879
924.349028	2735.035169
924.653454	2732.174315
924.957840	2721.219887
925.262186	2716.151007
925.566493	2714.926007
925.870761	2711.989535
926.174989	2703.583411
926.479178	2700.467977
926.783328	2695.958665
927.087438	2696.167873
927.391509	2692.939014
927.695541	2688.880885
927.999533	2687.166893
928.303486	2684.043898
928.607400	2685.089938
928.911275	2684.502643
929.215110	2680.399144
929.518906	2679.128773
929.822663	2678.808660
930.126381	2678.861592
930.430060	2680.832683
930.733699	2680.139525
931.037299	2681.530883
931.340861	2681.669515
931.644383	2685.722602
931.947866	2682.680266
932.251309	2679.582477
932.554714	2681.712365
932.858080	2677.886129
933.161407	2675.617610
933.464694	2673.490243
933.767943	2670.440345
934.071153	2675.912517
934.374323	2673.555778
934.677455	2673.427228
934.980548	2671.415808
935.283602	2672.305572
935.586617	2669.253153
935.889593	2674.316992
936.192530	2670.271466
936.495428	2669.958914
936.798287	2675.047959
937.101108	2676.610717
937.403890	2683.270081
937.706632	2686.877027
938.009336	2691.603108
938.312002	2699.716846
938.614628	2707.835624
938.917216	2716.556820
939.219765	2714.895760
939.522275	2718.729557
939.824747	2712.833928
940.127179	2712.241592
940.429573	2710.099102
940.731929	2707.424770
941.034246	2702.880170
941.336524	2698.345652
941.638763	2697.309695
941.940964	2694.632842
942.243126	2692.233253
942.545250	2692.003880
942.847335	2689.745443
943.149381	2687.529856
943.451389	2681.263702
943.753359	2680.409226
944.055290	2679.048115
944.357182	2676.976201
944.659036	2678.012158
944.960851	2677.147600
945.262628	2672.061076
945.564367	2674.029646
945.866067	2674.493432
946.167729	2674.785819
946.469352	2674.561488
946.770937	2673.689368
947.072484	2673.233144
947.373992	2672.350942
947.675462	2671.640139
947.976893	2666.672082
948.278286	2663.733089
948.579641	2665.696619
948.880958	2664.292657
949.182236	2663.894406
949.483476	2664.655621
949.784678	2664.350631
950.085841	2663.697801
950.386967	2664.844664
950.688054	2666.288954
950.989103	2667.856753
951.290114	2669.520334
951.591087	2667.597134
951.892021	2671.519152
952.192917	2676.272960
952.493776	2676.744307
952.794596	2675.579801
953.095378	2675.710871
953.396122	2677.318999
953.696828	2673.591066
953.997496	2672.671055
954.298126	2670.982269
954.598718	2667.831547
954.899272	2666.979592
955.199788	2661.658655
955.500266	2660.695794
955.800706	2661.537667
956.101108	2656.988026
956.401472	2657.204795
956.701798	2653.497027
957.002087	2650.994094
957.302337	2650.051398
957.602550	2650.472334
957.902724	2646.678866
958.202861	2646.436891
958.502960	2645.237096
958.803022	2643.039153
959.103045	2643.553351
959.403031	2642.504791
959.702979	2642.918165
960.002889	2642.824904
960.302762	2642.005716
960.602596	2641.877167
960.902393	2642.431694
961.202153	2640.810963
961.501875	2641.468833
961.801559	2640.049749
962.101205	2638.386168
962.400814	2639.777526
962.700385	2639.666621
962.999918	2637.393061
963.299414	2636.125210
963.598873	2635.535395
963.898293	2632.843419
964.197677	2636.644449
964.497022	2637.370375
964.796331	2639.114615
965.095601	2634.771661
965.394835	2636.755355
965.694030	2636.367186
965.993189	2635.984058
966.292309	2634.834675
966.591393	2635.215282
966.890439	2636.004223
967.189447	2637.070427
967.488419	2633.660086
967.787353	2636.291568
968.086249	2636.271404
968.385108	2637.811476
968.683930	2637.813997
968.982714	2634.433903
969.281462	2633.140847
969.580172	2636.478091
969.878844	2636.783081
970.177480	2640.105201
970.476078	2636.435241
970.774639	2636.407515
971.073162	2636.941877
971.371649	2636.599079
971.670098	2638.174439
971.968510	2634.985910
972.266885	2635.449696
972.565223	2638.229892
972.863524	2638.096302
973.161788	2636.662093
973.460014	2639.613689
973.758204	2637.977834
974.056356	2639.086888
974.354471	2634.809469
974.652550	2637.524131
974.950591	2634.564973
975.248595	2639.522948
975.546563	2640.135448
975.844493	2636.404994
976.142386	2634.280148
976.440243	2636.034470
976.738062	2637.261991
977.035845	2635.527834
977.333590	2634.020529
977.631299	2632.810652
977.928971	2630.148922
978.226606	2629.826289
978.524204	2633.569345
978.821765	2630.211937
979.119290	2633.327370
979.416777	2632.868625
979.714228	2631.232771
980.011642	2633.163532
980.309020	2635.452216
980.606360	2634.466671
980.903664	2634.522123
981.200931	2634.920375
981.498162	2635.777371
981.795356	2637.168729
982.092513	2638.494553
982.389633	2640.258957
982.686717	2644.211221
982.983764	2646.492343
983.280775	2652.634989
983.577749	2653.126502
983.874686	2650.757159
984.171587	2646.101654
984.468451	2645.542086
984.765279	2644.947230
985.062070	2643.482774
985.358824	2640.468164
985.655543	2638.204686
985.952224	2640.672331
986.248869	2635.976496
986.545478	2633.667648
986.842050	2636.904069
987.138586	2635.658904
987.435086	2632.341824
987.731549	2633.617236
988.027975	2630.831999
988.324366	2631.447020
988.620719	2631.941053
988.917037	2631.441978
989.213318	2630.534571
989.509563	2632.412401
989.805772	2632.586320
990.101944	2631.010960
990.398080	2630.242184
990.694180	2629.571710
990.990244	2629.125568
991.286271	2631.762092
991.582262	2628.147584
991.878217	2631.278141
992.174136	2629.473408
992.470019	2631.217647
992.765865	2625.866462
993.061676	2627.903088
993.357450	2629.100362
993.653188	2627.247738
993.948890	2629.606998
994.244556	2630.171608
994.540186	2632.019191
994.835780	2631.368882
995.131337	2632.220837
995.426859	2631.830147
995.722345	2632.949283
996.017795	2632.901392
996.313208	2634.905251
996.608586	2636.435241
996.903928	2637.211579
997.199234	2639.407002
997.494504	2636.800725
997.789738	2635.366517
998.084936	2634.943060
998.380099	2636.372227
998.675225	2633.720580
998.970316	2632.127575
999.265371	2632.261166
999.560390	2631.752009
999.855373	2633.952473
1000.150320	2629.208747
1000.445232	2631.699077
1000.740108	2632.649335
1001.034948	2632.482977
1001.329752	2629.967441
1001.624521	2630.315281
1001.919254	2630.839561
1002.213951	2629.826289
1002.508613	2627.661113
1002.803239	2630.438789
1003.097829	2627.023407
1003.392384	2628.069447
1003.686903	2628.296298
1003.981386	2628.525671
1004.275834	2627.151957
1004.570246	2629.791001
1004.864623	2628.261010
1005.158964	2629.730507
1005.453270	2628.142543
1005.747540	2626.287399
1006.041775	2628.137502
1006.335974	2627.333438
1006.630138	2628.661782
1006.924266	2629.725466
1007.218359	2626.791514
1007.512416	2626.710856
1007.806438	2626.186576
1008.100425	2626.763788
1008.394376	2623.068622
1008.688292	2628.462657
1008.982172	2629.856536
1009.276017	2627.109107
1009.569827	2629.022225
1009.863602	2628.840743
1010.157341	2628.533233
1010.451045	2628.870990
1010.744714	2626.894858
1011.038347	2627.714045
1011.331945	2629.342338
1011.625508	2629.609519
1011.919036	2628.674385
1012.212528	2630.607667
1012.505986	2629.017183
1012.799408	2626.579786
1013.092795	2626.768829
1013.386147	2631.320991
1013.679464	2627.497276
1013.972745	2629.148253
1014.265992	2627.782101
1014.559204	2625.556431
1014.852380	2627.986267
1015.145521	2627.709004
1015.438628	2628.757564
1015.731699	2626.937707
1016.024736	2629.748151
1016.317737	2626.665485
1016.610703	2631.081536
1016.903635	2629.526340
1017.196531	2624.858232
1017.489393	2625.571555
1017.782219	2628.384519
1018.075011	2628.384519
1018.367768	2625.853859
1018.660490	2626.602471
1018.953177	2626.602471
1019.245829	2626.602471
