Dividing Wavelength (nm)	Counts (n)	Blue Motor Position (mm): 35.500000	Red Motor Position (mm): 0.000000	
326.493990	2130.983951
326.888308	2130.983951
327.282561	2130.983951
327.676750	2098.655031
328.070874	2096.298292
328.464933	2100.011102
328.858929	2107.265322
329.252859	2117.614811
329.646726	2129.582510
330.040528	2141.106588
330.434265	2156.504792
330.827938	2170.602379
331.221547	2190.167097
331.615091	2211.516384
332.008571	2230.410628
332.401986	2250.610532
332.795338	2269.998809
333.188625	2287.446243
333.581847	2308.114974
333.975006	2324.778508
334.368100	2342.755262
334.761129	2361.553725
335.154095	2377.193905
335.546996	2397.799621
335.939833	2425.142840
336.332606	2439.242947
336.725315	2453.728702
337.117960	2461.023252
337.510540	2471.783595
337.903056	2480.371201
338.295508	2487.874958
338.687896	2494.680516
339.080220	2506.186949
339.472480	2511.623834
339.864676	2511.321365
340.256807	2520.065246
340.648875	2521.973323
341.040879	2525.063550
341.432818	2526.832995
341.824694	2527.221164
342.216506	2527.327028
342.608253	2530.500434
342.999937	2528.115969
343.391557	2527.848788
343.783113	2528.872142
344.174605	2525.426513
344.566033	2522.986595
344.957397	2523.775535
345.348697	2521.597757
345.739934	2520.579444
346.131106	2518.711696
346.522215	2515.036695
346.913260	2514.222549
347.304241	2516.337313
347.695159	2512.284225
348.086012	2510.071158
348.476802	2509.425891
348.867528	2505.907165
349.258191	2505.171157
349.648789	2505.564367
350.039324	2501.165960
350.429796	2502.811897
350.820203	2496.389467
351.210548	2501.589417
351.600828	2497.228819
351.991045	2497.889210
352.381198	2496.833088
352.771288	2498.085815
353.161314	2498.005157
353.551276	2493.959631
353.941175	2495.106493
354.331010	2496.795280
354.720782	2494.380567
355.110490	2495.293016
355.500135	2498.179077
355.889717	2498.063130
356.279235	2496.777636
356.668689	2496.215547
357.058080	2499.615805
357.447408	2493.924343
357.836672	2494.549446
358.225873	2496.964158
358.615010	2493.962151
359.004084	2498.486587
359.393095	2498.920126
359.782043	2499.303254
360.170927	2500.495487
360.559748	2501.760816
360.948505	2503.106804
361.337199	2504.157885
361.725830	2504.596465
362.114398	2501.037411
362.502903	2502.297699
362.891344	2503.512617
363.279722	2507.734584
363.668037	2507.520335
364.056289	2505.899604
364.444478	2506.842299
364.832603	2507.805160
365.220665	2507.583349
365.608665	2506.749038
365.996601	2507.177536
366.384474	2509.509070
366.772284	2510.469410
367.160031	2507.553102
367.547715	2509.108298
367.935336	2509.430932
368.322893	2511.117198
368.710388	2508.344563
369.097820	2511.984276
369.485189	2507.875736
369.872495	2513.778927
370.259738	2510.003103
370.646918	2510.855058
371.034035	2508.926817
371.421090	2513.736077
371.808081	2512.705161
372.195010	2511.568381
372.581875	2513.577281
372.968678	2511.326406
373.355418	2510.945799
373.742096	2513.302538
374.128710	2512.967301
374.515262	2512.926972
374.901751	2512.410254
375.288177	2512.349760
375.674540	2515.336644
376.060841	2517.963085
376.447079	2515.707168
376.833254	2517.254803
377.219367	2511.399503
377.605417	2512.150634
377.991404	2513.347908
378.377329	2514.285563
378.763191	2511.633916
379.148991	2519.165400
379.534727	2516.057529
379.920402	2517.232117
380.306013	2518.101717
380.691563	2521.247397
381.077049	2516.153311
381.462474	2519.273785
381.847835	2518.804957
382.233134	2520.932324
382.618371	2517.453928
383.003545	2518.958713
383.388657	2521.323014
383.773706	2520.629855
384.158693	2522.069105
384.543618	2522.157325
384.928480	2521.237314
385.313280	2522.621111
385.698017	2520.037520
386.082692	2526.618746
386.467305	2523.510875
386.851856	2522.737057
387.236344	2521.149094
387.620770	2524.745957
388.005133	2527.072450
388.389435	2526.855680
388.773674	2525.270237
389.157851	2527.657224
389.541965	2527.740403
389.926018	2527.919364
390.310008	2529.421628
390.693936	2526.182686
391.077802	2528.037831
391.461606	2530.394570
391.845348	2526.391894
392.229027	2530.477749
392.612645	2529.620753
392.996200	2530.772657
393.379694	2530.303829
393.763125	2531.498583
394.146494	2528.851977
394.529801	2530.455064
394.913047	2530.818027
395.296230	2532.098480
395.679351	2529.540095
396.062410	2532.751310
396.445408	2534.117462
396.828343	2534.994623
397.211217	2528.597399
397.594028	2531.097811
397.976778	2530.434899
398.359466	2536.317926
398.742092	2531.581762
399.124656	2536.542257
399.507158	2535.788605
399.889598	2540.287835
400.271977	2537.679038
400.654294	2542.742877
401.036549	2543.274718
401.418742	2544.214893
401.800874	2550.196223
402.182944	2553.513302
402.564952	2556.041440
402.946898	2562.584858
403.328783	2564.601320
403.710606	2572.762948
404.092367	2581.274936
404.474067	2590.167531
404.855705	2599.256732
405.237282	2605.948863
405.618797	2622.831688
406.000250	2636.997330
406.381642	2655.561379
406.762972	2668.623009
407.144240	2684.328723
407.525447	2700.730117
407.906593	2720.872048
408.287677	2743.209400
408.668700	2755.739188
409.049661	2780.299690
409.430560	2806.614513
409.811399	2824.389621
410.192176	2870.274204
410.572891	2888.137532
410.953545	2928.733944
411.334138	2937.220727
411.714669	2979.319403
412.095139	2988.254848
412.475547	3048.116029
412.855894	3072.963876
413.236180	3111.735391
413.616405	3136.099287
413.996568	3192.061136
414.376670	3207.345914
414.756711	3230.479769
415.136691	3279.802419
415.516609	3345.481092
415.896466	3392.010942
416.276262	3447.844241
416.655997	3480.291628
417.035670	3591.902774
417.415283	3675.578366
417.794834	3697.351109
418.174324	3719.222155
418.553753	3720.306003
418.933121	3855.950851
419.312428	3939.024025
419.691674	3956.539514
420.070859	4071.198037
420.449983	4067.525557
420.829045	4181.526210
421.208047	4174.942463
421.586988	4264.158283
421.965867	4316.861026
422.344686	4458.099033
422.723444	4401.880086
423.102141	4317.097960
423.480777	4563.938058
423.859352	4450.393630
424.237866	4677.421993
424.616319	4711.512796
424.994712	4831.260365
425.373044	4776.336993
425.751314	4931.332310
426.129524	4815.887366
426.507673	5006.803424
426.885762	5109.317808
427.263789	5086.665383
427.641756	5018.284652
428.019662	5153.773223
428.397508	5186.061813
428.775292	5172.201161
429.153016	5288.351866
429.530679	5247.455506
429.908282	5353.294531
430.285824	5254.404736
430.663305	5526.395151
431.040726	5312.073016
431.418086	5325.928627
431.795385	5445.968582
432.172624	5472.296008
432.549802	5482.993337
432.926920	5510.918808
433.303977	5533.772879
433.680974	5580.020425
434.057910	5614.534685
434.434786	5630.240399
434.811601	5609.886741
435.188355	5846.949521
435.565050	5731.285287
435.941683	5725.548454
436.318257	5938.446463
436.694770	5934.123674
437.071222	5975.078008
437.447614	5908.983440
437.823946	5829.975956
438.200218	5985.427497
438.576429	5857.951839
438.952580	5956.443383
439.328670	6002.890053
439.704700	5920.063896
440.080670	5904.557307
440.456580	6175.171486
440.832429	6061.264094
441.208218	5909.916053
441.583947	6064.992028
441.959616	6069.871865
442.335224	6001.080279
442.710773	6137.191433
443.086261	6165.590773
443.461689	5961.161903
443.837057	6108.850066
444.212365	6264.518376
444.587612	6158.944012
444.962800	6310.740716
445.337927	6293.217665
445.712995	5907.488738
446.088002	6484.922664
446.462949	6309.397248
446.837837	6243.872331
447.212664	6421.497387
447.587431	6562.271608
447.962139	7106.358301
448.336786	8027.031790
448.711374	7765.519413
449.085901	6842.910122
449.460369	6769.538648
449.834776	6699.385951
450.209124	7092.250632
450.583412	7245.156390
450.957640	7385.602936
451.331808	7147.128633
451.705917	6702.922321
452.079965	6628.643439
452.453954	6841.077662
452.827883	6718.559980
453.201752	6814.377191
453.575562	6610.051664
453.949311	6815.677809
454.323001	6704.890891
454.696632	6778.343023
455.070202	6917.196565
455.443713	7071.823877
455.817164	7170.668301
456.190556	7255.939418
456.563888	7330.515727
456.937160	7372.863940
457.310373	7027.486929
457.683526	7055.566156
458.056619	6944.517098
458.429653	6931.546209
458.802628	6865.224789
459.175542	6973.589432
459.548398	7325.845098
459.921194	7488.197979
460.293930	7496.094946
460.666607	8025.756378
461.039224	8334.877411
461.411782	8453.074825
461.784280	8467.636198
462.156719	8358.142336
462.529099	8238.563646
462.901419	7828.501069
463.273680	7727.282262
463.645882	7732.860298
464.018024	7599.471368
464.390106	7772.609796
464.762130	8153.078280
465.134094	8627.440775
465.505999	9642.731680
465.877845	10865.803823
466.249631	11505.712769
466.621358	11124.846034
466.993026	10496.864458
467.364634	10243.372558
467.736184	9879.149192
468.107674	9546.269201
468.479105	9585.501981
468.850477	9344.194549
469.221790	9115.966391
469.593043	8787.061349
469.964238	8652.553282
470.335373	8669.433586
470.706449	8721.760763
471.077467	8705.112352
471.448425	10013.138020
471.819324	11082.170146
472.190164	11100.782086
472.560945	9849.318164
472.931667	9071.004340
473.302330	8938.961397
473.672934	8586.073066
474.043479	8945.542623
474.413965	8884.685814
474.784393	8759.564376
475.154761	8916.044312
475.525070	9008.572170
475.895321	8834.806117
476.265513	9003.465481
476.635645	9179.018623
477.005719	9182.726391
477.375734	9293.568762
477.745691	9529.063743
478.115588	9662.001490
478.485427	9903.863449
478.855207	10441.527712
479.224928	11257.733370
479.594591	11875.980478
479.964194	11689.372086
480.333739	11631.487037
480.703226	11541.961186
481.072653	11635.661112
481.442022	11869.787420
481.811333	12059.909496
482.180584	11868.184333
482.549777	11579.553070
482.918912	11402.495144
483.287988	11419.889645
483.657005	11434.022520
484.025964	11117.339756
484.394864	11251.268090
484.763706	11216.476567
485.132489	10982.158695
485.501213	10938.340986
485.869879	11019.551454
486.238487	10860.886178
486.607036	10970.581685
486.975527	10753.623027
487.343959	10943.175452
487.712333	10988.876033
488.080648	10926.839593
488.448905	10963.655140
488.817104	10903.660368
489.185244	11169.329176
489.553326	11326.499750
489.921350	11862.601255
490.289315	12921.712390
490.657222	13266.411367
491.025070	13171.534331
491.392861	13043.143704
491.760593	12668.825428
492.128267	12318.954228
492.495883	11989.507262
492.863440	11651.709625
493.230939	11316.107411
493.598380	11251.419325
493.965763	11121.685231
494.333088	11017.298058
494.700354	10939.840729
495.067563	11001.448670
495.434713	10835.675367
495.801805	10965.598505
496.168839	10883.894004
496.535815	10817.416308
496.902733	10824.335292
497.269593	10757.242575
497.636395	10855.663542
498.003139	10839.819196
498.369825	10707.287261
498.736453	10869.816582
499.103023	10797.261775
499.469535	10822.918727
499.835989	10809.904989
500.202385	10774.690008
500.568723	10629.328337
500.935003	10847.668272
501.301226	10650.007150
501.667390	10908.046172
502.033497	11009.983344
502.399546	10869.539318
502.765537	10771.322518
503.131470	10851.693633
503.497345	11025.936075
503.863163	10633.162135
504.228923	10947.087388
504.594625	11011.130206
504.960269	10758.911197
505.325856	10978.365227
505.691385	10769.663978
506.056856	10924.908831
506.422270	10949.807090
506.787625	10838.906747
507.152924	10957.734305
507.518164	10935.596078
507.883347	10855.547596
508.248472	10772.197158
508.613540	11010.515185
508.978550	10890.596218
509.343503	10870.623166
509.708398	10984.732204
510.073236	11100.000707
510.438016	11103.353075
510.802738	11054.113604
511.167403	11111.134096
511.532010	11001.652837
511.896561	11232.434339
512.261053	11313.181021
512.625488	11176.817810
512.989866	11160.799543
513.354186	11149.643470
513.718449	11051.877853
514.082655	11237.707386
514.446803	11141.272634
514.810894	11255.926116
515.174927	11129.826694
515.538904	11153.320992
515.902822	11305.185751
516.266684	11183.237719
516.630488	11128.596653
516.994235	11185.753255
517.357925	11245.773233
517.721558	11337.103817
518.085133	11349.310971
518.448651	11360.315810
518.812112	11243.305588
519.175516	11261.426015
519.538863	11375.373736
519.902152	11298.365070
520.265385	11457.708381
520.628560	11371.315607
520.991678	11346.402225
521.354739	11410.901268
521.717743	11347.728048
522.080690	11322.794502
522.443580	11455.928854
522.806413	11415.156002
523.169189	11442.773963
523.531908	11493.361942
523.894569	11324.238792
524.257174	11320.077320
524.619722	11446.113728
524.982213	11396.382745
525.344647	11437.531163
525.707025	11386.610468
526.069345	11483.030097
526.431608	11400.889536
526.793815	11512.606547
527.155964	11303.055864
527.518057	11354.619306
527.880093	11305.251286
528.242072	11369.359640
528.603995	11278.986875
528.965860	11205.915350
529.327669	11246.184087
529.689421	11198.202384
530.051117	11164.809781
530.412755	11272.453539
530.774337	11163.385655
531.135862	11140.849177
531.497331	11165.639051
531.858743	11021.005827
532.220098	11190.312978
532.581396	11057.370190
532.942638	11038.932170
533.303824	11005.605102
533.664953	11018.074396
534.026025	10931.227918
534.387040	11030.959585
534.747999	11036.958558
535.108902	11096.446694
535.469748	10852.351504
535.830537	10956.148862
536.191270	10934.663464
536.551947	10957.250354
536.912567	10953.595517
537.273131	10877.574917
537.633638	10856.437359
537.994089	10841.838178
538.354483	10792.112236
538.714821	10945.527151
539.075103	10954.074427
539.435328	10917.034549
539.795497	10743.518034
540.155609	10900.723896
540.515665	10987.048614
540.875665	10727.378780
541.235609	10790.307503
541.595496	10790.504108
541.955328	10945.640577
542.315102	10822.351598
542.674821	10776.041038
543.034483	10768.993505
543.394090	10781.551019
543.753640	10708.439165
544.113134	10932.042064
544.472571	10785.994796
544.831953	10929.203894
545.191278	10736.379760
545.550548	10763.100396
545.909761	10901.495192
546.268918	10869.009997
546.628019	10954.455034
546.987064	10826.003913
547.346053	10744.506100
547.704986	10847.035607
548.063863	10828.085910
548.422684	10823.808491
548.781449	10735.961344
549.140158	10846.879332
549.498811	10715.259846
549.857408	10571.738196
550.215949	10803.452312
550.574434	10656.303552
550.932864	10757.827349
551.291237	10814.200052
551.649555	10763.297001
552.007817	10770.684812
552.366022	10741.541901
552.724173	10732.311549
553.082267	10706.473115
553.440305	10851.343273
553.798288	10650.942284
554.156215	10802.711262
554.514086	10785.536051
554.871902	10631.773297
555.229661	10674.600419
555.587365	10640.023145
555.945014	10541.607219
556.302606	10667.474748
556.660143	10556.304703
557.017625	10713.818076
557.375050	10607.427044
557.732421	10746.376368
558.089735	10654.481174
558.446994	10656.298510
558.804197	10690.427122
559.161345	10698.155211
559.518437	10543.185100
559.875474	10634.941662
560.232455	10663.890488
560.589381	10618.472212
560.946251	10614.570359
561.303065	10720.124559
561.659825	10659.570219
562.016528	10578.077447
562.373177	10456.472213
562.729770	10582.019629
563.086307	10494.905970
563.442789	10585.581204
563.799216	10468.303801
564.155587	10511.176294
564.511904	10466.070570
564.868164	10463.933121
565.224370	10469.707763
565.580520	10397.682277
565.936615	10407.333566
566.292654	10275.023442
566.648638	10400.049099
567.004567	10361.736329
567.360441	10342.930305
567.716260	10255.514177
568.072023	10343.202527
568.427732	10300.864397
568.783385	10206.723369
569.138982	10278.358165
569.494525	10291.513056
569.850013	10172.922433
570.205445	10254.034598
570.560823	10150.602724
570.916145	10066.153315
571.271412	10140.780036
571.626625	10085.092930
571.981782	10062.669878
572.336884	10028.805927
572.691931	10037.895127
573.046923	9983.183484
573.401860	9943.257546
573.756743	9876.182473
574.111570	9923.465976
574.466342	9904.095342
574.821059	9932.575341
575.175722	9825.599536
575.530330	9833.199075
575.884882	9826.204474
576.239380	9757.009596
576.593823	9734.793231
576.948211	9753.105223
577.302544	9628.371953
577.656823	9641.010126
578.011047	9643.142534
578.365216	9619.771745
578.719330	9538.727635
579.073389	9553.974605
579.427394	9498.990740
579.781344	9468.053178
580.135239	9426.090614
580.489080	9434.083363
580.842866	9338.644239
581.196597	9344.378551
581.550273	9387.054439
581.903895	9353.694603
582.257463	9420.114326
582.610975	9289.523236
582.964434	9322.562958
583.317837	9241.697809
583.671186	9232.033917
584.024481	9219.509170
584.377721	9137.149319
584.730906	9119.434705
585.084037	9147.760948
585.437113	9086.591587
585.790135	9103.865101
586.143103	9003.052107
586.496016	8977.964804
586.848874	9034.766005
587.201679	9029.835757
587.554428	8908.936285
587.907124	8949.444477
588.259765	8926.913039
588.612352	8931.626518
588.964884	8801.789080
589.317362	8819.377666
589.669786	8821.462183
590.022155	8871.117549
590.374470	8882.079538
590.726731	8817.535124
591.078937	8675.724946
591.431090	8781.548848
591.783188	8655.366246
592.135232	8654.410948
592.487222	8650.972881
592.839157	8705.848361
593.191038	8642.186150
593.542866	8579.895132
593.894639	8485.812078
594.246358	8532.092391
594.598022	8546.348774
594.949633	8456.893499
595.301190	8427.448119
595.652692	8452.966440
596.004141	8562.961896
596.355535	8342.343360
596.706876	8325.667223
597.058162	8254.135771
597.409395	8335.638625
597.760573	8395.887976
598.111698	8299.801063
598.462768	8282.913197
598.813785	8258.889579
599.164748	8221.159063
599.515657	8212.422743
599.866511	8122.896892
600.217312	8249.031602
600.568060	8109.280735
600.918753	8213.511632
601.269392	8182.193464
601.619978	8092.236594
601.970510	8158.598343
602.320988	8150.756829
602.671412	8209.582053
603.021783	8143.459758
603.372100	8113.540510
603.722363	8121.371943
604.072572	8094.797500
604.422728	8105.066331
604.772830	8036.209210
605.122878	8045.474851
605.472872	8044.297742
605.822813	8067.799601
606.172701	8013.539142
606.522534	8084.019513
606.872314	8088.163342
607.222041	8061.213333
607.571714	8113.200232
607.921333	8075.953667
608.270899	8074.179181
608.620411	8162.404415
608.969870	8073.112977
609.319276	8063.900268
609.668627	8078.605314
610.017926	8114.337013
610.367171	8162.200248
610.716362	8140.903893
611.065500	8133.732852
611.414585	8153.516860
611.763616	8150.103999
612.112594	8127.449054
612.461518	8142.822053
612.810389	8201.705250
613.159207	8142.207032
613.507971	8091.835822
613.856682	8208.752783
614.205340	8163.117738
614.553945	8242.561281
614.902496	8141.372721
615.250994	8197.700053
615.599439	8178.803288
615.947830	8190.261831
616.296169	8164.166298
616.644454	8181.371756
616.992686	8174.397320
617.340864	8235.491063
617.688990	8140.598904
618.037063	8226.893375
618.385082	8176.217176
618.733048	8266.118593
619.080961	8201.884211
619.428821	8214.363587
619.776628	8221.932880
620.124382	8170.215682
620.472083	8157.837129
620.819731	8182.218670
621.167326	8079.603463
621.514868	8088.511182
621.862357	7973.961043
622.209793	7989.402097
622.557176	7924.991274
622.904506	7896.871718
623.251783	7837.242430
623.599007	7778.414685
623.946179	7786.959441
624.293297	7746.864624
624.640363	7666.097777
624.987376	7645.406361
625.334336	7592.985923
625.681243	7540.545320
626.028097	7527.279524
626.374899	7508.264292
626.721647	7503.545772
627.068343	7430.050790
627.414987	7398.422590
627.761577	7359.031014
628.108115	7399.173722
628.454600	7293.012063
628.801032	7337.729619
629.147412	7300.735111
629.493739	7289.546270
629.840014	7231.187353
630.186236	7280.993953
630.532405	7166.287538
630.878521	7215.895012
631.224585	7173.687952
631.570597	7099.603155
631.916556	7133.026005
632.262462	7129.376210
632.608316	7087.884993
632.954117	7065.109060
633.299866	7055.430044
633.645562	7045.982922
633.991206	6968.512990
634.336797	6912.533497
634.682336	6867.437856
635.027823	6834.882084
635.373257	6825.545867
635.718639	6759.189159
636.063968	6767.391117
636.409245	6663.258522
636.754470	6658.073695
637.099642	6620.393591
637.444762	6564.270425
637.789829	6578.907415
638.134845	6517.317118
638.479808	6497.399519
638.824719	6507.227249
639.169577	6431.972904
639.514383	6453.435617
639.859137	6385.070009
640.203839	6394.852368
640.548489	6378.831581
640.893086	6350.908630
641.237632	6328.911555
641.582125	6345.983422
641.926566	6317.407642
642.270955	6330.255023
642.615292	6330.318037
642.959576	6337.957906
643.303809	6329.067831
643.647990	6336.337175
643.992118	6328.440207
644.336195	6275.929028
644.680219	6299.287214
645.024192	6284.241891
645.368112	6386.506738
645.711981	6402.351084
646.055797	6478.926211
646.399562	6441.188133
646.743274	6566.801084
647.086935	6618.848477
647.430544	6615.027283
647.774101	6638.834132
648.117606	6644.195399
648.461059	6635.990921
648.804460	6598.560354
649.147810	6504.394120
649.491108	6473.852290
649.834354	6450.899916
650.177548	6370.054932
650.520690	6278.920953
650.863781	6258.721049
651.206820	6278.888185
651.549807	6203.654005
651.892742	6141.940200
652.235626	6148.637373
652.578458	6134.668336
652.921238	6042.942021
653.263967	6082.320994
653.606644	6021.799422
653.949269	6024.819073
654.291843	5962.457479
654.634365	6015.084605
654.976836	5965.832532
655.319255	5967.223890
655.661622	5941.317400
656.003938	5943.321259
656.346203	5900.378190
656.688416	5933.937151
657.030577	5887.966869
657.372687	5856.333629
657.714746	5845.290981
658.056753	5884.836313
658.398708	5827.094937
658.740612	5815.044058
659.082465	5861.195822
659.424266	5858.130800
659.766016	5856.452096
660.107715	5834.024003
660.449362	5846.362227
660.790958	5842.475497
661.132503	5828.458569
661.473996	5866.854517
661.815438	5851.065623
662.156829	5850.616960
662.498168	5844.305436
662.839456	5815.704449
663.180693	5851.146282
663.521879	5857.001582
663.863013	5846.392473
664.204097	5862.171285
664.545129	5904.257358
664.886110	5896.632613
665.227040	5932.810453
665.567918	5900.771400
665.908746	5924.767292
666.249522	5925.901552
666.590248	5914.148102
666.930922	5944.793276
667.271545	5959.591583
667.612118	5964.340350
667.952639	5934.655516
668.293109	5951.739986
668.633528	5911.050313
668.973896	5914.574079
669.314213	5904.789200
669.654480	5885.433689
669.994695	5877.511516
670.334859	5873.748295
670.674973	5864.268405
671.015035	5862.178847
671.355047	5868.369384
671.695008	5848.161918
672.034918	5825.259957
672.374777	5841.578172
672.714585	5818.860212
673.054342	5825.222148
673.394049	5819.931457
673.733705	5851.244584
674.073310	5841.358881
674.412864	5794.541686
674.752368	5787.905007
675.091820	5794.965143
675.431223	5725.505604
675.770574	5729.470472
676.109875	5682.887690
676.449125	5690.194842
676.788324	5654.367362
677.127473	5601.435246
677.466571	5588.890335
677.805619	5580.786680
678.144616	5563.954267
678.483562	5540.598602
678.822458	5512.683212
679.161303	5504.788765
679.500098	5497.244679
679.838842	5481.455785
680.177535	5486.280169
680.516179	5499.367004
680.854771	5513.499879
681.193314	5592.938382
681.531805	5702.341502
681.870247	5853.729873
682.208638	5953.277538
682.546978	5967.233972
682.885268	5942.575168
683.223508	5858.302199
683.561697	5803.877903
683.899836	5772.345485
684.237925	5733.687397
684.575963	5692.544020
684.913951	5651.846785
685.251889	5715.085539
685.589776	5682.857443
685.927614	5653.349049
686.265401	5725.281273
686.603137	5711.599581
686.940824	5788.550274
687.278460	5810.239839
687.616046	5820.276776
687.953582	5884.821189
688.291068	5868.218149
688.628504	5933.395227
688.965889	5891.931737
689.303224	5841.666392
689.640510	5794.768538
689.977745	5711.037493
690.314930	5619.843020
690.652065	5558.940840
690.989150	5471.181913
691.326185	5388.575046
691.663170	5342.088046
692.000105	5261.235500
692.336990	5187.387637
692.673825	5160.356970
693.010610	5092.520683
693.347345	5025.375035
693.684030	5009.089587
694.020665	4966.305314
694.357251	4877.611254
694.693786	4887.509559
695.030272	4850.603272
695.366707	4816.293179
695.703093	4780.954690
696.039429	4807.541736
696.375716	4791.316782
696.711952	4766.874748
697.048139	4749.689454
697.384276	4730.217997
697.720363	4742.871294
698.056400	4750.856481
698.392388	4701.281774
698.728326	4681.089433
699.064214	4663.498326
699.400053	4653.542047
699.735842	4619.093323
700.071581	4595.220939
700.407270	4573.543977
700.742910	4553.422212
701.078501	4499.378522
701.414042	4496.426926
701.749533	4461.821926
702.084974	4400.234149
702.420366	4456.644661
702.755709	4401.494437
703.091002	4344.915047
703.426246	4390.769383
703.761440	4350.709854
704.096584	4314.758865
704.431679	4331.868541
704.766725	4317.707940
705.101721	4306.115807
705.436668	4337.234849
705.771565	4283.967497
706.106413	4307.713853
706.441212	4345.898072
706.775961	4353.585832
707.110661	4329.640351
707.445311	4360.386348
707.779913	4384.760327
708.114465	4393.214342
708.448967	4415.597065
708.783421	4481.658866
709.117825	4521.841903
709.452180	4523.790309
709.786485	4570.035334
710.120742	4656.690248
710.454949	4636.714676
710.789107	4706.635480
711.123216	4781.771357
711.457275	4771.885655
711.791286	4847.800390
712.125247	4861.792113
712.459159	4769.720479
712.793023	4838.527188
713.126837	4802.354388
713.460602	4794.107061
713.794318	4715.578487
714.127985	4723.046956
714.461602	4635.338441
714.795171	4608.033031
715.128691	4543.460892
715.462162	4487.604907
715.795584	4433.820837
716.128957	4418.699896
716.462281	4365.329200
716.795556	4341.033359
717.128782	4304.273265
717.461960	4233.054364
717.795088	4242.526692
718.128167	4202.043706
718.461198	4142.154798
718.794180	4142.111949
719.127113	4122.980770
719.459997	4097.512861
719.792833	4054.960481
720.125619	4043.396074
720.458357	4007.689581
720.791046	4011.541023
721.123686	3984.079337
721.456278	3944.712967
721.788821	3964.214671
722.121315	3938.020835
722.453761	3908.018408
722.786158	3921.732867
723.118506	3946.482412
723.450805	3894.601377
723.783056	3920.477620
724.115259	3934.343313
724.447412	3944.760858
724.779518	3930.073456
725.111574	3939.815486
725.443582	3967.640135
725.775542	3954.636478
726.107453	4004.561545
726.439315	4009.030528
726.771129	4018.638967
727.102895	4053.405285
727.434612	4101.482769
727.766281	4114.947691
728.097901	4111.262608
728.429473	4118.831900
728.760996	4129.246924
729.092471	4123.235348
729.423897	4105.901341
729.755276	4112.396867
730.086606	4114.171353
730.417887	4146.744769
730.749120	4215.924523
731.080305	4280.393319
731.411442	4306.637566
731.742530	4275.941980
732.073570	4280.022794
732.404562	4332.889375
732.735506	4325.947706
733.066401	4289.096871
733.397249	4223.657653
733.728048	4144.446003
734.058798	4063.840473
734.389501	3993.269361
734.720156	3928.926594
735.050762	3886.137280
735.381320	3877.927761
735.711831	3830.407324
736.042293	3797.528919
736.372707	3817.232268
736.703073	3792.142446
737.033391	3784.981487
737.363661	3805.783808
737.693883	3825.146880
738.024056	3837.137264
738.354182	3830.697190
738.684260	3894.520719
739.014290	3916.232968
739.344272	3911.338008
739.674207	3952.262095
740.004093	3959.354998
740.333931	3951.266467
740.663722	3958.550934
740.993464	3948.927372
741.323159	3924.999535
741.652806	3898.170514
741.982405	3870.774363
742.311956	3839.365454
742.641460	3832.315401
742.970915	3807.407060
743.300323	3766.195627
743.629683	3728.235738
743.958996	3720.868092
744.288260	3694.913712
744.617477	3663.043537
744.946647	3651.564830
745.275768	3621.585088
745.604842	3620.339923
745.933869	3574.372161
746.262847	3562.235583
746.591778	3601.579269
746.920662	3572.408632
747.249498	3540.543498
747.578286	3588.643668
747.907027	3605.229064
748.235720	3604.346862
748.564365	3626.779997
748.892963	3625.857466
749.221514	3613.297431
749.550017	3585.944130
749.878473	3587.771548
750.206881	3556.871796
750.535242	3552.186043
750.863555	3553.826939
751.191821	3549.791495
751.520039	3530.824154
751.848210	3507.281965
752.176334	3540.838406
752.504411	3546.471895
752.832440	3508.017974
753.160421	3488.924604
753.488356	3500.022704
753.816243	3513.006196
754.144082	3468.815441
754.471875	3452.686269
754.799620	3471.358703
755.127318	3466.607416
755.454969	3465.931901
755.782572	3471.111687
756.110129	3448.849951
756.437638	3437.005760
756.765100	3449.875826
757.092515	3458.629790
757.419882	3466.292343
757.747203	3440.559774
758.074477	3442.707305
758.401703	3459.333031
758.728882	3478.675938
759.056014	3486.421671
759.383099	3493.030623
759.710138	3487.586177
760.037129	3500.335255
760.364073	3534.635266
760.690970	3519.955426
761.017820	3497.731499
761.344623	3515.887215
761.671379	3561.181982
761.998088	3611.102008
762.324751	3738.106318
762.651366	3983.749142
762.977935	4458.456955
763.304456	4903.714348
763.630931	5002.967106
763.957359	4637.561590
764.283740	4292.068632
764.610074	4104.262966
764.936362	3904.469436
765.262602	3747.969335
765.588796	3635.037407
765.914943	3544.243705
766.241044	3456.273050
766.567097	3429.176848
766.893104	3381.391751
767.219064	3351.152390
767.544978	3322.795899
767.870845	3269.788167
768.196665	3247.266812
768.522438	3258.364912
768.848165	3252.900301
769.173846	3216.351936
769.499479	3202.206458
769.825066	3182.321627
770.150607	3166.593227
770.476101	3182.387162
770.801548	3179.901873
771.126949	3131.416055
771.452303	3115.359980
771.777611	3120.980867
772.102872	3127.438585
772.428087	3101.471601
772.753256	3092.843667
773.078378	3084.117429
773.403453	3051.314641
773.728482	3035.873587
774.053465	3061.338976
774.378401	3046.356666
774.703291	3016.306348
775.028135	3017.279291
775.352932	3013.453055
775.677683	2999.476456
776.002388	2994.117710
776.327046	2997.175169
776.651658	2985.472131
776.976224	2975.669607
777.300743	2973.275059
777.625216	2967.074440
777.949643	2958.673357
778.274024	2961.415745
778.598359	2952.286215
778.922647	2958.915332
779.246889	2956.672019
779.571086	2944.205245
779.895236	2934.523709
780.219339	2947.797068
780.543397	2958.736371
780.867409	2962.650827
781.191374	2954.834518
781.515294	2952.540793
781.839167	2953.700259
782.162995	2944.285904
782.486776	2953.632203
782.810511	2948.724640
783.134201	2937.820624
783.457844	2942.234154
783.781441	2934.495983
784.104993	2916.310021
784.428498	2913.479413
784.751958	2928.968358
785.075372	2926.825868
785.398739	2905.990779
785.722061	2919.183478
786.045337	2933.386929
786.368568	2919.806061
786.691752	2912.128383
787.014891	2960.762915
787.337983	2989.865496
787.661030	3017.117974
787.984031	3084.266143
788.306987	3131.282465
788.629897	3121.300980
788.952760	3106.875718
789.275579	3090.441557
789.598351	3032.105324
789.921078	2986.182933
790.243759	2982.127325
790.566395	2962.600416
790.888984	2937.775254
791.211529	2920.733633
791.534027	2912.289700
791.856480	2900.022053
792.178888	2887.920763
792.501249	2877.225955
792.823566	2872.399050
793.145836	2871.685727
793.468062	2865.676671
793.790241	2865.883359
794.112375	2873.001468
794.434464	2884.001266
794.756507	2889.849004
795.078505	2893.556773
795.400457	2909.176788
795.722364	2948.270936
796.044226	2968.438072
796.366042	2972.307158
796.687812	2963.192751
797.009538	2983.039774
797.331218	2969.537043
797.652852	2954.587502
797.974442	2936.509924
798.295986	2935.617640
798.617484	2929.570776
798.938938	2909.633012
799.260346	2897.544325
799.581709	2893.947462
799.903026	2884.616286
800.224299	2880.689228
800.545526	2868.577855
800.866708	2857.691484
801.187845	2844.818897
801.508936	2845.590194
801.829983	2854.860876
802.150984	2838.131807
802.471940	2825.697801
802.792851	2826.267451
803.113717	2826.161587
803.434538	2832.619305
803.755314	2822.365598
804.076045	2817.523570
804.396731	2818.809064
804.717372	2818.867037
805.037967	2815.479382
805.358518	2817.755463
805.679024	2830.096207
805.999485	2825.896926
806.319901	2830.691064
806.640272	2823.260403
806.960598	2827.449602
807.280879	2837.884790
807.601115	2845.985924
807.921306	2831.253152
808.241453	2826.849704
808.561554	2835.492763
808.881611	2835.888493
809.201623	2832.037052
809.521590	2831.268276
809.841513	2826.821978
810.161390	2830.640652
810.481223	2822.829384
810.801011	2814.042653
811.120755	2812.290852
811.440453	2813.258754
811.760107	2814.521563
812.079716	2811.690955
812.399281	2800.668472
812.718801	2795.120682
813.038276	2791.269241
813.357707	2797.870632
813.677093	2802.357258
813.996434	2796.302833
814.315731	2795.208902
814.634983	2789.184723
814.954191	2792.564817
815.273354	2804.046045
815.592473	2811.645584
815.911547	2814.423260
816.230577	2822.098417
816.549562	2834.655931
816.868502	2832.601661
817.187399	2838.648525
817.506250	2857.114272
817.825058	2850.273426
818.143821	2863.345138
818.462539	2878.713095
818.781213	2904.591858
819.099843	2943.055862
819.418429	2999.998216
819.736970	3062.634552
820.055466	3132.164667
820.373919	3240.922520
820.692327	3380.121380
821.010691	3550.653532
821.329011	3994.650637
821.647286	4893.609355
821.965517	6274.635972
822.283704	7023.355703
822.601847	7006.031778
822.919945	6372.940993
823.237999	5864.580957
823.556010	5279.865084
823.873976	4724.231627
824.191897	4313.070078
824.509775	4014.936240
824.827609	3746.562853
825.145398	3624.065335
825.463144	3612.231227
825.780845	3702.445195
826.098502	3809.136175
826.416116	4091.178651
826.733685	4410.719749
827.051210	4476.393381
827.368692	4357.908621
827.686129	4090.367025
828.003522	3763.561624
828.320872	3503.748117
828.638177	3307.004485
828.955439	3173.723939
829.272656	3087.379056
829.589830	3022.199457
829.906960	2972.075264
830.224046	2924.837132
830.541088	2892.155332
830.858086	2876.704195
831.175041	2857.023531
831.491952	2859.597040
831.808819	2872.305789
832.125642	2894.509551
832.442421	2941.354473
832.759157	3026.055940
833.075849	3200.719318
833.392497	3483.384376
833.709101	3686.588246
834.025662	3639.486225
834.342179	3475.842809
834.658653	3300.466108
834.975083	3151.212666
835.291469	3050.707182
835.607811	2969.060654
835.924110	2912.110739
836.240366	2857.376412
836.556578	2815.282777
836.872746	2792.791669
837.188871	2770.240067
837.504952	2753.697521
837.820990	2747.058321
838.136984	2732.033162
838.452935	2724.262224
838.768842	2722.487737
839.084706	2742.654873
839.400526	2817.455514
839.716303	2954.932821
840.032037	3034.668751
840.347727	3018.572347
840.663373	2958.386011
840.978977	2880.842983
841.294537	2810.992755
841.610054	2762.859818
841.925527	2739.516755
842.240957	2718.462376
842.556344	2694.330373
842.871687	2679.201870
843.186987	2669.117042
843.502244	2666.304078
843.817458	2661.270486
844.132629	2651.031902
844.447756	2639.046559
844.762840	2638.277783
845.077881	2633.765950
845.392879	2635.036321
845.707833	2629.289406
846.022745	2620.578292
846.337613	2624.028962
846.652438	2625.541308
846.967221	2624.318828
847.281960	2622.493930
847.596656	2621.823457
847.911309	2621.258848
848.225919	2619.771707
848.540485	2616.812550
848.855009	2615.070831
849.169490	2614.176027
849.483928	2616.056377
849.798323	2611.053032
850.112675	2612.998917
850.426984	2614.995214
850.741251	2611.065635
851.055474	2613.240892
851.369654	2614.009668
851.683792	2613.999586
851.997887	2611.448762
852.311938	2612.419184
852.625947	2613.969339
852.939914	2616.757097
853.253837	2618.387911
853.567718	2611.889863
853.881555	2611.378186
854.195350	2616.280708
854.509103	2614.289452
854.822812	2610.092692
855.136479	2612.567898
855.450103	2613.117384
855.763685	2614.924638
856.077224	2611.267281
856.390720	2608.751745
856.704173	2613.399689
857.017584	2618.897067
857.330953	2618.282046
857.644278	2619.834722
857.957561	2620.618621
858.270802	2616.431943
858.584000	2615.774072
858.897155	2615.065790
859.210268	2620.137191
859.523339	2616.237858
859.836367	2612.583022
860.149352	2611.519338
860.462295	2611.849534
860.775195	2611.473968
861.088054	2607.904831
861.400869	2606.962135
861.713642	2603.261928
862.026373	2605.981631
862.339062	2609.167640
862.651708	2616.436984
862.964312	2617.503188
863.276873	2613.465224
863.589392	2616.210132
863.901869	2620.293467
864.214303	2627.623304
864.526696	2627.643469
864.839045	2632.568676
865.151353	2635.021198
865.463619	2632.785446
865.775842	2631.434417
866.088023	2632.913995
866.400162	2634.547329
866.712258	2635.270735
867.024313	2629.387708
867.336325	2628.893675
867.648296	2628.230763
867.960224	2633.710498
868.272110	2634.469191
868.583954	2627.146915
868.895755	2624.941411
869.207515	2631.777215
869.519233	2640.568987
869.830909	2637.660242
870.142542	2630.673202
870.454134	2636.170581
870.765684	2640.110242
871.077191	2639.893473
871.388657	2645.632827
871.700081	2642.441776
872.011463	2643.255922
872.322803	2643.656694
872.634101	2647.734988
872.945357	2653.839825
873.256571	2661.020949
873.567744	2656.506595
873.878874	2656.877120
874.189963	2656.035247
874.501010	2661.474652
874.812015	2665.048831
875.122979	2663.992709
875.433900	2656.587254
875.744780	2655.884013
876.055618	2660.836947
876.366415	2666.046979
876.677169	2667.829027
876.987882	2662.621515
877.298554	2656.821667
877.609183	2672.678617
877.919771	2679.756397
878.230317	2684.197653
878.540822	2696.112421
878.851285	2710.658670
879.161707	2733.217833
879.472087	2769.720828
879.782425	2820.770073
880.092722	2934.357351
880.402977	3123.105713
880.713191	3388.015827
881.023363	3681.136238
881.333494	3872.773181
881.643583	4045.505797
881.953631	4043.920354
882.263637	3868.155484
882.573602	3646.443017
882.883526	3518.231352
883.193408	3400.492683
883.503248	3296.362609
883.813048	3184.189374
884.122806	3064.784604
884.432522	2980.284783
884.742197	2915.531162
885.051831	2877.372148
885.361424	2838.721622
885.670975	2807.912610
885.980485	2773.360542
886.289954	2755.598036
886.599382	2740.096488
886.908768	2729.192472
887.218113	2709.978114
887.527417	2699.537885
887.836680	2691.328366
888.145901	2684.447191
888.455082	2676.421674
888.764221	2666.021773
889.073319	2657.948365
889.382376	2659.032213
889.691392	2661.273006
890.000366	2658.568427
890.309300	2654.603560
890.618193	2661.744354
890.927044	2663.183604
891.235855	2662.931546
891.544625	2661.134375
891.853353	2662.724859
892.162041	2667.443379
892.470687	2688.764939
892.779293	2698.683409
893.087858	2710.578012
893.396381	2731.924777
893.704864	2775.152672
894.013306	2845.688496
894.321707	2938.339863
894.630068	2990.180568
894.938387	3008.467354
895.246665	3002.690192
895.554903	2958.854838
895.863100	2915.785741
896.171256	2856.955475
896.479371	2797.064047
896.787446	2755.630803
897.095480	2737.424676
897.403473	2730.664489
897.711425	2716.403065
898.019336	2696.729962
898.327207	2684.399300
898.635038	2683.617921
898.942827	2679.252282
899.250576	2668.549912
899.558284	2658.245793
899.865952	2653.675987
900.173579	2650.081645
900.481165	2649.499392
900.788711	2641.113432
901.096216	2634.068420
901.403681	2631.631022
901.711105	2631.255456
902.018489	2627.963582
902.325832	2635.006074
902.633135	2636.291568
902.940397	2652.549290
903.247619	2689.727799
903.554800	2758.889909
903.861941	2886.247100
904.169041	3013.327026
904.476101	3076.865729
904.783121	3070.392888
905.090100	3011.325688
905.397039	2937.573608
905.703938	2862.659541
906.010796	2794.689663
906.317614	2746.143352
906.624391	2711.240923
906.931129	2682.733198
907.237826	2659.536329
907.544483	2642.623258
907.851099	2626.705814
908.157675	2616.507560
908.464211	2609.893566
908.770707	2598.119952
909.077163	2595.934611
909.383578	2591.390011
909.689954	2592.423448
909.996289	2589.474373
910.302584	2586.028744
910.608839	2586.132088
910.915054	2587.722572
911.221229	2590.442274
911.527363	2591.463108
911.833458	2590.840525
912.139513	2589.731472
912.445527	2592.849425
912.751502	2596.968048
913.057436	2601.827720
913.363331	2611.355501
913.669186	2619.880092
913.975000	2634.219654
914.280775	2651.094917
914.586510	2671.009995
914.892205	2706.366127
915.197859	2774.265429
915.503475	2859.445805
915.809050	2924.494334
916.114585	2939.670728
916.420081	2954.978191
916.725536	2964.311888
917.030952	2936.721653
917.336328	2889.493603
917.641665	2839.417301
917.946961	2793.079015
918.252218	2754.725916
918.557435	2727.846484
918.862612	2708.128011
919.167750	2691.335927
919.472848	2673.356652
919.777906	2656.922491
920.082925	2644.261633
920.387904	2634.138996
920.692843	2630.703449
920.997743	2624.349075
921.302603	2616.976387
921.607423	2612.146962
921.912204	2606.150510
922.216946	2602.276383
922.521647	2599.896958
922.826310	2596.693305
923.130932	2590.827922
923.435516	2585.181830
923.740059	2586.590833
924.044564	2582.149576
924.349028	2579.402147
924.653454	2573.559450
924.957840	2569.302196
925.262186	2565.841443
925.566493	2570.249932
925.870761	2565.980075
926.174989	2565.629715
926.479178	2560.475135
926.783328	2561.611915
927.087438	2563.726679
927.391509	2562.685681
927.695541	2558.456153
927.999533	2558.630073
928.303486	2556.036399
928.607400	2559.000598
928.911275	2556.565720
929.215110	2554.730740
929.518906	2555.769218
929.822663	2553.460370
930.126381	2553.470452
930.430060	2557.599157
930.733699	2555.922973
931.037299	2557.707542
931.340861	2553.278888
931.644383	2555.318035
931.947866	2557.004301
932.251309	2552.837787
932.554714	2556.525391
932.858080	2557.200906
933.161407	2554.876934
933.464694	2556.114537
933.767943	2555.600339
934.071153	2554.753426
934.374323	2553.813250
934.677455	2553.167983
934.980548	2551.529608
935.283602	2550.092879
935.586617	2552.565565
935.889593	2553.621687
936.192530	2550.793599
936.495428	2552.759649
936.798287	2554.660164
937.101108	2558.128478
937.403890	2558.574620
937.706632	2561.674930
938.009336	2563.658624
938.312002	2566.592575
938.614628	2575.286045
938.917216	2576.485840
939.219765	2576.576581
939.522275	2575.550706
939.824747	2576.934503
940.127179	2568.757751
940.429573	2568.772874
940.731929	2567.053841
941.034246	2567.074006
941.336524	2566.852195
941.638763	2561.468242
941.940964	2566.189283
942.243126	2564.225754
942.545250	2562.761298
942.847335	2563.038562
943.149381	2559.537481
943.451389	2558.602347
943.753359	2561.390105
944.055290	2559.396328
944.357182	2557.727706
944.659036	2555.779300
944.960851	2557.737789
945.262628	2556.142263
945.564367	2558.625032
945.866067	2560.218036
946.167729	2556.885834
946.469352	2556.419527
946.770937	2556.969013
947.072484	2555.050854
947.373992	2552.416851
947.675462	2555.789383
947.976893	2552.663867
948.278286	2553.566234
948.579641	2555.262582
948.880958	2552.351316
949.182236	2553.397355
949.483476	2551.050698
949.784678	2554.256872
950.085841	2552.936090
950.386967	2553.672098
950.688054	2551.206974
950.989103	2555.580175
951.290114	2551.494320
951.591087	2556.021276
951.892021	2555.328117
952.192917	2558.342727
952.493776	2560.326421
952.794596	2562.204251
953.095378	2562.562173
953.396122	2561.100238
953.696828	2559.978582
953.997496	2559.847512
954.298126	2557.402552
954.598718	2556.532953
954.899272	2553.697304
955.199788	2554.587068
955.500266	2549.981973
955.800706	2548.356201
956.101108	2543.350336
956.401472	2546.705223
956.701798	2542.831097
957.002087	2544.729091
957.302337	2545.097095
957.602550	2542.463093
957.902724	2541.901004
958.202861	2543.836807
958.502960	2542.445448
958.803022	2540.870088
959.103045	2540.892773
959.403031	2543.105840
959.702979	2541.114584
960.002889	2541.263298
960.302762	2538.440252
960.602596	2538.702392
960.902393	2540.592824
961.202153	2539.140972
961.501875	2540.983514
961.801559	2539.710622
962.101205	2539.801363
962.400814	2536.544778
962.700385	2538.664583
962.999918	2538.473019
963.299414	2538.800694
963.598873	2538.213400
963.898293	2536.214582
964.197677	2537.343801
964.497022	2536.093595
964.796331	2536.743903
965.095601	2538.253729
965.394835	2538.722556
965.694030	2537.621064
965.993189	2535.942360
966.292309	2536.953111
966.591393	2538.344470
966.890439	2533.822555
967.189447	2537.058976
967.488419	2537.419418
967.787353	2537.636188
968.086249	2535.400436
968.385108	2538.397402
968.683930	2534.747607
968.982714	2537.794984
969.281462	2536.746424
969.580172	2537.437062
969.878844	2537.457227
970.177480	2537.265663
970.476078	2537.792463
970.774639	2538.967052
971.073162	2538.500746
971.371649	2534.646783
971.670098	2535.037473
971.968510	2537.235416
972.266885	2534.767771
972.565223	2539.453524
972.863524	2536.229706
973.161788	2540.607948
973.460014	2538.823379
973.758204	2536.829603
974.056356	2538.525951
974.354471	2540.381096
974.652550	2538.145344
974.950591	2538.659542
975.248595	2536.406146
975.546563	2537.953780
975.844493	2539.529141
976.142386	2538.480581
976.440243	2537.973945
976.738062	2538.215920
977.035845	2535.758358
977.333590	2534.916485
977.631299	2536.365817
977.928971	2537.323636
978.226606	2535.949922
978.524204	2538.079809
978.821765	2536.088553
979.119290	2535.186187
979.416777	2533.515044
979.714228	2537.482432
980.011642	2537.358924
980.309020	2540.081147
980.606360	2536.456558
980.903664	2536.859850
981.200931	2537.051414
981.498162	2537.855478
981.795356	2537.316074
982.092513	2544.381252
982.389633	2544.827394
982.686717	2546.521221
982.983764	2551.353167
983.280775	2550.992725
983.577749	2551.847200
983.874686	2552.772252
984.171587	2549.543393
984.468451	2547.988197
984.765279	2543.640202
985.062070	2543.685572
985.358824	2542.964687
985.655543	2539.014943
985.952224	2536.907741
986.248869	2536.665766
986.545478	2531.707791
986.842050	2535.092926
987.138586	2529.648479
987.435086	2534.782895
987.731549	2528.002543
988.027975	2535.995292
988.324366	2533.762061
988.620719	2533.512524
988.917037	2537.384130
989.213318	2535.362627
989.509563	2533.593182
989.805772	2531.652338
990.101944	2534.508152
990.398080	2531.796011
990.694180	2532.688295
990.990244	2534.810621
991.286271	2532.617719
991.582262	2533.547812
991.878217	2534.301464
992.174136	2533.363810
992.470019	2532.184180
992.765865	2534.009078
993.061676	2531.342307
993.357450	2536.890097
993.653188	2533.356248
993.948890	2534.263656
994.244556	2534.684592
994.540186	2535.680220
994.835780	2536.459078
995.131337	2536.330529
995.426859	2536.136444
995.722345	2535.965045
996.017795	2536.617875
996.313208	2540.222300
996.608586	2536.317926
996.903928	2538.309182
997.199234	2536.822041
997.494504	2536.436393
997.789738	2536.340611
998.084936	2537.119469
998.380099	2534.873635
998.675225	2534.606454
998.970316	2533.872966
999.265371	2533.789787
999.560390	2532.504293
999.855373	2535.158461
1000.150320	2531.680064
1000.445232	2534.538399
1000.740108	2531.649817
1001.034948	2534.404808
1001.329752	2532.864736
1001.624521	2534.886238
1001.919254	2529.028417
1002.213951	2531.843902
1002.508613	2529.091432
1002.803239	2530.828109
1003.097829	2526.036493
1003.392384	2532.234591
1003.686903	2530.787780
1003.981386	2532.723583
1004.275834	2531.110414
1004.570246	2530.790301
1004.864623	2532.504293
1005.158964	2529.842564
1005.453270	2533.688964
1005.747540	2530.810465
1006.041775	2530.099663
1006.335974	2531.526309
1006.630138	2530.656710
1006.924266	2531.165867
1007.218359	2532.312729
1007.512416	2529.285516
1007.806438	2531.511186
1008.100425	2530.865918
1008.394376	2531.785929
1008.688292	2534.064530
1008.982172	2529.088911
1009.276017	2533.391536
1009.569827	2529.741741
1009.863602	2533.383974
1010.157341	2533.472195
1010.451045	2532.063192
1010.744714	2534.994623
1011.038347	2533.545291
1011.331945	2531.387678
1011.625508	2529.976154
1011.919036	2533.018491
1012.212528	2530.003881
1012.505986	2531.591844
1012.799408	2531.818696
1013.092795	2532.532019
1013.386147	2533.620909
1013.679464	2528.204189
1013.972745	2531.385157
1014.265992	2535.234078
1014.559204	2532.196783
1014.852380	2529.298119
1015.145521	2532.647966
1015.438628	2530.989426
1015.731699	2529.522451
1016.024736	2529.618233
1016.317737	2531.667462
1016.610703	2531.178470
1016.903635	2527.793335
1017.196531	2527.516071
1017.489393	2526.079343
1017.782219	2525.986081
1018.075011	2528.403314
1018.367768	2526.185207
1018.660490	2530.248377
1018.953177	2530.248377
1019.245829	2530.248377
