Dividing Wavelength (nm)	Counts (n)	Blue Motor Position (mm): 5.500000	Red Motor Position (mm): 0.000000	
326.493990	2132.408077
326.888308	2132.408077
327.282561	2132.408077
327.676750	2066.873077
328.070874	2066.873077
328.464933	2039.146731
328.858929	2079.475962
329.252859	2074.434808
329.646726	2117.284615
330.040528	2071.914231
330.434265	2056.790769
330.827938	2132.408077
331.221547	2134.928654
331.615091	2182.819615
332.008571	2170.216731
332.401986	2152.572692
332.795338	2250.875192
333.188625	2230.710577
333.581847	2240.792885
333.975006	2202.984231
334.368100	2356.739423
334.761129	2313.889615
335.154095	2308.848462
335.546996	2308.848462
335.939833	2462.603654
336.332606	2321.451346
336.725315	2462.603654
337.117960	2379.424615
337.510540	2434.877308
337.903056	2379.424615
338.295508	2434.877308
338.687896	2530.659231
339.080220	2439.918462
339.472480	2412.192115
339.864676	2455.041923
340.256807	2482.768269
340.648875	2480.247692
341.040879	2414.712692
341.432818	2530.659231
341.824694	2407.150962
342.216506	2520.576923
342.608253	2450.000769
342.999937	2502.932885
343.391557	2470.165385
343.783113	2452.521346
344.174605	2480.247692
344.566033	2409.671538
344.957397	2424.795000
345.348697	2404.630385
345.739934	2475.206538
346.131106	2460.083077
346.522215	2444.959615
346.913260	2513.015192
347.304241	2462.603654
347.695159	2487.809423
348.086012	2530.659231
348.476802	2452.521346
348.867528	2424.795000
349.258191	2434.877308
349.648789	2427.315577
350.039324	2444.959615
350.429796	2399.589231
350.820203	2452.521346
351.210548	2447.480192
351.600828	2422.274423
351.991045	2507.974038
352.381198	2515.535769
352.771288	2515.535769
353.161314	2548.303269
353.551276	2450.000769
353.941175	2472.685962
354.331010	2462.603654
354.720782	2432.356731
355.110490	2386.986346
355.500135	2460.083077
355.889717	2374.383462
356.279235	2404.630385
356.668689	2475.206538
357.058080	2568.467885
357.447408	2344.136538
357.836672	2422.274423
358.225873	2422.274423
358.615010	2457.562500
359.004084	2523.097500
359.393095	2402.109808
359.782043	2434.877308
360.170927	2444.959615
360.559748	2492.850577
360.948505	2465.124231
361.337199	2359.260000
361.725830	2407.150962
362.114398	2462.603654
362.502903	2419.753846
362.891344	2432.356731
363.279722	2525.618077
363.668037	2482.768269
364.056289	2394.548077
364.444478	2450.000769
364.832603	2434.877308
365.220665	2412.192115
365.608665	2394.548077
365.996601	2518.056346
366.384474	2389.506923
366.772284	2412.192115
367.160031	2374.383462
367.547715	2477.727115
367.935336	2467.644808
368.322893	2475.206538
368.710388	2460.083077
369.097820	2397.068654
369.485189	2376.904038
369.872495	2392.027500
370.259738	2452.521346
370.646918	2409.671538
371.034035	2528.138654
371.421090	2462.603654
371.808081	2490.330000
372.195010	2444.959615
372.581875	2530.659231
372.968678	2442.439038
373.355418	2520.576923
373.742096	2490.330000
374.128710	2502.932885
374.515262	2444.959615
374.901751	2505.453462
375.288177	2439.918462
375.674540	2374.383462
376.060841	2480.247692
376.447079	2513.015192
376.833254	2457.562500
377.219367	2480.247692
377.605417	2487.809423
377.991404	2455.041923
378.377329	2505.453462
378.763191	2412.192115
379.148991	2480.247692
379.534727	2452.521346
379.920402	2467.644808
380.306013	2558.385577
380.691563	2444.959615
381.077049	2465.124231
381.462474	2374.383462
381.847835	2472.685962
382.233134	2376.904038
382.618371	2507.974038
383.003545	2422.274423
383.388657	2452.521346
383.773706	2354.218846
384.158693	2507.974038
384.543618	2502.932885
384.928480	2424.795000
385.313280	2404.630385
385.698017	2467.644808
386.082692	2462.603654
386.467305	2525.618077
386.851856	2371.862885
387.236344	2422.274423
387.620770	2492.850577
388.005133	2399.589231
388.389435	2492.850577
388.773674	2490.330000
389.157851	2530.659231
389.541965	2374.383462
389.926018	2414.712692
390.310008	2480.247692
390.693936	2424.795000
391.077802	2505.453462
391.461606	2397.068654
391.845348	2482.768269
392.229027	2404.630385
392.612645	2422.274423
392.996200	2437.397885
393.379694	2437.397885
393.763125	2444.959615
394.146494	2412.192115
394.529801	2460.083077
394.913047	2518.056346
395.296230	2432.356731
395.679351	2467.644808
396.062410	2439.918462
396.445408	2515.535769
396.828343	2467.644808
397.211217	2525.618077
397.594028	2457.562500
397.976778	2490.330000
398.359466	2442.439038
398.742092	2548.303269
399.124656	2558.385577
399.507158	2487.809423
399.889598	2450.000769
400.271977	2470.165385
400.654294	2427.315577
401.036549	2492.850577
401.418742	2523.097500
401.800874	2545.782692
402.182944	2490.330000
402.564952	2523.097500
402.946898	2470.165385
403.328783	2505.453462
403.710606	2457.562500
404.092367	2409.671538
404.474067	2530.659231
404.855705	2520.576923
405.237282	2417.233269
405.618797	2492.850577
406.000250	2475.206538
406.381642	2359.260000
406.762972	2540.741538
407.144240	2528.138654
407.525447	2490.330000
407.906593	2482.768269
408.287677	2460.083077
408.668700	2429.836154
409.049661	2427.315577
409.430560	2444.959615
409.811399	2495.371154
410.192176	2354.218846
410.572891	2535.700385
410.953545	2507.974038
411.334138	2422.274423
411.714669	2412.192115
412.095139	2533.179808
412.475547	2528.138654
412.855894	2442.439038
413.236180	2460.083077
413.616405	2439.918462
413.996568	2455.041923
414.376670	2462.603654
414.756711	2470.165385
415.136691	2444.959615
415.516609	2465.124231
415.896466	2538.220962
416.276262	2434.877308
416.655997	2439.918462
417.035670	2497.891731
417.415283	2513.015192
417.794834	2482.768269
418.174324	2593.673654
418.553753	2545.782692
418.933121	2467.644808
419.312428	2495.371154
419.691674	2460.083077
420.070859	2359.260000
420.449983	2462.603654
420.829045	2462.603654
421.208047	2507.974038
421.586988	2525.618077
421.965867	2581.070769
422.344686	2450.000769
422.723444	2495.371154
423.102141	2467.644808
423.480777	2518.056346
423.859352	2520.576923
424.237866	2540.741538
424.616319	2407.150962
424.994712	2533.179808
425.373044	2437.397885
425.751314	2480.247692
426.129524	2394.548077
426.507673	2482.768269
426.885762	2480.247692
427.263789	2482.768269
427.641756	2480.247692
428.019662	2513.015192
428.397508	2450.000769
428.775292	2439.918462
429.153016	2495.371154
429.530679	2429.836154
429.908282	2460.083077
430.285824	2545.782692
430.663305	2490.330000
431.040726	2437.397885
431.418086	2510.494615
431.795385	2550.823846
432.172624	2502.932885
432.549802	2540.741538
432.926920	2497.891731
433.303977	2525.618077
433.680974	2490.330000
434.057910	2450.000769
434.434786	2520.576923
434.811601	2492.850577
435.188355	2558.385577
435.565050	2570.988462
435.941683	2414.712692
436.318257	2525.618077
436.694770	2535.700385
437.071222	2487.809423
437.447614	2439.918462
437.823946	2386.986346
438.200218	2437.397885
438.576429	2427.315577
438.952580	2497.891731
439.328670	2439.918462
439.704700	2452.521346
440.080670	2427.315577
440.456580	2553.344423
440.832429	2427.315577
441.208218	2520.576923
441.583947	2460.083077
441.959616	2487.809423
442.335224	2500.412308
442.710773	2523.097500
443.086261	2545.782692
443.461689	2399.589231
443.837057	2558.385577
444.212365	2480.247692
444.587612	2485.288846
444.962800	2492.850577
445.337927	2414.712692
445.712995	2452.521346
446.088002	2485.288846
446.462949	2507.974038
446.837837	2480.247692
447.212664	2427.315577
447.587431	2450.000769
447.962139	2452.521346
448.336786	2497.891731
448.711374	2485.288846
449.085901	2472.685962
449.460369	2490.330000
449.834776	2455.041923
450.209124	2528.138654
450.583412	2538.220962
450.957640	2515.535769
451.331808	2485.288846
451.705917	2518.056346
452.079965	2462.603654
452.453954	2472.685962
452.827883	2452.521346
453.201752	2533.179808
453.575562	2442.439038
453.949311	2560.906154
454.323001	2470.165385
454.696632	2525.618077
455.070202	2525.618077
455.443713	2495.371154
455.817164	2439.918462
456.190556	2475.206538
456.563888	2467.644808
456.937160	2452.521346
457.310373	2518.056346
457.683526	2450.000769
458.056619	2538.220962
458.429653	2482.768269
458.802628	2520.576923
459.175542	2457.562500
459.548398	2515.535769
459.921194	2487.809423
460.293930	2520.576923
460.666607	2439.918462
461.039224	2563.426731
461.411782	2507.974038
461.784280	2407.150962
462.156719	2525.618077
462.529099	2525.618077
462.901419	2480.247692
463.273680	2502.932885
463.645882	2442.439038
464.018024	2533.179808
464.390106	2437.397885
464.762130	2424.795000
465.134094	2455.041923
465.505999	2565.947308
465.877845	2490.330000
466.249631	2502.932885
466.621358	2533.179808
466.993026	2548.303269
467.364634	2487.809423
467.736184	2540.741538
468.107674	2439.918462
468.479105	2429.836154
468.850477	2553.344423
469.221790	2492.850577
469.593043	2530.659231
469.964238	2470.165385
470.335373	2480.247692
470.706449	2434.877308
471.077467	2510.494615
471.448425	2439.918462
471.819324	2379.424615
472.190164	2495.371154
472.560945	2462.603654
472.931667	2409.671538
473.302330	2450.000769
473.672934	2515.535769
474.043479	2472.685962
474.413965	2409.671538
474.784393	2500.412308
475.154761	2429.836154
475.525070	2563.426731
475.895321	2444.959615
476.265513	2429.836154
476.635645	2510.494615
477.005719	2495.371154
477.375734	2495.371154
477.745691	2497.891731
478.115588	2525.618077
478.485427	2444.959615
478.855207	2543.262115
479.224928	2427.315577
479.594591	2518.056346
479.964194	2573.509038
480.333739	2472.685962
480.703226	2505.453462
481.072653	2518.056346
481.442022	2523.097500
481.811333	2540.741538
482.180584	2525.618077
482.549777	2538.220962
482.918912	2482.768269
483.287988	2545.782692
483.657005	2515.535769
484.025964	2563.426731
484.394864	2558.385577
484.763706	2485.288846
485.132489	2538.220962
485.501213	2543.262115
485.869879	2530.659231
486.238487	2477.727115
486.607036	2497.891731
486.975527	2482.768269
487.343959	2455.041923
487.712333	2576.029615
488.080648	2578.550192
488.448905	2472.685962
488.817104	2545.782692
489.185244	2513.015192
489.553326	2538.220962
489.921350	2452.521346
490.289315	2505.453462
490.657222	2472.685962
491.025070	2485.288846
491.392861	2457.562500
491.760593	2455.041923
492.128267	2467.644808
492.495883	2515.535769
492.863440	2578.550192
493.230939	2392.027500
493.598380	2492.850577
493.965763	2472.685962
494.333088	2578.550192
494.700354	2472.685962
495.067563	2535.700385
495.434713	2475.206538
495.801805	2475.206538
496.168839	2513.015192
496.535815	2550.823846
496.902733	2497.891731
497.269593	2513.015192
497.636395	2492.850577
498.003139	2460.083077
498.369825	2520.576923
498.736453	2462.603654
499.103023	2480.247692
499.469535	2505.453462
499.835989	2460.083077
500.202385	2434.877308
500.568723	2485.288846
500.935003	2525.618077
501.301226	2472.685962
501.667390	2550.823846
502.033497	2543.262115
502.399546	2472.685962
502.765537	2477.727115
503.131470	2510.494615
503.497345	2465.124231
503.863163	2510.494615
504.228923	2470.165385
504.594625	2452.521346
504.960269	2576.029615
505.325856	2467.644808
505.691385	2475.206538
506.056856	2470.165385
506.422270	2586.111923
506.787625	2487.809423
507.152924	2518.056346
507.518164	2492.850577
507.883347	2495.371154
508.248472	2502.932885
508.613540	2507.974038
508.978550	2492.850577
509.343503	2470.165385
509.708398	2523.097500
510.073236	2530.659231
510.438016	2528.138654
510.802738	2460.083077
511.167403	2616.358846
511.532010	2510.494615
511.896561	2419.753846
512.261053	2518.056346
512.625488	2510.494615
512.989866	2543.262115
513.354186	2419.753846
513.718449	2500.412308
514.082655	2523.097500
514.446803	2525.618077
514.810894	2444.959615
515.174927	2540.741538
515.538904	2520.576923
515.902822	2545.782692
516.266684	2603.755962
516.630488	2422.274423
516.994235	2560.906154
517.357925	2555.865000
517.721558	2492.850577
518.085133	2545.782692
518.448651	2540.741538
518.812112	2465.124231
519.175516	2533.179808
519.538863	2470.165385
519.902152	2457.562500
520.265385	2424.795000
520.628560	2497.891731
520.991678	2485.288846
521.354739	2500.412308
521.717743	2518.056346
522.080690	2407.150962
522.443580	2412.192115
522.806413	2462.603654
523.169189	2475.206538
523.531908	2563.426731
523.894569	2518.056346
524.257174	2475.206538
524.619722	2475.206538
524.982213	2563.426731
525.344647	2480.247692
525.707025	2447.480192
526.069345	2523.097500
526.431608	2482.768269
526.793815	2520.576923
527.155964	2510.494615
527.518057	2457.562500
527.880093	2475.206538
528.242072	2480.247692
528.603995	2439.918462
528.965860	2545.782692
529.327669	2513.015192
529.689421	2548.303269
530.051117	2525.618077
530.412755	2404.630385
530.774337	2472.685962
531.135862	2485.288846
531.497331	2507.974038
531.858743	2452.521346
532.220098	2477.727115
532.581396	2510.494615
532.942638	2452.521346
533.303824	2492.850577
533.664953	2525.618077
534.026025	2578.550192
534.387040	2455.041923
534.747999	2460.083077
535.108902	2555.865000
535.469748	2492.850577
535.830537	2502.932885
536.191270	2457.562500
536.551947	2460.083077
536.912567	2497.891731
537.273131	2485.288846
537.633638	2510.494615
537.994089	2477.727115
538.354483	2460.083077
538.714821	2553.344423
539.075103	2437.397885
539.435328	2495.371154
539.795497	2588.632500
540.155609	2565.947308
540.515665	2450.000769
540.875665	2608.797115
541.235609	2412.192115
541.595496	2492.850577
541.955328	2492.850577
542.315102	2520.576923
542.674821	2533.179808
543.034483	2485.288846
543.394090	2500.412308
543.753640	2565.947308
544.113134	2505.453462
544.472571	2414.712692
544.831953	2371.862885
545.191278	2535.700385
545.550548	2558.385577
545.909761	2417.233269
546.268918	2523.097500
546.628019	2495.371154
546.987064	2437.397885
547.346053	2543.262115
547.704986	2482.768269
548.063863	2434.877308
548.422684	2412.192115
548.781449	2397.068654
549.140158	2560.906154
549.498811	2465.124231
549.857408	2482.768269
550.215949	2475.206538
550.574434	2437.397885
550.932864	2510.494615
551.291237	2477.727115
551.649555	2510.494615
552.007817	2507.974038
552.366022	2432.356731
552.724173	2530.659231
553.082267	2588.632500
553.440305	2535.700385
553.798288	2573.509038
554.156215	2530.659231
554.514086	2505.453462
554.871902	2538.220962
555.229661	2457.562500
555.587365	2490.330000
555.945014	2475.206538
556.302606	2497.891731
556.660143	2543.262115
557.017625	2523.097500
557.375050	2510.494615
557.732421	2543.262115
558.089735	2543.262115
558.446994	2424.795000
558.804197	2525.618077
559.161345	2475.206538
559.518437	2570.988462
559.875474	2470.165385
560.232455	2462.603654
560.589381	2518.056346
560.946251	2558.385577
561.303065	2500.412308
561.659825	2555.865000
562.016528	2520.576923
562.373177	2437.397885
562.729770	2452.521346
563.086307	2500.412308
563.442789	2492.850577
563.799216	2545.782692
564.155587	2467.644808
564.511904	2545.782692
564.868164	2490.330000
565.224370	2419.753846
565.580520	2548.303269
565.936615	2447.480192
566.292654	2482.768269
566.648638	2520.576923
567.004567	2500.412308
567.360441	2472.685962
567.716260	2412.192115
568.072023	2429.836154
568.427732	2480.247692
568.783385	2530.659231
569.138982	2485.288846
569.494525	2465.124231
569.850013	2439.918462
570.205445	2470.165385
570.560823	2480.247692
570.916145	2487.809423
571.271412	2442.439038
571.626625	2500.412308
571.981782	2439.918462
572.336884	2480.247692
572.691931	2402.109808
573.046923	2460.083077
573.401860	2535.700385
573.756743	2490.330000
574.111570	2545.782692
574.466342	2510.494615
574.821059	2500.412308
575.175722	2538.220962
575.530330	2495.371154
575.884882	2518.056346
576.239380	2444.959615
576.593823	2434.877308
576.948211	2533.179808
577.302544	2422.274423
577.656823	2558.385577
578.011047	2452.521346
578.365216	2452.521346
578.719330	2530.659231
579.073389	2555.865000
579.427394	2528.138654
579.781344	2460.083077
580.135239	2384.465769
580.489080	2485.288846
580.842866	2487.809423
581.196597	2583.591346
581.550273	2485.288846
581.903895	2462.603654
582.257463	2482.768269
582.610975	2407.150962
582.964434	2555.865000
583.317837	2482.768269
583.671186	2520.576923
584.024481	2444.959615
584.377721	2467.644808
584.730906	2412.192115
585.084037	2520.576923
585.437113	2444.959615
585.790135	2548.303269
586.143103	2487.809423
586.496016	2409.671538
586.848874	2591.153077
587.201679	2502.932885
587.554428	2507.974038
587.907124	2507.974038
588.259765	2525.618077
588.612352	2550.823846
588.964884	2500.412308
589.317362	2507.974038
589.669786	2462.603654
590.022155	2487.809423
590.374470	2535.700385
590.726731	2480.247692
591.078937	2477.727115
591.431090	2409.671538
591.783188	2457.562500
592.135232	2502.932885
592.487222	2465.124231
592.839157	2523.097500
593.191038	2485.288846
593.542866	2563.426731
593.894639	2530.659231
594.246358	2533.179808
594.598022	2530.659231
594.949633	2502.932885
595.301190	2439.918462
595.652692	2500.412308
596.004141	2480.247692
596.355535	2490.330000
596.706876	2490.330000
597.058162	2455.041923
597.409395	2424.795000
597.760573	2460.083077
598.111698	2505.453462
598.462768	2596.194231
598.813785	2588.632500
599.164748	2472.685962
599.515657	2520.576923
599.866511	2432.356731
600.217312	2482.768269
600.568060	2502.932885
600.918753	2510.494615
601.269392	2439.918462
601.619978	2505.453462
601.970510	2510.494615
602.320988	2495.371154
602.671412	2525.618077
603.021783	2515.535769
603.372100	2497.891731
603.722363	2555.865000
604.072572	2507.974038
604.422728	2467.644808
604.772830	2523.097500
605.122878	2523.097500
605.472872	2518.056346
605.822813	2538.220962
606.172701	2467.644808
606.522534	2480.247692
606.872314	2439.918462
607.222041	2442.439038
607.571714	2543.262115
607.921333	2467.644808
608.270899	2545.782692
608.620411	2525.618077
608.969870	2495.371154
609.319276	2520.576923
609.668627	2457.562500
610.017926	2452.521346
610.367171	2467.644808
610.716362	2593.673654
611.065500	2545.782692
611.414585	2608.797115
611.763616	2525.618077
612.112594	2487.809423
612.461518	2490.330000
612.810389	2452.521346
613.159207	2568.467885
613.507971	2492.850577
613.856682	2543.262115
614.205340	2510.494615
614.553945	2520.576923
614.902496	2583.591346
615.250994	2495.371154
615.599439	2510.494615
615.947830	2470.165385
616.296169	2490.330000
616.644454	2535.700385
616.992686	2563.426731
617.340864	2606.276538
617.688990	2450.000769
618.037063	2480.247692
618.385082	2472.685962
618.733048	2460.083077
619.080961	2447.480192
619.428821	2530.659231
619.776628	2444.959615
620.124382	2480.247692
620.472083	2530.659231
620.819731	2487.809423
621.167326	2495.371154
621.514868	2588.632500
621.862357	2570.988462
622.209793	2565.947308
622.557176	2487.809423
622.904506	2492.850577
623.251783	2497.891731
623.599007	2505.453462
623.946179	2553.344423
624.293297	2513.015192
624.640363	2505.453462
624.987376	2593.673654
625.334336	2613.838269
625.681243	2555.865000
626.028097	2520.576923
626.374899	2538.220962
626.721647	2591.153077
627.068343	2515.535769
627.414987	2502.932885
627.761577	2460.083077
628.108115	2497.891731
628.454600	2535.700385
628.801032	2452.521346
629.147412	2480.247692
629.493739	2439.918462
629.840014	2487.809423
630.186236	2467.644808
630.532405	2424.795000
630.878521	2455.041923
631.224585	2505.453462
631.570597	2477.727115
631.916556	2462.603654
632.262462	2487.809423
632.608316	2497.891731
632.954117	2427.315577
633.299866	2598.714808
633.645562	2404.630385
633.991206	2513.015192
634.336797	2412.192115
634.682336	2563.426731
635.027823	2523.097500
635.373257	2487.809423
635.718639	2434.877308
636.063968	2560.906154
636.409245	2434.877308
636.754470	2570.988462
637.099642	2513.015192
637.444762	2553.344423
637.789829	2439.918462
638.134845	2573.509038
638.479808	2434.877308
638.824719	2535.700385
639.169577	2505.453462
639.514383	2460.083077
639.859137	2535.700385
640.203839	2558.385577
640.548489	2432.356731
640.893086	2497.891731
641.237632	2384.465769
641.582125	2513.015192
641.926566	2523.097500
642.270955	2510.494615
642.615292	2558.385577
642.959576	2502.932885
643.303809	2581.070769
643.647990	2545.782692
643.992118	2444.959615
644.336195	2472.685962
644.680219	2465.124231
645.024192	2550.823846
645.368112	2417.233269
645.711981	2588.632500
646.055797	2550.823846
646.399562	2502.932885
646.743274	2520.576923
647.086935	2472.685962
647.430544	2477.727115
647.774101	2555.865000
648.117606	2495.371154
648.461059	2505.453462
648.804460	2444.959615
649.147810	2457.562500
649.491108	2452.521346
649.834354	2472.685962
650.177548	2452.521346
650.520690	2518.056346
650.863781	2467.644808
651.206820	2505.453462
651.549807	2611.317692
651.892742	2475.206538
652.235626	2487.809423
652.578458	2523.097500
652.921238	2553.344423
653.263967	2545.782692
653.606644	2427.315577
653.949269	2482.768269
654.291843	2450.000769
654.634365	2475.206538
654.976836	2452.521346
655.319255	2553.344423
655.661622	2480.247692
656.003938	2586.111923
656.346203	2497.891731
656.688416	2525.618077
657.030577	2500.412308
657.372687	2409.671538
657.714746	2502.932885
658.056753	2472.685962
658.398708	2482.768269
658.740612	2450.000769
659.082465	2520.576923
659.424266	2535.700385
659.766016	2535.700385
660.107715	2576.029615
660.449362	2621.400000
660.790958	2525.618077
661.132503	2462.603654
661.473996	2417.233269
661.815438	2613.838269
662.156829	2495.371154
662.498168	2538.220962
662.839456	2495.371154
663.180693	2533.179808
663.521879	2439.918462
663.863013	2482.768269
664.204097	2462.603654
664.545129	2533.179808
664.886110	2460.083077
665.227040	2490.330000
665.567918	2424.795000
665.908746	2565.947308
666.249522	2525.618077
666.590248	2545.782692
666.930922	2470.165385
667.271545	2573.509038
667.612118	2533.179808
667.952639	2492.850577
668.293109	2518.056346
668.633528	2480.247692
668.973896	2520.576923
669.314213	2480.247692
669.654480	2581.070769
669.994695	2528.138654
670.334859	2439.918462
670.674973	2429.836154
671.015035	2490.330000
671.355047	2510.494615
671.695008	2518.056346
672.034918	2525.618077
672.374777	2465.124231
672.714585	2555.865000
673.054342	2470.165385
673.394049	2583.591346
673.733705	2462.603654
674.073310	2507.974038
674.412864	2482.768269
674.752368	2490.330000
675.091820	2480.247692
675.431223	2515.535769
675.770574	2482.768269
676.109875	2495.371154
676.449125	2515.535769
676.788324	2480.247692
677.127473	2467.644808
677.466571	2550.823846
677.805619	2497.891731
678.144616	2507.974038
678.483562	2470.165385
678.822458	2487.809423
679.161303	2460.083077
679.500098	2533.179808
679.838842	2603.755962
680.177535	2616.358846
680.516179	2442.439038
680.854771	2470.165385
681.193314	2480.247692
681.531805	2450.000769
681.870247	2518.056346
682.208638	2515.535769
682.546978	2490.330000
682.885268	2550.823846
683.223508	2515.535769
683.561697	2452.521346
683.899836	2497.891731
684.237925	2414.712692
684.575963	2495.371154
684.913951	2523.097500
685.251889	2490.330000
685.589776	2457.562500
685.927614	2528.138654
686.265401	2427.315577
686.603137	2550.823846
686.940824	2485.288846
687.278460	2593.673654
687.616046	2371.862885
687.953582	2507.974038
688.291068	2475.206538
688.628504	2513.015192
688.965889	2525.618077
689.303224	2510.494615
689.640510	2452.521346
689.977745	2447.480192
690.314930	2520.576923
690.652065	2538.220962
690.989150	2475.206538
691.326185	2520.576923
691.663170	2608.797115
692.000105	2480.247692
692.336990	2482.768269
692.673825	2452.521346
693.010610	2444.959615
693.347345	2533.179808
693.684030	2520.576923
694.020665	2490.330000
694.357251	2495.371154
694.693786	2563.426731
695.030272	2475.206538
695.366707	2455.041923
695.703093	2540.741538
696.039429	2477.727115
696.375716	2505.453462
696.711952	2492.850577
697.048139	2487.809423
697.384276	2495.371154
697.720363	2467.644808
698.056400	2513.015192
698.392388	2505.453462
698.728326	2538.220962
699.064214	2568.467885
699.400053	2543.262115
699.735842	2465.124231
700.071581	2492.850577
700.407270	2492.850577
700.742910	2528.138654
701.078501	2515.535769
701.414042	2533.179808
701.749533	2500.412308
702.084974	2455.041923
702.420366	2472.685962
702.755709	2467.644808
703.091002	2444.959615
703.426246	2535.700385
703.761440	2518.056346
704.096584	2586.111923
704.431679	2538.220962
704.766725	2507.974038
705.101721	2482.768269
705.436668	2402.109808
705.771565	2518.056346
706.106413	2467.644808
706.441212	2462.603654
706.775961	2550.823846
707.110661	2475.206538
707.445311	2523.097500
707.779913	2407.150962
708.114465	2475.206538
708.448967	2530.659231
708.783421	2457.562500
709.117825	2470.165385
709.452180	2518.056346
709.786485	2507.974038
710.120742	2419.753846
710.454949	2437.397885
710.789107	2439.918462
711.123216	2477.727115
711.457275	2477.727115
711.791286	2555.865000
712.125247	2497.891731
712.459159	2550.823846
712.793023	2442.439038
713.126837	2447.480192
713.460602	2442.439038
713.794318	2538.220962
714.127985	2470.165385
714.461602	2495.371154
714.795171	2518.056346
715.128691	2500.412308
715.462162	2528.138654
715.795584	2465.124231
716.128957	2437.397885
716.462281	2502.932885
716.795556	2419.753846
717.128782	2507.974038
717.461960	2538.220962
717.795088	2417.233269
718.128167	2429.836154
718.461198	2520.576923
718.794180	2548.303269
719.127113	2492.850577
719.459997	2618.879423
719.792833	2450.000769
720.125619	2490.330000
720.458357	2467.644808
720.791046	2475.206538
721.123686	2442.439038
721.456278	2530.659231
721.788821	2490.330000
722.121315	2518.056346
722.453761	2497.891731
722.786158	2586.111923
723.118506	2505.453462
723.450805	2379.424615
723.783056	2472.685962
724.115259	2462.603654
724.447412	2477.727115
724.779518	2533.179808
725.111574	2460.083077
725.443582	2530.659231
725.775542	2520.576923
726.107453	2487.809423
726.439315	2485.288846
726.771129	2510.494615
727.102895	2439.918462
727.434612	2475.206538
727.766281	2487.809423
728.097901	2543.262115
728.429473	2455.041923
728.760996	2429.836154
729.092471	2502.932885
729.423897	2462.603654
729.755276	2450.000769
730.086606	2573.509038
730.417887	2465.124231
730.749120	2530.659231
731.080305	2480.247692
731.411442	2550.823846
731.742530	2550.823846
732.073570	2497.891731
732.404562	2485.288846
732.735506	2439.918462
733.066401	2455.041923
733.397249	2419.753846
733.728048	2523.097500
734.058798	2437.397885
734.389501	2389.506923
734.720156	2437.397885
735.050762	2460.083077
735.381320	2545.782692
735.711831	2457.562500
736.042293	2520.576923
736.372707	2427.315577
736.703073	2520.576923
737.033391	2497.891731
737.363661	2538.220962
737.693883	2470.165385
738.024056	2477.727115
738.354182	2495.371154
738.684260	2462.603654
739.014290	2487.809423
739.344272	2591.153077
739.674207	2573.509038
740.004093	2477.727115
740.333931	2565.947308
740.663722	2392.027500
740.993464	2495.371154
741.323159	2455.041923
741.652806	2467.644808
741.982405	2452.521346
742.311956	2480.247692
742.641460	2462.603654
742.970915	2487.809423
743.300323	2447.480192
743.629683	2485.288846
743.958996	2560.906154
744.288260	2520.576923
744.617477	2467.644808
744.946647	2437.397885
745.275768	2437.397885
745.604842	2434.877308
745.933869	2444.959615
746.262847	2548.303269
746.591778	2553.344423
746.920662	2407.150962
747.249498	2528.138654
747.578286	2472.685962
747.907027	2457.562500
748.235720	2535.700385
748.564365	2507.974038
748.892963	2543.262115
749.221514	2520.576923
749.550017	2492.850577
749.878473	2492.850577
750.206881	2432.356731
750.535242	2490.330000
750.863555	2470.165385
751.191821	2500.412308
751.520039	2520.576923
751.848210	2535.700385
752.176334	2409.671538
752.504411	2560.906154
752.832440	2515.535769
753.160421	2515.535769
753.488356	2457.562500
753.816243	2520.576923
754.144082	2475.206538
754.471875	2538.220962
754.799620	2477.727115
755.127318	2538.220962
755.454969	2404.630385
755.782572	2543.262115
756.110129	2583.591346
756.437638	2432.356731
756.765100	2553.344423
757.092515	2487.809423
757.419882	2485.288846
757.747203	2404.630385
758.074477	2545.782692
758.401703	2565.947308
758.728882	2568.467885
759.056014	2462.603654
759.383099	2608.797115
759.710138	2457.562500
760.037129	2497.891731
760.364073	2462.603654
760.690970	2510.494615
761.017820	2472.685962
761.344623	2487.809423
761.671379	2457.562500
761.998088	2500.412308
762.324751	2586.111923
762.651366	2525.618077
762.977935	2472.685962
763.304456	2513.015192
763.630931	2581.070769
763.957359	2427.315577
764.283740	2513.015192
764.610074	2470.165385
764.936362	2500.412308
765.262602	2455.041923
765.588796	2538.220962
765.914943	2555.865000
766.241044	2439.918462
766.567097	2495.371154
766.893104	2437.397885
767.219064	2492.850577
767.544978	2462.603654
767.870845	2490.330000
768.196665	2482.768269
768.522438	2502.932885
768.848165	2500.412308
769.173846	2424.795000
769.499479	2525.618077
769.825066	2555.865000
770.150607	2485.288846
770.476101	2490.330000
770.801548	2442.439038
771.126949	2543.262115
771.452303	2497.891731
771.777611	2558.385577
772.102872	2470.165385
772.428087	2550.823846
772.753256	2419.753846
773.078378	2492.850577
773.403453	2513.015192
773.728482	2404.630385
774.053465	2535.700385
774.378401	2545.782692
774.703291	2460.083077
775.028135	2470.165385
775.352932	2507.974038
775.677683	2457.562500
776.002388	2447.480192
776.327046	2419.753846
776.651658	2530.659231
776.976224	2563.426731
777.300743	2457.562500
777.625216	2523.097500
777.949643	2480.247692
778.274024	2530.659231
778.598359	2439.918462
778.922647	2462.603654
779.246889	2555.865000
779.571086	2530.659231
779.895236	2480.247692
780.219339	2545.782692
780.543397	2515.535769
780.867409	2402.109808
781.191374	2500.412308
781.515294	2510.494615
781.839167	2472.685962
782.162995	2462.603654
782.486776	2485.288846
782.810511	2510.494615
783.134201	2510.494615
783.457844	2510.494615
783.781441	2550.823846
784.104993	2462.603654
784.428498	2520.576923
784.751958	2515.535769
785.075372	2515.535769
785.398739	2520.576923
785.722061	2394.548077
786.045337	2495.371154
786.368568	2412.192115
786.691752	2518.056346
787.014891	2555.865000
787.337983	2417.233269
787.661030	2472.685962
787.984031	2404.630385
788.306987	2472.685962
788.629897	2482.768269
788.952760	2568.467885
789.275579	2444.959615
789.598351	2533.179808
789.921078	2505.453462
790.243759	2475.206538
790.566395	2492.850577
790.888984	2457.562500
791.211529	2535.700385
791.534027	2477.727115
791.856480	2533.179808
792.178888	2490.330000
792.501249	2528.138654
792.823566	2447.480192
793.145836	2497.891731
793.468062	2576.029615
793.790241	2495.371154
794.112375	2497.891731
794.434464	2442.439038
794.756507	2502.932885
795.078505	2518.056346
795.400457	2482.768269
795.722364	2467.644808
796.044226	2465.124231
796.366042	2550.823846
796.687812	2477.727115
797.009538	2475.206538
797.331218	2437.397885
797.652852	2518.056346
797.974442	2485.288846
798.295986	2538.220962
798.617484	2492.850577
798.938938	2513.015192
799.260346	2452.521346
799.581709	2497.891731
799.903026	2583.591346
800.224299	2520.576923
800.545526	2485.288846
800.866708	2495.371154
801.187845	2528.138654
801.508936	2490.330000
801.829983	2540.741538
802.150984	2518.056346
802.471940	2477.727115
802.792851	2543.262115
803.113717	2555.865000
803.434538	2495.371154
803.755314	2507.974038
804.076045	2437.397885
804.396731	2470.165385
804.717372	2608.797115
805.037967	2538.220962
805.358518	2457.562500
805.679024	2603.755962
805.999485	2530.659231
806.319901	2502.932885
806.640272	2452.521346
806.960598	2497.891731
807.280879	2485.288846
807.601115	2515.535769
807.921306	2480.247692
808.241453	2530.659231
808.561554	2371.862885
808.881611	2452.521346
809.201623	2477.727115
809.521590	2470.165385
809.841513	2465.124231
810.161390	2455.041923
810.481223	2515.535769
810.801011	2573.509038
811.120755	2424.795000
811.440453	2502.932885
811.760107	2427.315577
812.079716	2548.303269
812.399281	2510.494615
812.718801	2502.932885
813.038276	2480.247692
813.357707	2462.603654
813.677093	2467.644808
813.996434	2530.659231
814.315731	2450.000769
814.634983	2510.494615
814.954191	2470.165385
815.273354	2482.768269
815.592473	2460.083077
815.911547	2576.029615
816.230577	2429.836154
816.549562	2475.206538
816.868502	2460.083077
817.187399	2485.288846
817.506250	2523.097500
817.825058	2530.659231
818.143821	2487.809423
818.462539	2570.988462
818.781213	2492.850577
819.099843	2525.618077
819.418429	2465.124231
819.736970	2472.685962
820.055466	2500.412308
820.373919	2414.712692
820.692327	2543.262115
821.010691	2427.315577
821.329011	2465.124231
821.647286	2480.247692
821.965517	2497.891731
822.283704	2444.959615
822.601847	2477.727115
822.919945	2502.932885
823.237999	2465.124231
823.556010	2502.932885
823.873976	2472.685962
824.191897	2422.274423
824.509775	2470.165385
824.827609	2427.315577
825.145398	2414.712692
825.463144	2444.959615
825.780845	2475.206538
826.098502	2465.124231
826.416116	2442.439038
826.733685	2467.644808
827.051210	2533.179808
827.368692	2477.727115
827.686129	2507.974038
828.003522	2520.576923
828.320872	2518.056346
828.638177	2495.371154
828.955439	2548.303269
829.272656	2487.809423
829.589830	2520.576923
829.906960	2502.932885
830.224046	2376.904038
830.541088	2482.768269
830.858086	2507.974038
831.175041	2470.165385
831.491952	2485.288846
831.808819	2553.344423
832.125642	2510.494615
832.442421	2412.192115
832.759157	2505.453462
833.075849	2457.562500
833.392497	2460.083077
833.709101	2505.453462
834.025662	2450.000769
834.342179	2462.603654
834.658653	2518.056346
834.975083	2424.795000
835.291469	2427.315577
835.607811	2424.795000
835.924110	2450.000769
836.240366	2588.632500
836.556578	2543.262115
836.872746	2482.768269
837.188871	2538.220962
837.504952	2505.453462
837.820990	2513.015192
838.136984	2560.906154
838.452935	2570.988462
838.768842	2573.509038
839.084706	2538.220962
839.400526	2389.506923
839.716303	2540.741538
840.032037	2500.412308
840.347727	2455.041923
840.663373	2447.480192
840.978977	2550.823846
841.294537	2515.535769
841.610054	2515.535769
841.925527	2482.768269
842.240957	2472.685962
842.556344	2555.865000
842.871687	2452.521346
843.186987	2548.303269
843.502244	2540.741538
843.817458	2455.041923
844.132629	2487.809423
844.447756	2500.412308
844.762840	2447.480192
845.077881	2429.836154
845.392879	2472.685962
845.707833	2548.303269
846.022745	2510.494615
846.337613	2497.891731
846.652438	2475.206538
846.967221	2540.741538
847.281960	2462.603654
847.596656	2520.576923
847.911309	2487.809423
848.225919	2507.974038
848.540485	2515.535769
848.855009	2545.782692
849.169490	2510.494615
849.483928	2417.233269
849.798323	2457.562500
850.112675	2462.603654
850.426984	2533.179808
850.741251	2460.083077
851.055474	2548.303269
851.369654	2457.562500
851.683792	2455.041923
851.997887	2500.412308
852.311938	2515.535769
852.625947	2487.809423
852.939914	2457.562500
853.253837	2482.768269
853.567718	2515.535769
853.881555	2487.809423
854.195350	2492.850577
854.509103	2513.015192
854.822812	2550.823846
855.136479	2422.274423
855.450103	2492.850577
855.763685	2505.453462
856.077224	2490.330000
856.390720	2444.959615
856.704173	2424.795000
857.017584	2414.712692
857.330953	2513.015192
857.644278	2490.330000
857.957561	2412.192115
858.270802	2422.274423
858.584000	2543.262115
858.897155	2520.576923
859.210268	2555.865000
859.523339	2485.288846
859.836367	2500.412308
860.149352	2480.247692
860.462295	2495.371154
860.775195	2417.233269
861.088054	2507.974038
861.400869	2510.494615
861.713642	2480.247692
862.026373	2507.974038
862.339062	2487.809423
862.651708	2543.262115
862.964312	2465.124231
863.276873	2470.165385
863.589392	2457.562500
863.901869	2523.097500
864.214303	2530.659231
864.526696	2502.932885
864.839045	2500.412308
865.151353	2386.986346
865.463619	2475.206538
865.775842	2505.453462
866.088023	2540.741538
866.400162	2520.576923
866.712258	2467.644808
867.024313	2442.439038
867.336325	2487.809423
867.648296	2560.906154
867.960224	2439.918462
868.272110	2513.015192
868.583954	2460.083077
868.895755	2467.644808
869.207515	2409.671538
869.519233	2465.124231
869.830909	2565.947308
870.142542	2591.153077
870.454134	2412.192115
870.765684	2611.317692
871.077191	2487.809423
871.388657	2472.685962
871.700081	2586.111923
872.011463	2510.494615
872.322803	2500.412308
872.634101	2482.768269
872.945357	2490.330000
873.256571	2442.439038
873.567744	2424.795000
873.878874	2545.782692
874.189963	2560.906154
874.501010	2470.165385
874.812015	2505.453462
875.122979	2492.850577
875.433900	2507.974038
875.744780	2560.906154
876.055618	2576.029615
876.366415	2492.850577
876.677169	2434.877308
876.987882	2457.562500
877.298554	2429.836154
877.609183	2472.685962
877.919771	2439.918462
878.230317	2497.891731
878.540822	2432.356731
878.851285	2520.576923
879.161707	2505.453462
879.472087	2480.247692
879.782425	2497.891731
880.092722	2495.371154
880.402977	2460.083077
880.713191	2482.768269
881.023363	2525.618077
881.333494	2472.685962
881.643583	2507.974038
881.953631	2515.535769
882.263637	2500.412308
882.573602	2543.262115
882.883526	2500.412308
883.193408	2523.097500
883.503248	2412.192115
883.813048	2485.288846
884.122806	2455.041923
884.432522	2450.000769
884.742197	2550.823846
885.051831	2570.988462
885.361424	2538.220962
885.670975	2457.562500
885.980485	2565.947308
886.289954	2545.782692
886.599382	2480.247692
886.908768	2497.891731
887.218113	2487.809423
887.527417	2482.768269
887.836680	2447.480192
888.145901	2455.041923
888.455082	2472.685962
888.764221	2487.809423
889.073319	2444.959615
889.382376	2482.768269
889.691392	2472.685962
890.000366	2485.288846
890.309300	2447.480192
890.618193	2563.426731
890.927044	2389.506923
891.235855	2505.453462
891.544625	2533.179808
891.853353	2523.097500
892.162041	2540.741538
892.470687	2560.906154
892.779293	2513.015192
893.087858	2424.795000
893.396381	2439.918462
893.704864	2475.206538
894.013306	2515.535769
894.321707	2515.535769
894.630068	2518.056346
894.938387	2505.453462
895.246665	2548.303269
895.554903	2437.397885
895.863100	2417.233269
896.171256	2518.056346
896.479371	2422.274423
896.787446	2447.480192
897.095480	2502.932885
897.403473	2538.220962
897.711425	2533.179808
898.019336	2485.288846
898.327207	2437.397885
898.635038	2535.700385
898.942827	2492.850577
899.250576	2455.041923
899.558284	2467.644808
899.865952	2432.356731
900.173579	2497.891731
900.481165	2409.671538
900.788711	2487.809423
901.096216	2482.768269
901.403681	2444.959615
901.711105	2528.138654
902.018489	2545.782692
902.325832	2467.644808
902.633135	2515.535769
902.940397	2538.220962
903.247619	2452.521346
903.554800	2578.550192
903.861941	2523.097500
904.169041	2482.768269
904.476101	2492.850577
904.783121	2490.330000
905.090100	2497.891731
905.397039	2450.000769
905.703938	2570.988462
906.010796	2545.782692
906.317614	2414.712692
906.624391	2538.220962
906.931129	2465.124231
907.237826	2520.576923
907.544483	2513.015192
907.851099	2513.015192
908.157675	2462.603654
908.464211	2437.397885
908.770707	2540.741538
909.077163	2485.288846
909.383578	2515.535769
909.689954	2475.206538
909.996289	2573.509038
910.302584	2525.618077
910.608839	2533.179808
910.915054	2477.727115
911.221229	2462.603654
911.527363	2485.288846
911.833458	2442.439038
912.139513	2495.371154
912.445527	2518.056346
912.751502	2414.712692
913.057436	2482.768269
913.363331	2550.823846
913.669186	2528.138654
913.975000	2472.685962
914.280775	2583.591346
914.586510	2510.494615
914.892205	2515.535769
915.197859	2381.945192
915.503475	2444.959615
915.809050	2460.083077
916.114585	2485.288846
916.420081	2422.274423
916.725536	2550.823846
917.030952	2487.809423
917.336328	2480.247692
917.641665	2462.603654
917.946961	2399.589231
918.252218	2460.083077
918.557435	2543.262115
918.862612	2510.494615
919.167750	2455.041923
919.472848	2419.753846
919.777906	2520.576923
920.082925	2490.330000
920.387904	2455.041923
920.692843	2518.056346
920.997743	2515.535769
921.302603	2540.741538
921.607423	2520.576923
921.912204	2568.467885
922.216946	2533.179808
922.521647	2482.768269
922.826310	2540.741538
923.130932	2530.659231
923.435516	2528.138654
923.740059	2414.712692
924.044564	2515.535769
924.349028	2495.371154
924.653454	2550.823846
924.957840	2528.138654
925.262186	2417.233269
925.566493	2507.974038
925.870761	2513.015192
926.174989	2525.618077
926.479178	2568.467885
926.783328	2533.179808
927.087438	2563.426731
927.391509	2510.494615
927.695541	2482.768269
927.999533	2533.179808
928.303486	2490.330000
928.607400	2465.124231
928.911275	2465.124231
929.215110	2565.947308
929.518906	2500.412308
929.822663	2444.959615
930.126381	2513.015192
930.430060	2502.932885
930.733699	2462.603654
931.037299	2475.206538
931.340861	2462.603654
931.644383	2515.535769
931.947866	2374.383462
932.251309	2570.988462
932.554714	2482.768269
932.858080	2495.371154
933.161407	2518.056346
933.464694	2487.809423
933.767943	2450.000769
934.071153	2510.494615
934.374323	2467.644808
934.677455	2417.233269
934.980548	2558.385577
935.283602	2520.576923
935.586617	2570.988462
935.889593	2452.521346
936.192530	2502.932885
936.495428	2467.644808
936.798287	2500.412308
937.101108	2525.618077
937.403890	2500.412308
937.706632	2520.576923
938.009336	2457.562500
938.312002	2439.918462
938.614628	2578.550192
938.917216	2475.206538
939.219765	2439.918462
939.522275	2528.138654
939.824747	2419.753846
940.127179	2482.768269
940.429573	2472.685962
940.731929	2460.083077
941.034246	2457.562500
941.336524	2490.330000
941.638763	2419.753846
941.940964	2540.741538
942.243126	2510.494615
942.545250	2573.509038
942.847335	2545.782692
943.149381	2530.659231
943.451389	2535.700385
943.753359	2480.247692
944.055290	2611.317692
944.357182	2457.562500
944.659036	2434.877308
944.960851	2538.220962
945.262628	2460.083077
945.564367	2465.124231
945.866067	2427.315577
946.167729	2447.480192
946.469352	2442.439038
946.770937	2485.288846
947.072484	2402.109808
947.373992	2477.727115
947.675462	2392.027500
947.976893	2475.206538
948.278286	2467.644808
948.579641	2530.659231
948.880958	2477.727115
949.182236	2444.959615
949.483476	2452.521346
949.784678	2497.891731
950.085841	2460.083077
950.386967	2502.932885
950.688054	2558.385577
950.989103	2565.947308
951.290114	2442.439038
951.591087	2560.906154
951.892021	2530.659231
952.192917	2497.891731
952.493776	2467.644808
952.794596	2540.741538
953.095378	2450.000769
953.396122	2485.288846
953.696828	2482.768269
953.997496	2502.932885
954.298126	2530.659231
954.598718	2510.494615
954.899272	2447.480192
955.199788	2495.371154
955.500266	2515.535769
955.800706	2434.877308
956.101108	2495.371154
956.401472	2427.315577
956.701798	2513.015192
957.002087	2417.233269
957.302337	2457.562500
957.602550	2412.192115
957.902724	2497.891731
958.202861	2530.659231
958.502960	2452.521346
958.803022	2523.097500
959.103045	2510.494615
959.403031	2467.644808
959.702979	2490.330000
960.002889	2505.453462
960.302762	2555.865000
960.602596	2455.041923
960.902393	2523.097500
961.202153	2525.618077
961.501875	2533.179808
961.801559	2402.109808
962.101205	2482.768269
962.400814	2485.288846
962.700385	2548.303269
962.999918	2535.700385
963.299414	2591.153077
963.598873	2485.288846
963.898293	2386.986346
964.197677	2538.220962
964.497022	2497.891731
964.796331	2480.247692
965.095601	2477.727115
965.394835	2523.097500
965.694030	2507.974038
965.993189	2482.768269
966.292309	2525.618077
966.591393	2502.932885
966.890439	2495.371154
967.189447	2573.509038
967.488419	2520.576923
967.787353	2447.480192
968.086249	2460.083077
968.385108	2568.467885
968.683930	2429.836154
968.982714	2419.753846
969.281462	2482.768269
969.580172	2429.836154
969.878844	2502.932885
970.177480	2434.877308
970.476078	2576.029615
970.774639	2570.988462
971.073162	2525.618077
971.371649	2560.906154
971.670098	2477.727115
971.968510	2502.932885
972.266885	2540.741538
972.565223	2502.932885
972.863524	2581.070769
973.161788	2482.768269
973.460014	2480.247692
973.758204	2399.589231
974.056356	2555.865000
974.354471	2515.535769
974.652550	2555.865000
974.950591	2480.247692
975.248595	2470.165385
975.546563	2518.056346
975.844493	2452.521346
976.142386	2487.809423
976.440243	2576.029615
976.738062	2429.836154
977.035845	2613.838269
977.333590	2515.535769
977.631299	2558.385577
977.928971	2462.603654
978.226606	2500.412308
978.524204	2570.988462
978.821765	2497.891731
979.119290	2513.015192
979.416777	2414.712692
979.714228	2444.959615
980.011642	2444.959615
980.309020	2497.891731
980.606360	2470.165385
980.903664	2502.932885
981.200931	2472.685962
981.498162	2502.932885
981.795356	2502.932885
982.092513	2465.124231
982.389633	2525.618077
982.686717	2480.247692
982.983764	2525.618077
983.280775	2495.371154
983.577749	2492.850577
983.874686	2437.397885
984.171587	2480.247692
984.468451	2427.315577
984.765279	2432.356731
985.062070	2480.247692
985.358824	2482.768269
985.655543	2475.206538
985.952224	2472.685962
986.248869	2545.782692
986.545478	2450.000769
986.842050	2485.288846
987.138586	2482.768269
987.435086	2409.671538
987.731549	2543.262115
988.027975	2455.041923
988.324366	2417.233269
988.620719	2490.330000
988.917037	2470.165385
989.213318	2515.535769
989.509563	2497.891731
989.805772	2407.150962
990.101944	2485.288846
990.398080	2505.453462
990.694180	2482.768269
990.990244	2462.603654
991.286271	2482.768269
991.582262	2427.315577
991.878217	2523.097500
992.174136	2480.247692
992.470019	2475.206538
992.765865	2470.165385
993.061676	2482.768269
993.357450	2460.083077
993.653188	2530.659231
993.948890	2518.056346
994.244556	2450.000769
994.540186	2520.576923
994.835780	2530.659231
995.131337	2414.712692
995.426859	2462.603654
995.722345	2545.782692
996.017795	2530.659231
996.313208	2510.494615
996.608586	2467.644808
996.903928	2475.206538
997.199234	2482.768269
997.494504	2510.494615
997.789738	2540.741538
998.084936	2381.945192
998.380099	2457.562500
998.675225	2515.535769
998.970316	2495.371154
999.265371	2525.618077
999.560390	2545.782692
999.855373	2402.109808
1000.150320	2528.138654
1000.445232	2523.097500
1000.740108	2457.562500
1001.034948	2507.974038
1001.329752	2470.165385
1001.624521	2472.685962
1001.919254	2505.453462
1002.213951	2392.027500
1002.508613	2523.097500
1002.803239	2455.041923
1003.097829	2576.029615
1003.392384	2513.015192
1003.686903	2525.618077
1003.981386	2500.412308
1004.275834	2513.015192
1004.570246	2477.727115
1004.864623	2530.659231
1005.158964	2472.685962
1005.453270	2581.070769
1005.747540	2555.865000
1006.041775	2487.809423
1006.335974	2480.247692
1006.630138	2555.865000
1006.924266	2429.836154
1007.218359	2442.439038
1007.512416	2518.056346
1007.806438	2434.877308
1008.100425	2523.097500
1008.394376	2565.947308
1008.688292	2576.029615
1008.982172	2528.138654
1009.276017	2588.632500
1009.569827	2490.330000
1009.863602	2467.644808
1010.157341	2497.891731
1010.451045	2523.097500
1010.744714	2437.397885
1011.038347	2444.959615
1011.331945	2528.138654
1011.625508	2477.727115
1011.919036	2520.576923
1012.212528	2462.603654
1012.505986	2502.932885
1012.799408	2497.891731
1013.092795	2538.220962
1013.386147	2611.317692
1013.679464	2485.288846
1013.972745	2505.453462
1014.265992	2442.439038
1014.559204	2507.974038
1014.852380	2424.795000
1015.145521	2497.891731
1015.438628	2513.015192
1015.731699	2485.288846
1016.024736	2533.179808
1016.317737	2407.150962
1016.610703	2417.233269
1016.903635	2475.206538
1017.196531	2427.315577
1017.489393	2404.630385
1017.782219	2563.426731
1018.075011	2558.385577
1018.367768	2533.179808
1018.660490	2593.673654
1018.953177	2593.673654
1019.245829	2593.673654
