Dividing Wavelength (nm)	Counts (n)	Blue Motor Position (mm): 48.800000	Red Motor Position (mm): 0.000000	
326.493990	2050.025541
326.888308	2050.025541
327.282561	2050.025541
327.676750	2022.745337
328.070874	2025.515451
328.464933	2030.871677
328.858929	2040.618748
329.252859	2050.136446
329.646726	2061.476522
330.040528	2077.676270
330.434265	2094.485997
330.827938	2116.795623
331.221547	2138.202883
331.615091	2161.359423
332.008571	2180.795592
332.401986	2201.078675
332.795338	2218.185830
333.188625	2239.179715
333.581847	2258.817530
333.975006	2276.005344
334.368100	2295.091153
334.761129	2310.998514
335.154095	2328.398056
335.546996	2378.265150
335.939833	2487.345637
336.332606	2497.455671
336.725315	2511.248268
337.117960	2517.579957
337.510540	2531.105373
337.903056	2537.016126
338.295508	2547.088351
338.687896	2552.648744
339.080220	2557.742830
339.472480	2561.624518
339.864676	2562.879766
340.256807	2565.430589
340.648875	2565.843964
341.040879	2569.221537
341.432818	2571.454768
341.824694	2574.529872
342.216506	2568.793039
342.608253	2570.940571
342.999937	2570.524675
343.391557	2571.356466
343.783113	2568.619119
344.174605	2565.135682
344.566033	2564.986968
344.957397	2561.558983
345.348697	2562.446226
345.739934	2562.340362
346.131106	2558.995557
346.522215	2558.302398
346.913260	2556.653941
347.304241	2554.072870
347.695159	2553.125133
348.086012	2554.042623
348.476802	2548.497354
348.867528	2545.812939
349.258191	2541.502753
349.648789	2546.760676
350.039324	2537.419418
350.429796	2543.473844
350.820203	2543.332692
351.210548	2546.448125
351.600828	2543.753628
351.991045	2539.302289
352.381198	2541.858154
352.771288	2539.108205
353.161314	2541.585932
353.551276	2540.668442
353.941175	2537.421939
354.331010	2540.822197
354.720782	2543.612476
355.110490	2544.759338
355.500135	2541.406971
355.889717	2540.749100
356.279235	2542.717671
356.668689	2542.379913
357.058080	2542.692465
357.447408	2543.103319
357.836672	2543.093237
358.225873	2544.978628
358.615010	2545.540717
359.004084	2546.911911
359.393095	2546.886705
359.782043	2546.680018
360.170927	2546.077600
360.559748	2549.177909
360.948505	2547.786551
361.337199	2549.843342
361.725830	2548.318393
362.114398	2549.926521
362.502903	2550.735626
362.891344	2550.281922
363.279722	2549.109854
363.668037	2552.999104
364.056289	2550.339895
364.444478	2554.645041
364.832603	2550.874258
365.220665	2554.372818
365.608665	2555.106306
365.996601	2555.842315
366.384474	2555.963302
366.772284	2555.040771
367.160031	2558.125958
367.547715	2560.460012
367.935336	2556.215360
368.322893	2556.031358
368.710388	2550.276881
369.097820	2558.085628
369.485189	2554.521533
369.872495	2562.383212
370.259738	2560.268448
370.646918	2562.254662
371.034035	2560.427244
371.421090	2561.705177
371.808081	2561.642162
372.195010	2561.828685
372.581875	2565.375137
372.968678	2565.644838
373.355418	2567.804973
373.742096	2568.795560
374.128710	2569.226578
374.515262	2568.611557
374.901751	2573.496436
375.288177	2573.982907
375.674540	2572.919223
376.060841	2578.842579
376.447079	2579.997003
376.833254	2585.963209
377.219367	2586.908425
377.605417	2592.176431
377.991404	2596.655496
378.377329	2602.619181
378.763191	2603.725715
379.148991	2612.280553
379.534727	2615.174175
379.920402	2625.891668
380.306013	2629.070116
380.691563	2640.143010
381.077049	2644.503608
381.462474	2651.112561
381.847835	2664.932884
382.233134	2674.717764
382.618371	2678.191119
383.003545	2696.079653
383.388657	2704.934440
383.773706	2721.983622
384.158693	2730.941752
384.543618	2748.585791
384.928480	2756.961668
385.313280	2773.131169
385.698017	2790.374436
386.082692	2811.673311
386.467305	2824.583706
386.851856	2839.744976
387.236344	2864.998636
387.620770	2881.011861
388.005133	2896.210940
388.389435	2926.646907
388.773674	2937.114863
389.157851	2966.961014
389.541965	2991.400528
389.926018	2999.564676
390.310008	3032.609440
390.693936	3054.256154
391.077802	3079.905545
391.461606	3106.255656
391.845348	3125.147380
392.229027	3154.013027
392.612645	3191.420909
392.996200	3217.032492
393.379694	3251.516504
393.763125	3290.789613
394.146494	3316.779282
394.529801	3347.366483
394.913047	3388.343502
395.296230	3395.249883
395.679351	3421.738626
396.062410	3466.975420
396.445408	3451.128553
396.828343	3489.300170
397.211217	3524.603370
397.594028	3505.066378
397.976778	3546.608007
398.359466	3579.390630
398.742092	3591.219697
399.124656	3609.967749
399.507158	3666.431192
399.889598	3673.438396
400.271977	3729.533836
400.654294	3724.800192
401.036549	3776.852626
401.418742	3781.092237
401.800874	3843.221937
402.182944	3869.924929
402.564952	3948.304789
402.946898	3945.522072
403.328783	3942.225157
403.710606	3992.382118
404.092367	4053.385120
404.474067	4114.297382
404.855705	4100.814816
405.237282	4073.176690
405.618797	4168.210002
406.000250	4238.125765
406.381642	4314.400943
406.762972	4317.672652
407.144240	4281.537661
407.525447	4342.492773
407.906593	4360.371225
408.287677	4435.436526
408.668700	4460.710351
409.049661	4498.511443
409.430560	4532.093090
409.811399	4519.820401
410.192176	4562.773552
410.572891	4632.611177
410.953545	4731.775714
411.334138	4636.112258
411.714669	4742.722580
412.095139	4664.128471
412.475547	4760.933748
412.855894	4766.539511
413.236180	4856.009909
413.616405	4796.178975
413.996568	4888.177512
414.376670	4895.772010
414.756711	4885.392275
415.136691	4953.339467
415.516609	5035.948855
415.896466	5066.417589
416.276262	5145.425072
416.655997	5258.495632
417.035670	5343.423951
417.415283	5464.129339
417.794834	5521.648904
418.174324	5478.037882
418.553753	5480.442513
418.933121	5635.190812
419.312428	5643.995188
419.691674	5586.253812
420.070859	5784.771929
420.449983	5678.380898
420.829045	5866.005083
421.208047	5793.684689
421.586988	5940.394869
421.965867	6009.022617
422.344686	6087.722590
422.723444	6245.089769
423.102141	5892.105657
423.480777	6248.863073
423.859352	6084.942394
424.237866	6428.854951
424.616319	6413.565131
424.994712	6570.513894
425.373044	6493.187635
425.751314	6781.937366
426.129524	6528.677358
426.507673	6774.453773
426.885762	6809.590615
427.263789	6848.830957
427.641756	6934.926303
428.019662	7004.590008
428.397508	7037.097888
428.775292	7038.121243
429.153016	7177.204157
429.530679	7127.657176
429.908282	7173.894639
430.285824	7116.334745
430.663305	7365.597117
431.040726	7276.489682
431.418086	7270.213445
431.795385	7408.036071
432.172624	7582.470076
432.549802	7463.234185
432.926920	7596.179494
433.303977	7547.431536
433.680974	7592.998526
434.057910	7780.955427
434.434786	7823.916140
434.811601	7786.954400
435.188355	8113.558154
435.565050	8014.355808
435.941683	8032.274590
436.318257	8341.947629
436.694770	8280.069987
437.071222	8493.535126
437.447614	8265.112883
437.823946	8238.455262
438.200218	8384.643682
438.576429	8280.364894
438.952580	8429.149509
439.328670	8438.047145
439.704700	8524.059312
440.080670	8421.577696
440.456580	8665.992999
440.832429	8652.333992
441.208218	8400.535919
441.583947	8510.866612
441.959616	8611.868650
442.335224	8658.441350
442.710773	8736.856498
443.086261	8912.883508
443.461689	8641.427456
443.837057	8794.756671
444.212365	8989.942586
444.587612	8994.275458
444.962800	8882.195484
445.337927	9018.397379
445.712995	8578.559226
446.088002	9213.338798
446.462949	9275.569322
446.837837	9283.962843
447.212664	9344.567594
447.587431	10241.741744
447.962139	11200.319669
448.336786	11946.692743
448.711374	11542.961855
449.085901	10402.564634
449.460369	10390.508715
449.834776	10303.059819
450.209124	11226.377393
450.583412	11000.165697
450.957640	11205.633045
451.331808	10789.987390
451.705917	10318.526079
452.079965	10244.307692
452.453954	10430.580847
452.827883	10393.576257
453.201752	10347.734525
453.575562	10374.349296
453.949311	10720.973994
454.323001	10801.660182
454.696632	10719.254960
455.070202	11298.481017
455.443713	11361.629030
455.817164	11512.200734
456.190556	11823.938126
456.563888	11656.516366
456.937160	11863.405319
457.310373	11362.874195
457.683526	11405.585371
458.056619	11446.060795
458.429653	11528.360153
458.802628	11695.476923
459.175542	11761.415215
459.548398	12298.729119
459.921194	12874.517108
460.293930	13210.169734
460.666607	14035.356207
461.039224	14757.476290
461.411782	15006.403426
461.784280	14604.310913
462.156719	14512.725750
462.529099	14414.231686
462.901419	13845.493750
463.273680	13488.461591
463.645882	13718.741499
464.018024	13684.456611
464.390106	14095.789559
464.762130	15279.107163
465.134094	16945.584076
465.505999	19231.628878
465.877845	21220.154862
466.249631	22083.034043
466.621358	21413.430180
466.993026	20567.917775
467.364634	19857.457881
467.736184	19165.448610
468.107674	18626.408112
468.479105	18471.228793
468.850477	18216.330411
469.221790	17789.987427
469.593043	17159.603742
469.964238	16831.575861
470.335373	16935.844566
470.706449	17796.641750
471.077467	18943.443756
471.448425	21274.735435
471.819324	22761.951437
472.190164	22244.567735
472.560945	20572.858105
472.931667	19160.450306
473.302330	18916.471063
473.672934	18483.912336
474.043479	18911.755063
474.413965	18723.026866
474.784393	18570.305110
475.154761	19196.257622
475.525070	19325.003650
475.895321	19176.796247
476.265513	19680.306693
476.635645	20262.743965
477.005719	20332.203503
477.375734	20713.392872
477.745691	21308.687606
478.115588	21969.575313
478.485427	23239.638572
478.855207	25107.428922
479.224928	26831.155698
479.594591	27981.015164
479.964194	27427.234332
480.333739	27792.415516
480.703226	28084.275639
481.072653	28588.373379
481.442022	29084.304451
481.811333	29385.553722
482.180584	28863.529638
482.549777	28665.613938
482.918912	28468.557755
483.287988	28422.060673
483.657005	28244.937212
484.025964	27906.915243
484.394864	28084.149610
484.763706	28035.202527
485.132489	27538.321198
485.501213	27619.057797
485.869879	27800.299881
486.238487	27762.143387
486.607036	28041.229226
486.975527	27763.680939
487.343959	28087.355784
487.712333	28411.953159
488.080648	28378.689106
488.448905	28804.590988
488.817104	28735.774197
489.185244	29641.369595
489.553326	30796.189556
489.921350	32726.318814
490.289315	35113.612671
490.657222	35771.289163
491.025070	36161.340880
491.392861	35766.794975
491.760593	34951.935305
492.128267	33954.422029
492.495883	33004.018336
492.863440	32162.271672
493.230939	31281.700562
493.598380	30786.170263
493.965763	30678.339982
494.333088	30228.966487
494.700354	30059.901310
495.067563	30034.554389
495.434713	29965.432608
495.801805	30249.955331
496.168839	30112.175555
496.535815	29982.005401
496.902733	30132.274636
497.269593	29971.416457
497.636395	30107.671284
498.003139	30411.236966
498.369825	30192.090447
498.736453	30599.703023
499.103023	30440.720154
499.469535	30539.793951
499.835989	30684.606136
500.202385	30546.662523
500.568723	30634.676028
500.935003	30954.701077
501.301226	30865.792767
501.667390	31546.383824
502.033497	31752.844280
502.399546	31556.221636
502.765537	31160.304537
503.131470	31627.543881
503.497345	32057.335014
503.863163	31056.151777
504.228923	31824.418583
504.594625	32212.819322
504.960269	31727.893089
505.325856	32392.377660
505.691385	32088.955651
506.056856	32399.520975
506.422270	32894.146388
506.787625	32438.957922
507.152924	32915.727567
507.518164	33107.687144
507.883347	32688.989070
508.248472	32855.021993
508.613540	33538.133627
508.978550	33773.512662
509.343503	33635.138030
509.708398	33990.433512
510.073236	34587.626240
510.438016	34701.526070
510.802738	34409.517234
511.167403	34963.625741
511.532010	35217.760389
511.896561	35712.600050
512.261053	36450.942566
512.625488	36238.657057
512.989866	36173.401841
513.354186	36227.942084
513.718449	36213.796607
514.082655	37094.226564
514.446803	36813.260375
514.810894	37400.048162
515.174927	37429.707791
515.538904	37432.359438
515.902822	38089.698173
516.266684	37792.214643
516.630488	38142.531986
516.994235	38176.078344
517.357925	38755.208619
517.721558	39009.383596
518.085133	39401.731558
518.448651	39577.224206
518.812112	39475.917178
519.175516	39645.559567
519.538863	40080.722049
519.902152	40147.275362
520.265385	40688.443228
520.628560	40716.872815
520.991678	40677.327483
521.354739	40903.992884
521.717743	41272.387804
522.080690	41181.848681
522.443580	41860.279604
522.806413	41886.985116
523.169189	42028.308823
523.531908	42255.541353
523.894569	42114.288223
524.257174	42335.163858
524.619722	42667.670804
524.982213	42807.603152
525.344647	42837.797143
525.707025	42972.075838
526.069345	43422.066874
526.431608	43321.851256
526.793815	43713.674939
527.155964	43267.368986
527.518057	43534.555181
527.880093	43382.942479
528.242072	44008.894990
528.603995	43754.374694
528.965860	43672.423177
529.327669	43913.405454
529.689421	43956.507320
530.051117	43916.825877
530.412755	44197.182087
530.774337	44253.814409
531.135862	44184.241445
531.497331	44358.927508
531.858743	44360.331469
532.220098	44762.875165
532.581396	44487.875182
532.942638	44244.090023
533.303824	44509.874777
533.664953	44573.726032
534.026025	44241.138428
534.387040	44816.802909
534.747999	44887.749587
535.108902	45194.549169
535.469748	44521.446746
535.830537	44779.896621
536.191270	45046.432507
536.551947	44776.103153
536.912567	45046.734977
537.273131	45193.591350
537.633638	44832.672461
537.994089	45033.804417
538.354483	44790.969516
538.714821	45434.286282
539.075103	45717.339508
539.435328	45569.495069
539.795497	45332.835581
540.155609	45441.727025
540.515665	46043.076185
540.875665	45350.101533
541.235609	45642.092725
541.595496	45748.244302
541.955328	46307.567883
542.315102	45752.844355
542.674821	45639.194062
543.034483	45538.192024
543.394090	45560.078193
543.753640	45547.099743
544.113134	46587.629185
544.472571	45692.290015
544.831953	46827.565423
545.191278	46087.950016
545.550548	45778.055165
545.909761	46424.913342
546.268918	46574.045796
546.628019	46980.597209
546.987064	46410.903975
547.346053	45713.843468
547.704986	46624.374155
548.063863	46261.315296
548.422684	46468.433623
548.781449	46046.927626
549.140158	46595.279136
549.498811	46351.090685
549.857408	45757.005827
550.215949	46595.579084
550.574434	46424.888136
550.932864	46369.349744
551.291237	47074.327383
551.649555	46829.579364
552.007817	47010.397990
552.366022	46689.465534
552.724173	46748.063906
553.082267	47152.145154
553.440305	47505.167076
553.798288	46753.284021
554.156215	47138.244172
554.514086	47334.987804
554.871902	46980.151067
555.229661	47136.144532
555.587365	46806.775704
555.945014	46949.901624
556.302606	46957.491081
556.660143	47048.965338
557.017625	47283.610885
557.375050	46988.766399
557.732421	47390.143068
558.089735	47455.599931
558.446994	47328.429263
558.804197	47820.430755
559.161345	47674.121347
559.518437	47011.877569
559.875474	47269.659492
560.232455	47494.147113
560.589381	47550.910506
560.946251	47348.185545
561.303065	48014.442081
561.659825	47695.135397
562.016528	47508.370729
562.373177	47086.847088
562.729770	47715.771360
563.086307	47238.789986
563.442789	47782.042368
563.799216	47640.670771
564.155587	47520.396402
564.511904	47494.991507
564.868164	47549.705670
565.224370	47860.356693
565.580520	47589.059438
565.936615	47787.612843
566.292654	47431.374666
566.648638	47813.479004
567.004567	47734.955471
567.360441	47838.339454
567.716260	47546.731389
568.072023	47913.979447
568.427732	47842.574023
568.783385	47384.461688
569.138982	47792.056621
569.494525	47936.747818
569.850013	47527.028039
570.205445	47660.810180
570.560823	47431.185623
570.916145	47299.750139
571.271412	47547.089311
571.626625	47178.064247
571.981782	47271.265099
572.336884	46864.428860
572.691931	47189.406843
573.046923	46850.336315
573.401860	46690.199022
573.756743	46699.656226
574.111570	46847.488063
574.466342	46773.935108
574.821059	46904.637103
575.175722	46417.989317
575.530330	46519.934050
575.884882	46150.787998
576.239380	46049.811166
576.593823	46144.932698
576.948211	46067.447643
577.302544	45616.211442
577.656823	45620.937523
578.011047	45887.067597
578.365216	45701.729575
578.719330	45413.080668
579.073389	45391.136525
579.427394	45462.925077
579.781344	45379.637653
580.135239	45147.694165
580.489080	45219.543210
580.842866	44705.600096
581.196597	45186.148086
581.550273	45187.483992
581.903895	45124.956040
582.257463	45548.707871
582.610975	45001.606567
582.964434	45347.888466
583.317837	44846.092012
583.671186	44803.955528
584.024481	45065.906485
584.377721	44609.649294
584.730906	44824.367160
585.084037	44943.948370
585.437113	44650.243186
585.790135	44783.969874
586.143103	44324.370398
586.496016	44499.681564
586.848874	44609.067041
587.201679	44630.333148
587.554428	44132.514165
587.907124	44405.800156
588.259765	44173.977655
588.612352	44342.054766
588.964884	43797.020335
589.317362	44105.470895
589.669786	44105.233961
590.022155	43943.899394
590.374470	44411.405919
590.726731	43968.538033
591.078937	43309.727281
591.431090	43658.048327
591.783188	43188.437120
592.135232	42975.188750
592.487222	43241.848145
592.839157	43394.027976
593.191038	43029.819734
593.542866	42849.462373
593.894639	42260.093515
594.246358	42555.411869
594.598022	42534.750700
594.949633	42123.664769
595.301190	42092.369286
595.652692	42047.071998
596.004141	42517.580530
596.355535	41432.255395
596.706876	41457.743469
597.058162	41159.828921
597.409395	41652.516010
597.760573	41871.183620
598.111698	41489.716987
598.462768	41406.646334
598.813785	41434.781013
599.164748	41024.922603
599.515657	41303.537094
599.866511	40798.579836
600.217312	41499.753925
600.568060	40437.522316
600.918753	41258.270053
601.269392	41187.030987
601.619978	40898.369477
601.970510	41108.199944
602.320988	41245.276479
602.671412	41508.442353
603.021783	41385.919630
603.372100	40937.110744
603.722363	41061.644888
604.072572	41078.074008
604.422728	41068.105127
604.772830	40870.542307
605.122878	41029.106761
605.472872	40876.569007
605.822813	41136.778245
606.172701	40881.395912
606.522534	41206.446991
606.872314	41418.155288
607.222041	41255.958684
607.571714	41595.349325
607.921333	41094.276277
608.270899	41305.051960
608.620411	41690.889273
608.969870	41424.350866
609.319276	41448.704680
609.668627	41496.262926
610.017926	41868.854607
610.367171	42004.423836
610.716362	42058.041549
611.065500	41938.503188
611.414585	42164.992148
611.763616	42336.025895
612.112594	42235.568302
612.461518	42379.566341
612.810389	42756.821089
613.159207	42551.081518
613.507971	42522.120089
613.856682	43033.527503
614.205340	42842.654295
614.553945	43539.261098
614.902496	42870.022719
615.250994	43299.536589
615.599439	43363.748286
615.947830	43469.050428
616.296169	43455.950990
616.644454	43512.472407
616.992686	43675.977190
617.340864	44125.378412
617.688990	43648.926359
618.037063	44329.857694
618.385082	44152.363708
618.733048	44493.763250
619.080961	44351.403586
619.428821	44361.735430
619.776628	44394.492848
620.124382	44195.626891
620.472083	44299.835102
620.819731	44390.215429
621.167326	43958.332217
621.514868	43935.624340
621.862357	43409.690841
622.209793	43492.128830
622.557176	43063.063623
622.904506	42806.854541
623.251783	42445.744088
623.599007	42118.056485
623.946179	42047.707183
624.293297	41777.080401
624.640363	41238.642320
624.987376	41086.056676
625.334336	40890.089382
625.681243	40477.886834
626.028097	40407.595506
626.374899	40220.351928
626.721647	40197.258403
627.068343	39970.988733
627.414987	39706.365965
627.761577	39439.618350
628.108115	39764.641703
628.454600	39014.812918
628.801032	39234.370292
629.147412	39137.317998
629.493739	39068.503727
629.840014	38611.858368
630.186236	39048.200480
630.532405	38490.636262
630.878521	38717.677228
631.224585	38511.186526
631.570597	38148.543562
631.916556	38329.667178
632.262462	38212.495640
632.608316	38143.986359
632.954117	38007.361007
633.299866	37968.528999
633.645562	37867.516879
633.991206	37349.253496
634.336797	36927.230781
634.682336	36822.652045
635.027823	36584.994408
635.373257	36460.976983
635.718639	36116.749354
636.063968	36030.389347
636.409245	35368.879057
636.754470	35337.921332
637.099642	35103.668995
637.444762	34547.753234
637.789829	34687.040315
638.134845	34309.447809
638.479808	34224.232145
638.824719	34166.142929
639.169577	33668.344110
639.514383	33758.351391
639.859137	33373.681106
640.203839	33544.987075
640.548489	33248.017743
640.893086	33244.156220
641.237632	32964.162973
641.582125	33070.901844
641.926566	32878.720457
642.270955	32898.136461
642.615292	32836.271421
642.959576	32718.583164
643.303809	32738.130238
643.647990	32821.684842
643.992118	32775.649025
644.336195	32635.351193
644.680219	32717.194326
645.024192	32916.176230
645.368112	33439.115283
645.711981	33469.901609
646.055797	34194.212073
646.399562	34010.991337
646.743274	34882.818565
647.086935	35287.625740
647.430544	35253.930667
647.774101	35285.949556
648.117606	35553.168519
648.461059	35690.857554
648.804460	35278.954955
649.147810	34769.039723
649.491108	34402.157149
649.834354	34265.783855
650.177548	33423.540638
650.520690	32941.712195
650.863781	32935.320012
651.206820	32745.649119
651.549807	32332.030007
651.892742	31766.200817
652.235626	31691.533767
652.578458	31538.794367
652.921238	30851.183503
653.263967	31172.637719
653.606644	30877.241227
653.949269	30787.518771
654.291843	30389.312988
654.634365	30760.740162
654.976836	30298.088268
655.319255	30379.787728
655.661622	30267.853948
656.003938	30122.572935
656.346203	29941.895461
656.688416	30176.394814
657.030577	29939.735326
657.372687	29764.993810
657.714746	29933.806929
658.056753	30124.168460
658.398708	29499.579581
658.740612	29564.403778
659.082465	29780.147519
659.424266	29681.870225
659.766016	29681.275368
660.107715	29553.451872
660.449362	29652.860905
660.790958	29638.148297
661.132503	29554.366841
661.473996	29631.836773
661.815438	29707.670850
662.156829	29832.913276
662.498168	29643.118875
662.839456	29608.680233
663.180693	29744.231818
663.521879	29819.425669
663.863013	29785.599527
664.204097	29768.000859
664.545129	30184.896720
664.886110	30127.470416
665.227040	30215.065505
665.567918	30215.307481
665.908746	30302.489195
666.249522	30378.696318
666.590248	30408.292932
666.930922	30499.689051
667.271545	30505.849341
667.612118	30557.019573
667.952639	30358.360303
668.293109	30393.419008
668.633528	30270.795461
668.973896	30219.537009
669.314213	30187.155157
669.654480	30006.034061
669.994695	29985.090587
670.334859	29908.548228
670.674973	29742.280892
671.015035	29936.672825
671.355047	29870.777383
671.695008	29806.129626
672.034918	29715.527488
672.374777	29812.168928
672.714585	29682.954073
673.054342	29820.529682
673.394049	29674.192547
673.733705	29896.633461
674.073310	29616.667941
674.412864	29668.995118
674.752368	29357.033394
675.091820	29591.822614
675.431223	29184.772126
675.770574	28973.378901
676.109875	28833.839763
676.449125	28619.673903
676.788324	28506.510082
677.127473	28033.443164
677.466571	27940.199462
677.805619	27657.854517
678.144616	27596.939735
678.483562	27555.670329
678.822458	27242.050066
679.161303	27168.484508
679.500098	27097.124454
679.838842	27037.255711
680.177535	27123.288043
680.516179	27358.362088
680.854771	27498.682605
681.193314	28271.748588
681.531805	29313.440016
681.870247	30059.407277
682.208638	30790.001540
682.546978	31050.762784
682.885268	31174.994459
683.223508	30718.913709
683.561697	30452.304726
683.899836	30293.155499
684.237925	29865.093482
684.575963	29740.738299
684.913951	29361.804846
685.251889	29538.860252
685.589776	29578.642517
685.927614	29582.221737
686.265401	29767.030437
686.603137	29888.575176
686.940824	30388.929860
687.278460	30742.667626
687.616046	30907.437739
687.953582	31561.086350
688.291068	31480.049802
688.628504	31801.453606
688.965889	31788.873407
689.303224	31514.964833
689.640510	31209.758256
689.977745	30570.721430
690.314930	29826.505970
690.652065	29379.277486
690.989150	28705.411328
691.326185	27863.899078
691.663170	27213.312968
692.000105	26488.599212
692.336990	25869.167433
692.673825	25461.007891
693.010610	24973.344312
693.347345	24480.647141
693.684030	23857.247974
694.020665	23657.406553
694.357251	22982.854798
694.693786	22991.500377
695.030272	22765.810440
695.366707	22282.512500
695.703093	22007.270541
696.039429	22072.049368
696.375716	21842.268535
696.711952	21844.065706
697.048139	21704.430786
697.384276	21550.264739
697.720363	21673.392402
698.056400	21560.311759
698.392388	21401.212944
698.728326	21397.842932
699.064214	21243.233264
699.400053	21244.944736
699.735842	20862.893330
700.071581	20651.757204
700.407270	20402.270500
700.742910	20228.532174
701.078501	19985.384721
701.414042	19777.106930
701.749533	19468.200145
702.084974	19157.095418
702.420366	19392.050996
702.755709	18985.912957
703.091002	18681.800310
703.426246	18759.502135
703.761440	18690.294654
704.096584	18445.791131
704.431679	18384.909116
704.766725	18329.852154
705.101721	18261.801618
705.436668	18391.800373
705.771565	18117.528837
706.106413	18446.701059
706.441212	18512.876286
706.775961	18613.661554
707.110661	18700.147589
707.445311	19068.857582
707.779913	18943.819322
708.114465	19242.116998
708.448967	19560.879238
708.783421	20191.751916
709.117825	20555.506454
709.452180	20787.785179
709.786485	21249.822052
710.120742	22016.054752
710.454949	22118.213735
710.789107	22637.689515
711.123216	23354.259287
711.457275	23559.819897
711.791286	24113.930925
712.125247	24258.995168
712.459159	23987.844106
712.793023	24720.059099
713.126837	23692.661863
713.460602	23933.649181
713.794318	23593.928344
714.127985	23305.045023
714.461602	22406.595461
714.795171	22383.527141
715.128691	21390.923949
715.462162	20874.646780
715.795584	20461.272165
716.128957	20179.980822
716.462281	19806.771599
716.795556	19524.499752
717.128782	19056.310150
717.461960	18459.465261
717.795088	18424.114169
718.128167	18078.991736
718.461198	17628.431049
718.794180	17505.948655
719.127113	17172.766194
719.459997	16989.348853
719.792833	16622.161289
720.125619	16662.606466
720.458357	16329.078687
720.791046	16193.721185
721.123686	16053.158693
721.456278	15833.102245
721.788821	15824.270143
722.121315	15559.153342
722.453761	15662.401214
722.786158	15555.929524
723.118506	15633.260824
723.450805	15512.227761
723.783056	15698.372367
724.115259	15591.522591
724.447412	15579.275108
724.779518	15814.419729
725.111574	15862.940834
725.443582	16126.983870
725.775542	16080.055769
726.107453	16605.938856
726.439315	16520.962646
726.771129	16939.738858
727.102895	17367.503447
727.434612	17643.247000
727.766281	17790.922561
728.097901	18127.633829
728.429473	18210.046613
728.760996	18214.104741
729.092471	18339.692487
729.423897	18226.803408
729.755276	18091.861802
730.086606	18212.035348
730.417887	18789.925498
730.749120	19348.641620
731.080305	19558.406552
731.411442	19975.614965
731.742530	20072.911755
732.073570	20242.717981
732.404562	20548.390865
732.735506	20393.622401
733.066401	20175.819349
733.397249	19669.823614
733.728048	19047.961999
734.058798	18176.132250
734.389501	17423.394719
734.720156	16912.751041
735.050762	16342.639390
735.381320	15960.928262
735.711831	15701.588623
736.042293	15325.402600
736.372707	15367.188724
736.703073	15165.903013
737.033391	15365.189907
737.363661	15367.690319
737.693883	15494.540873
738.024056	15697.311204
738.354182	15929.889878
738.684260	16300.384439
739.014290	16565.355047
739.344272	16803.910008
739.674207	17144.500445
740.004093	17316.834809
740.333931	17359.180502
740.663722	17433.655988
740.993464	17468.596225
741.323159	17314.157957
741.652806	17009.841143
741.982405	16834.978640
742.311956	16473.119575
742.641460	16365.977412
742.970915	16030.279416
743.300323	15682.044070
743.629683	15468.193283
743.958996	15153.655529
744.288260	14843.306975
744.617477	14537.843299
744.946647	14501.357948
745.275768	14186.905895
745.604842	13984.584226
745.933869	13811.884378
746.262847	13779.860448
746.591778	13714.358215
746.920662	13596.929578
747.249498	13608.302421
747.578286	13764.000978
747.907027	13938.714767
748.235720	14212.381366
748.564365	14284.734526
748.892963	14203.818966
749.221514	14306.053566
749.550017	14175.389379
749.878473	14147.022806
750.206881	13916.064863
750.535242	13842.552237
750.863555	13775.567905
751.191821	13669.010516
751.520039	13681.777238
751.848210	13610.339047
752.176334	13655.832940
752.504411	13577.190940
752.832440	13409.582657
753.160421	13521.070295
753.488356	13411.770517
753.816243	13325.009739
754.144082	13152.682936
754.471875	13104.098816
754.799620	13076.836256
755.127318	13052.474880
755.454969	13033.835214
755.782572	13001.153413
756.110129	13023.145447
756.437638	12927.940736
756.765100	12935.189915
757.092515	12956.917288
757.419882	12994.562105
757.747203	13011.848221
758.074477	13104.446656
758.401703	13092.060541
758.728882	13286.452474
759.056014	13324.908916
759.383099	13501.702182
759.710138	13621.406900
760.037129	13748.993463
760.364073	13801.577739
760.690970	13833.389940
761.017820	13861.340618
761.344623	14078.546293
761.671379	14456.980671
761.998088	15158.681560
762.324751	16943.227336
762.651366	20376.384175
762.977935	24863.792477
763.304456	27827.718717
763.630931	28868.112047
763.957359	27623.219270
764.283740	25340.123543
764.610074	23059.213156
764.936362	20423.370250
765.262602	18542.891316
765.588796	16614.113087
765.914943	15340.122769
766.241044	14240.657198
766.567097	13452.876086
766.893104	12737.387641
767.219064	12283.978703
767.544978	11807.952627
767.870845	11415.206413
768.196665	11202.789834
768.522438	10964.945675
768.848165	10771.196489
769.173846	10554.552902
769.499479	10429.335682
769.825066	10266.491289
770.150607	10040.650118
770.476101	9958.350760
770.801548	9834.202265
771.126949	9671.846864
771.452303	9560.293691
771.777611	9362.589719
772.102872	9360.956386
772.428087	9216.986073
772.753256	9052.223521
773.078378	8966.493659
773.403453	8789.153428
773.728482	8672.327208
774.053465	8602.262732
774.378401	8500.323039
774.703291	8375.841827
775.028135	8254.115606
775.352932	8225.386070
775.677683	8117.084442
776.002388	8010.441352
776.327046	8025.274948
776.651658	7929.092253
776.976224	7824.208527
777.300743	7826.908064
777.625216	7735.887511
777.949643	7694.418980
778.274024	7708.133439
778.598359	7620.382074
778.922647	7638.394116
779.246889	7592.433917
779.571086	7596.983558
779.895236	7609.775486
780.219339	7624.097404
780.543397	7621.140767
780.867409	7702.711678
781.191374	7715.382618
781.515294	7679.106475
781.839167	7769.864888
782.162995	7746.433605
782.486776	7688.684667
782.810511	7640.826473
783.134201	7554.748771
783.457844	7545.641927
783.781441	7489.296950
784.104993	7424.865963
784.428498	7407.237048
784.751958	7386.598564
785.075372	7357.806014
785.398739	7308.800957
785.722061	7356.734769
786.045337	7353.352154
786.368568	7509.091041
786.691752	7541.109929
787.014891	7881.813792
787.337983	8241.913493
787.661030	8843.187036
787.984031	9471.387902
788.306987	9879.058452
788.629897	10080.540768
788.952760	10020.614052
789.275579	9798.321852
789.598351	9396.514164
789.921078	9045.044918
790.243759	8628.645610
790.566395	8336.112494
790.888984	8087.087056
791.211529	7872.969087
791.534027	7652.446333
791.856480	7452.272196
792.178888	7379.687142
792.501249	7283.547297
792.823566	7131.271683
793.145836	7135.841489
793.468062	7104.346881
793.790241	7054.847791
794.112375	7128.869574
794.434464	7280.711648
794.756507	7322.001219
795.078505	7487.199830
795.400457	7799.582490
795.722364	8155.112386
796.044226	8444.893032
796.366042	8711.222231
796.687812	8667.777567
797.009538	8734.918175
797.331218	8628.764077
797.652852	8548.133342
797.974442	8391.456801
798.295986	8298.634036
798.617484	8107.259233
798.938938	7962.454609
799.260346	7864.613375
799.581709	7663.816655
799.903026	7585.177176
800.224299	7478.531566
800.545526	7306.671070
800.866708	7209.893519
801.187845	7141.112016
801.508936	7035.787188
801.829983	6997.688668
802.150984	6850.761719
802.471940	6804.272198
802.792851	6789.466329
803.113717	6757.878459
803.434538	6726.519962
803.755314	6668.967629
804.076045	6669.338154
804.396731	6617.542818
804.717372	6648.825699
805.037967	6654.592779
805.358518	6698.891918
805.679024	6779.071470
805.999485	6796.312216
806.319901	6840.258475
806.640272	6857.660538
806.960598	6942.291429
807.280879	6941.386542
807.601115	7017.487800
807.921306	6967.671118
808.241453	6980.621842
808.561554	6999.165726
808.881611	6960.540406
809.201623	6967.298072
809.521590	6913.372850
809.841513	6894.526496
810.161390	6930.013698
810.481223	6801.033257
810.801011	6779.454598
811.120755	6758.702688
811.440453	6678.986922
811.760107	6646.526932
812.079716	6618.440144
812.399281	6547.027158
812.718801	6535.727412
813.038276	6491.879456
813.357707	6429.439724
813.677093	6472.097968
813.996434	6377.299070
814.315731	6418.087046
814.634983	6413.323156
814.954191	6426.767913
815.273354	6533.476537
815.592473	6596.004489
815.911547	6723.797739
816.230577	6808.567261
816.549562	6951.108407
816.868502	7049.841925
817.187399	7149.107286
817.506250	7303.061604
817.825058	7334.145358
818.143821	7600.126718
818.462539	7875.063687
818.781213	8246.755521
819.099843	8794.623080
819.418429	9795.579464
819.736970	10777.583631
820.055466	11966.053294
820.373919	13495.362931
820.692327	15836.109293
821.010691	19976.408947
821.329011	28985.772578
821.647286	42063.110429
821.965517	55557.008904
822.283704	60934.495932
822.601847	62906.764195
822.919945	60179.777228
823.237999	55954.932383
823.556010	49738.337736
823.873976	42973.555416
824.191897	36439.753725
824.509775	31588.076687
824.827609	27065.811327
825.145398	24467.797240
825.463144	23108.712245
825.780845	23414.349841
826.098502	25205.290321
826.416116	29023.321612
826.733685	32734.810638
827.051210	33938.802014
827.368692	32161.210509
827.686129	28173.612447
828.003522	24012.419731
828.320872	20266.106414
828.638177	17400.475113
828.955439	15238.369599
829.272656	13427.398094
829.589830	11944.898092
829.906960	10673.120841
830.224046	9725.618331
830.541088	8975.547571
830.858086	8517.435236
831.175041	8136.684448
831.491952	8023.369392
831.808819	8077.879388
832.125642	8482.550451
832.442421	9366.158856
832.759157	11165.437405
833.075849	14117.743784
833.392497	17367.737860
833.709101	19568.163706
834.025662	19420.873793
834.342179	17707.645220
834.658653	15482.404295
834.975083	13540.445969
835.291469	11911.815520
835.607811	10581.760010
835.924110	9672.378706
836.240366	8803.513155
836.556578	7995.355700
836.872746	7354.957762
837.188871	6849.803900
837.504952	6430.757986
837.820990	6122.367920
838.136984	5901.953551
838.452935	5806.320342
838.768842	5838.722358
839.084706	6258.781543
839.400526	7474.133159
839.716303	9067.258763
840.032037	10173.577783
840.347727	10102.283264
840.663373	9116.165517
840.978977	8062.425731
841.294537	7247.014055
841.610054	6648.233363
841.925527	6218.578341
842.240957	5853.601323
842.556344	5526.024626
842.871687	5239.795472
843.186987	4960.104695
843.502244	4735.659923
843.817458	4573.090273
844.132629	4434.985343
844.447756	4344.819265
844.762840	4264.390176
845.077881	4190.083569
845.392879	4128.034527
845.707833	4074.971341
846.022745	4033.512892
846.337613	4006.535157
846.652438	3964.565031
846.967221	3945.622895
847.281960	3911.703492
847.596656	3893.986356
847.911309	3878.010940
848.225919	3852.162423
848.540485	3836.544929
848.855009	3823.730316
849.169490	3803.613591
849.483928	3792.023979
849.798323	3780.162144
850.112675	3767.619753
850.426984	3775.252060
850.741251	3759.332096
851.055474	3750.273143
851.369654	3758.790172
851.683792	3750.759614
851.997887	3756.619955
852.311938	3760.967950
852.625947	3764.322838
852.939914	3755.470572
853.253837	3764.242180
853.567718	3764.350565
853.881555	3755.531066
854.195350	3766.878703
854.509103	3763.092797
854.822812	3762.419803
855.136479	3753.411261
855.450103	3762.185389
855.763685	3745.352976
856.077224	3752.667691
856.390720	3770.810803
856.704173	3788.515336
857.017584	3805.093170
857.330953	3812.856547
857.644278	3835.415710
857.957561	3844.998944
858.270802	3839.582224
858.584000	3844.416691
858.897155	3837.038962
859.210268	3824.380625
859.523339	3798.355668
859.836367	3795.116727
860.149352	3788.308648
860.462295	3781.629119
860.775195	3771.090587
861.088054	3765.600771
861.400869	3764.877365
861.713642	3763.123044
862.026373	3778.362452
862.339062	3781.772792
862.651708	3804.526040
862.964312	3835.317408
863.276873	3849.470447
863.589392	3909.031680
863.901869	3954.197898
864.214303	3999.013756
864.526696	4034.009446
864.839045	4079.478133
865.151353	4106.289509
865.463619	4111.270169
865.775842	4121.677632
866.088023	4136.677585
866.400162	4128.770535
866.712258	4139.104900
867.024313	4136.889313
867.336325	4132.677429
867.648296	4138.716732
867.960224	4143.392402
868.272110	4151.612003
868.583954	4154.341788
868.895755	4167.489117
869.207515	4163.708252
869.519233	4203.581258
869.830909	4222.934248
870.142542	4244.051641
870.454134	4261.672994
870.765684	4290.001758
871.077191	4325.710772
871.388657	4354.178168
871.700081	4387.112026
872.011463	4430.675157
872.322803	4467.505827
872.634101	4499.179396
872.945357	4540.143812
873.256571	4592.196246
873.567744	4621.094661
873.878874	4639.474708
874.189963	4677.777395
874.501010	4688.182336
874.812015	4688.268036
875.122979	4732.146239
875.433900	4727.717585
875.744780	4738.886262
876.055618	4765.425416
876.366415	4767.678812
876.677169	4785.529537
876.987882	4831.625848
877.298554	4884.189959
877.609183	4965.581909
877.919771	5074.065019
878.230317	5219.600610
878.540822	5437.164207
878.851285	5755.704636
879.161707	6221.320729
879.472087	6980.846173
879.782425	8222.464722
880.092722	10406.653010
880.402977	13740.269746
880.713191	17548.775777
881.023363	21310.457051
881.333494	23561.269229
881.643583	24788.442351
881.953631	24764.728763
882.263637	23894.386154
882.573602	22393.309500
882.883526	20816.544962
883.193408	19128.401170
883.503248	17405.307059
883.813048	15847.895511
884.122806	14407.466458
884.432522	12927.865119
884.742197	11643.668985
885.051831	10567.364995
885.361424	9555.923011
885.670975	8738.709122
885.980485	8043.894449
886.289954	7466.629402
886.599382	6989.446382
886.908768	6618.077181
887.218113	6254.088229
887.527417	5966.029137
887.836680	5700.148600
888.145901	5480.727338
888.455082	5311.515968
888.764221	5160.046939
889.073319	5030.832084
889.382376	4958.519252
889.691392	4896.898708
890.000366	4878.165781
890.309300	4858.444787
890.618193	4864.045509
890.927044	4849.111090
891.235855	4870.883834
891.544625	4895.545158
891.853353	4963.935972
892.162041	5078.544084
892.470687	5265.626345
892.779293	5515.949880
893.087858	5890.273197
893.396381	6470.913297
893.704864	7278.269209
894.013306	8442.720295
894.321707	9631.938569
894.630068	10469.438061
894.938387	10684.334887
895.246665	10445.593403
895.554903	9826.451491
895.863100	9117.534190
896.171256	8554.283550
896.479371	8039.813635
896.787446	7533.792695
897.095480	7097.261539
897.403473	6785.448530
897.711425	6465.897349
898.019336	6197.345001
898.327207	5919.038021
898.635038	5688.279204
898.942827	5443.579075
899.250576	5246.737141
899.558284	5049.076019
899.865952	4926.596146
900.173579	4777.564514
900.481165	4667.485879
900.788711	4578.562446
901.096216	4505.732896
901.403681	4441.858956
901.711105	4417.563115
902.018489	4398.555445
902.325832	4472.660406
902.633135	4594.981484
902.940397	4940.744144
903.247619	5736.860803
903.554800	7190.971548
903.861941	9116.147873
904.169041	10661.863944
904.476101	11294.299379
904.783121	10929.382855
905.090100	10182.805615
905.397039	9333.353548
905.703938	8571.708298
906.010796	7878.186681
906.317614	7320.526681
906.624391	6785.304857
906.931129	6355.339804
907.237826	5953.632939
907.544483	5575.604374
907.851099	5198.097568
908.157675	4842.789483
908.464211	4520.029608
908.770707	4283.728043
909.077163	4082.331426
909.383578	3939.187862
909.689954	3824.549503
909.996289	3753.749018
910.302584	3688.629913
910.608839	3654.370232
910.915054	3622.242958
911.221229	3612.939509
911.527363	3623.110037
911.833458	3637.189979
912.139513	3662.667971
912.445527	3696.035368
912.751502	3776.661062
913.057436	3877.816855
913.363331	4015.203421
913.669186	4214.026529
913.975000	4475.269203
914.280775	4896.961723
914.586510	5481.347400
914.892205	6275.692094
915.197859	7325.086405
915.503475	8566.770488
915.809050	9637.335125
916.114585	10304.708277
916.420081	10570.372043
916.725536	10525.283963
917.030952	10081.896838
917.336328	9667.889558
917.641665	9242.842151
917.946961	8760.348275
918.252218	8336.243564
918.557435	7820.220974
918.862612	7382.464818
919.167750	7008.156624
919.472848	6578.259627
919.777906	6205.622576
920.082925	5839.286967
920.387904	5470.987829
920.692843	5205.283733
920.997743	4955.978511
921.302603	4721.660639
921.607423	4557.868509
921.912204	4390.686204
922.216946	4269.378398
922.521647	4150.392044
922.826310	4045.911610
923.130932	3951.195891
923.435516	3855.252651
923.740059	3781.679531
924.044564	3707.859395
924.349028	3646.385044
924.653454	3581.739808
924.957840	3514.127852
925.262186	3465.841160
925.566493	3405.879156
925.870761	3349.977801
926.174989	3308.531954
926.479178	3277.249074
926.783328	3233.438927
927.087438	3205.425235
927.391509	3170.091787
927.695541	3138.892086
927.999533	3112.473920
928.303486	3091.976588
928.607400	3076.810277
928.911275	3065.308884
929.215110	3048.496636
929.518906	3037.895090
929.822663	3042.285935
930.126381	3038.736962
930.430060	3042.805173
930.733699	3048.809188
931.037299	3057.931156
931.340861	3053.096689
931.644383	3064.280489
931.947866	3062.586661
932.251309	3055.181206
932.554714	3057.611042
932.858080	3050.261040
933.161407	3040.788712
933.464694	3033.758823
933.767943	3026.199613
934.071153	3021.377749
934.374323	3010.486336
934.677455	3005.246057
934.980548	2998.899244
935.283602	2992.539828
935.586617	2991.385404
935.889593	3002.692712
936.192530	3006.375275
936.495428	3020.755167
936.798287	3039.886345
937.101108	3072.774833
937.403890	3127.340282
937.706632	3192.318235
938.009336	3270.143568
938.312002	3345.929754
938.614628	3409.324784
938.917216	3463.552476
939.219765	3494.028772
939.522275	3526.700490
939.824747	3531.292981
940.127179	3528.386756
940.429573	3522.481044
940.731929	3522.019779
941.034246	3502.283661
941.336524	3491.157835
941.638763	3473.203765
941.940964	3460.989050
942.243126	3414.038263
942.545250	3395.859863
942.847335	3354.789582
943.149381	3318.672235
943.451389	3288.148049
943.753359	3255.675456
944.055290	3226.298132
944.357182	3201.291489
944.659036	3188.779345
944.960851	3178.291224
945.262628	3165.481652
945.564367	3168.702950
945.866067	3160.904285
946.167729	3156.636948
946.469352	3157.473779
946.770937	3150.148983
947.072484	3135.607775
947.373992	3140.404432
947.675462	3132.688947
947.976893	3115.773355
948.278286	3105.504524
948.579641	3099.278699
948.880958	3090.005497
949.182236	3097.302567
949.483476	3090.537339
949.784678	3090.043306
950.085841	3088.863676
950.386967	3098.807352
950.688054	3116.027933
950.989103	3137.853609
951.290114	3160.808503
951.591087	3190.395035
951.892021	3220.664643
952.192917	3244.347984
952.493776	3271.723970
952.794596	3275.729166
953.095378	3281.576905
953.396122	3277.417953
953.696828	3270.748506
953.997496	3258.944645
954.298126	3235.344483
954.598718	3214.811863
954.899272	3188.847400
955.199788	3162.555262
955.500266	3131.002681
955.800706	3093.604881
956.101108	3054.858572
956.401472	3021.977646
956.701798	2987.634786
957.002087	2949.168261
957.302337	2919.415371
957.602550	2889.705331
957.902724	2864.519727
958.202861	2836.586693
958.502960	2818.010041
958.803022	2791.778397
959.103045	2774.333484
959.403031	2757.823705
959.702979	2744.247878
960.002889	2732.227247
960.302762	2718.795092
960.602596	2704.637012
960.902393	2697.970086
961.202153	2689.354754
961.501875	2679.443845
961.801559	2674.291786
962.101205	2669.729542
962.400814	2665.011022
962.700385	2658.833088
962.999918	2652.045174
963.299414	2646.318423
963.598873	2642.227527
963.898293	2637.713174
964.197677	2639.054121
964.497022	2635.578245
964.796331	2631.691516
965.095601	2628.961731
965.394835	2627.754374
965.694030	2625.745475
965.993189	2625.548870
966.292309	2622.178858
966.591393	2623.424023
966.890439	2619.736419
967.189447	2621.457973
967.488419	2623.938221
967.787353	2622.851852
968.086249	2626.857049
968.385108	2626.380660
968.683930	2628.215640
968.982714	2632.908954
969.281462	2633.662607
969.580172	2644.962353
969.878844	2645.910090
970.177480	2658.749909
970.476078	2663.145795
970.774639	2672.547547
971.073162	2680.462158
971.371649	2684.195133
971.670098	2691.280475
971.968510	2697.294571
972.266885	2700.306661
972.565223	2702.885211
972.863524	2709.095912
973.161788	2709.289997
973.460014	2716.400544
973.758204	2718.190154
974.056356	2719.415154
974.354471	2722.686863
974.652550	2719.223590
974.950591	2720.914897
975.248595	2717.842314
975.546563	2713.227138
975.844493	2712.032384
976.142386	2706.182125
976.440243	2701.403112
976.738062	2697.130734
977.035845	2690.645289
977.333590	2682.448373
977.631299	2676.570388
977.928971	2669.192659
978.226606	2667.163595
978.524204	2662.737462
978.821765	2658.563386
979.119290	2663.987668
979.416777	2659.591782
979.714228	2660.005156
980.011642	2669.180056
980.309020	2675.330264
980.606360	2688.081862
980.903664	2712.402909
981.200931	2748.668970
981.498162	2795.367699
981.795356	2872.988865
982.092513	2963.298616
982.389633	3066.816189
982.686717	3165.542146
982.983764	3244.035432
983.280775	3292.559058
983.577749	3299.868732
983.874686	3282.663273
984.171587	3247.458376
984.468451	3210.068137
984.765279	3165.527023
985.062070	3120.156638
985.358824	3073.881366
985.655543	3014.226872
985.952224	2964.319449
986.248869	2896.914181
986.545478	2841.179184
986.842050	2786.326389
987.138586	2737.051631
987.435086	2699.542926
987.731549	2668.539830
988.027975	2642.754328
988.324366	2627.661113
988.620719	2613.215687
988.917037	2603.642536
989.213318	2592.559559
989.509563	2584.534042
989.805772	2582.825091
990.101944	2576.523648
990.398080	2575.679255
990.694180	2570.617937
990.990244	2573.592217
991.286271	2571.820252
991.582262	2573.693041
991.878217	2575.838052
992.174136	2582.144535
992.470019	2580.284349
992.765865	2585.438929
993.061676	2589.797007
993.357450	2599.380240
993.653188	2604.202104
993.948890	2623.129116
994.244556	2641.710809
994.540186	2665.094201
994.835780	2696.150229
995.131337	2735.307392
995.426859	2776.811211
995.722345	2821.685042
996.017795	2875.441386
996.313208	2915.049732
996.608586	2944.472427
996.903928	2956.654375
997.199234	2956.750157
997.494504	2955.414251
997.789738	2941.404884
998.084936	2913.998652
998.380099	2881.899104
998.675225	2854.185361
998.970316	2821.309476
999.265371	2783.329423
999.560390	2746.269381
999.855373	2717.852397
1000.150320	2686.728313
1000.445232	2660.650424
1000.740108	2642.708957
1001.034948	2622.861935
1001.329752	2610.218721
1001.624521	2596.287492
1001.919254	2583.344330
1002.213951	2578.958526
1002.508613	2566.920250
1002.803239	2560.951524
1003.097829	2554.549259
1003.392384	2550.234031
1003.686903	2545.071890
1003.981386	2543.602393
1004.275834	2537.273225
1004.570246	2537.144675
1004.864623	2535.730632
1005.158964	2531.745599
1005.453270	2528.635208
1005.747540	2526.888448
1006.041775	2528.602440
1006.335974	2524.037675
1006.630138	2522.132119
1006.924266	2524.816533
1007.218359	2519.619104
1007.512416	2519.624145
1007.806438	2515.959226
1008.100425	2518.835204
1008.394376	2515.283712
1008.688292	2520.092972
1008.982172	2519.137674
1009.276017	2517.799247
1009.569827	2518.988960
1009.863602	2514.582991
1010.157341	2517.098527
1010.451045	2516.798578
1010.744714	2513.252127
1011.038347	2514.958557
1011.331945	2515.240862
1011.625508	2511.444873
1011.919036	2510.887825
1012.212528	2510.721467
1012.505986	2509.937568
1012.799408	2507.288442
1013.092795	2507.013699
1013.386147	2505.897083
1013.679464	2508.818432
1013.972745	2507.422032
1014.265992	2506.864985
1014.559204	2504.392299
1014.852380	2508.694923
1015.145521	2506.537310
1015.438628	2509.793895
1015.731699	2505.302227
1016.024736	2507.898421
1016.317737	2509.156189
1016.610703	2511.331447
1016.903635	2511.928824
1017.196531	2512.430418
1017.489393	2514.575429
1017.782219	2514.078876
1018.075011	2520.221522
1018.367768	2517.514422
1018.660490	2517.988291
1018.953177	2517.988291
1019.245829	2517.988291
