Dividing Wavelength (nm)	Counts (n)	Blue Motor Position (mm): 45.800000	Red Motor Position (mm): 0.000000	
326.493990	2049.985212
326.888308	2049.985212
327.282561	2049.985212
327.676750	2025.545698
328.070874	2024.323218
328.464933	2030.728004
328.858929	2039.113963
329.252859	2050.305325
329.646726	2062.222613
330.040528	2080.050653
330.434265	2097.951790
330.827938	2117.506426
331.221547	2138.212966
331.615091	2159.302633
332.008571	2181.569409
332.401986	2200.206555
332.795338	2222.649772
333.188625	2239.656104
333.581847	2259.072108
333.975006	2279.234203
334.368100	2295.184414
334.761129	2310.554892
335.154095	2328.887048
335.546996	2376.788092
335.939833	2487.743888
336.332606	2495.850063
336.725315	2509.955212
337.117960	2517.602642
337.510540	2529.895496
337.903056	2539.955118
338.295508	2542.392516
338.687896	2551.017931
339.080220	2555.277706
339.472480	2561.059909
339.864676	2564.119889
340.256807	2567.247925
340.648875	2567.933522
341.040879	2569.987792
341.432818	2573.529203
341.824694	2568.233471
342.216506	2574.855027
342.608253	2570.532237
342.999937	2570.408729
343.391557	2571.117011
343.783113	2567.578121
344.174605	2564.684499
344.566033	2566.388409
344.957397	2563.139385
345.348697	2560.795248
345.739934	2562.751216
346.131106	2560.696946
346.522215	2558.758622
346.913260	2557.354661
347.304241	2554.564382
347.695159	2553.402396
348.086012	2553.203271
348.476802	2549.619010
348.867528	2549.747560
349.258191	2541.137269
349.648789	2543.781354
350.039324	2540.610468
350.429796	2546.808567
350.820203	2547.055584
351.210548	2542.493339
351.600828	2539.730787
351.991045	2542.508463
352.381198	2540.257588
352.771288	2541.419574
353.161314	2540.136600
353.551276	2541.606096
353.941175	2539.080478
354.331010	2541.137269
354.720782	2545.497867
355.110490	2545.954092
355.500135	2540.401261
355.889717	2541.762372
356.279235	2541.011240
356.668689	2541.253216
357.058080	2542.662218
357.447408	2540.237423
357.836672	2545.996941
358.225873	2542.662218
358.615010	2545.684390
359.004084	2549.563558
359.393095	2546.682538
359.782043	2546.143135
360.170927	2545.439894
360.559748	2548.958619
360.948505	2547.055584
361.337199	2548.267981
361.725830	2549.172868
362.114398	2551.038095
362.502903	2552.361398
362.891344	2554.944989
363.279722	2550.642365
363.668037	2552.182437
364.056289	2550.410472
364.444478	2551.942982
364.832603	2552.908363
365.220665	2552.709238
365.608665	2555.645710
365.996601	2555.055895
366.384474	2557.997408
366.772284	2556.500185
367.160031	2555.373487
367.547715	2557.611760
367.935336	2558.277192
368.322893	2551.191850
368.710388	2555.950700
369.097820	2555.459187
369.485189	2554.282078
369.872495	2561.697615
370.259738	2558.841801
370.646918	2558.496482
371.034035	2562.594940
371.421090	2559.267779
371.808081	2561.009497
372.195010	2562.899930
372.581875	2560.666699
372.968678	2562.922615
373.355418	2561.813562
373.742096	2563.275496
374.128710	2561.720300
374.515262	2564.555949
374.901751	2566.053172
375.288177	2565.481001
375.674540	2565.286917
376.060841	2564.044272
376.447079	2564.422359
376.833254	2568.097360
377.219367	2568.944274
377.605417	2570.544840
377.991404	2570.141548
378.377329	2570.222206
378.763191	2571.275807
379.148991	2575.545665
379.534727	2576.347208
379.920402	2579.893660
380.306013	2580.060018
380.691563	2584.526480
381.077049	2585.070925
381.462474	2591.276585
381.847835	2594.926381
382.233134	2597.336052
382.618371	2604.247474
383.003545	2610.133021
383.388657	2616.308435
383.773706	2620.437140
384.158693	2629.112965
384.543618	2632.518265
384.928480	2642.582928
385.313280	2652.521563
385.698017	2661.003305
386.082692	2670.115190
386.467305	2678.478464
386.851856	2691.489682
387.236344	2705.899821
387.620770	2713.995914
388.005133	2722.979250
388.389435	2745.606469
388.773674	2751.751636
389.157851	2773.882301
389.541965	2787.914353
389.926018	2801.273410
390.310008	2821.649754
390.693936	2840.155830
391.077802	2860.335569
391.461606	2881.430277
391.845348	2899.422155
392.229027	2923.286978
392.612645	2950.199177
392.996200	2978.482571
393.379694	3007.668331
393.763125	3039.959442
394.146494	3061.076836
394.529801	3095.376846
394.913047	3130.516209
395.296230	3146.852068
395.679351	3173.580266
396.062410	3217.584498
396.445408	3217.372769
396.828343	3257.631424
397.211217	3292.526291
397.594028	3286.648306
397.976778	3333.042044
398.359466	3368.950183
398.742092	3392.073956
399.124656	3415.285949
399.507158	3472.296358
399.889598	3489.867299
400.271977	3552.145714
400.654294	3558.255592
401.036549	3613.793984
401.418742	3627.654637
401.800874	3696.811706
402.182944	3726.443608
402.564952	3809.383192
402.946898	3813.201866
403.328783	3824.171417
403.710606	3879.727453
404.092367	3945.070889
404.474067	4013.703678
404.855705	4008.150847
405.237282	3990.350533
405.618797	4086.349225
406.000250	4157.656347
406.381642	4241.828492
406.762972	4244.338987
407.144240	4216.219431
407.525447	4282.377013
407.906593	4309.286693
408.287677	4381.962487
408.668700	4416.159154
409.049661	4458.751863
409.430560	4493.039271
409.811399	4485.132221
410.192176	4530.958830
410.572891	4603.198565
410.953545	4704.540880
411.334138	4610.881283
411.714669	4720.803643
412.095139	4646.431500
412.475547	4745.089401
412.855894	4755.517028
413.236180	4847.805432
413.616405	4785.138848
413.996568	4880.212489
414.376670	4882.327253
414.756711	4879.221902
415.136691	4943.118527
415.516609	5023.509808
415.896466	5064.350716
416.276262	5140.139423
416.655997	5248.859467
417.035670	5333.994473
417.415283	5463.168999
417.794834	5513.076422
418.174324	5473.936904
418.553753	5478.819261
418.933121	5627.661849
419.312428	5637.091327
419.691674	5575.475825
420.070859	5788.343587
420.449983	5675.210012
420.829045	5856.351273
421.208047	5790.143279
421.586988	5939.280774
421.965867	6010.217371
422.344686	6080.208751
422.723444	6241.235807
423.102141	5886.318412
423.480777	6250.292240
423.859352	6085.696047
424.237866	6422.855977
424.616319	6414.185193
424.994712	6564.257822
425.373044	6491.879456
425.751314	6780.147756
426.129524	6520.233426
426.507673	6776.308918
426.885762	6809.537683
427.263789	6842.892478
427.641756	6930.918586
428.019662	6999.740418
428.397508	7032.061776
428.775292	7033.425408
429.153016	7176.125350
429.530679	7129.446786
429.908282	7173.461100
430.285824	7122.928574
430.663305	7368.223558
431.040726	7274.092613
431.418086	7269.729494
431.795385	7409.104795
432.172624	7580.166269
432.549802	7460.340563
432.926920	7591.191272
433.303977	7546.098151
433.680974	7597.603620
434.057910	7781.227649
434.434786	7827.384453
434.811601	7789.805172
435.188355	8127.428889
435.565050	8012.611569
435.941683	8024.939711
436.318257	8338.950663
436.694770	8279.651571
437.071222	8491.415320
437.447614	8261.044672
437.823946	8237.769665
438.200218	8380.845173
438.576429	8274.517156
438.952580	8425.081298
439.328670	8438.296682
439.704700	8521.846246
440.080670	8417.398579
440.456580	8662.648193
440.832429	8641.641705
441.208218	8395.724138
441.583947	8513.596397
441.959616	8617.870144
442.335224	8649.823498
442.710773	8734.661076
443.086261	8908.326305
443.461689	8643.022981
443.837057	8791.429509
444.212365	8988.916711
444.587612	8990.262699
444.962800	8885.769662
445.337927	9018.878809
445.712995	8577.165347
446.088002	9212.537255
446.462949	9273.401626
446.837837	9282.475703
447.212664	9338.276234
447.587431	10243.319626
447.962139	11202.754546
448.336786	11944.409100
448.711374	11534.714527
449.085901	10414.285317
449.460369	10383.816583
449.834776	10305.116610
450.209124	11230.130532
450.583412	10987.502318
450.957640	11199.881088
451.331808	10791.698862
451.705917	10313.600872
452.079965	10230.315969
452.453954	10431.480693
452.827883	10385.391944
453.201752	10355.971770
453.575562	10372.721004
453.949311	10722.251926
454.323001	10795.232710
454.696632	10714.715401
455.070202	11302.854218
455.443713	11353.346414
455.817164	11500.323775
456.190556	11815.282465
456.563888	11641.947431
456.937160	11857.290400
457.310373	11357.898576
457.683526	11401.983467
458.056619	11445.612133
458.429653	11515.709377
458.802628	11684.146930
459.175542	11757.684762
459.548398	12297.761217
459.921194	12865.997558
460.293930	13198.199514
460.666607	14019.990770
461.039224	14741.458023
461.411782	14997.548639
461.784280	14599.196662
462.156719	14497.506507
462.529099	14408.590635
462.901419	13832.979086
463.273680	13478.596053
463.645882	13704.762379
464.018024	13668.337522
464.390106	14082.473352
464.762130	15255.529687
465.134094	16929.437260
465.505999	19206.155927
465.877845	21196.524453
466.249631	22058.231566
466.621358	21400.653376
466.993026	20554.296577
467.364634	19854.891933
467.736184	19149.657196
468.107674	18610.490668
468.479105	18462.626064
468.850477	18203.757773
469.221790	17775.824305
469.593043	17151.789953
469.964238	16811.484342
470.335373	16922.009120
470.706449	17785.457950
471.077467	18928.234595
471.448425	21258.790265
471.819324	22749.081371
472.190164	22228.224314
472.560945	20554.324303
472.931667	19156.946704
473.302330	18903.301048
473.672934	18470.727198
474.043479	18895.882990
474.413965	18718.031083
474.784393	18558.198779
475.154761	19177.522173
475.525070	19316.176589
475.895321	19171.084620
476.265513	19678.968267
476.635645	20265.236815
477.005719	20324.109931
477.375734	20706.723425
477.745691	21316.750932
478.115588	21962.167338
478.485427	23238.126226
478.855207	25105.566216
479.224928	26818.177247
479.594591	27988.024888
479.964194	27427.030165
480.333739	27801.429099
480.703226	28083.466533
481.072653	28596.580378
481.442022	29083.449975
481.811333	29383.869977
482.180584	28877.067657
482.549777	28675.799590
482.918912	28481.523603
483.287988	28420.563450
483.657005	28257.333409
484.025964	27901.160766
484.394864	28085.672038
484.763706	28034.393421
485.132489	27545.865284
485.501213	27625.674312
485.869879	27817.006265
486.238487	27778.209545
486.607036	28043.225523
486.975527	27767.577751
487.343959	28101.188710
487.712333	28427.089224
488.080648	28395.818946
488.448905	28823.099585
488.817104	28743.688809
489.185244	29633.462545
489.553326	30807.161627
489.921350	32728.458784
490.289315	35116.982682
490.657222	35781.799969
491.025070	36160.756107
491.392861	35781.139578
491.760593	34964.137418
492.128267	33947.966832
492.495883	33014.831611
492.863440	32173.969670
493.230939	31308.171661
493.598380	30803.423612
493.965763	30695.941171
494.333088	30246.366029
494.700354	30073.388917
495.067563	30035.416426
495.434713	29961.530755
495.801805	30257.988410
496.168839	30111.903333
496.535815	29993.960497
496.902733	30130.921086
497.269593	29965.505705
497.636395	30116.654620
498.003139	30422.330025
498.369825	30197.519769
498.736453	30580.463459
499.103023	30436.407447
499.469535	30551.444057
499.835989	30680.605981
500.202385	30548.948686
500.568723	30624.092125
500.935003	30958.643259
501.301226	30856.907733
501.667390	31555.772973
502.033497	31748.851686
502.399546	31539.613555
502.765537	31151.774904
503.131470	31628.680661
503.497345	32057.685374
503.863163	31064.651163
504.228923	31838.120439
504.594625	32213.305793
504.960269	31716.510164
505.325856	32384.737791
505.691385	32089.295929
506.056856	32399.692374
506.422270	32902.295413
506.787625	32433.505914
507.152924	32895.487334
507.518164	33097.292285
507.883347	32676.986083
508.248472	32837.382995
508.613540	33523.935217
508.978550	33766.926394
509.343503	33640.285048
509.708398	33987.630630
510.073236	34590.353504
510.438016	34712.430086
510.802738	34403.112448
511.167403	34973.498841
511.532010	35209.442485
511.896561	35691.800249
512.261053	36445.087266
512.625488	36234.175471
512.989866	36170.150297
513.354186	36242.180823
513.718449	36203.290842
514.082655	37085.238187
514.446803	36797.763868
514.810894	37402.190653
515.174927	37421.132788
515.538904	37437.221631
515.902822	38077.763241
516.266684	37795.355282
516.630488	38165.975872
516.994235	38172.960391
517.357925	38766.636914
517.721558	39009.925520
518.085133	39405.308257
518.448651	39594.757339
518.812112	39478.621757
519.175516	39649.141307
519.538863	40081.548798
519.902152	40151.421711
520.265385	40707.539118
520.628560	40725.346994
520.991678	40688.559174
521.354739	40921.097519
521.717743	41287.440689
522.080690	41193.261853
522.443580	41866.628937
522.806413	41901.458269
523.169189	42041.098231
523.531908	42266.463013
523.894569	42143.423571
524.257174	42328.771675
524.619722	42677.531301
524.982213	42805.526197
525.344647	42850.657127
525.707025	42976.295283
526.069345	43431.967700
526.431608	43318.135926
526.793815	43728.243873
527.155964	43292.146257
527.518057	43545.166810
527.880093	43408.511211
528.242072	44015.113254
528.603995	43756.209674
528.965860	43689.908419
529.327669	43914.217080
529.689421	43965.657014
530.051117	43930.038741
530.412755	44201.585534
530.774337	44281.001352
531.135862	44229.062343
531.497331	44368.530906
531.858743	44358.720820
532.220098	44770.991423
532.581396	44508.430487
532.942638	44271.239157
533.303824	44524.418506
533.664953	44586.122229
534.026025	44263.914361
534.387040	44835.999622
534.747999	44899.571093
535.108902	45228.556793
535.469748	44557.480914
535.830537	44816.273588
536.191270	45052.000462
536.551947	44785.590605
536.912567	45079.933495
537.273131	45240.572383
537.633638	44856.940576
537.994089	45047.624740
538.354483	44804.245394
538.714821	45446.395133
539.075103	45724.432412
539.435328	45593.463235
539.795497	45347.316295
540.155609	45467.507485
540.515665	46058.892805
540.875665	45374.974586
541.235609	45638.871428
541.595496	45767.231808
541.955328	46353.979266
542.315102	45776.245391
542.674821	45665.352609
543.034483	45563.216312
543.394090	45575.620071
543.753640	45548.924641
544.113134	46615.363093
544.472571	45726.534573
544.831953	46842.998915
545.191278	46114.411032
545.550548	45807.520709
545.909761	46449.438555
546.268918	46597.930783
546.628019	47005.475304
546.987064	46449.567104
547.346053	45745.970742
547.704986	46628.137377
548.063863	46300.217881
548.422684	46486.208731
548.781449	46077.136741
549.140158	46616.648587
549.498811	46384.689975
549.857408	45768.361026
550.215949	46601.774663
550.574434	46449.078112
550.932864	46381.289717
551.291237	47099.926362
551.649555	46859.377624
552.007817	47035.258441
552.366022	46709.483956
552.724173	46760.820546
553.082267	47175.649534
553.440305	47516.444137
553.798288	46765.914632
554.156215	47164.715271
554.514086	47356.110239
554.871902	46992.136411
555.229661	47158.033222
555.587365	46841.703339
555.945014	46978.684092
556.302606	46969.715879
556.660143	47087.792305
557.017625	47303.775500
557.375050	47005.876075
557.732421	47415.242973
558.089735	47476.213209
558.446994	47344.780246
558.804197	47822.568204
559.161345	47673.813837
559.518437	47027.457255
559.875474	47279.872869
560.232455	47514.715021
560.589381	47559.982062
560.946251	47370.714462
561.303065	48011.881175
561.659825	47703.291984
562.016528	47514.069753
562.373177	47089.609641
562.729770	47719.577431
563.086307	47244.703259
563.442789	47788.568142
563.799216	47649.583531
564.155587	47510.132612
564.511904	47502.903598
564.868164	47543.431954
565.224370	47864.787868
565.580520	47585.974251
565.936615	47778.584137
566.292654	47446.777911
566.648638	47799.787230
567.004567	47747.281092
567.360441	47833.746963
567.716260	47533.720171
568.072023	47909.286133
568.427732	47873.743478
568.783385	47386.407573
569.138982	47797.097774
569.494525	47930.428732
569.850013	47514.997326
570.205445	47654.851536
570.560823	47438.868341
570.916145	47305.323134
571.271412	47542.423723
571.626625	47184.290072
571.981782	47254.649456
572.336884	46849.749020
572.691931	47191.193932
573.046923	46849.877570
573.401860	46685.407405
573.756743	46689.636933
574.111570	46840.937083
574.466342	46762.940351
574.821059	46906.895540
575.175722	46402.878458
575.530330	46507.699170
575.884882	46146.618964
576.239380	46057.367856
576.593823	46129.138763
576.948211	46087.612258
577.302544	45623.548841
577.656823	45618.132121
578.011047	45875.220885
578.365216	45704.509772
578.719330	45423.198264
579.073389	45412.508497
579.427394	45440.149143
579.781344	45367.490993
580.135239	45142.660573
580.489080	45187.463828
580.842866	44690.678281
581.196597	45183.241861
581.550273	45184.121542
581.903895	45105.600530
582.257463	45562.629017
582.610975	44978.591180
582.964434	45329.518502
583.317837	44845.814749
583.671186	44790.440195
584.024481	45067.794397
584.377721	44616.651457
584.730906	44819.986397
585.084037	44927.219301
585.437113	44637.602492
585.790135	44774.724397
586.143103	44323.301673
586.496016	44491.396428
586.848874	44585.910501
587.201679	44608.578049
587.554428	44117.937669
587.907124	44407.176391
588.259765	44164.890976
588.612352	44313.010158
588.964884	43760.219912
589.317362	44097.931850
589.669786	44086.135550
590.022155	43941.998879
590.374470	44393.532508
590.726731	43949.817708
591.078937	43296.794201
591.431090	43629.679233
591.783188	43185.062067
592.135232	42962.792553
592.487222	43252.913477
592.839157	43394.436310
593.191038	43003.981300
593.542866	42818.308043
593.894639	42234.028229
594.246358	42536.003427
594.598022	42525.689226
594.949633	42103.769855
595.301190	42074.130391
595.652692	42013.424817
596.004141	42489.869308
596.355535	41412.095821
596.706876	41425.152410
597.058162	41149.923054
597.409395	41647.379074
597.760573	41876.769218
598.111698	41459.202883
598.462768	41386.194373
598.813785	41402.898236
599.164748	41002.882678
599.515657	41277.449123
599.866511	40778.901692
600.217312	41473.648310
600.568060	40415.656311
600.918753	41251.845102
601.269392	41161.951247
601.619978	40875.853163
601.970510	41093.512542
602.320988	41220.824362
602.671412	41482.046872
603.021783	41354.160361
603.372100	40921.609196
603.722363	41030.724971
604.072572	41056.472664
604.422728	41050.196428
604.772830	40841.530467
605.122878	40995.946051
605.472872	40857.281552
605.822813	41109.954265
606.172701	40860.686852
606.522534	41196.654550
606.872314	41398.328430
607.222041	41224.078427
607.571714	41561.286249
607.921333	41071.573441
608.270899	41284.189145
608.620411	41655.092039
608.969870	41409.875193
609.319276	41420.272573
609.668627	41466.489871
610.017926	41852.589324
610.367171	41974.406286
610.716362	42035.308465
611.065500	41920.871752
611.414585	42134.263795
611.763616	42321.809841
612.112594	42211.842111
612.461518	42346.816485
612.810389	42730.279414
613.159207	42514.233204
613.507971	42495.492715
613.856682	42977.585819
614.205340	42831.863705
614.553945	43508.772200
614.902496	42840.456352
615.250994	43255.847429
615.599439	43332.793081
615.947830	43423.264148
616.296169	43439.078248
616.644454	43474.033608
616.992686	43637.868588
617.340864	44076.212038
617.688990	43615.730361
618.037063	44294.128516
618.385082	44115.031443
618.733048	44446.099140
619.080961	44324.231766
619.428821	44351.267474
619.776628	44363.867838
620.124382	44172.987069
620.472083	44275.042708
620.819731	44375.182708
621.167326	43934.968990
621.514868	43908.563426
621.862357	43380.628589
622.209793	43469.297444
622.557176	43033.940878
622.904506	42791.912561
623.251783	42412.248141
623.599007	42096.422373
623.946179	42020.346321
624.293297	41747.592171
624.640363	41221.431821
624.987376	41066.270147
625.334336	40857.659639
625.681243	40460.167179
626.028097	40397.117467
626.374899	40193.946365
626.721647	40163.470069
627.068343	39949.397471
627.414987	39676.487046
627.761577	39417.286038
628.108115	39731.387732
628.454600	39006.232874
628.801032	39223.862007
629.147412	39115.358732
629.493739	39036.043738
629.840014	38589.074873
630.186236	39028.363540
630.532405	38469.554157
630.878521	38690.195378
631.224585	38475.396854
631.570597	38150.461721
631.916556	38316.877771
632.262462	38182.150414
632.608316	38117.805126
632.954117	37992.229984
633.299866	37939.244937
633.645562	37846.149948
633.991206	37308.641961
634.336797	36910.194202
634.682336	36800.750752
635.027823	36571.171565
635.373257	36432.068486
635.718639	36107.854238
636.063968	36007.799937
636.409245	35359.822625
636.754470	35308.276827
637.099642	35088.308599
637.444762	34512.838202
637.789829	34660.886808
638.134845	34297.031447
638.479808	34207.092222
638.824719	34134.870131
639.169577	33645.106911
639.514383	33743.094339
639.859137	33364.758264
640.203839	33529.218346
640.548489	33237.126331
640.893086	33233.385794
641.237632	32963.794969
641.582125	33056.980698
641.926566	32871.650238
642.270955	32893.367529
642.615292	32821.248782
642.959576	32705.239229
643.303809	32723.783114
643.647990	32814.344922
643.992118	32766.080915
644.336195	32615.020220
644.680219	32706.008005
645.024192	32908.727925
645.368112	33420.531069
645.711981	33443.788432
646.055797	34188.102195
646.399562	34002.096221
646.743274	34872.340527
647.086935	35266.057163
647.430544	35220.076799
647.774101	35268.671001
648.117606	35538.297115
648.461059	35659.983007
648.804460	35262.898880
649.147810	34753.407105
649.491108	34394.318155
649.834354	34248.482615
650.177548	33413.717950
650.520690	32921.136725
650.863781	32905.365475
651.206820	32726.144894
651.549807	32323.616322
651.892742	31756.214292
652.235626	31661.029745
652.578458	31537.430735
652.921238	30844.975322
653.263967	31148.465387
653.606644	30862.367303
653.949269	30769.320206
654.291843	30386.225281
654.634365	30748.618708
654.976836	30282.566555
655.319255	30371.369001
655.661622	30235.008310
656.003938	30103.996283
656.346203	29929.980693
656.688416	30164.815284
657.030577	29931.419943
657.372687	29758.057183
657.714746	29929.983214
658.056753	30099.418915
658.398708	29492.345525
658.740612	29553.991275
659.082465	29761.936351
659.424266	29664.246351
659.766016	29670.295735
660.107715	29525.833910
660.449362	29638.879265
660.790958	29621.386461
661.132503	29554.719722
661.473996	29612.803896
661.815438	29688.758961
662.156829	29824.474385
662.498168	29618.568456
662.839456	29605.874830
663.180693	29738.474821
663.521879	29820.237295
663.863013	29773.256262
664.204097	29748.307591
664.545129	30171.767035
664.886110	30092.925909
665.227040	30212.441585
665.567918	30201.494719
665.908746	30276.572623
666.249522	30365.201149
666.590248	30394.258360
666.930922	30488.467443
667.271545	30488.595992
667.612118	30541.013910
667.952639	30355.585148
668.293109	30368.172909
668.633528	30251.429868
668.973896	30201.393896
669.314213	30178.698621
669.654480	29991.717184
669.994695	29975.106582
670.334859	29898.314686
670.674973	29727.147348
671.015035	29927.755024
671.355047	29853.113180
671.695008	29785.125658
672.034918	29703.708503
672.374777	29802.379007
672.714585	29666.686269
673.054342	29803.679625
673.394049	29658.819549
673.733705	29874.636386
674.073310	29590.070813
674.412864	29653.392747
674.752368	29346.147022
675.091820	29575.942979
675.431223	29174.142853
675.770574	28963.677201
676.109875	28814.010384
676.449125	28598.009545
676.788324	28501.768877
677.127473	28021.528397
677.466571	27929.101362
677.805619	27646.282548
678.144616	27578.463906
678.483562	27532.478500
678.822458	27209.176701
679.161303	27164.892685
679.500098	27079.261126
679.838842	27023.332044
680.177535	27107.214324
680.516179	27348.234410
680.854771	27481.867836
681.193314	28264.819522
681.531805	29298.495516
681.870247	30046.302798
682.208638	30764.079927
682.546978	31031.429959
682.885268	31156.526192
683.223508	30707.939117
683.561697	30439.154876
683.899836	30275.647572
684.237925	29853.115700
684.575963	29723.699199
684.913951	29344.927063
685.251889	29528.152841
685.589776	29554.588652
685.927614	29575.380891
686.265401	29758.372255
686.603137	29878.011438
686.940824	30388.103111
687.278460	30728.133979
687.616046	30896.760575
687.953582	31554.232901
688.291068	31472.349439
688.628504	31795.827678
688.965889	31778.879319
689.303224	31503.949912
689.640510	31207.361187
689.977745	30553.836085
690.314930	29821.263170
690.652065	29373.994356
690.989150	28708.856956
691.326185	27867.445529
691.663170	27225.699083
692.000105	26491.918812
692.336990	25888.959003
692.673825	25476.297711
693.010610	24966.798374
693.347345	24485.884900
693.684030	23856.080947
694.020665	23667.846783
694.357251	23000.428261
694.693786	23002.235514
695.030272	22774.766050
695.366707	22276.737858
695.703093	22015.303620
696.039429	22087.893715
696.375716	21845.313392
696.711952	21843.801046
697.048139	21716.093495
697.384276	21549.412784
697.720363	21674.314933
698.056400	21553.382693
698.392388	21414.420767
698.728326	21395.274464
699.064214	21237.602296
699.400053	21232.437633
699.735842	20857.103565
700.071581	20660.291878
700.407270	20403.450130
700.742910	20234.788246
701.078501	19977.996910
701.414042	19783.456263
701.749533	19474.788933
702.084974	19170.489764
702.420366	19394.448065
702.755709	18985.552514
703.091002	18681.361730
703.426246	18760.437269
703.761440	18693.135344
704.096584	18456.100291
704.431679	18380.999701
704.766725	18335.770469
705.101721	18275.077497
705.436668	18390.010764
705.771565	18123.023694
706.106413	18441.622097
706.441212	18511.537859
706.775961	18616.928222
707.110661	18704.553558
707.445311	19070.264064
707.779913	18947.993398
708.114465	19244.347709
708.448967	19569.033305
708.783421	20205.405881
709.117825	20561.762526
709.452180	20794.452105
709.786485	21256.476376
710.120742	22012.523424
710.454949	22133.438019
710.789107	22644.419455
711.123216	23353.664431
711.457275	23571.863214
711.791286	24128.479695
712.125247	24272.069401
712.459159	23992.892821
712.793023	24728.223247
713.126837	23699.638820
713.460602	23933.321506
713.794318	23583.263783
714.127985	23323.732580
714.461602	22420.239344
714.795171	22401.491293
715.128691	21419.003176
715.462162	20890.226466
715.795584	20464.042279
716.128957	20202.895386
716.462281	19818.706531
716.795556	19546.096055
717.128782	19071.380679
717.461960	18469.781982
717.795088	18430.660108
718.128167	18090.934229
718.461198	17646.884193
718.794180	17510.773039
719.127113	17190.536262
719.459997	17006.193868
719.792833	16628.485416
720.125619	16676.285637
720.458357	16338.669482
720.791046	16202.283585
721.123686	16058.653550
721.456278	15838.667679
721.788821	15841.730180
722.121315	15568.550053
722.453761	15677.050807
722.786158	15565.048971
723.118506	15640.842719
723.450805	15519.126580
723.783056	15705.949221
724.115259	15600.044661
724.447412	15601.108345
724.779518	15818.382076
725.111574	15865.252203
725.443582	16128.503778
725.775542	16098.269458
726.107453	16615.060824
726.439315	16544.182201
726.771129	16951.953573
727.102895	17377.936115
727.434612	17647.907547
727.766281	17816.098083
728.097901	18141.118916
728.429473	18215.186069
728.760996	18226.337101
729.092471	18334.928596
729.423897	18238.307321
729.755276	18100.678780
730.086606	18209.471921
730.417887	18806.500812
730.749120	19359.250728
731.080305	19579.841538
731.411442	19979.539503
731.742530	20088.778787
732.073570	20249.644527
732.404562	20562.294367
732.735506	20391.845394
733.066401	20188.281081
733.397249	19670.060548
733.728048	19056.731086
734.058798	18196.821145
734.389501	17439.002132
734.720156	16927.715706
735.050762	16350.306985
735.381320	15974.572145
735.711831	15695.841708
736.042293	15338.083622
736.372707	15381.193049
736.703073	15178.049673
737.033391	15376.136772
737.363661	15368.181831
737.693883	15506.064951
738.024056	15711.136569
738.354182	15935.533450
738.684260	16297.700024
739.014290	16577.544557
739.344272	16805.795400
739.674207	17151.918502
740.004093	17319.204152
740.333931	17376.209519
740.663722	17452.030994
740.993464	17484.642218
741.323159	17315.604768
741.652806	17026.481992
741.982405	16854.417329
742.311956	16492.941392
742.641460	16374.383536
742.970915	16042.683175
743.300323	15699.166349
743.629683	15479.044366
743.958996	15171.917109
744.288260	14857.875910
744.617477	14541.213310
744.946647	14511.962015
745.275768	14204.907855
745.604842	14007.602135
745.933869	13824.696470
746.262847	13799.704950
746.591778	13714.083472
746.920662	13605.383593
747.249498	13614.684522
747.578286	13777.380200
747.907027	13946.042084
748.235720	14219.922932
748.564365	14289.216112
748.892963	14211.884812
749.221514	14311.220748
749.550017	14187.387325
749.878473	14143.909893
750.206881	13933.555146
750.535242	13849.763608
750.863555	13778.103606
751.191821	13672.030167
751.520039	13691.725955
751.848210	13619.029996
752.176334	13668.884487
752.504411	13601.166667
752.832440	13413.708841
753.160421	13527.472560
753.488356	13419.339810
753.816243	13324.251046
754.144082	13169.800174
754.471875	13121.014408
754.799620	13079.394642
755.127318	13051.973285
755.454969	13049.583778
755.782572	13007.525432
756.110129	13029.630891
756.437638	12927.920571
756.765100	12942.166872
757.092515	12966.306437
757.419882	13009.753622
757.747203	13017.920291
758.074477	13110.972429
758.401703	13095.123042
758.728882	13292.648052
759.056014	13339.855937
759.383099	13507.035722
759.710138	13632.046255
760.037129	13756.109052
760.364073	13812.451508
760.690970	13843.605838
761.017820	13857.030431
761.344623	14088.590792
761.671379	14468.056086
761.998088	15168.264793
762.324751	16953.097915
762.651366	20372.358814
762.977935	24869.123497
763.304456	27838.400922
763.630931	28872.654127
763.957359	27645.581828
764.283740	25356.905544
764.610074	23073.860228
764.936362	20436.343659
765.262602	18563.439059
765.588796	16626.847041
765.914943	15355.440315
766.241044	14251.664557
766.567097	13468.239002
766.893104	12752.090166
767.219064	12291.230402
767.544978	11816.078967
767.870845	11426.206211
768.196665	11211.669827
768.522438	10980.132151
768.848165	10774.763105
769.173846	10568.537063
769.499479	10442.288927
769.825066	10274.650397
770.150607	10044.801508
770.476101	9965.196647
770.801548	9838.691412
771.126949	9683.116363
771.452303	9567.326101
771.777611	9373.067758
772.102872	9361.785655
772.428087	9223.710972
772.753256	9062.323473
773.078378	8975.976069
773.403453	8793.753481
773.728482	8675.868619
774.053465	8607.888659
774.378401	8508.913165
774.703291	8385.684680
775.028135	8261.130372
775.352932	8226.651400
775.677683	8127.880072
776.002388	8017.284719
776.327046	8028.090432
776.651658	7929.349352
776.976224	7826.119124
777.300743	7834.946184
777.625216	7742.070486
777.949643	7697.599948
778.274024	7715.906898
778.598359	7629.592262
778.922647	7645.401320
779.246889	7600.005730
779.571086	7613.493337
779.895236	7615.290508
780.219339	7623.021118
780.543397	7629.551933
780.867409	7708.403140
781.191374	7716.995787
781.515294	7682.451280
781.839167	7774.870754
782.162995	7749.284378
782.486776	7695.046603
782.810511	7644.193964
783.134201	7557.571817
783.457844	7551.507309
783.781441	7495.056468
784.104993	7429.476098
784.428498	7408.709065
784.751958	7391.097794
785.075372	7363.694082
785.398739	7312.538973
785.722061	7357.175870
786.045337	7361.095367
786.368568	7515.684870
786.691752	7545.525980
787.014891	7889.990543
787.337983	8249.724761
787.661030	8843.930606
787.984031	9476.721442
788.306987	9881.369821
788.629897	10083.232744
788.952760	10031.901195
789.275579	9804.867790
789.598351	9404.159074
789.921078	9045.473416
790.243759	8633.759861
790.566395	8337.602155
790.888984	8088.057478
791.211529	7879.908235
791.534027	7659.612333
791.856480	7457.262938
792.178888	7385.078656
792.501249	7289.387474
792.823566	7129.754296
793.145836	7132.726056
793.468062	7109.274609
793.790241	7059.629326
794.112375	7130.386961
794.434464	7277.235772
794.756507	7326.399625
795.078505	7489.659913
795.400457	7802.168602
795.722364	8159.707397
796.044226	8451.018034
796.366042	8722.448881
796.687812	8664.730190
797.009538	8744.637519
797.331218	8631.758523
797.652852	8547.230976
797.974442	8390.017552
798.295986	8305.444634
798.617484	8109.557999
798.938938	7968.914848
799.260346	7867.622943
799.581709	7666.392685
799.903026	7588.953000
800.224299	7473.220711
800.545526	7310.809857
800.866708	7217.064560
801.187845	7144.862634
801.508936	7038.650564
801.829983	7003.112950
802.150984	6850.449167
802.471940	6804.486447
802.792851	6790.590507
803.113717	6763.191835
803.434538	6725.728501
803.755314	6673.156828
804.076045	6676.763773
804.396731	6624.055989
804.717372	6654.756616
805.037967	6657.473798
805.358518	6696.865374
805.679024	6780.150277
805.999485	6797.290200
806.319901	6841.014648
806.640272	6864.834100
806.960598	6942.651871
807.280879	6942.508198
807.601115	7022.760847
807.921306	6966.352856
808.241453	6979.086811
808.561554	7004.741242
808.881611	6964.187680
809.201623	6968.427291
809.521590	6909.387818
809.841513	6892.131948
810.161390	6933.124090
810.481223	6801.005530
810.801011	6780.513240
811.120755	6756.333346
811.440453	6679.712848
811.760107	6647.930894
812.079716	6624.592872
812.399281	6552.582510
812.718801	6539.984667
813.038276	6500.295662
813.357707	6439.930366
813.677093	6474.033771
813.996434	6384.016408
814.315731	6426.054590
814.634983	6416.292395
814.954191	6424.514517
815.273354	6535.805550
815.592473	6599.855930
815.911547	6724.619447
816.230577	6807.324617
816.549562	6953.097142
816.868502	7059.321815
817.187399	7156.311095
817.506250	7305.597304
817.825058	7336.670976
818.143821	7602.299455
818.462539	7877.687607
818.781213	8245.104543
819.099843	8802.152043
819.418429	9803.983068
819.736970	10779.161512
820.055466	11965.881895
820.373919	13500.414167
820.692327	15840.432082
821.010691	19982.715430
821.329011	28974.487955
821.647286	42019.055785
821.965517	55498.080336
822.283704	60886.763767
822.601847	62865.456981
822.919945	60143.153245
823.237999	55939.635002
823.556010	49734.614844
823.873976	42972.695900
824.191897	36433.106964
824.509775	31579.408423
824.827609	27054.037712
825.145398	24480.148067
825.463144	23125.123722
825.780845	23424.379217
826.098502	25204.637492
826.416116	29030.064156
826.733685	32726.833012
827.051210	33930.773976
827.368692	32145.421615
827.686129	28159.197267
828.003522	24007.817157
828.320872	20266.003071
828.638177	17404.616421
828.955439	15257.105047
829.272656	13426.465481
829.589830	11947.670727
829.906960	10676.541264
830.224046	9736.043437
830.541088	8981.412954
830.858086	8524.081997
831.175041	8149.367991
831.491952	8033.930609
831.808819	8079.709327
832.125642	8486.898447
832.442421	9369.118014
832.759157	11173.533498
833.075849	14118.351243
833.392497	17361.678393
833.709101	19562.436955
834.025662	19406.677904
834.342179	17695.750618
834.658653	15479.404809
834.975083	13535.735011
835.291469	11910.779563
835.607811	10587.648077
835.924110	9675.718470
836.240366	8802.699009
836.556578	7998.337542
836.872746	7353.783173
837.188871	6852.536205
837.504952	6430.735301
837.820990	6122.241891
838.136984	5906.757770
838.452935	5809.206402
838.768842	5842.213357
839.084706	6266.688593
839.400526	7474.788509
839.716303	9067.707425
840.032037	10176.400829
840.347727	10101.143964
840.663373	9111.930947
840.978977	8067.605517
841.294537	7253.045796
841.610054	6650.149002
841.925527	6217.123968
842.240957	5855.642991
842.556344	5525.898597
842.871687	5242.437037
843.186987	4957.110250
843.502244	4739.287033
843.817458	4570.824275
844.132629	4432.018624
844.447756	4344.274821
844.762840	4266.336062
845.077881	4188.873692
845.392879	4125.655102
845.707833	4080.120880
846.022745	4034.821071
846.337613	4008.644880
846.652438	3963.841625
846.967221	3949.174388
847.281960	3911.017895
847.596656	3898.614136
847.911309	3878.648646
848.225919	3855.083772
848.540485	3837.648942
848.855009	3824.148732
849.169490	3803.565700
849.483928	3790.506591
849.798323	3782.594500
850.112675	3765.275616
850.426984	3768.494393
850.741251	3755.447887
851.055474	3747.805498
851.369654	3754.059049
851.683792	3751.916559
851.997887	3758.417127
852.311938	3763.029782
852.625947	3768.433899
852.939914	3753.809512
853.253837	3768.509517
853.567718	3763.095317
853.881555	3754.764811
854.195350	3767.718055
854.509103	3761.441819
854.822812	3761.149432
855.136479	3751.745159
855.450103	3763.385184
855.763685	3747.911362
856.077224	3754.759769
856.390720	3773.059158
856.704173	3792.258392
857.017584	3804.662151
857.330953	3815.062052
857.644278	3837.023838
857.957561	3843.534489
858.270802	3841.296216
858.584000	3847.834593
858.897155	3836.434023
859.210268	3818.842917
859.523339	3797.962458
859.836367	3799.351296
860.149352	3788.593473
860.462295	3781.324130
860.775195	3770.281482
861.088054	3770.404990
861.400869	3768.191924
861.713642	3765.084053
862.026373	3778.291876
862.339062	3781.316568
862.651708	3800.994712
862.964312	3838.954600
863.276873	3853.059749
863.589392	3908.280548
863.901869	3954.044143
864.214303	3999.908560
864.526696	4034.087583
864.839045	4077.945622
865.151353	4103.342955
865.463619	4111.607927
865.775842	4120.046818
866.088023	4137.234632
866.400162	4128.891523
866.712258	4135.198006
867.024313	4139.833347
867.336325	4133.310094
867.648296	4137.857215
867.960224	4138.530209
868.272110	4148.355418
868.583954	4153.779699
868.895755	4169.934077
869.207515	4165.326462
869.519233	4212.032753
869.830909	4221.908373
870.142542	4245.601796
870.454134	4259.119650
870.765684	4291.564516
871.077191	4325.315041
871.388657	4345.797249
871.700081	4384.896438
872.011463	4430.589457
872.322803	4468.622442
872.634101	4498.148480
872.945357	4537.058626
873.256571	4591.369497
873.567744	4624.762100
873.878874	4640.465294
874.189963	4678.636911
874.501010	4685.810473
874.812015	4684.212427
875.122979	4731.342175
875.433900	4726.447214
875.744780	4743.183845
876.055618	4766.423564
876.366415	4766.610087
876.677169	4788.309734
876.987882	4830.746167
877.298554	4884.542840
877.609183	4961.012103
877.919771	5071.181479
878.230317	5218.179005
878.540822	5436.571872
878.851285	5758.746973
879.161707	6219.475667
879.472087	6975.482386
879.782425	8214.655974
880.092722	10395.186906
880.402977	13720.095048
880.713191	17500.882295
881.023363	21256.438567
881.333494	23495.199867
881.643583	24715.355702
881.953631	24697.026067
882.263637	23842.182486
882.573602	22353.101257
882.883526	20775.381420
883.193408	19087.744265
883.503248	17380.096249
883.813048	15822.646892
884.122806	14390.613880
884.432522	12913.054209
884.742197	11650.638380
885.051831	10554.726822
885.361424	9553.669615
885.670975	8732.626970
885.980485	8039.856485
886.289954	7468.592931
886.599382	6991.213306
886.908768	6614.218178
887.218113	6251.406335
887.527417	5961.050997
887.836680	5696.024937
888.145901	5477.047296
888.455082	5317.991330
888.764221	5165.675387
889.073319	5023.776989
889.382376	4959.134273
889.691392	4894.244541
890.000366	4875.073033
890.309300	4858.495198
890.618193	4857.345815
890.927044	4844.886603
891.235855	4870.122620
891.544625	4898.116147
891.853353	4960.507988
892.162041	5080.903344
892.470687	5266.468217
892.779293	5515.435682
893.087858	5890.124483
893.396381	6465.040353
893.704864	7269.858044
894.013306	8435.524048
894.321707	9616.472309
894.630068	10452.008271
894.938387	10665.082721
895.246665	10428.191340
895.554903	9817.879008
895.863100	9110.534548
896.171256	8544.763331
896.479371	8031.233592
896.787446	7532.275307
897.095480	7101.848989
897.403473	6776.392097
897.711425	6460.425177
898.019336	6196.503129
898.327207	5918.901910
898.635038	5688.627043
898.942827	5440.423313
899.250576	5242.295885
899.558284	5051.495773
899.865952	4926.674283
900.173579	4781.098363
900.481165	4670.563503
900.788711	4574.463988
901.096216	4504.770036
901.403681	4440.795273
901.711105	4414.263680
902.018489	4404.307401
902.325832	4469.005570
902.633135	4596.113223
902.940397	4935.322383
903.247619	5732.623713
903.554800	7184.884355
903.861941	9113.327347
904.169041	10647.368106
904.476101	11277.313212
904.783121	10915.706205
905.090100	10169.807000
905.397039	9321.272423
905.703938	8566.949449
906.010796	7869.536061
906.317614	7307.903632
906.624391	6781.420648
906.931129	6350.777560
907.237826	5952.677641
907.544483	5574.029013
907.851099	5197.401889
908.157675	4842.035831
908.464211	4520.647150
908.770707	4279.770737
909.077163	4078.893359
909.383578	3938.507307
909.689954	3821.744101
909.996289	3750.005961
910.302584	3690.721992
910.608839	3654.763442
910.915054	3623.669605
911.221229	3609.435907
911.527363	3624.584574
911.833458	3638.354486
912.139513	3662.012621
912.445527	3695.364895
912.751502	3774.400105
913.057436	3877.370713
913.363331	4012.841641
913.669186	4218.916448
913.975000	4476.985716
914.280775	4895.020878
914.586510	5477.788345
914.892205	6274.819974
915.197859	7319.112637
915.503475	8557.756905
915.809050	9629.170976
916.114585	10287.656574
916.420081	10550.572911
916.725536	10512.522282
917.030952	10069.167925
917.336328	9655.107712
917.641665	9229.541067
917.946961	8753.351154
918.252218	8325.518509
918.557435	7812.558420
918.862612	7375.921400
919.167750	6996.745972
919.472848	6578.443629
919.777906	6199.263160
920.082925	5831.223642
920.387904	5468.479855
920.692843	5200.918094
920.997743	4956.802739
921.302603	4718.424218
921.607423	4554.332140
921.912204	4387.873240
922.216946	4274.540540
922.521647	4149.915655
922.826310	4045.309192
923.130932	3950.769913
923.435516	3850.035057
923.740059	3781.097278
924.044564	3702.914023
924.349028	3646.667349
924.653454	3585.319027
924.957840	3514.707585
925.262186	3466.015080
925.566493	3404.487797
925.870761	3349.624920
926.174989	3308.297541
926.479178	3276.253446
926.783328	3233.827096
927.087438	3204.568239
927.391509	3167.780418
927.695541	3141.044659
927.999533	3114.392079
928.303486	3092.130343
928.607400	3079.025864
928.911275	3066.095304
929.215110	3049.010834
929.518906	3038.870553
929.822663	3038.240409
930.126381	3034.817465
930.430060	3043.863816
930.733699	3046.018909
931.037299	3055.229097
931.340861	3053.830177
931.644383	3062.682443
931.947866	3062.004408
932.251309	3056.113820
932.554714	3052.983263
932.858080	3050.165258
933.161407	3040.221582
933.464694	3033.416024
933.767943	3025.385466
934.071153	3021.009745
934.374323	3010.410719
934.677455	3005.656911
934.980548	3001.117352
935.283602	2994.059736
935.586617	2989.981443
935.889593	3000.557784
936.192530	3003.456447
936.495428	3016.896163
936.798287	3041.300389
937.101108	3075.555029
937.403890	3124.784417
937.706632	3190.742874
938.009336	3273.054834
938.312002	3347.399251
938.614628	3408.626585
938.917216	3462.486272
939.219765	3493.534739
939.522275	3525.961961
939.824747	3526.652599
940.127179	3527.413813
940.429573	3518.944675
940.731929	3516.537524
941.034246	3501.492200
941.336524	3490.048781
941.638763	3472.301399
941.940964	3459.580047
942.243126	3416.614293
942.545250	3393.140160
942.847335	3355.109695
943.149381	3321.333965
943.451389	3287.785086
943.753359	3252.068511
944.055290	3227.097155
944.357182	3204.442210
944.659036	3189.515353
944.960851	3180.748787
945.262628	3162.507372
945.564367	3166.752023
945.866067	3160.417813
946.167729	3157.836742
946.469352	3154.993532
946.770937	3149.402892
947.072484	3134.513844
947.373992	3139.360914
947.675462	3131.106024
947.976893	3115.155813
948.278286	3104.024946
948.579641	3098.540170
948.880958	3092.425251
949.182236	3097.728545
949.483476	3088.793099
949.784678	3088.435177
950.085841	3091.563213
950.386967	3100.642332
950.688054	3115.107923
950.989103	3137.636839
951.290114	3158.245076
951.591087	3188.726413
951.892021	3215.830176
952.192917	3240.955287
952.493776	3268.618619
952.794596	3278.471554
953.095378	3280.866102
953.396122	3276.271090
953.696828	3270.773712
953.997496	3259.569748
954.298126	3233.408680
954.598718	3213.755742
954.899272	3186.152904
955.199788	3160.132988
955.500266	3127.481435
955.800706	3092.435333
956.101108	3056.186916
956.401472	3020.772811
956.701798	2990.185610
957.002087	2947.897891
957.302337	2920.370670
957.602550	2889.591905
957.902724	2862.379757
958.202861	2837.819255
958.502960	2815.575164
958.803022	2794.987092
959.103045	2777.131325
959.403031	2758.836977
959.702979	2745.256109
960.002889	2730.193141
960.302762	2720.740978
960.602596	2707.046683
960.902393	2697.579396
961.202153	2692.291226
961.501875	2683.171779
961.801559	2676.320851
962.101205	2667.612257
962.400814	2664.332987
962.700385	2656.226811
962.999918	2649.879999
963.299414	2647.427477
963.598873	2644.372538
963.898293	2635.578245
964.197677	2636.944398
964.497022	2635.817700
964.796331	2631.913326
965.095601	2629.034827
965.394835	2627.159518
965.694030	2624.790176
965.993189	2624.535598
966.292309	2623.970988
966.591393	2624.812861
966.890439	2622.080556
967.189447	2626.126082
967.488419	2621.699949
967.787353	2623.771863
968.086249	2626.995681
968.385108	2627.716566
968.683930	2627.885444
968.982714	2632.868625
969.281462	2637.637557
969.580172	2645.630306
969.878844	2649.073414
970.177480	2657.285454
970.476078	2665.580672
970.774639	2671.269614
971.073162	2678.188598
971.371649	2683.456604
971.670098	2689.596729
971.968510	2698.471681
972.266885	2699.416897
972.565223	2702.126517
972.863524	2704.924357
973.161788	2711.432487
973.460014	2714.016078
973.758204	2714.280739
974.056356	2716.695452
974.354471	2719.447922
974.652550	2718.676625
974.950591	2720.304918
975.248595	2717.237376
975.546563	2715.261243
975.844493	2710.512477
976.142386	2704.881508
976.440243	2702.570139
976.738062	2698.138964
977.035845	2687.668488
977.333590	2684.858045
977.631299	2680.706654
977.928971	2674.034687
978.226606	2664.580003
978.524204	2662.553459
978.821765	2657.635814
979.119290	2663.415497
979.416777	2662.631597
979.714228	2664.862308
980.011642	2666.500683
980.309020	2676.746828
980.606360	2690.942717
980.903664	2712.022302
981.200931	2746.254257
981.498162	2797.497586
981.795356	2871.186653
982.092513	2964.140488
982.389633	3065.840726
982.686717	3163.591220
982.983764	3238.641397
983.280775	3287.202833
983.577749	3296.665078
983.874686	3282.469189
984.171587	3246.331678
984.468451	3207.355997
984.765279	3165.348062
985.062070	3118.462810
985.358824	3072.674010
985.655543	3014.388189
985.952224	2962.154274
986.248869	2901.413411
986.545478	2840.594410
986.842050	2783.977212
987.138586	2738.518607
987.435086	2699.724407
987.731549	2668.585200
988.027975	2646.036119
988.324366	2628.336628
988.620719	2612.726695
988.917037	2605.018771
989.213318	2593.731627
989.509563	2583.409865
989.805772	2581.332909
990.101944	2576.309399
990.398080	2572.152968
990.694180	2569.866805
990.990244	2571.779923
991.286271	2572.924265
991.582262	2573.559450
991.878217	2577.645305
992.174136	2581.068249
992.470019	2580.977508
992.765865	2588.050247
993.061676	2593.603078
993.357450	2597.678851
993.653188	2604.280242
993.948890	2622.947634
994.244556	2642.562764
994.540186	2666.092349
994.835780	2697.153419
995.131337	2732.665827
995.426859	2778.207611
995.722345	2825.725527
996.017795	2873.621530
996.313208	2912.287180
996.608586	2943.973352
996.903928	2954.781586
997.199234	2956.215794
997.494504	2952.530711
997.789738	2938.629729
998.084936	2913.789444
998.380099	2880.890874
998.675225	2851.233766
998.970316	2822.892399
999.265371	2785.897891
999.560390	2749.034454
999.855373	2717.086141
1000.150320	2687.305525
1000.445232	2660.892399
1000.740108	2643.487816
1001.034948	2623.413941
1001.329752	2609.810387
1001.624521	2595.974941
1001.919254	2583.742581
1002.213951	2578.124215
1002.508613	2570.741445
1002.803239	2562.020249
1003.097829	2553.840977
1003.392384	2552.132026
1003.686903	2545.923845
1003.981386	2541.742207
1004.275834	2540.721374
1004.570246	2536.905220
1004.864623	2534.087215
1005.158964	2532.521937
1005.453270	2529.877852
1005.747540	2527.435413
1006.041775	2524.861904
1006.335974	2525.524816
1006.630138	2524.486338
1006.924266	2521.224711
1007.218359	2521.839732
1007.512416	2519.624145
1007.806438	2515.308917
1008.100425	2519.639268
1008.394376	2516.032323
1008.688292	2520.120699
1008.982172	2520.811337
1009.276017	2521.620442
1009.569827	2519.619104
1009.863602	2517.403517
1010.157341	2514.865296
1010.451045	2515.001407
1010.744714	2514.746829
1011.038347	2516.135667
1011.331945	2512.805984
1011.625508	2513.093330
1011.919036	2510.852537
1012.212528	2513.673063
1012.505986	2507.941271
1012.799408	2510.340860
1013.092795	2508.457989
1013.386147	2510.814729
1013.679464	2509.647702
1013.972745	2506.590242
1014.265992	2506.973369
1014.559204	2508.495798
1014.852380	2506.953205
1015.145521	2508.586539
1015.438628	2506.731394
1015.731699	2506.060921
1016.024736	2506.479336
1016.317737	2509.183915
1016.610703	2509.788854
1016.903635	2513.675583
1017.196531	2510.686179
1017.489393	2516.574247
1017.782219	2514.882940
1018.075011	2517.723630
1018.367768	2519.301511
1018.660490	2519.029289
1018.953177	2519.029289
1019.245829	2519.029289
