Dividing Wavelength (nm)	Counts (n)	Blue Motor Position (mm): 31.500000	Red Motor Position (mm): 0.000000	
326.493990	2101.042018
326.888308	2101.042018
327.282561	2101.042018
327.676750	2078.659295
328.070874	2078.369428
328.464933	2085.303535
328.858929	2092.202354
329.252859	2106.776330
329.646726	2121.209154
330.040528	2139.725312
330.434265	2157.606284
330.827938	2175.225117
331.221547	2195.362006
331.615091	2219.284802
332.008571	2236.076885
332.401986	2257.632859
332.795338	2278.911569
333.188625	2298.130968
333.581847	2315.124698
333.975006	2337.199911
334.368100	2352.320852
334.761129	2369.412884
335.154095	2386.089021
335.546996	2430.115938
335.939833	2510.787002
336.332606	2525.013138
336.725315	2539.486291
337.117960	2543.373021
337.510540	2551.103630
337.903056	2563.875393
338.295508	2569.886969
338.687896	2578.091447
339.080220	2583.490523
339.472480	2589.635690
339.864676	2590.021338
340.256807	2591.793303
340.648875	2592.816658
341.040879	2597.341093
341.432818	2599.178594
341.824694	2598.777822
342.216506	2600.552308
342.608253	2598.092225
342.999937	2596.635332
343.391557	2593.547625
343.783113	2595.201123
344.174605	2592.700711
344.566033	2593.043510
344.957397	2591.783221
345.348697	2590.157449
345.739934	2588.012438
346.131106	2584.017324
346.522215	2581.539597
346.913260	2582.303331
347.304241	2582.283167
347.695159	2580.722930
348.086012	2577.972980
348.476802	2577.035326
348.867528	2574.799574
349.258191	2571.321178
349.648789	2573.065417
350.039324	2568.634243
350.429796	2569.357648
350.820203	2571.059038
351.210548	2569.791187
351.600828	2571.008626
351.991045	2567.063923
352.381198	2569.594583
352.771288	2569.997875
353.161314	2568.669531
353.551276	2568.674572
353.941175	2567.315981
354.331010	2568.523337
354.720782	2568.263718
355.110490	2570.461661
355.500135	2567.280693
355.889717	2568.170457
356.279235	2566.920250
356.668689	2568.447720
357.058080	2571.376630
357.447408	2567.454613
357.836672	2566.932853
358.225873	2566.867318
358.615010	2568.951835
359.004084	2571.333781
359.393095	2573.070458
359.782043	2574.202197
360.170927	2574.786971
360.559748	2574.998699
360.948505	2577.133628
361.337199	2578.335943
361.725830	2576.354770
362.114398	2576.067424
362.502903	2579.528176
362.891344	2579.568505
363.279722	2575.361663
363.668037	2579.876016
364.056289	2582.893146
364.444478	2577.897363
364.832603	2583.467838
365.220665	2579.722261
365.608665	2582.346181
365.996601	2581.842066
366.384474	2582.817529
366.772284	2584.647468
367.160031	2584.786100
367.547715	2585.869948
367.935336	2584.954978
368.322893	2585.055801
368.710388	2586.767273
369.097820	2588.277099
369.485189	2587.651996
369.872495	2590.074270
370.259738	2587.372212
370.646918	2587.420102
371.034035	2585.030596
371.421090	2590.359095
371.808081	2587.488158
372.195010	2587.609146
372.581875	2590.626276
372.968678	2590.336410
373.355418	2592.496544
373.742096	2589.595360
374.128710	2589.708786
374.515262	2591.377408
374.901751	2592.302460
375.288177	2594.472677
375.674540	2594.455033
376.060841	2594.765064
376.447079	2594.379415
376.833254	2594.185331
377.219367	2590.895978
377.605417	2593.976123
377.991404	2595.009560
378.377329	2594.560897
378.763191	2594.447471
379.148991	2599.218923
379.534727	2600.053234
379.920402	2599.740682
380.306013	2598.823193
380.691563	2600.607761
381.077049	2598.820672
381.462474	2599.203800
381.847835	2602.079778
382.233134	2600.214551
382.618371	2602.472988
383.003545	2603.917278
383.388657	2604.033225
383.773706	2604.224789
384.158693	2605.598503
384.543618	2605.467433
384.928480	2604.630602
385.313280	2602.664552
385.698017	2604.544902
386.082692	2609.371807
386.467305	2606.954574
386.851856	2609.518000
387.236344	2609.041611
387.620770	2609.442383
388.005133	2608.305603
388.389435	2612.376335
388.773674	2610.619492
389.157851	2613.102261
389.541965	2612.772065
389.926018	2614.506222
390.310008	2613.293825
390.693936	2615.423712
391.077802	2613.624020
391.461606	2615.786675
391.845348	2615.968157
392.229027	2617.853548
392.612645	2615.090996
392.996200	2615.327930
393.379694	2621.488220
393.763125	2619.504526
394.146494	2618.854217
394.529801	2621.246245
394.913047	2623.088787
395.296230	2624.528036
395.679351	2622.042747
396.062410	2623.630711
396.445408	2623.681122
396.828343	2624.059209
397.211217	2620.182561
397.594028	2622.148611
397.976778	2621.790689
398.359466	2624.344034
398.742092	2622.836729
399.124656	2626.889817
399.507158	2627.691360
399.889598	2628.848305
400.271977	2632.309057
400.654294	2631.376443
401.036549	2631.436937
401.418742	2632.288892
401.800874	2633.685292
402.182944	2634.317957
402.564952	2632.921557
402.946898	2635.590848
403.328783	2635.031280
403.710606	2635.099336
404.092367	2635.787453
404.474067	2639.142341
404.855705	2637.244347
405.237282	2641.005047
405.618797	2641.514204
406.000250	2642.381282
406.381642	2646.807415
406.762972	2643.860861
407.144240	2644.702734
407.525447	2647.687097
407.906593	2647.119967
408.287677	2645.191726
408.668700	2647.830770
409.049661	2652.554331
409.430560	2653.363436
409.811399	2651.989722
410.192176	2652.443425
410.572891	2652.471152
410.953545	2658.656647
411.334138	2655.090031
411.714669	2659.352327
412.095139	2658.795279
412.475547	2660.640342
412.855894	2661.242759
413.236180	2663.092863
413.616405	2665.540343
413.996568	2663.818789
414.376670	2670.107628
414.756711	2669.422032
415.136691	2674.062414
415.516609	2673.028977
415.896466	2678.730522
416.276262	2680.933506
416.655997	2681.651871
417.035670	2685.445339
417.415283	2692.787780
417.794834	2693.916998
418.174324	2697.229036
418.553753	2703.439738
418.933121	2708.758155
419.312428	2713.605224
419.691674	2719.778117
420.070859	2727.692729
420.449983	2732.600292
420.829045	2745.856006
421.208047	2754.975453
421.586988	2771.281066
421.965867	2785.056018
422.344686	2801.948925
422.723444	2821.732933
423.102141	2823.106648
423.480777	2861.938656
423.859352	2873.258567
424.237866	2918.129877
424.616319	2938.836417
424.994712	2983.725371
425.373044	3010.929958
425.751314	3068.134451
426.129524	3081.102819
426.507673	3161.647855
426.885762	3200.643700
427.263789	3257.210488
427.641756	3319.133501
428.019662	3380.270094
428.397508	3446.546144
428.775292	3530.501520
429.153016	3604.414918
429.530679	3684.246630
429.908282	3770.969600
430.285824	3838.979806
430.663305	3978.957525
431.040726	4050.365469
431.418086	4130.454280
431.795385	4293.283550
432.172624	4446.726190
432.549802	4517.355276
432.926920	4652.717819
433.303977	4761.223614
433.680974	4923.460548
434.057910	5090.720991
434.434786	5231.888423
434.811601	5358.668401
435.188355	5670.433519
435.565050	5767.463128
435.941683	5912.865128
436.318257	6231.728191
436.694770	6359.198807
437.071222	6643.451829
437.447614	6636.391693
437.823946	6808.214380
438.200218	7023.063316
438.576429	7152.968810
438.952580	7404.507263
439.328670	7582.061743
439.704700	7898.358858
440.080670	7964.811348
440.456580	8331.792225
440.832429	8583.555010
441.208218	8475.717167
441.583947	8808.750914
441.959616	9053.660250
442.335224	9342.238581
442.710773	9604.771791
443.086261	10021.319813
443.461689	9990.921655
443.837057	10250.861192
444.212365	10733.027392
444.587612	10955.191042
444.962800	11003.124854
445.337927	11412.645507
445.712995	11048.646473
446.088002	12114.346396
446.462949	12468.893267
446.837837	12809.445894
447.212664	13067.169843
447.587431	14830.948587
447.962139	16660.574881
448.336786	18205.219708
448.711374	17560.945123
449.085901	15773.258707
449.460369	16044.903803
449.834776	16314.686192
450.209124	18126.161813
450.583412	18063.389365
450.957640	18616.575341
451.331808	18036.981280
451.705917	17404.974343
452.079965	17692.483950
452.453954	18199.031691
452.827883	18394.573008
453.201752	18476.002766
453.575562	18815.285023
453.949311	19864.966679
454.323001	20150.706841
454.696632	20217.779393
455.070202	21606.037545
455.443713	21967.649593
455.817164	22646.801401
456.190556	23299.587974
456.563888	23069.716400
456.937160	23633.352688
457.310373	22531.711858
457.683526	23104.732254
458.056619	23326.961439
458.429653	23503.013655
458.802628	24190.654766
459.175542	24499.707744
459.548398	25815.731202
459.921194	27360.575154
460.293930	28159.963523
460.666607	30105.017117
461.039224	31838.042301
461.411782	32384.374828
461.784280	31498.462616
462.156719	31269.001896
462.529099	30979.344757
462.901419	29994.588121
463.273680	29225.653363
463.645882	29509.684574
464.018024	29671.251034
464.390106	30665.429587
464.762130	33424.569033
465.134094	37466.377144
465.505999	42637.759117
465.877845	47122.316647
466.249631	48363.675576
466.621358	46830.340578
466.993026	44955.338857
467.364634	43115.171510
467.736184	41392.866340
468.107674	40321.606024
468.479105	39664.902474
468.850477	39082.261036
469.221790	37788.998387
469.593043	36201.075255
469.964238	35423.230258
470.335373	35457.646215
470.706449	37383.896305
471.077467	40154.305251
471.448425	44748.948978
471.819324	47440.753732
472.190164	45529.909408
472.560945	42053.630539
472.931667	39071.185621
473.302330	38052.938079
473.672934	37276.088710
474.043479	37855.713017
474.413965	37109.382793
474.784393	36773.281505
475.154761	37740.928465
475.525070	37820.926535
475.895321	37366.327884
476.265513	38016.737553
476.635645	39058.071059
477.005719	38923.759598
477.375734	39442.085995
477.745691	40186.747597
478.115588	41593.138779
478.485427	43717.642327
478.855207	47172.496292
479.224928	49822.950982
479.594591	51370.580172
479.964194	50345.849706
480.333739	50517.518639
480.703226	50630.248921
481.072653	51291.600415
481.442022	51753.198708
481.811333	51960.720327
482.180584	50690.813343
482.549777	50181.618996
482.918912	49682.832111
483.287988	49382.197861
483.657005	48544.743740
484.025964	47890.008760
484.394864	47918.403059
484.763706	47493.527052
485.132489	46608.252545
485.501213	46445.221630
485.869879	46604.028058
486.238487	46198.830194
486.607036	46377.034983
486.975527	45831.151118
487.343959	46037.563683
487.712333	46124.422764
488.080648	46023.892074
488.448905	46502.247162
488.817104	46301.538663
489.185244	47345.675050
489.553326	49108.069997
489.921350	51836.637366
490.289315	54606.027999
490.657222	55105.588701
491.025070	55333.612692
491.392861	54448.582682
491.760593	53236.986725
492.128267	51580.645053
492.495883	50049.497916
492.863440	48642.889964
493.230939	47272.202754
493.598380	46178.214396
493.965763	45856.858482
494.333088	45023.235638
494.700354	44542.818718
495.067563	44230.289864
495.434713	44082.440384
495.801805	44162.287220
496.168839	43760.741672
496.535815	43429.832772
496.902733	43458.683295
497.269593	43025.156667
497.636395	42957.350627
498.003139	43366.387330
498.369825	42799.776761
498.736453	43123.988488
499.103023	42631.467757
499.469535	42515.059953
499.835989	42622.590286
500.202385	42261.762137
500.568723	42292.666931
500.935003	42497.685617
501.301226	42280.323666
501.667390	42907.806167
502.033497	43157.784384
502.399546	42583.924636
502.765537	41871.844011
503.131470	42279.774180
503.497345	42652.552383
503.863163	41273.857300
504.228923	41907.217787
504.594625	42323.072650
504.960269	41596.460900
505.325856	42302.666060
505.691385	41664.007320
506.056856	41804.784062
506.422270	42243.820671
506.787625	41801.734164
507.152924	42019.136444
507.518164	42111.220681
507.883347	41276.161108
508.248472	41556.860116
508.613540	42052.637432
508.978550	42352.064326
509.343503	42100.616613
509.708398	42309.635455
510.073236	42846.460366
510.438016	42861.349414
510.802738	42283.797021
511.167403	42917.160028
511.532010	43154.668951
511.896561	43450.758601
512.261053	44342.382441
512.625488	43860.473339
512.989866	43738.164864
513.354186	43578.556892
513.718449	43570.874174
514.082655	44261.121561
514.446803	43917.115743
514.810894	44463.024814
515.174927	44363.396491
515.538904	44266.061892
515.902822	44940.981651
516.266684	44374.965939
516.630488	44834.015928
516.994235	44654.540769
517.357925	45234.417134
517.721558	45429.295539
518.085133	45726.017855
518.448651	45845.697368
518.812112	45611.923940
519.175516	45713.725001
519.538863	46046.998202
519.902152	46016.736156
520.265385	46490.602097
520.628560	46502.166504
520.991678	46297.987170
521.354739	46534.714713
521.717743	46858.714712
522.080690	46737.003614
522.443580	47279.736758
522.806413	47313.015935
523.169189	47276.339020
523.531908	47440.960420
523.894569	47296.165878
524.257174	47466.642578
524.619722	47765.651057
524.982213	47732.954133
525.344647	47665.541303
525.707025	47709.827840
526.069345	48119.169532
526.431608	48015.382257
526.793815	48345.459366
527.155964	47870.683497
527.518057	48038.150628
527.880093	47812.851380
528.242072	48342.790075
528.603995	48041.870999
528.965860	48036.136687
529.327669	48131.820308
529.689421	48020.375519
530.051117	47972.232500
530.412755	48132.977252
530.774337	48191.689051
531.135862	48002.595370
531.497331	48182.982978
531.858743	48096.774206
532.220098	48426.518600
532.581396	48126.534658
532.942638	47773.873179
533.303824	48096.444010
533.664953	48067.197756
534.026025	47784.852812
534.387040	48272.284498
534.747999	48223.816324
535.108902	48358.636943
535.469748	47875.512923
535.830537	47972.391297
536.191270	48175.093572
536.551947	47820.571907
536.912567	48152.645314
537.273131	48275.261299
537.633638	47734.519411
537.994089	48069.526769
538.354483	47668.956685
538.714821	48251.640973
539.075103	48591.933981
539.435328	48340.428295
539.795497	48215.475735
540.155609	48213.769304
540.515665	48682.037044
540.875665	48120.081981
541.235609	48433.303993
541.595496	48426.415256
541.955328	49110.698958
542.315102	48458.640832
542.674821	48215.057319
543.034483	48257.589534
543.394090	48244.757277
543.753640	48188.986992
544.113134	49205.432322
544.472571	48197.118373
544.831953	49439.540986
545.191278	48621.626377
545.550548	48352.932877
545.909761	48816.008228
546.268918	49010.158186
546.628019	49309.517025
546.987064	48868.947905
547.346053	48129.166140
547.704986	49005.308596
548.063863	48556.653466
548.422684	48718.345955
548.781449	48569.994879
549.140158	48963.202359
549.498811	48809.328699
549.857408	48211.836022
550.215949	49075.184030
550.574434	49002.684676
550.932864	48732.874560
551.291237	49455.647472
551.649555	49064.741279
552.007817	49286.962903
552.366022	48933.633471
552.724173	49096.074571
553.082267	49480.109671
553.440305	49762.517630
553.798288	49062.054344
554.156215	49382.533097
554.514086	49572.892108
554.871902	49311.157921
555.229661	49324.126289
555.587365	49139.680552
555.945014	49233.682948
556.302606	49155.393828
556.660143	49382.175175
557.017625	49448.229414
557.375050	49234.353421
557.732421	49571.042004
558.089735	49546.015196
558.446994	49451.160845
558.804197	49908.678324
559.161345	49840.428663
559.518437	49069.487526
559.875474	49397.217978
560.232455	49566.527651
560.589381	49723.519264
560.946251	49421.944838
561.303065	50082.439336
561.659825	49871.956039
562.016528	49538.440862
562.373177	49247.664588
562.729770	49712.446370
563.086307	49230.875025
563.442789	49688.329490
563.799216	49713.174816
564.155587	49509.771820
564.511904	49519.839005
564.868164	49604.540472
565.224370	49836.967911
565.580520	49564.105377
565.936615	49767.281521
566.292654	49473.145317
566.648638	49740.097098
567.004567	49682.048212
567.360441	49729.104863
567.716260	49576.809084
568.072023	49859.148988
568.427732	49830.684113
568.783385	49343.953147
569.138982	49734.481253
569.494525	49695.462722
569.850013	49438.036201
570.205445	49404.346170
570.560823	49354.703407
570.916145	49216.704342
571.271412	49248.728271
571.626625	48992.688068
571.981782	49009.341519
572.336884	48709.660047
572.691931	49029.387667
573.046923	48617.517837
573.401860	48456.432807
573.756743	48417.331097
574.111570	48522.479484
574.466342	48363.776399
574.821059	48470.600969
575.175722	47956.496538
575.530330	47991.189759
575.884882	47676.858693
576.239380	47642.110020
576.593823	47598.816591
576.948211	47525.790436
577.302544	47031.931279
577.656823	47033.365487
578.011047	47257.691792
578.365216	46978.570666
578.719330	46761.561595
579.073389	46591.566326
579.427394	46670.563727
579.781344	46622.561860
580.135239	46265.519619
580.489080	46331.430185
580.842866	45815.054714
581.196597	46245.090343
581.550273	46174.272213
581.903895	46041.223561
582.257463	46447.628781
582.610975	45808.707901
582.964434	46095.002590
583.317837	45709.951697
583.671186	45552.277008
584.024481	45760.680828
584.377721	45269.793432
584.730906	45541.340225
585.084037	45605.597292
585.437113	45302.248380
585.790135	45306.861036
586.143103	44900.402883
586.496016	45012.392116
586.848874	45026.298139
587.201679	45028.354930
587.554428	44497.246687
587.907124	44692.636769
588.259765	44440.574035
588.612352	44673.656825
588.964884	44057.035489
589.317362	44335.450854
589.669786	44281.931444
590.022155	44027.159091
590.374470	44447.530828
590.726731	43958.564110
591.078937	43461.027432
591.431090	43581.831122
591.783188	43208.387486
592.135232	42876.551013
592.487222	43148.312056
592.839157	43209.783886
593.191038	42862.823952
593.542866	42621.861839
593.894639	42009.838036
594.246358	42277.304015
594.598022	42265.595935
594.949633	41860.519059
595.301190	41807.095431
595.652692	41634.624955
596.004141	41954.798718
596.355535	40964.491771
596.706876	40905.114541
597.058162	40742.494479
597.409395	41193.337471
597.760573	41273.930397
598.111698	40862.927645
598.462768	40874.171938
598.813785	40895.080124
599.164748	40341.019507
599.515657	40727.877654
599.866511	40207.985978
600.217312	40828.713333
600.568060	39787.246237
600.918753	40529.440194
601.269392	40477.584365
601.619978	40136.194906
601.970510	40353.146003
602.320988	40517.157423
602.671412	40803.013531
603.021783	40573.298233
603.372100	40220.180529
603.722363	40314.802987
604.072572	40387.940047
604.422728	40394.740563
604.772830	40204.348786
605.122878	40322.785654
605.472872	40248.637843
605.822813	40507.334735
606.172701	40338.743427
606.522534	40592.048804
606.872314	40846.667403
607.222041	40585.885994
607.571714	40980.855357
607.921333	40410.032904
608.270899	40709.124561
608.620411	41051.597868
608.969870	40844.822341
609.319276	40862.746163
609.668627	40884.680223
610.017926	41384.172870
610.367171	41522.053469
610.716362	41608.791562
611.065500	41532.662577
611.414585	41728.977711
611.763616	42029.309492
612.112594	41969.037457
612.461518	42175.480269
612.810389	42482.839419
613.159207	42333.371728
613.507971	42423.172322
613.856682	42885.209195
614.205340	42777.268009
614.553945	43478.260616
614.902496	42896.266966
615.250994	43385.856266
615.599439	43459.923419
615.947830	43654.353161
616.296169	43719.235332
616.644454	43828.446888
616.992686	44005.106563
617.340864	44512.299572
617.688990	44227.799534
618.037063	44847.919431
618.385082	44790.848528
618.733048	45094.842708
619.080961	45097.587616
619.428821	45116.023116
619.776628	45224.304580
620.124382	45061.959261
620.472083	45207.436879
620.819731	45333.569069
621.167326	44995.408469
621.514868	44982.669473
621.862357	44534.054672
622.209793	44577.043111
622.557176	44234.358076
622.904506	43982.756608
623.251783	43640.636181
623.599007	43421.270372
623.946179	43196.787791
624.293297	43161.522399
624.640363	42547.595560
624.987376	42529.548230
625.334336	42288.760037
625.681243	41933.121756
626.028097	41879.753581
626.374899	41742.064546
626.721647	41717.519168
627.068343	41597.655653
627.414987	41375.330686
627.761577	41151.137972
628.108115	41480.486635
628.454600	40918.629874
628.801032	41106.775818
629.147412	41059.106667
629.493739	41043.227032
629.840014	40692.244258
630.186236	41039.375591
630.532405	40608.185538
630.878521	40831.942193
631.224585	40702.094672
631.570597	40407.769426
631.916556	40563.263816
632.262462	40521.659173
632.608316	40541.788501
632.954117	40435.818406
633.299866	40424.138052
633.645562	40352.117608
633.991206	39866.510819
634.336797	39421.765104
634.682336	39422.528838
635.027823	39172.507772
635.373257	38976.701795
635.718639	38750.948844
636.063968	38602.512069
636.409245	38028.105355
636.754470	38074.851975
637.099642	37818.423602
637.444762	37342.747887
637.789829	37480.711665
638.134845	37145.177506
638.479808	37084.035872
638.824719	36984.553742
639.169577	36602.401513
639.514383	36661.690523
639.859137	36337.914856
640.203839	36588.583710
640.548489	36217.927832
640.893086	36290.540612
641.237632	36043.708076
641.582125	36158.744686
641.926566	36067.272950
642.270955	36044.436523
642.615292	36072.175472
642.959576	36041.109361
643.303809	36017.872163
643.647990	36171.899577
643.992118	36116.799766
644.336195	36115.453778
644.680219	36192.669131
645.024192	36508.603284
645.368112	37017.817795
645.711981	37007.039808
646.055797	37874.496357
646.399562	37794.541136
646.743274	38746.323585
647.086935	39188.838590
647.430544	39075.173174
647.774101	39193.065598
648.117606	39452.054877
648.461059	39753.372204
648.804460	39361.422492
649.147810	38746.469778
649.491108	38496.796552
649.834354	38135.827251
650.177548	37291.348282
650.520690	36842.108378
650.863781	36877.020889
651.206820	36724.745275
651.549807	36281.821937
651.892742	35775.208660
652.235626	35590.369713
652.578458	35452.897448
652.921238	34836.654199
653.263967	35171.018810
653.606644	34836.487841
653.949269	34781.630005
654.291843	34356.375910
654.634365	34766.163745
654.976836	34361.918659
655.319255	34370.682705
655.661622	34369.324114
656.003938	34141.902541
656.346203	34015.919065
656.688416	34233.467538
657.030577	34028.199316
657.372687	33866.738720
657.714746	34130.761591
658.056753	34250.657873
658.398708	33695.853687
658.740612	33746.081223
659.082465	34025.487175
659.424266	33844.429093
659.766016	33963.886795
660.107715	33834.946683
660.449362	33959.140549
660.790958	33920.731998
661.132503	33937.110707
661.473996	33985.674662
661.815438	34085.607976
662.156829	34281.343377
662.498168	34032.441447
662.839456	34068.102569
663.180693	34225.643668
663.521879	34378.506576
663.863013	34337.716079
664.204097	34323.898277
664.545129	34780.951970
664.886110	34721.242023
665.227040	34810.193182
665.567918	34924.763486
665.908746	34994.404506
666.249522	35145.734903
666.590248	35142.823637
666.930922	35241.332824
667.271545	35221.092591
667.612118	35274.380108
667.952639	35080.325932
668.293109	35124.458713
668.633528	35023.209659
668.973896	34952.328515
669.314213	34993.673538
669.654480	34726.263012
669.994695	34737.799693
670.334859	34645.569262
670.674973	34534.358888
671.015035	34699.991039
671.355047	34628.555368
671.695008	34568.943724
672.034918	34467.881192
672.374777	34550.863626
672.714585	34377.014394
673.054342	34609.802276
673.394049	34348.645301
673.733705	34641.964837
674.073310	34295.519101
674.412864	34366.677508
674.752368	33987.310517
675.091820	34289.512566
675.431223	33854.748335
675.770574	33560.357553
676.109875	33431.137657
676.449125	33153.165913
676.788324	33069.099632
677.127473	32530.422096
677.466571	32446.118881
677.805619	32102.191201
678.144616	32108.074227
678.483562	32017.467048
678.822458	31685.844825
679.161303	31611.223145
679.500098	31525.410104
679.838842	31394.151061
680.177535	31547.840718
680.516179	31826.182986
680.854771	32056.367112
681.193314	32928.516974
681.531805	34032.655696
681.870247	34776.838388
682.208638	35477.962065
682.546978	35704.503957
682.885268	35820.760527
683.223508	35293.891894
683.561697	34964.291173
683.899836	34769.664826
684.237925	34273.395998
684.575963	34100.560038
684.913951	33648.028260
685.251889	33794.897236
685.589776	33767.059985
685.927614	33754.353756
686.265401	33904.146602
686.603137	33985.105012
686.940824	34483.150847
687.278460	34854.943505
687.616046	34951.897497
687.953582	35566.451959
688.291068	35425.201349
688.628504	35709.048557
688.965889	35641.209750
689.303224	35294.885001
689.640510	34957.909073
689.977745	34229.595932
690.314930	33434.086732
690.652065	32925.809875
690.989150	32213.482233
691.326185	31288.183486
691.663170	30598.483064
692.000105	29838.030047
692.336990	29152.533947
692.673825	28704.423261
693.010610	28182.522686
693.347345	27589.980422
693.684030	26931.706552
694.020665	26639.911965
694.357251	25955.668592
694.693786	25900.152885
695.030272	25665.003223
695.366707	25112.419664
695.703093	24813.096114
696.039429	24805.693179
696.375716	24531.683782
696.711952	24490.956301
697.048139	24322.470857
697.384276	24138.486385
697.720363	24276.424957
698.056400	24063.786568
698.392388	23849.703887
698.728326	23805.916425
699.064214	23606.001907
699.400053	23549.563670
699.735842	23182.255118
700.071581	22902.952510
700.407270	22627.987814
700.742910	22409.857088
701.078501	22154.494919
701.414042	21858.894260
701.749533	21568.027245
702.084974	21211.907534
702.420366	21409.276269
702.755709	20976.659570
703.091002	20666.671458
703.426246	20687.625014
703.761440	20585.551731
704.096584	20309.029319
704.431679	20258.761453
704.766725	20158.392080
705.101721	20106.964749
705.436668	20174.070069
705.771565	19854.196254
706.106413	20199.084274
706.441212	20186.430978
706.775961	20314.287242
707.110661	20370.349914
707.445311	20737.925647
707.779913	20549.958664
708.114465	20798.265738
708.448967	21076.164385
708.783421	21758.638313
709.117825	22019.515504
709.452180	22227.064849
709.786485	22631.350264
710.120742	23418.614657
710.454949	23420.736983
710.789107	23889.634867
711.123216	24599.036118
711.457275	24718.503903
711.791286	25251.666416
712.125247	25328.221378
712.459159	25025.069071
712.793023	25709.844286
713.126837	24605.461069
713.460602	24880.506423
713.794318	24525.112638
714.127985	24152.652028
714.461602	23257.375872
714.795171	23211.592113
715.128691	22188.338705
715.462162	21661.926297
715.795584	21239.633881
716.128957	20974.373406
716.462281	20572.419525
716.795556	20338.313382
717.128782	19819.823147
717.461960	19274.829046
717.795088	19190.672023
718.128167	18777.972923
718.461198	18329.090940
718.794180	18174.577054
719.127113	17810.353689
719.459997	17599.225124
719.792833	17242.634066
720.125619	17208.288685
720.458357	16883.650980
720.791046	16714.921040
721.123686	16542.662293
721.456278	16309.087991
721.788821	16271.559121
722.121315	15998.880589
722.453761	16080.627940
722.786158	15998.817575
723.118506	16005.204717
723.450805	15872.657658
723.783056	16018.515883
724.115259	15916.251036
724.447412	15828.839949
724.779518	16078.974441
725.111574	16096.794920
725.443582	16298.146167
725.775542	16285.303827
726.107453	16741.233343
726.439315	16622.589787
726.771129	17012.424734
727.102895	17385.840644
727.434612	17591.726408
727.766281	17710.725365
728.097901	17966.415209
728.429473	18008.995315
728.760996	18003.712186
729.092471	18101.218183
729.423897	17967.420919
729.755276	17836.308069
730.086606	17960.088561
730.417887	18489.941556
730.749120	18989.938318
731.080305	19153.034769
731.411442	19479.136929
731.742530	19553.985460
732.073570	19666.912348
732.404562	19958.618715
732.735506	19774.203225
733.066401	19474.254571
733.397249	18956.031518
733.728048	18334.041353
734.058798	17497.935741
734.389501	16808.013508
734.720156	16345.754823
735.050762	15817.114225
735.381320	15467.616070
735.711831	15213.801536
736.042293	14862.435633
736.372707	14868.099370
736.703073	14653.994004
737.033391	14843.533827
737.363661	14793.636486
737.693883	14897.970727
738.024056	15054.758173
738.354182	15220.465941
738.684260	15492.594988
739.014290	15704.734303
739.344272	15892.154321
739.674207	16170.521795
740.004093	16276.055830
740.333931	16279.120852
740.663722	16331.858883
740.993464	16329.865107
741.323159	16155.037891
741.652806	15896.731689
741.982405	15685.716550
742.311956	15357.476941
742.641460	15250.024747
742.970915	14936.432210
743.300323	14607.262508
743.629683	14403.773812
743.958996	14119.286378
744.288260	13842.693389
744.617477	13548.670612
744.946647	13479.168224
745.275768	13205.085730
745.604842	13021.895241
745.933869	12846.125330
746.262847	12792.416877
746.591778	12714.349568
746.920662	12608.951644
747.249498	12594.775919
747.578286	12723.693347
747.907027	12862.841796
748.235720	13088.035179
748.564365	13101.474895
748.892963	13001.287004
749.221514	13063.898135
749.550017	12908.272674
749.878473	12872.896377
750.206881	12644.224598
750.535242	12553.763612
750.863555	12468.807567
751.191821	12362.910569
751.520039	12378.878424
751.848210	12288.515741
752.176334	12324.428921
752.504411	12226.595248
752.832440	12061.555433
753.160421	12117.240018
753.488356	12003.536793
753.816243	11920.786253
754.144082	11771.762184
754.471875	11705.067718
754.799620	11658.033753
755.127318	11626.400513
755.454969	11591.092271
755.782572	11536.002542
756.110129	11547.438399
756.437638	11464.965122
756.765100	11464.944958
757.092515	11455.213010
757.419882	11472.806637
757.747203	11473.121709
758.074477	11541.913295
758.401703	11491.272384
758.728882	11659.152889
759.056014	11692.487519
759.383099	11807.660240
759.710138	11903.893347
760.037129	11988.572128
760.364073	12004.557627
760.690970	11985.320584
761.017820	11988.015081
761.344623	12184.083198
761.671379	12519.798838
761.998088	13178.924662
762.324751	14760.654737
762.651366	17643.509140
762.977935	21216.139583
763.304456	23326.661491
763.630931	23742.959975
763.957359	22597.070418
764.283740	20710.423632
764.610074	18868.159165
764.936362	16774.716687
765.262602	15275.253201
765.588796	13818.110203
765.914943	12808.304073
766.241044	11945.008997
766.567097	11318.665797
766.893104	10773.825451
767.219064	10419.144989
767.544978	10030.877841
767.870845	9723.753104
768.196665	9538.838540
768.522438	9338.243467
768.848165	9177.864198
769.173846	9004.546809
769.499479	8879.596769
769.825066	8727.772339
770.150607	8544.894401
770.476101	8484.612283
770.801548	8373.858133
771.126949	8235.463337
771.452303	8146.192064
771.777611	7977.731826
772.102872	7960.912016
772.428087	7841.756783
772.753256	7719.380253
773.078378	7633.398333
773.403453	7486.378122
773.728482	7375.122377
774.053465	7320.476270
774.378401	7226.395736
774.703291	7136.716130
775.028135	7041.438322
775.352932	6993.809500
775.677683	6912.586430
776.002388	6825.467729
776.327046	6828.212638
776.651658	6737.938175
776.976224	6659.089488
777.300743	6651.192520
777.625216	6582.612663
777.949643	6534.721702
778.274024	6542.817795
778.598359	6474.411858
778.922647	6476.579554
779.246889	6434.821156
779.571086	6440.376508
779.895236	6447.320697
780.219339	6439.358195
780.543397	6437.939110
780.867409	6486.510627
781.191374	6482.230687
781.515294	6453.881759
781.839167	6501.772720
782.162995	6468.833821
782.486776	6427.151041
782.810511	6385.317025
783.134201	6310.690304
783.457844	6299.950126
783.781441	6256.941522
784.104993	6215.435182
784.428498	6184.003588
784.751958	6166.750239
785.075372	6141.161342
785.398739	6099.120639
785.722061	6124.969156
786.045337	6128.901256
786.368568	6233.895887
786.691752	6261.211379
787.014891	6513.014493
787.337983	6787.984230
787.661030	7214.448201
787.984031	7629.115873
788.306987	7878.978143
788.629897	7957.796583
788.952760	7872.530507
789.275579	7700.123045
789.598351	7404.534989
789.921078	7141.122098
790.243759	6874.452621
790.566395	6673.527353
790.888984	6486.303940
791.211529	6347.359657
791.534027	6179.738772
791.856480	6046.662392
792.178888	5990.602241
792.501249	5923.784267
792.823566	5815.636394
793.145836	5811.432072
793.468062	5787.864677
793.790241	5753.201703
794.112375	5794.703003
794.434464	5887.225820
794.756507	5916.933339
795.078505	6036.806937
795.400457	6243.743781
795.722364	6481.759340
796.044226	6665.683317
796.366042	6824.814900
796.687812	6766.992865
797.009538	6797.393544
797.331218	6710.163938
797.652852	6643.358567
797.974442	6522.393560
798.295986	6453.523837
798.617484	6328.611606
798.938938	6225.353652
799.260346	6155.732797
799.581709	6017.332959
799.903026	5964.400844
800.224299	5894.608589
800.545526	5783.403256
800.866708	5720.746755
801.187845	5667.968395
801.508936	5593.306386
801.829983	5566.426953
802.150984	5454.142813
802.471940	5430.373773
802.792851	5412.898613
803.113717	5387.342484
803.434538	5363.316344
803.755314	5331.841900
804.076045	5321.144572
804.396731	5285.307009
804.717372	5296.558865
805.037967	5296.977280
805.358518	5322.626671
805.679024	5376.887131
805.999485	5383.538933
806.319901	5400.678856
806.640272	5414.620167
806.960598	5461.467610
807.280879	5453.593327
807.601115	5487.220344
807.921306	5455.733297
808.241453	5448.549653
808.561554	5465.447601
808.881611	5432.070121
809.201623	5433.925266
809.521590	5383.869129
809.841513	5368.062591
810.161390	5386.871136
810.481223	5297.768742
810.801011	5288.971928
811.120755	5263.647692
811.440453	5211.738931
811.760107	5181.973438
812.079716	5160.039377
812.399281	5110.187407
812.718801	5100.515953
813.038276	5071.148712
813.357707	5035.628742
813.677093	5054.770003
813.996434	4994.676928
814.315731	5015.340618
814.634983	5018.773644
814.954191	5019.368500
815.273354	5081.626750
815.592473	5120.405826
815.911547	5197.137228
816.230577	5249.459364
816.549562	5335.161500
816.868502	5386.417432
817.187399	5444.163849
817.506250	5523.619996
817.825058	5550.043203
818.143821	5708.484148
818.462539	5880.140478
818.781213	6109.606239
819.099843	6473.988401
819.418429	7099.938392
819.736970	7705.880043
820.055466	8410.519925
820.373919	9338.561060
820.692327	10839.889772
821.010691	13647.152073
821.329011	20003.169912
821.647286	29437.643965
821.965517	39390.522553
822.283704	44375.618768
822.601847	45579.831955
822.919945	41061.002141
823.237999	36148.191031
823.556010	31138.735960
823.873976	26592.429337
824.191897	22499.294718
824.509775	19502.948819
824.827609	16808.341183
825.145398	15295.301870
825.463144	14589.709210
825.780845	14922.874027
826.098502	16198.129674
826.416116	18582.217357
826.733685	20673.381234
827.051210	21019.678256
827.368692	19539.151865
827.686129	17060.630768
828.003522	14682.494167
828.320872	12542.594936
828.638177	10952.083171
828.955439	9739.950332
829.272656	8715.088796
829.589830	7881.899491
829.906960	7161.440469
830.224046	6644.636500
830.541088	6243.474080
830.858086	5992.835472
831.175041	5791.688392
831.491952	5735.726544
831.808819	5771.788438
832.125642	6030.381986
832.442421	6593.138593
832.759157	7716.821867
833.075849	9458.553124
833.392497	11230.838814
833.709101	12250.298754
834.025662	11941.517998
834.342179	10898.190716
834.658653	9637.186411
834.975083	8581.833456
835.291469	7709.441618
835.607811	6985.960424
835.924110	6482.545760
836.240366	5995.131718
836.556578	5553.440941
836.872746	5206.468404
837.188871	4939.403197
837.504952	4722.552923
837.820990	4556.739291
838.136984	4439.713945
838.452935	4403.137854
838.768842	4439.771919
839.084706	4740.776694
839.400526	5490.766796
839.716303	6357.676379
840.032037	6878.891357
840.347727	6699.451486
840.663373	6101.961329
840.978977	5557.509152
841.294537	5130.253720
841.610054	4806.341941
841.925527	4570.060540
842.240957	4368.742061
842.556344	4184.351777
842.871687	4027.544166
843.186987	3878.341135
843.502244	3764.179165
843.817458	3674.234898
844.132629	3604.470370
844.447756	3556.836508
844.762840	3511.198942
845.077881	3473.365082
845.392879	3439.319650
845.707833	3414.885177
846.022745	3386.112792
846.337613	3369.925647
846.652438	3348.417564
846.967221	3340.883559
847.281960	3317.590908
847.596656	3313.678973
847.911309	3295.427475
848.225919	3288.246351
848.540485	3278.305196
848.855009	3268.434617
849.169490	3254.770569
849.483928	3248.491812
849.798323	3245.588107
850.112675	3233.252404
850.426984	3233.615367
850.741251	3227.755026
851.055474	3222.618090
851.369654	3224.750498
851.683792	3220.062225
851.997887	3225.713358
852.311938	3224.929459
852.625947	3224.546331
852.939914	3215.555433
853.253837	3222.408882
853.567718	3220.732698
853.881555	3215.363870
854.195350	3217.992831
854.509103	3218.953171
854.822812	3213.710371
855.136479	3211.643498
855.450103	3213.922100
855.763685	3204.714432
856.077224	3209.548899
856.390720	3217.834035
856.704173	3226.303173
857.017584	3231.094790
857.330953	3238.462437
857.644278	3243.012078
857.957561	3246.112387
858.270802	3245.981317
858.584000	3245.736822
858.897155	3239.057293
859.210268	3229.763926
859.523339	3218.280177
859.836367	3215.540310
860.149352	3208.860781
860.462295	3206.887169
860.775195	3197.210675
861.088054	3191.438553
861.400869	3192.119109
861.713642	3190.722710
862.026373	3199.209492
862.339062	3202.065306
862.651708	3213.717933
862.964312	3229.249728
863.276873	3235.896489
863.589392	3265.026797
863.901869	3288.667288
864.214303	3311.387768
864.526696	3328.736899
864.839045	3346.020495
865.151353	3359.210674
865.463619	3361.297712
865.775842	3363.147815
866.088023	3364.909698
866.400162	3360.970037
866.712258	3360.841487
867.024313	3362.189996
867.336325	3362.253010
867.648296	3361.133874
867.960224	3359.485417
868.272110	3360.753267
868.583954	3364.934904
868.895755	3369.408928
869.207515	3365.277703
869.519233	3382.783109
869.830909	3393.256107
870.142542	3405.511152
870.454134	3406.393353
870.765684	3424.745674
871.077191	3442.457768
871.388657	3449.066721
871.700081	3469.085143
872.011463	3492.161024
872.322803	3509.973942
872.634101	3527.655789
872.945357	3546.716391
873.256571	3575.372830
873.567744	3590.342537
873.878874	3591.658278
874.189963	3608.586472
874.501010	3611.044035
874.812015	3610.865074
875.122979	3626.356540
875.433900	3626.233032
875.744780	3624.521560
876.055618	3630.152529
876.366415	3633.061274
876.677169	3642.044611
876.987882	3658.476252
877.298554	3677.856967
877.609183	3718.120663
877.919771	3764.138836
878.230317	3834.321780
878.540822	3938.439251
878.851285	4095.839197
879.161707	4318.670800
879.472087	4707.719328
879.782425	5349.289334
880.092722	6550.747530
880.402977	8478.157086
880.713191	10788.038984
881.023363	13050.274416
881.333494	14263.649900
881.643583	14665.220654
881.953631	14244.727929
882.263637	13451.779635
882.573602	12472.046508
882.883526	11552.897969
883.193408	10632.123657
883.503248	9749.873843
883.813048	8945.923231
884.122806	8192.948766
884.432522	7438.424146
884.742197	6796.781043
885.051831	6249.591520
885.361424	5760.481130
885.670975	5371.775401
885.980485	5052.516607
886.289954	4784.962408
886.599382	4576.916509
886.908768	4396.445722
887.218113	4228.678643
887.527417	4102.390177
887.836680	3979.696054
888.145901	3881.867422
888.455082	3806.474446
888.764221	3735.437027
889.073319	3678.088861
889.382376	3640.267604
889.691392	3619.543420
890.000366	3614.086371
890.309300	3608.326853
890.618193	3612.241309
890.927044	3608.717543
891.235855	3615.999489
891.544625	3629.547590
891.853353	3659.164369
892.162041	3720.537897
892.470687	3814.502484
892.779293	3935.853139
893.087858	4110.612299
893.396381	4392.866503
893.704864	4807.682888
894.013306	5366.235172
894.321707	5909.353964
894.630068	6228.882460
894.938387	6245.883751
895.246665	6063.197377
895.554903	5757.385861
895.863100	5439.621770
896.171256	5177.088560
896.479371	4949.130103
896.787446	4730.810333
897.095480	4539.306981
897.403473	4393.211822
897.711425	4251.386520
898.019336	4133.771360
898.327207	4013.635622
898.635038	3914.642484
898.942827	3809.967966
899.250576	3723.396231
899.558284	3640.771719
899.865952	3587.859768
900.173579	3526.748381
900.481165	3481.690548
900.788711	3439.551543
901.096216	3409.344949
901.403681	3383.035167
901.711105	3372.110987
902.018489	3368.783825
902.325832	3402.473856
902.633135	3469.175883
902.940397	3641.905979
903.247619	4062.426430
903.554800	4816.449455
903.861941	5747.908492
904.169041	6400.526187
904.476101	6575.207208
904.783121	6306.569161
905.090100	5915.186579
905.397039	5521.490108
905.703938	5171.553373
906.010796	4861.129201
906.317614	4614.299185
906.624391	4379.845202
906.931129	4192.634393
907.237826	4009.595137
907.544483	3844.436855
907.851099	3672.102490
908.157675	3514.652132
908.464211	3374.382027
908.770707	3279.643622
909.077163	3198.738144
909.383578	3139.391161
909.689954	3096.627053
909.996289	3064.638411
910.302584	3046.364228
910.608839	3032.995088
910.915054	3019.376411
911.221229	3016.248375
911.527363	3022.559900
911.833458	3029.584748
912.139513	3044.645195
912.445527	3054.551062
912.751502	3089.549272
913.057436	3136.061478
913.363331	3193.001311
913.669186	3283.573202
913.975000	3403.794639
914.280775	3595.484514
914.586510	3869.244373
914.892205	4242.138523
915.197859	4733.237649
915.503475	5289.723060
915.809050	5752.742958
916.114585	6012.445561
916.420081	6058.123456
916.725536	5995.313199
917.030952	5766.296101
917.336328	5569.938117
917.641665	5373.756574
917.946961	5155.729191
918.252218	4957.944561
918.557435	4740.045727
918.862612	4549.348959
919.167750	4379.769585
919.472848	4190.136501
919.777906	4028.083569
920.082925	3876.869118
920.387904	3728.230697
920.692843	3618.441928
920.997743	3519.811753
921.302603	3428.781118
921.607423	3367.379864
921.912204	3298.038793
922.216946	3251.511463
922.521647	3201.906509
922.826310	3164.286899
923.130932	3125.129736
923.435516	3081.122984
923.740059	3061.749830
924.044564	3025.100641
924.349028	3001.404698
924.653454	2973.189359
924.957840	2947.454269
925.262186	2930.263934
925.566493	2907.616551
925.870761	2882.819115
926.174989	2871.461395
926.479178	2854.442460
926.783328	2837.549553
927.087438	2829.912205
927.391509	2813.324289
927.695541	2802.758030
927.999533	2795.067750
928.303486	2785.602984
928.607400	2780.345060
928.911275	2775.626540
929.215110	2764.379726
929.518906	2761.266813
929.822663	2764.972062
930.126381	2764.924171
930.430060	2767.164963
930.733699	2768.881476
931.037299	2772.329626
931.340861	2770.136724
931.644383	2773.025305
931.947866	2773.431118
932.251309	2767.474994
932.554714	2768.614295
932.858080	2768.947011
933.161407	2762.053233
933.464694	2758.721031
933.767943	2756.719693
934.071153	2754.796492
934.374323	2749.432705
934.677455	2744.837693
934.980548	2742.523803
935.283602	2741.384503
935.586617	2741.563464
935.889593	2741.908783
936.192530	2744.633526
936.495428	2748.056470
936.798287	2757.783376
937.101108	2771.414656
937.403890	2791.571710
937.706632	2815.635658
938.009336	2848.632530
938.312002	2876.865512
938.614628	2901.821744
938.917216	2917.744229
939.219765	2926.898964
939.522275	2935.567228
939.824747	2936.736776
940.127179	2929.971548
940.429573	2927.899633
940.731929	2924.048192
941.034246	2916.647778
941.336524	2914.129722
941.638763	2909.126376
941.940964	2905.234606
942.243126	2887.106616
942.545250	2877.606562
942.847335	2864.522247
943.149381	2848.503981
943.451389	2836.556446
943.753359	2824.974395
944.055290	2815.892757
944.357182	2805.437403
944.659036	2800.499593
944.960851	2799.340128
945.262628	2793.845270
945.564367	2795.145888
945.866067	2794.125054
946.167729	2796.222174
946.469352	2788.244548
946.770937	2787.831174
947.072484	2781.602828
947.373992	2782.727005
947.675462	2782.081738
947.976893	2773.015222
948.278286	2769.030190
948.579641	2768.284100
948.880958	2765.251846
949.182236	2765.261928
949.483476	2760.803027
949.784678	2761.778491
950.085841	2761.060126
950.386967	2766.146650
950.688054	2771.444903
950.989103	2778.033691
951.290114	2782.626182
951.591087	2795.947431
951.892021	2809.543423
952.192917	2820.601194
952.493776	2829.178717
952.794596	2834.013184
953.095378	2832.684840
953.396122	2833.398163
953.696828	2828.964468
953.997496	2825.362564
954.298126	2816.832932
954.598718	2808.852785
954.899272	2798.505817
955.199788	2785.580298
955.500266	2775.019081
955.800706	2761.178593
956.101108	2745.377097
956.401472	2733.732031
956.701798	2723.314487
957.002087	2711.253526
957.302337	2699.873121
957.602550	2688.840556
957.902724	2679.474092
958.202861	2672.252639
958.502960	2663.410456
958.803022	2657.761843
959.103045	2650.679022
959.403031	2644.291880
959.702979	2640.228710
960.002889	2635.782412
960.302762	2628.923922
960.602596	2624.865793
960.902393	2624.631380
961.202153	2619.542335
961.501875	2616.038733
961.801559	2610.594287
962.101205	2609.928854
962.400814	2609.686879
962.700385	2607.138576
962.999918	2607.677979
963.299414	2602.551126
963.598873	2604.073554
963.898293	2600.784201
964.197677	2598.061978
964.497022	2601.069027
964.796331	2600.075919
965.095601	2598.293871
965.394835	2596.733634
965.694030	2595.808582
965.993189	2592.420927
966.292309	2593.557707
966.591393	2592.957810
966.890439	2593.282964
967.189447	2592.536874
967.488419	2594.984354
967.787353	2591.692480
968.086249	2595.070053
968.385108	2594.195413
968.683930	2597.005857
968.982714	2595.594333
969.281462	2597.517534
969.580172	2601.550457
969.878844	2600.627926
970.177480	2603.791250
970.476078	2604.887701
970.774639	2611.587394
971.073162	2615.209463
971.371649	2612.192332
971.670098	2611.090840
971.968510	2615.577467
972.266885	2613.855913
972.565223	2619.600308
972.863524	2622.151132
973.161788	2620.217849
973.460014	2623.234980
973.758204	2621.311780
974.056356	2622.786317
974.354471	2623.489558
974.652550	2627.764457
974.950591	2623.101389
975.248595	2623.421503
975.546563	2624.848149
975.844493	2624.838067
976.142386	2619.940586
976.440243	2617.450256
976.738062	2615.958074
977.035845	2616.056377
977.333590	2611.257198
977.631299	2607.249481
977.928971	2608.877774
978.226606	2604.146651
978.524204	2605.117073
978.821765	2603.549274
979.119290	2602.757813
979.416777	2597.419231
979.714228	2604.023143
980.011642	2602.979624
980.309020	2611.395830
980.606360	2614.304576
980.903664	2620.550566
981.200931	2633.014818
981.498162	2649.834628
981.795356	2682.516429
982.092513	2715.863661
982.389633	2756.439909
982.686717	2799.587144
982.983764	2827.399190
983.280775	2843.611541
983.577749	2846.182529
983.874686	2835.439831
984.171587	2821.485917
984.468451	2809.309010
984.765279	2788.562141
985.062070	2770.794594
985.358824	2752.081831
985.655543	2730.427555
985.952224	2708.606920
986.248869	2684.525328
986.545478	2658.528098
986.842050	2639.908596
987.138586	2623.096348
987.435086	2611.179061
987.731549	2598.031731
988.027975	2595.024683
988.324366	2589.731472
988.620719	2583.896336
988.917037	2578.933320
989.213318	2578.020871
989.509563	2575.540623
989.805772	2571.815211
990.101944	2572.168092
990.398080	2573.493915
990.694180	2571.583318
990.990244	2572.538616
991.286271	2570.948132
991.582262	2572.941909
991.878217	2571.487536
992.174136	2571.548030
992.470019	2574.784450
992.765865	2576.090109
993.061676	2578.164544
993.357450	2581.481623
993.653188	2581.683269
993.948890	2588.816502
994.244556	2593.204827
994.540186	2603.980293
994.835780	2614.249123
995.131337	2632.732514
995.426859	2644.937147
995.722345	2659.672440
996.017795	2680.323527
996.313208	2695.499920
996.608586	2702.865046
996.903928	2705.178936
997.199234	2700.213399
997.494504	2701.299768
997.789738	2689.435412
998.084936	2684.648837
998.380099	2675.065603
998.675225	2661.401556
998.970316	2648.982673
999.265371	2636.649490
999.560390	2626.242028
999.855373	2615.045626
1000.150320	2604.313009
1000.445232	2595.443099
1000.740108	2587.178127
1001.034948	2584.705441
1001.329752	2579.356777
1001.624521	2574.582804
1001.919254	2568.828327
1002.213951	2567.689026
1002.508613	2562.486556
1002.803239	2562.473953
1003.097829	2559.081256
1003.392384	2560.218036
1003.686903	2559.030845
1003.981386	2557.294167
1004.275834	2558.002449
1004.570246	2556.739640
1004.864623	2555.507078
1005.158964	2554.554300
1005.453270	2554.287119
1005.747540	2554.768549
1006.041775	2550.957437
1006.335974	2554.624876
1006.630138	2552.303425
1006.924266	2549.989535
1007.218359	2550.183620
1007.512416	2551.995914
1007.806438	2550.380225
1008.100425	2551.335523
1008.394376	2548.804864
1008.688292	2550.171017
1008.982172	2548.315872
1009.276017	2550.145811
1009.569827	2550.660009
1009.863602	2550.511295
1010.157341	2550.244113
1010.451045	2550.362581
1010.744714	2547.322765
1011.038347	2549.535831
1011.331945	2545.568443
1011.625508	2549.649257
1011.919036	2546.148176
1012.212528	2546.233876
1012.505986	2547.040460
1012.799408	2546.382590
1013.092795	2544.905532
1013.386147	2543.110881
1013.679464	2544.315717
1013.972745	2544.335881
1014.265992	2546.712785
1014.559204	2547.237065
1014.852380	2545.984338
1015.145521	2544.232538
1015.438628	2545.752445
1015.731699	2545.061807
1016.024736	2542.430325
1016.317737	2544.797147
1016.610703	2548.991387
1016.903635	2543.983000
1017.196531	2542.085006
1017.489393	2546.092723
1017.782219	2544.255223
1018.075011	2546.052394
1018.367768	2548.615821
1018.660490	2546.059956
1018.953177	2546.059956
1019.245829	2546.059956
