Dividing Wavelength (nm)	Counts (n)	Blue Motor Position (mm): 20.000000	Red Motor Position (mm): 0.000000	
326.493990	2059.137426
326.888308	2059.137426
327.282561	2059.137426
327.676750	2036.318643
328.070874	2038.592204
328.464933	2043.562782
328.858929	2053.035110
329.252859	2061.849567
329.646726	2075.921948
330.040528	2093.666810
330.434265	2110.836980
330.827938	2131.016718
331.221547	2152.292908
331.615091	2170.982986
332.008571	2191.255986
332.401986	2213.084183
332.795338	2233.352142
333.188625	2252.054822
333.581847	2271.586773
333.975006	2289.931532
334.368100	2307.832669
334.761129	2322.825061
335.154095	2335.891731
335.546996	2384.795965
335.939833	2477.643936
336.332606	2489.127685
336.725315	2505.231651
337.117960	2510.817249
337.510540	2522.623632
337.903056	2528.947759
338.295508	2539.582073
338.687896	2544.013247
339.080220	2548.336037
339.472480	2552.336192
339.864676	2554.703014
340.256807	2560.956565
340.648875	2562.214333
341.040879	2561.768191
341.432818	2564.843295
341.824694	2566.080898
342.216506	2564.041752
342.608253	2564.200548
342.999937	2562.355486
343.391557	2563.623336
343.783113	2559.666030
344.174605	2559.308108
344.566033	2558.693087
344.957397	2556.742161
345.348697	2554.259392
345.739934	2553.195709
346.131106	2551.118754
346.522215	2548.013403
346.913260	2547.839483
347.304241	2548.787220
347.695159	2546.649771
348.086012	2545.656663
348.476802	2543.037784
348.867528	2539.645088
349.258191	2536.645601
349.648789	2534.689633
350.039324	2533.366330
350.429796	2535.206352
350.820203	2536.401105
351.210548	2535.249201
351.600828	2534.419932
351.991045	2533.159643
352.381198	2532.990764
352.771288	2531.801052
353.161314	2531.672503
353.551276	2532.796680
353.941175	2528.544467
354.331010	2532.658048
354.720782	2535.118131
355.110490	2535.755837
355.500135	2532.093439
355.889717	2532.819365
356.279235	2532.894983
356.668689	2533.784746
357.058080	2532.164015
357.447408	2533.167205
357.836672	2536.741383
358.225873	2533.386495
358.615010	2535.430683
359.004084	2534.291382
359.393095	2535.929757
359.782043	2536.045704
360.170927	2536.864891
360.559748	2536.814480
360.948505	2537.212731
361.337199	2539.272042
361.725830	2542.440407
362.114398	2540.497043
362.502903	2540.181970
362.891344	2542.831097
363.279722	2538.929244
363.668037	2541.732125
364.056289	2541.699358
364.444478	2542.884029
364.832603	2541.248174
365.220665	2541.807742
365.608665	2544.260264
365.996601	2544.633309
366.384474	2543.854451
366.772284	2544.600542
367.160031	2546.049873
367.547715	2544.381252
367.935336	2543.970397
368.322893	2545.157589
368.710388	2542.810932
369.097820	2543.183977
369.485189	2544.126673
369.872495	2546.662374
370.259738	2543.988042
370.646918	2547.085831
371.034035	2549.243444
371.421090	2545.155069
371.808081	2548.283105
372.195010	2547.736139
372.581875	2548.905687
372.968678	2546.748073
373.355418	2548.635985
373.742096	2547.821839
374.128710	2549.558517
374.515262	2549.782848
374.901751	2549.432488
375.288177	2551.511964
375.674540	2551.000287
376.060841	2551.950544
376.447079	2552.038764
376.833254	2553.142777
377.219367	2551.925338
377.605417	2555.360885
377.991404	2551.259906
378.377329	2554.070349
378.763191	2553.472973
379.148991	2551.585060
379.534727	2551.615307
379.920402	2554.516491
380.306013	2552.101779
380.691563	2553.823333
381.077049	2552.205122
381.462474	2552.066491
381.847835	2553.563713
382.233134	2553.505740
382.618371	2554.279557
383.003545	2554.677808
383.388657	2556.946328
383.773706	2555.202088
384.158693	2555.439023
384.543618	2553.442726
384.928480	2555.822150
385.313280	2557.780638
385.698017	2558.516647
386.082692	2557.654610
386.467305	2558.831719
386.851856	2558.055381
387.236344	2556.850546
387.620770	2556.749722
388.005133	2554.236707
388.389435	2556.762325
388.773674	2555.554969
389.157851	2560.346586
389.541965	2556.835422
389.926018	2560.684343
390.310008	2559.345917
390.693936	2560.386915
391.077802	2562.191648
391.461606	2562.373130
391.845348	2561.594271
392.229027	2562.272307
392.612645	2561.596792
392.996200	2562.136195
393.379694	2561.400187
393.763125	2560.379353
394.146494	2561.947152
394.529801	2562.662996
394.913047	2563.474622
395.296230	2560.490259
395.679351	2562.370609
396.062410	2562.151319
396.445408	2562.794066
396.828343	2564.084601
397.211217	2564.566032
397.594028	2565.367575
397.976778	2562.572255
398.359466	2564.770198
398.742092	2564.452606
399.124656	2565.027297
399.507158	2565.851526
399.889598	2565.919581
400.271977	2562.592420
400.654294	2565.544015
401.036549	2567.893193
401.418742	2567.966290
401.800874	2564.828172
402.182944	2567.996537
402.564952	2566.045610
402.946898	2564.492935
403.328783	2567.681465
403.710606	2566.794222
404.092367	2569.365210
404.474067	2566.700960
404.855705	2569.385375
405.237282	2567.535271
405.618797	2570.897721
406.000250	2569.871846
406.381642	2571.356466
406.762972	2567.794891
407.144240	2563.857749
407.525447	2568.251115
407.906593	2564.578634
408.287677	2568.931671
408.668700	2568.946794
409.049661	2570.499470
409.430560	2568.036866
409.811399	2572.364697
410.192176	2569.405539
410.572891	2570.421332
410.953545	2570.302865
411.334138	2570.108780
411.714669	2571.974007
412.095139	2572.064748
412.475547	2569.453430
412.855894	2572.992320
413.236180	2571.159861
413.616405	2574.033318
413.996568	2571.449727
414.376670	2572.704974
414.756711	2573.045252
415.136691	2573.531724
415.516609	2573.428380
415.896466	2576.352249
416.276262	2573.690520
416.655997	2573.808987
417.035670	2570.161712
417.415283	2573.869481
417.794834	2573.113308
418.174324	2574.139183
418.553753	2573.569532
418.933121	2571.885787
419.312428	2572.213462
419.691674	2576.450552
420.070859	2573.509038
420.449983	2575.467527
420.829045	2574.648339
421.208047	2572.052145
421.586988	2573.340160
421.965867	2574.862588
422.344686	2574.260170
422.723444	2577.887281
423.102141	2573.453586
423.480777	2574.577763
423.859352	2578.300655
424.237866	2575.691858
424.616319	2575.018864
424.994712	2577.519276
425.373044	2576.069945
425.751314	2573.269584
426.129524	2568.845971
426.507673	2575.202866
426.885762	2570.149109
427.263789	2577.715881
427.641756	2577.526838
428.019662	2576.616910
428.397508	2574.492063
428.775292	2575.825449
429.153016	2578.189750
429.530679	2576.906776
429.908282	2578.146900
430.285824	2577.151272
430.663305	2576.851323
431.040726	2574.164388
431.418086	2577.524318
431.795385	2576.367373
432.172624	2577.859554
432.549802	2576.992476
432.926920	2577.821746
433.303977	2579.351736
433.680974	2577.426015
434.057910	2578.570357
434.434786	2577.831828
434.811601	2579.986921
435.188355	2579.502970
435.565050	2579.636561
435.941683	2575.076837
436.318257	2577.688155
436.694770	2581.834504
437.071222	2579.656726
437.447614	2577.320151
437.823946	2580.672518
438.200218	2577.252095
438.576429	2581.116140
438.952580	2578.333423
439.328670	2578.474575
439.704700	2578.903073
440.080670	2580.395255
440.456580	2576.881570
440.832429	2581.017837
441.208218	2579.752507
441.583947	2581.348033
441.959616	2581.211922
442.335224	2580.735532
442.710773	2579.369380
443.086261	2579.583629
443.461689	2579.129925
443.837057	2582.749473
444.212365	2581.584967
444.587612	2579.901222
444.962800	2578.666139
445.337927	2579.061869
445.712995	2576.644636
446.088002	2581.995821
446.462949	2582.552868
446.837837	2582.245358
447.212664	2585.335585
447.587431	2579.823084
447.962139	2583.551017
448.336786	2583.727457
448.711374	2584.171079
449.085901	2585.343147
449.460369	2582.852817
449.834776	2584.352560
450.209124	2583.140163
450.583412	2584.685277
450.957640	2586.174937
451.331808	2583.762745
451.705917	2584.954978
452.079965	2586.215267
452.453954	2585.633013
452.827883	2586.520257
453.201752	2586.147211
453.575562	2585.212077
453.949311	2588.390525
454.323001	2585.917839
454.696632	2587.899012
455.070202	2587.704928
455.443713	2585.756522
455.817164	2587.369691
456.190556	2587.341965
456.563888	2586.308528
456.937160	2590.238107
457.310373	2588.156111
457.683526	2588.791296
458.056619	2588.022520
458.429653	2589.222315
458.802628	2590.782552
459.175542	2589.658375
459.548398	2590.268354
459.921194	2590.525453
460.293930	2596.889910
460.666607	2596.093408
461.039224	2593.797162
461.411782	2594.376895
461.784280	2594.371854
462.156719	2595.821185
462.529099	2597.124324
462.901419	2593.779518
463.273680	2591.611822
463.645882	2589.479414
464.018024	2593.492172
464.390106	2591.984867
464.762130	2600.375868
465.134094	2601.305961
465.505999	2604.701178
465.877845	2609.454986
466.249631	2610.836262
466.621358	2609.727208
466.993026	2608.897938
467.364634	2609.636467
467.736184	2606.712598
468.107674	2606.392485
468.479105	2608.159409
468.850477	2610.301900
469.221790	2606.876436
469.593043	2608.270315
469.964238	2610.407764
470.335373	2608.850047
470.706449	2609.553288
471.077467	2611.229472
471.448425	2617.084772
471.819324	2620.787500
472.190164	2620.401852
472.560945	2616.036212
472.931667	2616.941099
473.302330	2617.341871
473.672934	2618.196347
474.043479	2616.464710
474.413965	2613.492950
474.784393	2615.078393
475.154761	2622.879579
475.525070	2621.314300
475.895321	2623.592902
476.265513	2624.933849
476.635645	2626.829323
477.005719	2624.701956
477.375734	2629.904427
477.745691	2631.270579
478.115588	2637.012453
478.485427	2638.975983
478.855207	2647.132570
479.224928	2649.116264
479.594591	2651.483086
479.964194	2650.812612
480.333739	2655.969712
480.703226	2658.553304
481.072653	2662.344252
481.442022	2666.780467
481.811333	2668.275169
482.180584	2665.769716
482.549777	2673.865809
482.918912	2671.178874
483.287988	2681.084741
483.657005	2685.001717
484.025964	2684.989115
484.394864	2687.759229
484.763706	2694.083356
485.132489	2693.901875
485.501213	2699.971424
485.869879	2706.545088
486.238487	2714.701675
486.607036	2716.564382
486.975527	2724.751216
487.343959	2731.130796
487.712333	2739.453741
488.080648	2746.713002
488.448905	2760.261103
488.817104	2766.043307
489.185244	2783.223559
489.553326	2808.630974
489.921350	2832.102587
490.289315	2868.227495
490.657222	2886.915052
491.025070	2908.256777
491.392861	2918.823036
491.760593	2927.680343
492.128267	2936.898093
492.495883	2938.896910
492.863440	2949.163220
493.230939	2960.856177
493.598380	2972.786067
493.965763	2994.243738
494.333088	3010.118332
494.700354	3031.273534
495.067563	3057.593398
495.434713	3082.226997
495.801805	3110.873353
496.168839	3139.759165
496.535815	3164.914522
496.902733	3201.210830
497.269593	3229.446333
497.636395	3266.768515
498.003139	3307.843837
498.369825	3342.143848
498.736453	3388.376270
499.103023	3422.446908
499.469535	3473.407932
499.835989	3520.154552
500.202385	3560.377918
500.568723	3608.387347
500.935003	3672.437727
501.301226	3720.147207
501.667390	3803.457316
502.033497	3873.534395
502.399546	3918.322527
502.765537	3964.449084
503.131470	4041.954304
503.497345	4125.942448
503.863163	4143.475581
504.228923	4252.011623
504.594625	4343.304399
504.960269	4388.294176
505.325856	4498.448429
505.691385	4556.600659
506.056856	4655.568591
506.422270	4768.893730
506.787625	4820.673942
507.152924	4936.532260
507.518164	5036.347106
507.883347	5091.174695
508.248472	5195.035067
508.613540	5339.466646
508.978550	5457.759841
509.343503	5546.111103
509.708398	5679.502555
510.073236	5837.605742
510.438016	5950.066323
510.802738	6031.062542
511.167403	6201.022523
511.532010	6341.499316
511.896561	6505.115005
512.261053	6710.428599
512.625488	6808.050543
512.989866	6924.574293
513.354186	7053.774025
513.718449	7175.326327
514.082655	7422.869666
514.446803	7520.174018
514.810894	7746.098368
515.174927	7887.636324
515.538904	8027.977006
515.902822	8267.888038
516.266684	8366.256073
516.630488	8572.542609
516.994235	8717.624496
517.357925	8972.543043
517.721558	9177.274383
518.085133	9395.324452
518.448651	9590.712013
518.812112	9734.155525
519.175516	9934.546432
519.538863	10183.869298
519.902152	10363.999808
520.265385	10652.459672
520.628560	10830.724954
520.991678	10996.843576
521.354739	11224.544934
521.717743	11488.373720
522.080690	11655.281283
522.443580	12000.010506
522.806413	12198.974766
523.169189	12424.289138
523.531908	12690.028521
523.894569	12852.603212
524.257174	13113.273716
524.619722	13400.062438
524.982213	13643.963543
525.344647	13858.809958
525.707025	14100.984468
526.069345	14434.822279
526.431608	14631.709584
526.793815	14947.772286
527.155964	15034.127251
527.518057	15325.626931
527.880093	15488.241951
528.242072	15912.051755
528.603995	16042.640325
528.965860	16236.419758
529.327669	16541.961572
529.689421	16786.099612
530.051117	16987.869274
530.412755	17316.660890
530.774337	17579.224347
531.135862	17788.689330
531.497331	18077.144153
531.858743	18309.332137
532.220098	18706.320482
532.581396	18832.377055
532.942638	18974.086410
533.303824	19311.117792
533.664953	19555.749864
534.026025	19658.067643
534.387040	20127.462081
534.747999	20415.382542
535.108902	20787.094541
535.469748	20728.566745
535.830537	21064.796583
536.191270	21423.827560
536.551947	21531.246987
536.912567	21911.773443
537.273131	22219.326678
537.633638	22258.292277
537.994089	22600.339606
538.354483	22706.687788
538.714821	23268.675618
539.075103	23656.584845
539.435328	23824.926616
539.795497	23931.983080
540.155609	24232.957608
540.515665	24796.465347
540.875665	24649.309025
541.235609	25035.242120
541.595496	25346.485479
541.955328	25902.968369
542.315102	25816.681460
542.674821	25985.529867
543.034483	26158.295250
543.394090	26399.990851
543.753640	26622.446887
544.113134	27474.787536
544.472571	27180.336260
544.831953	28102.958155
545.191278	27880.504638
545.550548	27917.209280
545.909761	28557.612258
546.268918	28884.740293
546.628019	29369.202740
546.987064	29234.934127
547.346053	28985.853237
547.704986	29801.161569
548.063863	29810.790173
548.422684	30176.026810
548.781449	30123.031680
549.140158	30691.678875
549.498811	30749.677350
549.857408	30555.930684
550.215949	31362.701822
550.574434	31453.661882
550.932864	31615.145163
551.291237	32342.104753
551.649555	32377.947357
552.007817	32709.879612
552.366022	32681.054294
552.724173	32944.716722
553.082267	33446.714822
553.440305	33893.938265
553.798288	33548.256264
554.156215	34044.739341
554.514086	34388.876229
554.871902	34310.685413
555.229661	34644.515661
555.587365	34604.866986
555.945014	34901.586781
556.302606	35101.798727
556.660143	35364.503336
557.017625	35722.581535
557.375050	35689.476277
557.732421	36188.915992
558.089735	36405.988077
558.446994	36501.172623
558.804197	37070.611279
559.161345	37141.787330
559.518437	36779.275437
559.875474	37168.490322
560.232455	37545.472848
560.589381	37752.422296
560.946251	37770.482229
561.303065	38505.495063
561.659825	38407.802542
562.016528	38418.827546
562.373177	38241.550330
562.729770	38928.304198
563.086307	38685.446611
563.442789	39311.126900
563.799216	39361.291422
564.155587	39414.377293
564.511904	39550.654805
564.868164	39737.169935
565.224370	40157.130818
565.580520	40071.882386
565.936615	40391.350388
566.292654	40233.126212
566.648638	40682.532475
567.004567	40782.654831
567.360441	41014.719307
567.716260	40888.451007
568.072023	41353.477284
568.427732	41429.006372
568.783385	41128.921607
569.138982	41631.829635
569.494525	41886.801114
569.850013	41640.477734
570.205445	41870.674463
570.560823	41807.622231
570.916145	41816.187152
571.271412	42136.534835
571.626625	41938.072169
571.981782	42117.086063
572.336884	41867.707744
572.691931	42279.471711
573.046923	42074.745412
573.401860	42027.451827
573.756743	42159.598113
574.111570	42395.972776
574.466342	42404.537697
574.821059	42638.442194
575.175722	42281.838533
575.530330	42483.968637
575.884882	42240.128026
576.239380	42242.429312
576.593823	42415.681167
576.948211	42434.527521
577.302544	42118.646300
577.656823	42190.782691
578.011047	42524.038248
578.365216	42430.965946
578.719330	42263.708023
579.073389	42314.119561
579.427394	42460.998620
579.781344	42436.354939
580.135239	42282.655199
580.489080	42405.427460
580.842866	42011.166380
581.196597	42545.795868
581.550273	42607.434057
581.903895	42599.408540
582.257463	43084.939711
582.610975	42608.301135
582.964434	42991.436389
583.317837	42583.985129
583.671186	42599.063221
584.024481	42926.622274
584.377721	42533.006461
584.730906	42799.494456
585.084037	42980.628155
585.437113	42759.744958
585.790135	42936.697020
586.143103	42554.718711
586.496016	42750.607867
586.848874	42910.452773
587.201679	42983.864576
587.554428	42551.923391
587.907124	42866.940054
588.259765	42685.478680
588.612352	42896.652614
588.964884	42393.832806
589.317362	42734.458531
589.669786	42780.028041
590.022155	42676.026516
590.374470	43151.873631
590.726731	42784.517188
591.078937	42189.603061
591.431090	42537.641802
591.783188	42139.246975
592.135232	41970.854793
592.487222	42272.630865
592.839157	42438.852831
593.191038	42114.653706
593.542866	41963.479585
593.894639	41417.688981
594.246358	41740.494227
594.598022	41752.151895
594.949633	41366.990097
595.301190	41410.822930
595.652692	41378.030224
596.004141	41856.851619
596.355535	40817.375778
596.706876	40845.933915
597.058162	40602.133633
597.409395	41121.435493
597.760573	41361.769982
598.111698	40980.152116
598.462768	40920.777406
598.813785	40968.486886
599.164748	40579.672772
599.515657	40879.732331
599.866511	40416.490622
600.217312	41108.787238
600.568060	40090.930386
600.918753	40920.381675
601.269392	40866.010310
601.619978	40586.760634
601.970510	40815.868473
602.320988	40954.038939
602.671412	41235.857083
603.021783	41113.714966
603.372100	40703.206247
603.722363	40826.437253
604.072572	40865.808664
604.422728	40877.373071
604.772830	40674.161639
605.122878	40843.955262
605.472872	40713.795190
605.822813	41000.856134
606.172701	40768.300146
606.522534	41090.175298
606.872314	41304.608339
607.222041	41151.372385
607.571714	41475.826088
607.921333	40978.657413
608.270899	41205.169059
608.620411	41607.100255
608.969870	41353.129445
609.319276	41365.684438
609.668627	41414.263517
610.017926	41810.089876
610.367171	41945.291102
610.716362	41995.432938
611.065500	41895.416446
611.414585	42124.080664
611.763616	42318.704491
612.112594	42218.796383
612.461518	42342.468490
612.810389	42744.014038
613.159207	42532.363714
613.507971	42518.455171
613.856682	43011.999256
614.205340	42856.136861
614.553945	43545.938106
614.902496	42870.945250
615.250994	43295.619612
615.599439	43361.978841
615.947830	43479.198271
616.296169	43492.567411
616.644454	43529.456054
616.992686	43704.021129
617.340864	44153.457639
617.688990	43686.145198
618.037063	44364.356830
618.385082	44206.291452
618.733048	44531.788673
619.080961	44410.417853
619.428821	44433.145895
619.776628	44453.917970
620.124382	44272.955670
620.472083	44378.252771
620.819731	44479.408564
621.167326	44043.517635
621.514868	44047.119539
621.862357	43525.584448
622.209793	43610.492602
622.557176	43164.937781
622.904506	42939.454531
623.251783	42569.078437
623.599007	42260.721139
623.946179	42172.448015
624.293297	41915.208016
624.640363	41381.811089
624.987376	41227.972718
625.334336	41038.097658
625.681243	40618.512342
626.028097	40542.867307
626.374899	40359.034071
626.721647	40335.940545
627.068343	40130.954627
627.414987	39833.181231
627.761577	39575.326212
628.108115	39921.018295
628.454600	39165.911423
628.801032	39384.800843
629.147412	39287.017582
629.493739	39211.982528
629.840014	38771.352914
630.186236	39206.999347
630.532405	38637.520362
630.878521	38883.228721
631.224585	38651.020572
631.570597	38326.597116
631.916556	38480.742998
632.262462	38364.758650
632.608316	38309.976432
632.954117	38176.552213
633.299866	38136.452354
633.645562	38051.952534
633.991206	37511.235852
634.336797	37109.612166
634.682336	37014.591457
635.027823	36779.386342
635.373257	36650.247104
635.718639	36325.987486
636.063968	36207.938786
636.409245	35558.302934
636.754470	35525.021236
637.099642	35288.848220
637.444762	34716.208431
637.789829	34876.290271
638.134845	34501.130122
638.479808	34405.131430
638.824719	34369.613980
639.169577	33863.860221
639.514383	33959.001917
639.859137	33568.438523
640.203839	33736.303905
640.548489	33448.869916
640.893086	33443.470840
641.237632	33170.492359
641.582125	33279.761889
641.926566	33056.889957
642.270955	33089.702828
642.615292	33031.646379
642.959576	32928.196861
643.303809	32920.667898
643.647990	32997.374095
643.992118	32965.299753
644.336195	32813.704696
644.680219	32899.777356
645.024192	33102.595578
645.368112	33631.160559
645.711981	33652.088909
646.055797	34371.481728
646.399562	34187.915672
646.743274	35061.963529
647.086935	35460.713757
647.430544	35423.063900
647.774101	35455.407943
648.117606	35743.502323
648.461059	35892.554119
648.804460	35468.744315
649.147810	34967.653623
649.491108	34615.803770
649.834354	34468.329855
650.177548	33649.238137
650.520690	33146.446055
650.863781	33153.687673
651.206820	32956.429843
651.549807	32558.009811
651.892742	31977.168065
652.235626	31882.288508
652.578458	31752.317480
652.921238	31062.503631
653.263967	31371.433101
653.606644	31080.162793
653.949269	30987.438330
654.291843	30604.340885
654.634365	30961.073095
654.976836	30510.409065
655.319255	30576.249055
655.661622	30451.644335
656.003938	30316.538891
656.346203	30128.307248
656.688416	30380.478366
657.030577	30156.663738
657.372687	29977.228908
657.714746	30134.250768
658.056753	30336.148979
658.398708	29713.382477
658.740612	29779.918146
659.082465	29984.740227
659.424266	29876.993125
659.766016	29885.827747
660.107715	29737.171682
660.449362	29838.365284
660.790958	29815.405349
661.132503	29743.142929
661.473996	29832.603245
661.815438	29915.774722
662.156829	30040.540759
662.498168	29823.602265
662.839456	29808.567024
663.180693	29944.892427
663.521879	30035.323165
663.863013	29988.347173
664.204097	29967.713730
664.545129	30384.188655
664.886110	30320.564252
665.227040	30419.564952
665.567918	30425.314388
665.908746	30496.845841
666.249522	30582.547977
666.590248	30604.542531
666.930922	30704.231348
667.271545	30708.123119
667.612118	30754.146333
667.952639	30566.459134
668.293109	30594.205645
668.633528	30461.033484
668.973896	30409.858210
669.314213	30397.295655
669.654480	30214.936956
669.994695	30222.707894
670.334859	30122.101587
670.674973	29950.893920
671.015035	30145.371553
671.355047	30071.014534
671.695008	30006.878454
672.034918	29933.199470
672.374777	30021.563335
672.714585	29897.800488
673.054342	30016.360865
673.394049	29876.269720
673.733705	30103.217425
674.073310	29799.782813
674.412864	29860.989982
674.752368	29567.930065
675.091820	29797.804160
675.431223	29386.869463
675.770574	29182.859008
676.109875	29025.557364
676.449125	28820.400047
676.788324	28729.820594
677.127473	28242.784639
677.466571	28142.874011
677.805619	27868.236991
678.144616	27819.826790
678.483562	27758.191123
678.822458	27433.097193
679.161303	27379.567701
679.500098	27296.154249
679.838842	27225.071459
680.177535	27311.668400
680.516179	27532.702832
680.854771	27684.577674
681.193314	28453.295662
681.531805	29476.982609
681.870247	30217.467615
682.208638	30953.281992
682.546978	31209.770859
682.885268	31351.359226
683.223508	30910.583419
683.561697	30628.556067
683.899836	30473.023868
684.237925	30061.403574
684.575963	29904.031354
684.913951	29546.989112
685.251889	29722.552336
685.589776	29731.550796
685.927614	29741.071015
686.265401	29930.875498
686.603137	30039.867765
686.940824	30537.354032
687.278460	30864.542561
687.616046	31053.159853
687.953582	31693.393953
688.291068	31622.008694
688.628504	31957.061422
688.965889	31934.719029
689.303224	31672.049708
689.640510	31385.737375
689.977745	30752.775139
690.314930	30006.833084
690.652065	29575.345603
690.989150	28891.220697
691.326185	28058.548110
691.663170	27426.369774
692.000105	26683.623810
692.336990	26086.695742
692.673825	25661.050958
693.010610	25178.972978
693.347345	24667.875595
693.684030	24046.709659
694.020665	23850.576007
694.357251	23163.620493
694.693786	23165.674763
695.030272	22940.219240
695.366707	22454.209159
695.703093	22165.441784
696.039429	22242.763002
696.375716	21989.412254
696.711952	21987.126091
697.048139	21860.973736
697.384276	21694.247655
697.720363	21815.918424
698.056400	21694.345957
698.392388	21540.913399
698.728326	21538.874252
699.064214	21372.947194
699.400053	21382.442207
699.735842	20994.676653
700.071581	20784.820981
700.407270	20545.033457
700.742910	20375.328054
701.078501	20115.869947
701.414042	19921.886348
701.749533	19612.180540
702.084974	19297.841913
702.420366	19528.325987
702.755709	19118.253328
703.091002	18817.908943
703.426246	18882.455877
703.761440	18816.941042
704.096584	18582.555114
704.431679	18514.290329
704.766725	18456.717832
705.101721	18386.731493
705.436668	18508.251027
705.771565	18230.962360
706.106413	18542.167910
706.441212	18622.118090
706.775961	18739.781141
707.110661	18805.510225
707.445311	19171.593777
707.779913	19053.058606
708.114465	19338.216514
708.448967	19664.779940
708.783421	20286.586102
709.117825	20661.030407
709.452180	20884.734129
709.786485	21334.735248
710.120742	22099.803441
710.454949	22216.677552
710.789107	22716.863357
711.123216	23428.402057
711.457275	23635.719509
711.791286	24184.537326
712.125247	24345.413148
712.459159	24073.818464
712.793023	24827.234030
713.126837	23793.704230
713.460602	24054.795670
713.794318	23723.712850
714.127985	23447.243370
714.461602	22545.040669
714.795171	22529.788658
715.128691	21545.004295
715.462162	21034.463960
715.795584	20605.640729
716.128957	20334.958494
716.462281	19953.234763
716.795556	19670.889818
717.128782	19189.981385
717.461960	18589.353110
717.795088	18550.760557
718.128167	18212.731027
718.461198	17759.312006
718.794180	17623.316799
719.127113	17287.923792
719.459997	17109.600537
719.792833	16734.949544
720.125619	16769.231911
720.458357	16436.722445
720.791046	16297.881506
721.123686	16150.957077
721.456278	15923.480051
721.788821	15914.705923
722.121315	15652.775131
722.453761	15761.475010
722.786158	15639.040507
723.118506	15722.637961
723.450805	15601.456184
723.783056	15784.777744
724.115259	15667.885989
724.447412	15670.230126
724.779518	15889.986625
725.111574	15933.121258
725.443582	16210.301540
725.775542	16164.691701
726.107453	16684.961463
726.439315	16597.326044
726.771129	17014.683171
727.102895	17443.360209
727.434612	17704.529787
727.766281	17883.790697
728.097901	18191.477522
728.429473	18274.906098
728.760996	18289.454868
729.092471	18417.364064
729.423897	18309.001942
729.755276	18175.151746
730.086606	18297.190518
730.417887	18867.453403
730.749120	19433.867367
731.080305	19651.942641
731.411442	20049.616583
731.742530	20153.839918
732.073570	20334.466981
732.404562	20657.609984
732.735506	20486.112451
733.066401	20280.690472
733.397249	19782.417785
733.728048	19155.880500
734.058798	18297.878636
734.389501	17538.645579
734.720156	17024.868823
735.050762	16444.327025
735.381320	16063.979529
735.711831	15793.834177
736.042293	15425.514874
736.372707	15456.321365
736.703073	15239.319857
737.033391	15436.491987
737.363661	15440.920640
737.693883	15567.519137
738.024056	15767.126144
738.354182	15976.069368
738.684260	16347.622571
739.014290	16627.540200
739.344272	16847.967173
739.674207	17188.605500
740.004093	17360.261829
740.333931	17422.058814
740.663722	17502.707193
740.993464	17549.277372
741.323159	17384.726549
741.652806	17085.750838
741.982405	16921.716733
742.311956	16568.205819
742.641460	16452.065196
742.970915	16129.035620
743.300323	15783.620799
743.629683	15557.719134
743.958996	15250.934675
744.288260	14940.429845
744.617477	14627.573317
744.946647	14591.478655
745.275768	14280.857879
745.604842	14076.418926
745.933869	13901.122883
746.262847	13867.770609
746.591778	13788.553918
746.920662	13667.956915
747.249498	13684.433926
747.578286	13840.462679
747.907027	14008.285211
748.235720	14272.396302
748.564365	14351.461759
748.892963	14268.252474
749.221514	14373.884811
749.550017	14233.687802
749.878473	14208.217372
750.206881	13985.511798
750.535242	13906.370724
750.863555	13827.849712
751.191821	13729.025453
751.520039	13747.279471
751.848210	13669.040763
752.176334	13711.794789
752.504411	13646.143842
752.832440	13468.848982
753.160421	13579.199840
753.488356	13466.257829
753.816243	13376.958830
754.144082	13214.651320
754.471875	13163.637363
754.799620	13125.324594
755.127318	13102.931789
755.454969	13089.963421
755.782572	13067.666397
756.110129	13076.218715
756.437638	12984.560455
756.765100	12986.624808
757.092515	13018.416845
757.419882	13047.516905
757.747203	13064.981983
758.074477	13161.673834
758.401703	13140.188436
758.728882	13328.677179
759.056014	13375.978325
759.383099	13550.132547
759.710138	13669.895238
760.037129	13790.497283
760.364073	13849.967774
760.690970	13876.509449
761.017820	13897.483170
761.344623	14128.683088
761.671379	14509.746428
761.998088	15215.749942
762.324751	17001.218249
762.651366	20426.238666
762.977935	24898.251284
763.304456	27852.606893
763.630931	28897.564989
763.957359	27693.155197
764.283740	25422.962303
764.610074	23155.065655
764.936362	20525.594768
765.262602	18651.520619
765.588796	16718.159982
765.914943	15437.618684
766.241044	14322.023941
766.567097	13530.252756
766.893104	12820.256649
767.219064	12343.300480
767.544978	11872.983512
767.870845	11478.402318
768.196665	11262.222517
768.522438	11027.539162
768.848165	10822.064252
769.173846	10619.649322
769.499479	10487.520680
769.825066	10320.802160
770.150607	10092.372356
770.476101	10010.130972
770.801548	9876.164829
771.126949	9732.277696
771.452303	9617.911559
771.777611	9413.548223
772.102872	9407.587059
772.428087	9271.299464
772.753256	9107.154454
773.078378	9017.681535
773.403453	8836.147064
773.728482	8722.191782
774.053465	8648.850555
774.378401	8546.268115
774.703291	8422.785052
775.028135	8297.870301
775.352932	8268.225796
775.677683	8159.256214
776.002388	8053.137405
776.327046	8065.369765
776.651658	7964.796225
776.976224	7864.008436
777.300743	7859.993157
777.625216	7783.937269
777.949643	7733.021615
778.274024	7748.157680
778.598359	7663.746079
778.922647	7676.628748
779.246889	7627.764843
779.571086	7636.049980
779.895236	7646.268399
780.219339	7652.282495
780.543397	7654.820716
780.867409	7741.079900
781.191374	7747.023420
781.515294	7716.678194
781.839167	7810.186557
782.162995	7779.770755
782.486776	7726.947025
782.810511	7676.031371
783.134201	7585.565345
783.457844	7586.477793
783.781441	7529.938733
784.104993	7459.133206
784.428498	7438.403982
784.751958	7422.224398
785.075372	7395.894452
785.398739	7339.075607
785.722061	7381.086062
786.045337	7389.124182
786.368568	7551.134264
786.691752	7575.583860
787.014891	7911.070128
787.337983	8275.495139
787.661030	8866.141930
787.984031	9496.911264
788.306987	9902.527543
788.629897	10109.381209
788.952760	10054.810719
789.275579	9825.556686
789.598351	9432.613867
789.921078	9078.946678
790.243759	8664.684819
790.566395	8380.966160
790.888984	8122.236501
791.211529	7910.906290
791.534027	7692.331942
791.856480	7492.571180
792.178888	7414.677791
792.501249	7321.935684
792.823566	7156.469891
793.145836	7163.756879
793.468062	7134.011551
793.790241	7089.581341
794.112375	7153.598954
794.434464	7310.169631
794.756507	7354.062957
795.078505	7510.583222
795.400457	7827.823034
795.722364	8178.203391
796.044226	8462.993295
796.366042	8737.935305
796.687812	8684.413375
797.009538	8765.520499
797.331218	8664.105087
797.652852	8571.572187
797.974442	8417.194412
798.295986	8327.814755
798.617484	8133.052296
798.938938	7998.360227
799.260346	7893.955411
799.581709	7695.308743
799.903026	7613.389993
800.224299	7507.747573
800.545526	7338.115267
800.866708	7237.642550
801.187845	7170.784247
801.508936	7064.960346
801.829983	7030.259563
802.150984	6872.040429
802.471940	6828.305899
802.792851	6817.558159
803.113717	6780.951820
803.434538	6748.484269
803.755314	6692.194745
804.076045	6693.001330
804.396731	6640.321272
804.717372	6673.388721
805.037967	6676.320152
805.358518	6713.627211
805.679024	6798.706764
805.999485	6804.771272
806.319901	6847.689136
806.640272	6871.430450
806.960598	6951.804086
807.280879	6951.937677
807.601115	7030.733432
807.921306	6977.047664
808.241453	6991.609037
808.561554	7013.364136
808.881611	6978.287788
809.201623	6988.521330
809.521590	6930.238030
809.841513	6912.863693
810.161390	6958.032432
810.481223	6819.597306
810.801011	6807.433002
811.120755	6780.581296
811.440453	6703.398710
811.760107	6673.008114
812.079716	6641.952085
812.399281	6573.702424
812.718801	6562.014509
813.038276	6520.840885
813.357707	6455.351255
813.677093	6504.560478
813.996434	6405.060704
814.315731	6450.133661
814.634983	6441.311642
814.954191	6452.608867
815.273354	6565.495426
815.592473	6629.417256
815.911547	6749.943683
816.230577	6831.234809
816.549562	6978.849876
816.868502	7080.461894
817.187399	7183.533325
817.506250	7336.499577
817.825058	7368.836058
818.143821	7634.814897
818.462539	7912.842093
818.781213	8276.946992
819.099843	8831.115993
819.418429	9834.754271
819.736970	10810.842643
820.055466	11995.463386
820.373919	13534.283159
820.692327	15903.766619
821.010691	20067.628626
821.329011	29098.502860
821.647286	42130.926551
821.965517	55517.067842
822.283704	60869.235675
822.601847	62840.513352
822.919945	60145.222639
823.237999	55996.254721
823.556010	49851.042812
823.873976	43135.671362
824.191897	36575.302790
824.509775	31716.938662
824.827609	27203.518006
825.145398	24602.275060
825.463144	23233.425350
825.780845	23542.488410
826.098502	25333.305382
826.416116	29112.212278
826.733685	32760.376850
827.051210	33913.636574
827.368692	32119.794910
827.686129	28148.792326
828.003522	24016.780329
828.320872	20310.637447
828.638177	17453.177856
828.955439	15300.244722
829.272656	13471.188077
829.589830	11999.491267
829.906960	10720.742101
830.224046	9778.492473
830.541088	9026.130509
830.858086	8572.020850
831.175041	8192.250566
831.491952	8066.844302
831.808819	8122.140719
832.125642	8526.824385
832.442421	9422.871837
832.759157	11228.789585
833.075849	14155.466739
833.392497	17383.970376
833.709101	19553.806499
834.025662	19386.336848
834.342179	17692.993107
834.658653	15494.684546
834.975083	13561.966655
835.291469	11937.928697
835.607811	10614.915678
835.924110	9709.829438
836.240366	8833.255963
836.556578	8029.161677
836.872746	7387.768112
837.188871	6880.786831
837.504952	6459.787471
837.820990	6150.242980
838.136984	5929.432880
838.452935	5831.586605
838.768842	5871.918356
839.084706	6294.825793
839.400526	7503.775144
839.716303	9084.660826
840.032037	10183.944916
840.347727	10107.853739
840.663373	9135.064802
840.978977	8088.493537
841.294537	7275.499095
841.610054	6676.247055
841.925527	6238.642134
842.240957	5877.619901
842.556344	5548.982041
842.871687	5265.616262
843.186987	4981.272500
843.502244	4755.491822
843.817458	4588.473354
844.132629	4452.987303
844.447756	4359.662943
844.762840	4282.366931
845.077881	4205.262483
845.392879	4143.911641
845.707833	4095.975309
846.022745	4050.123494
846.337613	4019.934544
846.652438	3978.251763
846.967221	3962.069660
847.281960	3929.897016
847.596656	3909.563522
847.911309	3893.817478
848.225919	3866.295298
848.540485	3851.572608
848.855009	3839.458716
849.169490	3817.602793
849.483928	3806.880259
849.798323	3796.944145
850.112675	3775.138634
850.426984	3780.741876
850.741251	3770.551184
851.055474	3765.225205
851.369654	3767.488683
851.683792	3764.504320
851.997887	3774.178294
852.311938	3774.090074
852.625947	3777.583593
852.939914	3764.670678
853.253837	3774.846247
853.567718	3770.896503
853.881555	3764.300153
854.195350	3777.142493
854.509103	3769.454733
854.822812	3771.912295
855.136479	3765.552880
855.450103	3775.141154
855.763685	3758.709513
856.077224	3764.491717
856.390720	3778.579221
856.704173	3800.261224
857.017584	3815.243533
857.330953	3823.498423
857.644278	3846.171012
857.957561	3851.655787
858.270802	3848.265612
858.584000	3854.413299
858.897155	3847.413657
859.210268	3828.395904
859.523339	3807.016370
859.836367	3808.692554
860.149352	3802.673416
860.462295	3792.155049
860.775195	3780.368831
861.088054	3779.214407
861.400869	3776.645939
861.713642	3775.662914
862.026373	3784.036270
862.339062	3792.510450
862.651708	3812.569201
862.964312	3845.016588
863.276873	3858.605018
863.589392	3914.645005
863.901869	3961.951192
864.214303	4006.232688
864.526696	4042.395405
864.839045	4088.572374
865.151353	4114.625057
865.463619	4123.457159
865.775842	4129.408241
866.088023	4149.784585
866.400162	4138.283192
866.712258	4144.972803
867.024313	4146.331394
867.336325	4143.037000
867.648296	4150.439935
867.960224	4150.384482
868.272110	4161.863189
868.583954	4164.640865
868.895755	4175.549922
869.207515	4173.530940
869.519233	4213.436714
869.830909	4230.266606
870.142542	4254.360801
870.454134	4272.445940
870.765684	4300.331083
871.077191	4336.423224
871.388657	4360.701421
871.700081	4397.148963
872.011463	4439.661013
872.322803	4475.359944
872.634101	4505.745499
872.945357	4547.950039
873.256571	4598.545580
873.567744	4630.680415
873.878874	4649.199093
874.189963	4683.791491
874.501010	4696.255744
874.812015	4691.328016
875.122979	4737.169749
875.433900	4735.433071
875.744780	4749.094598
876.055618	4776.959576
876.366415	4778.527375
876.677169	4797.721568
876.987882	4843.495245
877.298554	4900.634203
877.609183	4979.760154
877.919771	5089.954736
878.230317	5230.081169
878.540822	5452.438903
878.851285	5769.802223
879.161707	6231.846658
879.472087	6996.849316
879.782425	8245.074297
880.092722	10421.048025
880.402977	13743.758225
880.713191	17505.247934
881.023363	21224.311293
881.333494	23422.869391
881.643583	24654.221630
881.953631	24639.801409
882.263637	23816.238187
882.573602	22317.092295
882.883526	20760.575551
883.193408	19086.788966
883.503248	17393.341881
883.813048	15843.799573
884.122806	14403.010078
884.432522	12934.403495
884.742197	11670.344251
885.051831	10574.331869
885.361424	9570.892717
885.670975	8747.306810
885.980485	8054.112868
886.289954	7479.063408
886.599382	7010.843559
886.908768	6634.770962
887.218113	6269.350322
887.527417	5976.290405
887.836680	5704.998190
888.145901	5486.766640
888.455082	5326.253781
888.764221	5176.990257
889.073319	5040.899268
889.382376	4968.127692
889.691392	4906.502106
890.000366	4884.046287
890.309300	4868.423751
890.618193	4868.088514
890.927044	4856.604766
891.235855	4875.030183
891.544625	4909.216768
891.853353	4973.040296
892.162041	5089.117904
892.470687	5272.048775
892.779293	5527.902456
893.087858	5900.849538
893.396381	6479.982333
893.704864	7282.511340
894.013306	8437.638812
894.321707	9615.312844
894.630068	10428.284601
894.938387	10628.773810
895.246665	10391.864785
895.554903	9791.188619
895.863100	9090.130478
896.171256	8533.299747
896.479371	8025.164042
896.787446	7532.776902
897.095480	7101.186077
897.403473	6779.187417
897.711425	6461.461134
898.019336	6196.109919
898.327207	5919.022898
898.635038	5692.869174
898.942827	5445.545125
899.250576	5252.075723
899.558284	5059.798554
899.865952	4937.149801
900.173579	4785.181698
900.481165	4680.721428
900.788711	4583.512859
901.096216	4514.585162
901.403681	4450.887663
901.711105	4425.076955
902.018489	4411.763268
902.325832	4484.272704
902.633135	4604.683184
902.940397	4951.166729
903.247619	5746.519654
903.554800	7191.216044
903.861941	9108.137479
904.169041	10633.673812
904.476101	11258.303020
904.783121	10896.512012
905.090100	10161.249641
905.397039	9324.972629
905.703938	8571.834327
906.010796	7874.289869
906.317614	7317.534756
906.624391	6782.595237
906.931129	6360.421287
907.237826	5956.700481
907.544483	5580.103604
907.851099	5206.697777
908.157675	4848.675031
908.464211	4526.192419
908.770707	4292.151811
909.077163	4092.179320
909.383578	3950.807722
909.689954	3835.506451
909.996289	3758.767487
910.302584	3699.816234
910.608839	3666.940349
910.915054	3633.706542
911.221229	3623.379738
911.527363	3633.598157
911.833458	3647.297493
912.139513	3674.171884
912.445527	3702.299002
912.751502	3786.198925
913.057436	3887.758011
913.363331	4021.416643
913.669186	4229.598653
913.975000	4487.191532
914.280775	4908.576541
914.586510	5491.414584
914.892205	6290.412263
915.197859	7327.112949
915.503475	8544.483547
915.809050	9607.390671
916.114585	10258.448128
916.420081	10512.320636
916.725536	10478.814607
917.030952	10028.959682
917.336328	9621.752918
917.641665	9213.011123
917.946961	8726.562462
918.252218	8307.589645
918.557435	7801.714898
918.862612	7363.651232
919.167750	6998.855695
919.472848	6564.431742
919.777906	6198.423808
920.082925	5831.150545
920.387904	5466.844000
920.692843	5205.898754
920.997743	4962.821877
921.302603	4729.202205
921.607423	4562.783634
921.912204	4397.315321
922.216946	4278.351652
922.521647	4159.577026
922.826310	4050.869585
923.130932	3962.909012
923.435516	3862.365719
923.740059	3788.936272
924.044564	3715.922720
924.349028	3652.260509
924.653454	3590.304728
924.957840	3518.246475
925.262186	3474.040597
925.566493	3413.466092
925.870761	3357.877289
926.174989	3319.728357
926.479178	3286.101340
926.783328	3239.064854
927.087438	3214.685834
927.391509	3176.796522
927.695541	3149.218890
927.999533	3123.403141
928.303486	3103.278855
928.607400	3085.065166
928.911275	3074.423290
929.215110	3053.310938
929.518906	3048.206770
929.822663	3047.455638
930.126381	3044.171326
930.430060	3053.315979
930.733699	3053.885630
931.037299	3063.882238
931.340861	3060.660940
931.644383	3069.586303
931.947866	3072.225347
932.251309	3062.606826
932.554714	3061.366702
932.858080	3053.555434
933.161407	3049.565361
933.464694	3038.482384
933.767943	3033.443751
934.071153	3030.013246
934.374323	3021.423119
934.677455	3013.589166
934.980548	3007.675893
935.283602	3003.685820
935.586617	2997.938904
935.889593	3008.414422
936.192530	3015.041019
936.495428	3025.909746
936.798287	3049.575443
937.101108	3079.351018
937.403890	3133.770274
937.706632	3193.888554
938.009336	3273.896707
938.312002	3346.748942
938.614628	3409.019795
938.917216	3460.525263
939.219765	3491.787979
939.522275	3523.789224
939.824747	3530.012528
940.127179	3528.664019
940.429573	3523.148997
940.731929	3518.783358
941.034246	3504.458919
941.336524	3492.418123
941.638763	3476.979590
941.940964	3461.052064
942.243126	3418.166968
942.545250	3397.962024
942.847335	3361.166642
943.149381	3328.570541
943.451389	3294.343627
943.753359	3257.286105
944.055290	3233.164184
944.357182	3209.047304
944.659036	3193.593647
944.960851	3188.756660
945.262628	3166.792352
945.564367	3170.658917
945.866067	3166.378978
946.167729	3159.712052
946.469352	3158.776918
946.770937	3155.923625
947.072484	3139.852426
947.373992	3145.233858
947.675462	3138.418218
947.976893	3119.128243
948.278286	3109.481995
948.579641	3103.019236
948.880958	3094.794593
949.182236	3101.542178
949.483476	3092.238728
949.784678	3094.235025
950.085841	3095.941456
950.386967	3105.237343
950.688054	3122.639406
950.989103	3141.430307
951.290114	3163.064419
951.591087	3190.899150
951.892021	3220.268912
952.192917	3246.530803
952.493776	3272.717077
952.794596	3279.293262
953.095378	3283.646298
953.396122	3279.774692
953.696828	3274.539454
953.997496	3261.523195
954.298126	3239.337077
954.598718	3216.921586
954.899272	3190.203471
955.199788	3164.906961
955.500266	3132.699029
955.800706	3095.923812
956.101108	3060.164387
956.401472	3028.563914
956.701798	2993.845487
957.002087	2956.316618
957.302337	2930.813420
957.602550	2898.156826
957.902724	2871.577342
958.202861	2845.285204
958.502960	2825.561690
958.803022	2804.676189
959.103045	2784.506533
959.403031	2766.592792
959.702979	2754.549476
960.002889	2741.576067
960.302762	2727.002091
960.602596	2715.934237
960.902393	2706.658514
961.202153	2699.101825
961.501875	2691.545135
961.801559	2683.267561
962.101205	2677.235820
962.400814	2671.690551
962.700385	2665.573111
962.999918	2661.704025
963.299414	2654.681698
963.598873	2654.177582
963.898293	2645.438742
964.197677	2648.720533
964.497022	2646.154586
964.796331	2643.712147
965.095601	2639.102012
965.394835	2636.362145
965.694030	2635.467340
965.993189	2634.832154
966.292309	2633.637401
966.591393	2633.060189
966.890439	2632.951804
967.189447	2632.898872
967.488419	2632.639252
967.787353	2631.167236
968.086249	2633.050107
968.385108	2637.330046
968.683930	2639.706950
968.982714	2643.240799
969.281462	2647.346819
969.580172	2653.214722
969.878844	2658.276040
970.177480	2662.644200
970.476078	2673.452434
970.774639	2683.171779
971.073162	2688.480114
971.371649	2692.724765
971.670098	2699.981506
971.968510	2705.544419
972.266885	2711.034236
972.565223	2710.053732
972.863524	2715.092365
973.161788	2717.567571
973.460014	2719.122767
973.758204	2726.354302
974.056356	2726.752554
974.354471	2727.123078
974.652550	2727.783470
974.950591	2726.913871
975.248595	2725.595609
975.546563	2723.390104
975.844493	2719.485730
976.142386	2715.596480
976.440243	2708.332177
976.738062	2704.475695
977.035845	2698.698532
977.333590	2694.106041
977.631299	2688.084383
977.928971	2679.887467
978.226606	2674.768175
978.524204	2672.930675
978.821765	2664.884993
979.119290	2670.082423
979.416777	2668.464212
979.714228	2672.456806
980.011642	2672.517300
980.309020	2685.483148
980.606360	2699.689119
980.903664	2721.194682
981.200931	2757.170876
981.498162	2804.948412
981.795356	2880.908518
982.092513	2968.415387
982.389633	3075.519741
982.686717	3170.157322
982.983764	3242.928899
983.280775	3290.731640
983.577749	3300.382929
983.874686	3284.326854
984.171587	3252.620517
984.468451	3215.512584
984.765279	3169.600275
985.062070	3121.351392
985.358824	3076.802715
985.655543	3021.155938
985.952224	2970.136941
986.248869	2906.522620
986.545478	2846.043898
986.842050	2792.910136
987.138586	2745.165368
987.435086	2707.144986
987.731549	2679.446366
988.027975	2650.966367
988.324366	2636.029428
988.620719	2625.760598
988.917037	2611.335336
989.213318	2601.797473
989.509563	2596.232039
989.805772	2592.856987
990.101944	2586.159814
990.398080	2585.970771
990.694180	2583.823239
990.990244	2582.000862
991.286271	2580.410378
991.582262	2584.158476
991.878217	2587.198292
992.174136	2590.792634
992.470019	2594.011411
992.765865	2595.443099
993.061676	2602.296547
993.357450	2611.423557
993.653188	2617.140225
993.948890	2633.614716
994.244556	2652.435864
994.540186	2675.148782
994.835780	2706.025850
995.131337	2745.485481
995.426859	2785.270267
995.722345	2833.705674
996.017795	2882.201574
996.313208	2918.966709
996.608586	2949.115329
996.903928	2961.186372
997.199234	2959.560600
997.494504	2956.530867
997.789738	2942.667693
998.084936	2916.733478
998.380099	2889.090310
998.675225	2858.548480
998.970316	2829.874397
999.265371	2792.116154
999.560390	2755.741709
999.855373	2726.124930
1000.150320	2698.827082
1000.445232	2674.939574
1000.740108	2652.536687
1001.034948	2632.868625
1001.329752	2619.166769
1001.624521	2606.745366
1001.919254	2592.057964
1002.213951	2587.909094
1002.508613	2579.321489
1002.803239	2574.103895
1003.097829	2565.430589
1003.392384	2563.608212
1003.686903	2555.549928
1003.981386	2555.164280
1004.275834	2550.523898
1004.570246	2546.864020
1004.864623	2545.328988
1005.158964	2543.955274
1005.453270	2543.267157
1005.747540	2539.700540
1006.041775	2537.870601
1006.335974	2539.090561
1006.630138	2538.299099
1006.924266	2536.706095
1007.218359	2533.353728
1007.512416	2529.741741
1007.806438	2528.277286
1008.100425	2528.781401
1008.394376	2527.884076
1008.688292	2532.693336
1008.982172	2531.652338
1009.276017	2531.765764
1009.569827	2530.084539
1009.863602	2530.139992
1010.157341	2529.708973
1010.451045	2526.507841
1010.744714	2527.208561
1011.038347	2526.081863
1011.331945	2523.551204
1011.625508	2524.483817
1011.919036	2524.299815
1012.212528	2521.476769
1012.505986	2521.857376
1012.799408	2521.658251
1013.092795	2520.445853
1013.386147	2519.735050
1013.679464	2518.479803
1013.972745	2519.601460
1014.265992	2518.091634
1014.559204	2520.526512
1014.852380	2515.634072
1015.145521	2519.054495
1015.438628	2519.021727
1015.731699	2518.999042
1016.024736	2522.293436
1016.317737	2521.529701
1016.610703	2524.216636
1016.903635	2524.723272
1017.196531	2526.381812
1017.489393	2525.882737
1017.782219	2525.696215
1018.075011	2526.190248
1018.367768	2530.061854
1018.660490	2530.011443
1018.953177	2530.011443
1019.245829	2530.011443
