Dividing Wavelength (nm)	Counts (n)	Blue Motor Position (mm): 40.200000	Red Motor Position (mm): 0.000000	
326.493990	2051.046374
326.888308	2051.046374
327.282561	2051.046374
327.676750	2024.040913
328.070874	2027.731038
328.464933	2033.775381
328.858929	2040.119673
329.252859	2052.934287
329.646726	2065.522048
330.040528	2082.972002
330.434265	2099.088571
330.827938	2119.729575
331.221547	2139.821094
331.615091	2160.693991
332.008571	2181.735767
332.401986	2202.838037
332.795338	2223.234546
333.188625	2241.937227
333.581847	2259.946749
333.975006	2279.259409
334.368100	2293.972017
334.761129	2313.836683
335.154095	2328.914774
335.546996	2378.565099
335.939833	2489.657006
336.332606	2497.306957
336.725315	2511.149965
337.117960	2522.729496
337.510540	2532.032945
337.903056	2539.856816
338.295508	2549.218239
338.687896	2553.326779
339.080220	2560.122254
339.472480	2561.495969
339.864676	2568.054510
340.256807	2572.493246
340.648875	2572.021898
341.040879	2571.888308
341.432818	2572.657083
341.824694	2577.058011
342.216506	2574.499625
342.608253	2573.642629
342.999937	2573.322516
343.391557	2572.924265
343.783113	2574.577763
344.174605	2569.055179
344.566033	2566.668193
344.957397	2566.625343
345.348697	2563.051165
345.739934	2564.719787
346.131106	2562.405897
346.522215	2561.064950
346.913260	2558.342727
347.304241	2558.188972
347.695159	2554.766028
348.086012	2551.522046
348.476802	2551.804351
348.867528	2546.458207
349.258191	2547.078269
349.648789	2548.184802
350.039324	2541.928730
350.429796	2546.110367
350.820203	2549.054401
351.210548	2546.475851
351.600828	2543.791437
351.991045	2542.846220
352.381198	2545.286139
352.771288	2543.057949
353.161314	2540.534851
353.551276	2543.748587
353.941175	2538.346990
354.331010	2543.249512
354.720782	2547.153886
355.110490	2546.619524
355.500135	2542.652136
355.889717	2543.940151
356.279235	2547.378218
356.668689	2543.095757
357.058080	2544.197249
357.447408	2544.466951
357.836672	2544.464431
358.225873	2546.271684
358.615010	2545.487785
359.004084	2546.669935
359.393095	2547.030378
359.782043	2549.150183
360.170927	2547.269833
360.559748	2549.611449
360.948505	2548.555327
361.337199	2553.215874
361.725830	2550.932231
362.114398	2552.542880
362.502903	2552.434495
362.891344	2551.874927
363.279722	2551.522046
363.668037	2554.135884
364.056289	2550.796120
364.444478	2554.708055
364.832603	2555.358364
365.220665	2554.352654
365.608665	2557.216029
365.996601	2558.887172
366.384474	2557.168138
366.772284	2553.351985
367.160031	2560.152501
367.547715	2556.633776
367.935336	2553.982129
368.322893	2555.630586
368.710388	2555.386090
369.097820	2556.762325
369.485189	2553.788045
369.872495	2559.154353
370.259738	2558.259548
370.646918	2561.314487
371.034035	2559.605536
371.421090	2560.780125
371.808081	2562.415979
372.195010	2562.002605
372.581875	2563.784653
372.968678	2563.416648
373.355418	2559.718962
373.742096	2563.066288
374.128710	2566.721125
374.515262	2562.973027
374.901751	2567.588203
375.288177	2567.134499
375.674540	2562.509241
376.060841	2565.932184
376.447079	2568.135168
376.833254	2567.308419
377.219367	2568.722463
377.605417	2567.462174
377.991404	2568.727504
378.377329	2569.771023
378.763191	2569.224058
379.148991	2568.281362
379.534727	2573.002402
379.920402	2570.630540
380.306013	2571.636250
380.691563	2572.004254
381.077049	2568.775395
381.462474	2573.249419
381.847835	2572.384861
382.233134	2571.560633
382.618371	2570.391085
383.003545	2573.345201
383.388657	2572.233627
383.773706	2577.632702
384.158693	2576.659760
384.543618	2578.542631
384.928480	2574.287897
385.313280	2579.049267
385.698017	2578.653536
386.082692	2578.875347
386.467305	2579.510532
386.851856	2577.814184
387.236344	2580.392734
387.620770	2580.100347
388.005133	2580.042374
388.389435	2579.674370
388.773674	2577.736046
389.157851	2586.575709
389.541965	2583.924062
389.926018	2583.107395
390.310008	2587.218456
390.693936	2587.198292
391.077802	2587.276430
391.461606	2589.365988
391.845348	2593.298088
392.229027	2595.606936
392.612645	2595.304467
392.996200	2597.986361
393.379694	2601.590786
393.763125	2608.434152
394.146494	2611.282404
394.529801	2615.305245
394.913047	2620.424537
395.296230	2627.835033
395.679351	2633.292082
396.062410	2642.235089
396.445408	2647.750111
396.828343	2655.364774
397.211217	2669.411949
397.594028	2673.071827
397.976778	2684.918538
398.359466	2697.634849
398.742092	2710.187322
399.124656	2722.548231
399.507158	2741.051787
399.889598	2755.020824
400.271977	2777.872374
400.654294	2788.521812
401.036549	2812.701706
401.418742	2829.665189
401.800874	2858.157790
402.182944	2880.169989
402.564952	2915.604259
402.946898	2934.745520
403.328783	2953.528859
403.710606	2984.834425
404.092367	3024.717513
404.474067	3066.506158
404.855705	3083.288159
405.237282	3095.664192
405.618797	3151.074035
406.000250	3206.138558
406.381642	3256.108996
406.762972	3286.179478
407.144240	3295.056950
407.525447	3348.261288
407.906593	3383.398130
408.287677	3447.325002
408.668700	3489.302690
409.049661	3538.695916
409.430560	3583.771393
409.811399	3611.613685
410.192176	3661.498423
410.572891	3735.966348
410.953545	3823.173268
411.334138	3797.614618
411.714669	3893.635996
412.095139	3880.327350
412.475547	3973.208089
412.855894	4008.856608
413.236180	4098.261472
413.616405	4088.559771
413.996568	4183.686344
414.376670	4224.444073
414.756711	4247.257815
415.136691	4324.747911
415.516609	4418.175616
415.896466	4480.033094
416.276262	4564.114499
416.655997	4680.539947
417.035670	4775.918578
417.415283	4908.964710
417.794834	4983.369620
418.174324	4983.243591
418.553753	5013.528323
418.933121	5164.468031
419.312428	5203.405903
419.691674	5184.957801
420.070859	5389.817690
420.449983	5320.673224
420.829045	5506.517881
421.208047	5469.460359
421.586988	5625.539523
421.965867	5711.385332
422.344686	5797.773065
422.723444	5970.195650
423.102141	5666.103168
423.480777	6017.307753
423.859352	5881.529316
424.237866	6220.647735
424.616319	6230.651905
424.994712	6389.831379
425.373044	6333.947668
425.751314	6627.539427
426.129524	6395.739611
426.507673	6656.301730
426.885762	6702.350150
427.263789	6750.488128
427.641756	6843.941038
428.019662	6914.875113
428.397508	6968.976777
428.775292	6974.597663
429.153016	7120.801207
429.530679	7080.338386
429.908282	7133.698999
430.285824	7089.520847
430.663305	7341.011410
431.040726	7256.703153
431.418086	7260.126096
431.795385	7394.755151
432.172624	7573.695948
432.549802	7466.324412
432.926920	7599.189063
433.303977	7561.138434
433.680974	7609.878830
434.057910	7796.852705
434.434786	7844.100920
434.811601	7808.064231
435.188355	8141.024881
435.565050	8038.071917
435.941683	8048.396200
436.318257	8361.000670
436.694770	8313.603742
437.071222	8525.216257
437.447614	8301.041187
437.823946	8280.929503
438.200218	8420.418230
438.576429	8319.048188
438.952580	8471.059141
439.328670	8485.391142
439.704700	8562.130106
440.080670	8461.551525
440.456580	8714.083086
440.832429	8695.360240
441.208218	8448.313455
441.583947	8566.528513
441.959616	8666.608019
442.335224	8699.972896
442.710773	8783.900546
443.086261	8956.812123
443.461689	8695.408131
443.837057	8851.068880
444.212365	9050.126401
444.587612	9044.681955
444.962800	8941.930637
445.337927	9079.196215
445.712995	8632.401270
446.088002	9269.338456
446.462949	9339.627264
446.837837	9340.234723
447.212664	9403.478518
447.587431	10297.723758
447.962139	11264.319637
448.336786	12017.450378
448.711374	11620.388937
449.085901	10481.791408
449.460369	10457.989600
449.834776	10370.389470
450.209124	11298.337344
450.583412	11071.124978
450.957640	11280.708429
451.331808	10870.522343
451.705917	10391.680783
452.079965	10310.838320
452.453954	10500.594912
452.827883	10466.083173
453.201752	10427.702348
453.575562	10451.912489
453.949311	10800.863679
454.323001	10885.998685
454.696632	10795.283122
455.070202	11376.477749
455.443713	11435.565113
455.817164	11586.794687
456.190556	11908.442988
456.563888	11739.367729
456.937160	11953.974689
457.310373	11451.520365
457.683526	11496.885708
458.056619	11535.556400
458.429653	11611.309818
458.802628	11784.886828
459.175542	11838.224756
459.548398	12390.372254
459.921194	12969.620996
460.293930	13286.558338
460.666607	14109.718267
461.039224	14839.815976
461.411782	15103.034783
461.784280	14709.421491
462.156719	14634.351148
462.529099	14538.818762
462.901419	13969.150734
463.273680	13606.321247
463.645882	13841.062576
464.018024	13793.121203
464.390106	14200.262432
464.762130	15353.083576
465.134094	17017.591917
465.505999	19289.902096
465.877845	21273.828027
466.249631	22183.514321
466.621358	21566.812327
466.993026	20746.883777
467.364634	20044.431756
467.736184	19345.198512
468.107674	18802.503177
468.479105	18649.965423
468.850477	18388.188387
469.221790	17969.467628
469.593043	17334.902305
469.964238	16991.700551
470.335373	17106.074249
470.706449	17962.720043
471.077467	19097.854299
471.448425	21419.537538
471.819324	22922.025715
472.190164	22403.253176
472.560945	20731.949359
472.931667	19335.867336
473.302330	19091.613350
473.672934	18638.814391
474.043479	19073.165248
474.413965	18880.578047
474.784393	18728.685561
475.154761	19348.329069
475.525070	19491.233177
475.895321	19325.109514
476.265513	19845.467496
476.635645	20419.085269
477.005719	20490.553707
477.375734	20870.200483
477.745691	21475.050724
478.115588	22135.502372
478.485427	23400.733685
478.855207	25257.786377
479.224928	26964.582437
479.594591	28152.142172
479.964194	27624.353529
480.333739	28009.316202
480.703226	28310.893148
481.072653	28822.562702
481.442022	29297.527614
481.811333	29604.319634
482.180584	29105.164745
482.549777	28901.875175
482.918912	28698.862869
483.287988	28644.962852
483.657005	28490.302772
484.025964	28147.030442
484.394864	28340.071347
484.763706	28284.590928
485.132489	27789.668087
485.501213	27888.971256
485.869879	28064.476507
486.238487	28027.968471
486.607036	28296.248596
486.975527	28018.264250
487.343959	28341.051851
487.712333	28670.428240
488.080648	28659.259564
488.448905	29072.858511
488.817104	29018.691313
489.185244	29909.692570
489.553326	31055.927446
489.921350	32974.209993
490.289315	35364.233634
490.657222	36032.476385
491.025070	36440.731709
491.392861	36048.378705
491.760593	35262.455259
492.128267	34265.546921
492.495883	33343.721529
492.863440	32506.753879
493.230939	31627.770733
493.598380	31104.748501
493.965763	31005.331906
494.333088	30551.045806
494.700354	30371.230369
495.067563	30355.423831
495.434713	30272.146490
495.801805	30561.370089
496.168839	30422.176270
496.535815	30297.947116
496.902733	30434.343095
497.269593	30278.490782
497.636395	30433.864185
498.003139	30715.324407
498.369825	30498.857261
498.736453	30907.740208
499.103023	30758.920306
499.469535	30863.330163
499.835989	31003.186895
500.202385	30862.178260
500.568723	30950.050613
500.935003	31266.824117
501.301226	31176.821877
501.667390	31873.647970
502.033497	32072.980235
502.399546	31872.463299
502.765537	31475.638792
503.131470	31957.847842
503.497345	32388.992525
503.863163	31387.138816
504.228923	32148.443787
504.594625	32561.725141
504.960269	32047.466955
505.325856	32727.299319
505.691385	32411.652512
506.056856	32739.347676
506.422270	33241.648246
506.787625	32779.087092
507.152924	33250.155193
507.518164	33461.815599
507.883347	33017.447969
508.248472	33187.665050
508.613540	33867.421796
508.978550	34123.267915
509.343503	33976.156964
509.708398	34348.564643
510.073236	34945.948935
510.438016	35052.476077
510.802738	34749.288482
511.167403	35315.951983
511.532010	35562.545065
511.896561	36050.059930
512.261053	36797.146327
512.625488	36588.051868
512.989866	36541.471607
513.354186	36601.857068
513.718449	36570.644764
514.082655	37455.165618
514.446803	37159.610330
514.810894	37785.882954
515.174927	37817.120464
515.538904	37804.434400
515.902822	38460.711973
516.266684	38161.529574
516.630488	38523.514667
516.994235	38557.887775
517.357925	39131.603850
517.721558	39402.641487
518.085133	39777.022777
518.448651	39974.628446
518.812112	39857.335919
519.175516	40021.077638
519.538863	40477.551598
519.902152	40544.994674
520.265385	41088.436100
520.628560	41096.907759
520.991678	41066.101268
521.354739	41297.535600
521.717743	41663.503205
522.080690	41575.151942
522.443580	42270.301852
522.806413	42291.275572
523.169189	42436.604476
523.531908	42649.129440
523.894569	42520.640511
524.257174	42726.347314
524.619722	43054.876790
524.982213	43202.751476
525.344647	43229.376330
525.707025	43366.752813
526.069345	43811.924507
526.431608	43720.346906
526.793815	44105.884270
527.155964	43665.247094
527.518057	43925.733596
527.880093	43776.744815
528.242072	44426.095842
528.603995	44148.590405
528.965860	44076.973252
529.327669	44307.323736
529.689421	44359.376170
530.051117	44314.061238
530.412755	44596.587665
530.774337	44650.535573
531.135862	44598.594044
531.497331	44762.083704
531.858743	44744.477474
532.220098	45147.915976
532.581396	44886.348147
532.942638	44653.419113
533.303824	44910.901086
533.664953	44957.872037
534.026025	44625.130678
534.387040	45219.127315
534.747999	45300.879707
535.108902	45607.812879
535.469748	44926.722748
535.830537	45184.035843
536.191270	45441.885821
536.551947	45166.553121
536.912567	45457.972143
537.273131	45605.375481
537.633638	45234.434778
537.994089	45423.273881
538.354483	45173.227609
538.714821	45823.969994
539.075103	46104.890813
539.435328	45982.915055
539.795497	45728.735037
540.155609	45845.258787
540.515665	46437.284333
540.875665	45752.282266
541.235609	46021.247988
541.595496	46147.690209
541.955328	46715.387147
542.315102	46154.904100
542.674821	46038.753395
543.034483	45924.195695
543.394090	45954.787937
543.753640	45941.885103
544.113134	47007.501848
544.472571	46107.333252
544.831953	47234.683966
545.191278	46500.938983
545.550548	46182.390992
545.909761	46831.119436
546.268918	46983.745410
546.628019	47398.518946
546.987064	46819.502097
547.346053	46105.447861
547.704986	47022.272428
548.063863	46667.183634
548.422684	46870.884058
548.781449	46473.757081
549.140158	46998.488264
549.498811	46768.825898
549.857408	46161.434915
550.215949	46998.853748
550.574434	46836.193358
550.932864	46767.356402
551.291237	47493.771547
551.649555	47233.330416
552.007817	47415.739527
552.366022	47087.830113
552.724173	47161.703182
553.082267	47574.727437
553.440305	47915.169159
553.798288	47169.078390
554.156215	47564.375428
554.514086	47762.825490
554.871902	47374.245790
555.229661	47543.477324
555.587365	47236.513905
555.945014	47385.933705
556.302606	47390.503511
556.660143	47481.148498
557.017625	47703.909525
557.375050	47405.846263
557.732421	47816.909509
558.089735	47884.405518
558.446994	47750.764529
558.804197	48237.475330
559.161345	48090.145089
559.518437	47439.052343
559.875474	47692.047690
560.232455	47926.216848
560.589381	47978.246597
560.946251	47780.061195
561.303065	48455.883321
561.659825	48128.364597
562.016528	47944.934652
562.373177	47518.773150
562.729770	48134.476996
563.086307	47655.244746
563.442789	48211.644458
563.799216	48073.660516
564.155587	47954.807752
564.511904	47909.076925
564.868164	47960.216910
565.224370	48282.994429
565.580520	48024.179070
565.936615	48199.230617
566.292654	47860.828041
566.648638	48235.531966
567.004567	48162.518414
567.360441	48271.939179
567.716260	47990.478957
568.072023	48338.752111
568.427732	48278.679201
568.783385	47805.629927
569.138982	48218.840705
569.494525	48346.341568
569.850013	47955.637022
570.205445	48081.149150
570.560823	47855.675982
570.916145	47738.829598
571.271412	47946.247873
571.626625	47621.884911
571.981782	47690.633646
572.336884	47279.482180
572.691931	47609.067777
573.046923	47263.426105
573.401860	47120.912686
573.756743	47119.652397
574.111570	47274.952703
574.466342	47197.074438
574.821059	47335.343206
575.175722	46833.660178
575.530330	46922.971780
575.884882	46571.222750
576.239380	46478.379819
576.593823	46574.575117
576.948211	46505.710435
577.302544	46037.979578
577.656823	46033.369443
578.011047	46297.833415
578.365216	46109.256452
578.719330	45839.728641
579.073389	45817.862637
579.427394	45868.080091
579.781344	45807.409804
580.135239	45557.887812
580.489080	45608.284227
580.842866	45102.986692
581.196597	45587.870075
581.550273	45574.405153
581.903895	45521.228541
582.257463	45963.108361
582.610975	45400.606333
582.964434	45719.776906
583.317837	45219.044136
583.671186	45181.086768
584.024481	45462.027751
584.377721	45001.979613
584.730906	45197.893975
585.084037	45327.766701
585.437113	45038.623760
585.790135	45167.810889
586.143103	44703.470208
586.496016	44874.561929
586.848874	44978.628988
587.201679	45000.275703
587.554428	44492.936500
587.907124	44776.559378
588.259765	44555.834977
588.612352	44705.232092
588.964884	44175.946226
589.317362	44472.028315
589.669786	44474.049818
590.022155	44336.262480
590.374470	44800.008305
590.726731	44359.474473
591.078937	43706.037591
591.431090	44036.311306
591.783188	43573.243516
592.135232	43357.303171
592.487222	43637.155265
592.839157	43768.946150
593.191038	43403.114656
593.542866	43213.695821
593.894639	42620.747744
594.246358	42921.646655
594.598022	42904.194181
594.949633	42484.558452
595.301190	42472.270640
595.652692	42400.222469
596.004141	42882.219791
596.355535	41792.508852
596.706876	41813.316215
597.058162	41534.432022
597.409395	42029.490974
597.760573	42257.222578
598.111698	41840.883764
598.462768	41763.958277
598.813785	41773.990173
599.164748	41378.105841
599.515657	41662.003461
599.866511	41164.723881
600.217312	41836.941582
600.568060	40788.293362
600.918753	41620.610547
601.269392	41533.736343
601.619978	41258.456575
601.970510	41451.827675
602.320988	41598.915942
602.671412	41879.297357
603.021783	41720.853891
603.372100	41293.777420
603.722363	41399.104768
604.072572	41435.685901
604.422728	41434.145828
604.772830	41205.569830
605.122878	41378.841850
605.472872	41208.229039
605.822813	41491.695640
606.172701	41222.084650
606.522534	41552.126472
606.872314	41765.949533
607.222041	41611.223919
607.571714	41926.895931
607.921333	41415.165884
608.270899	41627.093471
608.620411	42027.081302
608.969870	41763.933072
609.319276	41770.622683
609.668627	41794.185036
610.017926	42210.385218
610.367171	42332.098836
610.716362	42376.307235
611.065500	42260.171653
611.414585	42480.076866
611.763616	42664.535206
612.112594	42550.037999
612.461518	42680.732433
612.810389	43069.985128
613.159207	42859.932850
613.507971	42828.105525
613.856682	43340.984956
614.205340	43164.567256
614.553945	43840.979197
614.902496	43180.620811
615.250994	43608.082930
615.599439	43648.704548
615.947830	43766.072692
616.296169	43767.758958
616.644454	43799.848423
616.992686	43962.292044
617.340864	44407.741000
617.688990	43938.694402
618.037063	44597.396770
618.385082	44431.343683
618.733048	44763.147388
619.080961	44644.604655
619.428821	44666.841185
619.776628	44685.387590
620.124382	44502.310526
620.472083	44615.970901
620.819731	44702.053644
621.167326	44269.976348
621.514868	44272.837203
621.862357	43741.328188
622.209793	43817.820136
622.557176	43396.404880
622.904506	43145.385666
623.251783	42791.168991
623.599007	42468.457007
623.946179	42396.287848
624.293297	42135.708085
624.640363	41575.688825
624.987376	41425.472523
625.334336	41234.770714
625.681243	40814.512403
626.028097	40727.592828
626.374899	40537.538808
626.721647	40503.606801
627.068343	40281.233943
627.414987	40004.761943
627.761577	39743.481460
628.108115	40062.931817
628.454600	39317.566974
628.801032	39557.861134
629.147412	39440.195562
629.493739	39355.932676
629.840014	38911.310468
630.186236	39334.517854
630.532405	38780.263153
630.878521	39008.821507
631.224585	38793.753281
631.570597	38438.724980
631.916556	38612.304510
632.262462	38501.298302
632.608316	38448.396434
632.954117	38289.834501
633.299866	38260.862990
633.645562	38172.859568
633.991206	37643.611510
634.336797	37234.176557
634.682336	37137.837586
635.027823	36902.720691
635.373257	36777.168234
635.718639	36443.786648
636.063968	36340.080031
636.409245	35672.963978
636.754470	35638.802599
637.099642	35415.146767
637.444762	34835.867779
637.789829	34994.838045
638.134845	34623.491529
638.479808	34532.105492
638.824719	34482.293851
639.169577	33958.649037
639.514383	34064.286415
639.859137	33680.490770
640.203839	33863.363667
640.548489	33541.496076
640.893086	33558.015937
641.237632	33279.436735
641.582125	33363.140053
641.926566	33170.121834
642.270955	33196.640824
642.615292	33126.926707
642.959576	33015.557537
643.303809	33027.472304
643.647990	33099.220526
643.992118	33060.360792
644.336195	32899.631163
644.680219	32978.898266
645.024192	33176.345139
645.368112	33710.107549
645.711981	33716.978642
646.055797	34447.870332
646.399562	34256.732463
646.743274	35135.561855
647.086935	35519.511255
647.430544	35479.517261
647.774101	35526.783119
648.117606	35824.911917
648.461059	35961.202032
648.804460	35567.866003
649.147810	35060.932613
649.491108	34706.269796
649.834354	34574.451185
650.177548	33732.452463
650.520690	33236.793614
650.863781	33234.247832
651.206820	33059.801223
651.549807	32648.148162
651.892742	32069.569894
652.235626	31971.804277
652.578458	31836.255212
652.921238	31142.660498
653.263967	31462.148664
653.606644	31160.758240
653.949269	31065.901369
654.291843	30672.318324
654.634365	31030.441893
654.976836	30571.706975
655.319255	30640.548972
655.661622	30519.682267
656.003938	30383.298891
656.346203	30199.735356
656.688416	30448.687698
657.030577	30204.640399
657.372687	30034.801405
657.714746	30206.629134
658.056753	30390.112011
658.398708	29763.877195
658.740612	29831.728605
659.082465	30048.629290
659.424266	29937.547465
659.766016	29949.026173
660.107715	29804.652568
660.449362	29907.040923
660.790958	29877.396418
661.132503	29818.180504
661.473996	29892.809746
661.815438	29963.012854
662.156829	30084.066081
662.498168	29883.954959
662.839456	29857.120897
663.180693	29983.421965
663.521879	30070.800285
663.863013	30031.489367
664.204097	30008.163948
664.545129	30431.288155
664.886110	30351.499293
665.227040	30456.133482
665.567918	30452.796238
665.908746	30518.200168
666.249522	30618.577103
666.590248	30647.336886
666.930922	30731.556923
667.271545	30739.590001
667.612118	30804.842697
667.952639	30598.964494
668.293109	30640.173406
668.633528	30505.849341
668.973896	30477.293725
669.314213	30443.822984
669.654480	30264.683062
669.994695	30249.380639
670.334859	30167.159420
670.674973	29986.086215
671.015035	30177.934887
671.355047	30109.571799
671.695008	30053.423428
672.034918	29953.840475
672.374777	30058.940971
672.714585	29918.393601
673.054342	30041.070080
673.394049	29907.134184
673.733705	30115.628746
674.073310	29840.432157
674.412864	29894.687575
674.752368	29590.665669
675.091820	29826.677369
675.431223	29426.873540
675.770574	29225.222345
676.109875	29061.347036
676.449125	28855.733494
676.788324	28754.149203
677.127473	28287.504715
677.466571	28183.737604
677.805619	27903.865345
678.144616	27838.519389
678.483562	27786.222459
678.822458	27462.671123
679.161303	27403.145178
679.500098	27323.663826
679.838842	27254.168999
680.177535	27327.255648
680.516179	27569.427637
680.854771	27681.426952
681.193314	28454.838255
681.531805	29457.276738
681.870247	30188.077688
682.208638	30927.854412
682.546978	31202.345239
682.885268	31339.683914
683.223508	30912.335220
683.561697	30643.336730
683.899836	30475.950258
684.237925	30074.664329
684.575963	29924.299313
684.913951	29551.052282
685.251889	29719.923374
685.589776	29735.447608
685.927614	29747.576624
686.265401	29918.625494
686.603137	30020.464364
686.940824	30520.841733
687.278460	30854.987054
687.616046	31012.956651
687.953582	31679.374504
688.291068	31592.906113
688.628504	31926.743923
688.965889	31933.141148
689.303224	31685.444053
689.640510	31412.238721
689.977745	30790.966921
690.314930	30058.358717
690.652065	29615.384967
690.989150	28955.162692
691.326185	28124.937586
691.663170	27478.238206
692.000105	26748.722750
692.336990	26141.530893
692.673825	25703.754572
693.010610	25217.167280
693.347345	24708.489651
693.684030	24086.466719
694.020665	23884.079515
694.357251	23200.304969
694.693786	23197.890257
695.030272	22972.522953
695.366707	22474.184731
695.703093	22196.583512
696.039429	22259.343357
696.375716	22025.365763
696.711952	22031.488244
697.048139	21872.517978
697.384276	21721.147252
697.720363	21829.499292
698.056400	21721.323692
698.392388	21569.768964
698.728326	21568.034807
699.064214	21402.526164
699.400053	21415.696179
699.735842	21030.746109
700.071581	20823.491672
700.407270	20585.241700
700.742910	20409.754093
701.078501	20155.606843
701.414042	19946.267888
701.749533	19642.480396
702.084974	19327.352828
702.420366	19558.835050
702.755709	19154.118617
703.091002	18843.265947
703.426246	18903.149814
703.761440	18836.835955
704.096584	18599.818546
704.431679	18531.233648
704.766725	18467.752918
705.101721	18407.632117
705.436668	18523.019087
705.771565	18241.473166
706.106413	18560.742042
706.441212	18635.734246
706.775961	18734.621520
707.110661	18819.048244
707.445311	19177.741464
707.779913	19045.827070
708.114465	19335.706019
708.448967	19648.030706
708.783421	20272.034811
709.117825	20633.588886
709.452180	20849.307421
709.786485	21300.931791
710.120742	22059.403634
710.454949	22162.359119
710.789107	22674.179907
711.123216	23387.200707
711.457275	23609.321507
711.791286	24168.365304
712.125247	24320.623274
712.459159	24046.891141
712.793023	24816.569469
713.126837	23805.621518
713.460602	24059.400764
713.794318	23737.956630
714.127985	23480.799811
714.461602	22576.850350
714.795171	22567.231828
715.128691	21586.649267
715.462162	21075.098181
715.795584	20638.030142
716.128957	20373.356963
716.462281	19999.444499
716.795556	19711.113185
717.128782	19235.074506
717.461960	18630.430952
717.795088	18594.263194
718.128167	18244.649093
718.461198	17796.747614
718.794180	17661.385072
719.127113	17326.004668
719.459997	17141.614384
719.792833	16755.688851
720.125619	16799.556972
720.458357	16468.327959
720.791046	16326.348902
721.123686	16180.825914
721.456278	15961.054291
721.788821	15941.819769
722.121315	15671.603840
722.453761	15777.084943
722.786158	15658.083466
723.118506	15731.074332
723.450805	15618.162568
723.783056	15796.689991
724.115259	15681.532393
724.447412	15687.138156
724.779518	15904.232926
725.111574	15944.879749
725.443582	16206.714759
725.775542	16156.436811
726.107453	16682.662697
726.439315	16592.852020
726.771129	17012.018922
727.102895	17420.697702
727.434612	17700.882512
727.766281	17857.657356
728.097901	18193.766206
728.429473	18272.312424
728.760996	18287.745917
729.092471	18413.752078
729.423897	18315.822623
729.755276	18176.467487
730.086606	18293.046690
730.417887	18876.635865
730.749120	19434.636143
731.080305	19639.488471
731.411442	20039.879594
731.742530	20160.574900
732.073570	20338.499904
732.404562	20650.806947
732.735506	20505.215903
733.066401	20313.384876
733.397249	19823.515792
733.728048	19190.709832
734.058798	18334.512701
734.389501	17576.774346
734.720156	17053.764717
735.050762	16478.059906
735.381320	16089.606235
735.711831	15811.483257
736.042293	15433.424444
736.372707	15473.181504
736.703073	15254.158493
737.033391	15456.384380
737.363661	15442.823676
737.693883	15564.769187
738.024056	15751.566623
738.354182	15965.248531
738.684260	16318.983776
739.014290	16591.932010
739.344272	16829.645099
739.674207	17177.136875
740.004093	17349.879573
740.333931	17406.716062
740.663722	17497.227459
740.993464	17536.878654
741.323159	17382.077422
741.652806	17094.809791
741.982405	16930.271571
742.311956	16570.290336
742.641460	16476.605533
742.970915	16149.366593
743.300323	15800.092769
743.629683	15581.256281
743.958996	15277.337718
744.288260	14954.056084
744.617477	14650.414785
744.946647	14614.229383
745.275768	14293.468325
745.604842	14095.172018
745.933869	13909.927258
746.262847	13889.457653
746.591778	13802.260815
746.920662	13676.748687
747.249498	13685.532898
747.578286	13843.764635
747.907027	14010.624306
748.235720	14276.328402
748.564365	14353.291698
748.892963	14272.844965
749.221514	14379.326737
749.550017	14241.597373
749.878473	14211.781468
750.206881	13988.309639
750.535242	13909.123194
750.863555	13835.991175
751.191821	13730.807500
751.520039	13746.646806
751.848210	13674.293645
752.176334	13722.419020
752.504411	13646.756342
752.832440	13465.990648
753.160421	13581.213781
753.488356	13474.936175
753.816243	13383.456877
754.144082	13219.574007
754.471875	13174.037264
754.799620	13143.840752
755.127318	13113.372018
755.454969	13096.562291
755.782572	13062.267321
756.110129	13079.419847
756.437638	12980.404024
756.765100	12992.674193
757.092515	13014.399045
757.419882	13049.571175
757.747203	13060.807907
758.074477	13152.579592
758.401703	13128.510603
758.728882	13334.925689
759.056014	13370.417933
759.383099	13541.013099
759.710138	13661.330318
760.037129	13784.321869
760.364073	13839.996372
760.690970	13868.897307
761.017820	13887.461356
761.344623	14118.525163
761.671379	14482.602335
761.998088	15177.976576
762.324751	16935.055626
762.651366	20297.517844
762.977935	24752.254428
763.304456	27742.276200
763.630931	28848.033132
763.957359	27691.289970
764.283740	25461.043179
764.610074	23207.720507
764.936362	20570.511448
765.262602	18704.558599
765.588796	16759.794871
765.914943	15473.413397
766.241044	14367.384243
766.567097	13569.283890
766.893104	12848.807223
767.219064	12375.377342
767.544978	11884.184956
767.870845	11500.946358
768.196665	11275.712645
768.522438	11045.934332
768.848165	10841.747437
769.173846	10635.292022
769.499479	10501.865283
769.825066	10338.297485
770.150607	10103.069684
770.476101	10019.333598
770.801548	9901.110979
771.126949	9740.494776
771.452303	9630.625349
771.777611	9431.688815
772.102872	9420.694059
772.428087	9281.845558
772.753256	9123.598698
773.078378	9032.424389
773.403453	8853.297070
773.728482	8738.139472
774.053465	8666.590375
774.378401	8556.930156
774.703291	8436.509593
775.028135	8313.717168
775.352932	8277.279708
775.677683	8172.171650
776.002388	8067.229951
776.327046	8076.661949
776.651658	7980.925397
776.976224	7873.944550
777.300743	7868.280814
777.625216	7786.145294
777.949643	7745.745488
778.274024	7766.401615
778.598359	7668.799836
778.922647	7682.542021
779.246889	7635.503015
779.571086	7640.052656
779.895236	7649.189747
780.219339	7658.465470
780.543397	7661.157447
780.867409	7737.483036
781.191374	7751.099193
781.515294	7715.478400
781.839167	7806.798902
782.162995	7784.043133
782.486776	7728.857622
782.810511	7682.743667
783.134201	7600.255267
783.457844	7589.477280
783.781441	7537.225720
784.104993	7470.715257
784.428498	7450.124664
784.751958	7435.172602
785.075372	7401.036429
785.398739	7351.189499
785.722061	7392.703401
786.045337	7397.729432
786.368568	7558.207003
786.691752	7576.609735
787.014891	7911.738081
787.337983	8267.880477
787.661030	8849.390176
787.984031	9475.652718
788.306987	9885.256550
788.629897	10093.824208
788.952760	10055.468589
789.275579	9833.970372
789.598351	9437.866749
789.921078	9086.828522
790.243759	8677.708640
790.566395	8386.380359
790.888984	8133.800908
791.211529	7926.526306
791.534027	7703.382151
791.856480	7499.049062
792.178888	7431.275790
792.501249	7331.367682
792.823566	7164.520614
793.145836	7168.218300
793.468062	7146.992522
793.790241	7087.262410
794.112375	7159.071126
794.434464	7311.750032
794.756507	7346.246648
795.078505	7504.692634
795.400457	7813.211249
795.722364	8158.558014
796.044226	8447.257333
796.366042	8725.876865
796.687812	8679.846089
797.009538	8759.662678
797.331218	8656.787852
797.652852	8572.439266
797.974442	8425.736648
798.295986	8336.364552
798.617484	8148.821026
798.938938	8002.851895
799.260346	7899.409939
799.581709	7701.136317
799.903026	7627.278372
800.224299	7515.291660
800.545526	7347.249838
800.866708	7253.728872
801.187845	7185.451484
801.508936	7079.713282
801.829983	7040.576285
802.150984	6881.558128
802.471940	6837.536252
802.792851	6821.785167
803.113717	6791.255939
803.434538	6758.785867
803.755314	6698.092895
804.076045	6702.445932
804.396731	6651.111862
804.717372	6670.994173
805.037967	6677.446850
805.358518	6715.938580
805.679024	6797.007895
805.999485	6806.371839
806.319901	6846.610329
806.640272	6866.147320
806.960598	6947.559434
807.280879	6949.016328
807.601115	7027.975921
807.921306	6976.236038
808.241453	6988.170970
808.561554	7014.238776
808.881611	6975.658826
809.201623	6990.116855
809.521590	6935.654750
809.841513	6919.346617
810.161390	6960.406815
810.481223	6832.096847
810.801011	6813.379043
811.120755	6792.188552
811.440453	6711.928342
811.760107	6679.838877
812.079716	6652.266286
812.399281	6586.280103
812.718801	6577.364822
813.038276	6526.224837
813.357707	6471.545962
813.677093	6517.143198
813.996434	6417.832468
814.315731	6462.900383
814.634983	6450.612571
814.954191	6465.262164
815.273354	6569.616569
815.592473	6634.032433
815.911547	6754.947028
816.230577	6839.913156
816.549562	6985.403376
816.868502	7093.087464
817.187399	7189.892741
817.506250	7346.622214
817.825058	7378.759570
818.143821	7644.844273
818.462539	7913.505005
818.781213	8279.868340
819.099843	8827.645158
819.418429	9822.398403
819.736970	10792.427308
820.055466	11973.146198
820.373919	13514.105941
820.692327	15862.161976
821.010691	20004.793164
821.329011	28979.148502
821.647286	41974.368477
821.965517	55450.693490
822.283704	60905.889905
822.601847	62941.217961
822.919945	60315.545583
823.237999	56222.925163
823.556010	50151.871148
823.873976	43427.821351
824.191897	36873.940744
824.509775	31976.724443
824.827609	27422.883816
825.145398	24774.012048
825.463144	23357.636860
825.780845	23644.264265
826.098502	25369.319385
826.416116	29120.381468
826.733685	32750.992742
827.051210	33908.471912
827.368692	32152.655671
827.686129	28222.710764
828.003522	24115.024855
828.320872	20403.356869
828.638177	17543.777473
828.955439	15377.555857
829.272656	13560.406418
829.589830	12066.248747
829.906960	10789.200970
830.224046	9840.533954
830.541088	9075.674969
830.858086	8604.750541
831.175041	8222.900781
831.491952	8107.544058
831.808819	8149.211715
832.125642	8541.100933
832.442421	9418.412937
832.759157	11201.204391
833.075849	14110.630716
833.392497	17327.222107
833.709101	19526.601913
834.025662	19401.745135
834.342179	17735.595898
834.658653	15536.236257
834.975083	13612.544552
835.291469	11992.111018
835.607811	10655.975877
835.924110	9744.852854
836.240366	8873.421356
836.556578	8064.900937
836.872746	7416.144767
837.188871	6915.530463
837.504952	6491.352655
837.820990	6177.084604
838.136984	5948.790911
838.452935	5855.625347
838.768842	5876.815837
839.084706	6296.897707
839.400526	7500.563929
839.716303	9075.420391
840.032037	10186.253764
840.347727	10123.015010
840.663373	9167.592847
840.978977	8123.249773
841.294537	7307.102088
841.610054	6699.290169
841.925527	6264.178098
842.240957	5897.759311
842.556344	5567.238579
842.871687	5284.175270
843.186987	4996.297659
843.502244	4771.792393
843.817458	4601.900467
844.132629	4462.976350
844.447756	4371.504613
844.762840	4289.543013
845.077881	4216.665573
845.392879	4152.093433
845.707833	4100.386318
846.022745	4056.021644
846.337613	4027.171120
846.652438	3982.231754
846.967221	3969.132316
847.281960	3936.130402
847.596656	3918.740942
847.911309	3900.776791
848.225919	3873.819220
848.540485	3853.526056
848.855009	3841.732276
849.169490	3822.023885
849.483928	3810.169612
849.798323	3799.646203
850.112675	3781.084675
850.426984	3784.593318
850.741251	3773.424642
851.055474	3770.977161
851.369654	3772.532357
851.683792	3767.781070
851.997887	3773.515382
852.311938	3773.328860
852.625947	3780.313378
852.939914	3765.925925
853.253837	3779.461423
853.567718	3776.973614
853.881555	3766.427520
854.195350	3780.545271
854.509103	3777.429838
854.822812	3772.313067
855.136479	3764.902571
855.450103	3776.532513
855.763685	3761.661109
856.077224	3765.779732
856.390720	3785.162968
856.704173	3805.534271
857.017584	3814.142041
857.330953	3824.771314
857.644278	3845.334181
857.957561	3853.261395
858.270802	3853.026981
858.584000	3858.557127
858.897155	3849.200746
859.210268	3833.686595
859.523339	3810.905620
859.836367	3810.777071
860.149352	3804.122748
860.462295	3796.656799
860.775195	3785.178092
861.088054	3783.053245
861.400869	3780.212555
861.713642	3777.177781
862.026373	3790.196560
862.339062	3796.225780
862.651708	3815.130107
862.964312	3846.476002
863.276873	3858.967981
863.589392	3916.295983
863.901869	3959.944813
864.214303	4008.775950
864.526696	4041.014129
864.839045	4086.187908
865.151353	4112.038945
865.463619	4126.668374
865.775842	4131.651554
866.088023	4154.997138
866.400162	4140.539109
866.712258	4150.215603
867.024313	4151.911952
867.336325	4148.730984
867.648296	4155.604597
867.960224	4157.910925
868.272110	4168.283099
868.583954	4167.174045
868.895755	4186.406047
869.207515	4176.885828
869.519233	4223.400554
869.830909	4234.478490
870.142542	4260.269033
870.454134	4274.923667
870.765684	4301.770332
871.077191	4339.959593
871.388657	4363.380794
871.700081	4404.730858
872.011463	4446.171663
872.322803	4482.044514
872.634101	4512.183053
872.945357	4549.371644
873.256571	4603.352320
873.567744	4642.058299
873.878874	4653.100947
874.189963	4692.547975
874.501010	4704.122465
874.812015	4698.950241
875.122979	4749.828086
875.433900	4745.999330
875.744780	4757.067183
876.055618	4786.588180
876.366415	4786.441986
876.677169	4808.035769
876.987882	4851.382130
877.298554	4906.794493
877.609183	4990.764993
877.919771	5098.975881
878.230317	5242.537860
878.540822	5461.449966
878.851285	5780.111383
879.161707	6248.217805
879.472087	7006.125039
879.782425	8243.821570
880.092722	10435.806003
880.402977	13741.272936
880.713191	17521.046911
881.023363	21283.844800
881.333494	23534.412482
881.643583	24774.816112
881.953631	24787.915550
882.263637	23961.985507
882.573602	22494.760201
882.883526	20933.240112
883.193408	19247.329551
883.503248	17548.853915
883.813048	15981.213865
884.122806	14545.962077
884.432522	13058.889748
884.742197	11778.093873
885.051831	10667.890644
885.361424	9649.159151
885.670975	8821.394128
885.980485	8118.319524
886.289954	7533.283538
886.599382	7056.493728
886.908768	6666.762124
887.218113	6300.655888
887.527417	6010.814747
887.836680	5736.308797
888.145901	5514.258573
888.455082	5348.651628
888.764221	5195.251837
889.073319	5057.882915
889.382376	4987.578984
889.691392	4923.788223
890.000366	4901.516405
890.309300	4880.315833
890.618193	4879.025297
890.927044	4871.395511
891.235855	4885.145258
891.544625	4924.383079
891.853353	4982.366431
892.162041	5105.357982
892.470687	5288.757679
892.779293	5541.803437
893.087858	5914.027114
893.396381	6490.977089
893.704864	7301.478681
894.013306	8452.311090
894.321707	9626.282395
894.630068	10448.403846
894.938387	10654.531586
895.246665	10427.336864
895.554903	9831.323766
895.863100	9138.684351
896.171256	8574.412877
896.479371	8064.921102
896.787446	7568.763179
897.095480	7132.811756
897.403473	6809.446943
897.711425	6489.331153
898.019336	6222.104628
898.327207	5949.622701
898.635038	5714.399942
898.942827	5470.206450
899.250576	5273.465339
899.558284	5075.584927
899.865952	4954.786278
900.173579	4806.841015
900.481165	4696.535528
900.788711	4607.728041
901.096216	4529.441443
901.403681	4469.371053
901.711105	4437.100107
902.018489	4425.462603
902.325832	4490.642202
902.633135	4619.055514
902.940397	4958.925065
903.247619	5749.050313
903.554800	7192.501538
903.861941	9121.461249
904.169041	10658.748511
904.476101	11309.929477
904.783121	10965.848042
905.090100	10237.091280
905.397039	9391.558710
905.703938	8634.160633
906.010796	7933.311699
906.317614	7370.797067
906.624391	6833.997362
906.931129	6400.662298
907.237826	5995.802191
907.544483	5618.744048
907.851099	5237.773970
908.157675	4878.979927
908.464211	4552.257705
908.770707	4311.109070
909.077163	4113.594141
909.383578	3965.704332
909.689954	3845.918954
909.996289	3772.542440
910.302584	3710.412739
910.608839	3675.086853
910.915054	3641.666524
911.221229	3626.469966
911.527363	3638.992192
911.833458	3654.740757
912.139513	3682.023481
912.445527	3710.911813
912.751502	3795.119247
913.057436	3895.239083
913.363331	4034.241339
913.669186	4238.624839
913.975000	4499.345754
914.280775	4916.781019
914.586510	5507.011914
914.892205	6305.661753
915.197859	7351.635642
915.503475	8565.888286
915.809050	9637.776226
916.114585	10285.062900
916.420081	10546.640811
916.725536	10519.015288
917.030952	10081.624616
917.336328	9672.056072
917.641665	9262.250593
917.946961	8783.663612
918.252218	8361.761885
918.557435	7847.717947
918.862612	7413.611587
919.167750	7036.288783
919.472848	6607.936900
919.777906	6236.340847
920.082925	5873.539087
920.387904	5497.378269
920.692843	5231.381787
920.997743	4981.360720
921.302603	4751.900000
921.607423	4581.652673
921.912204	4421.054114
922.216946	4295.496616
922.521647	4174.002288
922.826310	4067.626380
923.130932	3970.974858
923.435516	3869.892162
923.740059	3802.665854
924.044564	3723.335737
924.349028	3662.327693
924.653454	3599.020883
924.957840	3529.979761
925.262186	3482.877740
925.566493	3420.793409
925.870761	3364.443392
926.174989	3329.057012
926.479178	3290.013276
926.783328	3244.781523
927.087438	3219.837894
927.391509	3182.334230
927.695541	3153.987822
927.999533	3124.161835
928.303486	3103.460337
928.607400	3089.634972
928.911275	3077.006882
929.215110	3058.813358
929.518906	3049.356153
929.822663	3047.884136
930.126381	3044.178888
930.430060	3048.000082
930.733699	3053.026113
931.037299	3064.915674
931.340861	3059.025086
931.644383	3069.177970
931.947866	3065.712177
932.251309	3058.747823
932.554714	3060.066084
932.858080	3058.362174
933.161407	3047.894218
933.464694	3039.427600
933.767943	3030.416538
934.071153	3027.490148
934.374323	3016.699558
934.677455	3009.866274
934.980548	3005.208248
935.283602	3000.935870
935.586617	2996.260200
935.889593	3006.597086
936.192530	3013.364835
936.495428	3022.343130
936.798287	3042.815256
937.101108	3076.606110
937.403890	3130.576703
937.706632	3189.374201
938.009336	3268.976541
938.312002	3339.351048
938.614628	3406.116090
938.917216	3458.060139
939.219765	3490.391579
939.522275	3523.403575
939.824747	3528.938762
940.127179	3530.768701
940.429573	3520.880478
940.731929	3518.334695
941.034246	3505.751975
941.336524	3493.476766
941.638763	3477.317347
941.940964	3465.868887
942.243126	3424.027310
942.545250	3402.136099
942.847335	3364.503886
943.149381	3326.612053
943.451389	3295.298926
943.753359	3261.223246
944.055290	3236.511510
944.357182	3211.731718
944.659036	3194.574151
944.960851	3183.034950
945.262628	3170.696726
945.564367	3174.384330
945.866067	3165.655572
946.167729	3162.950993
946.469352	3160.984943
946.770937	3155.437153
947.072484	3140.142293
947.373992	3145.138076
947.675462	3137.384781
947.976893	3122.490692
948.278286	3108.962756
948.579641	3103.760285
948.880958	3094.519850
949.182236	3097.831888
949.483476	3095.160077
949.784678	3094.834922
950.085841	3095.046651
950.386967	3104.415635
950.688054	3121.694190
950.989103	3141.722694
951.290114	3161.841939
951.591087	3190.158100
951.892021	3217.304714
952.192917	3245.464599
952.493776	3269.795728
952.794596	3280.815691
953.095378	3287.225518
953.396122	3276.502983
953.696828	3276.621451
953.997496	3262.985129
954.298126	3242.177767
954.598718	3224.596743
954.899272	3194.619522
955.199788	3165.905109
955.500266	3134.743217
955.800706	3097.708380
956.101108	3061.870817
956.401472	3032.004501
956.701798	2994.931856
957.002087	2957.675208
957.302337	2927.972730
957.602550	2897.887124
957.902724	2869.659183
958.202861	2844.949967
958.502960	2823.207471
958.803022	2801.147382
959.103045	2784.776234
959.403031	2766.925509
959.702979	2751.688621
960.002889	2737.117166
960.302762	2723.362378
960.602596	2714.341233
960.902393	2705.945191
961.202153	2694.894982
961.501875	2690.920032
961.801559	2681.757735
962.101205	2674.327074
962.400814	2669.724501
962.700385	2663.110507
962.999918	2654.696821
963.299414	2649.421254
963.598873	2646.157107
963.898293	2639.873308
964.197677	2639.994296
964.497022	2639.157464
964.796331	2639.044038
965.095601	2633.135806
965.394835	2630.748820
965.694030	2632.835857
965.993189	2629.296968
966.292309	2627.797224
966.591393	2625.120372
966.890439	2625.536267
967.189447	2624.124744
967.488419	2625.369909
967.787353	2628.679426
968.086249	2627.852677
968.385108	2627.328397
968.683930	2631.008439
968.982714	2635.800056
969.281462	2639.820376
969.580172	2646.630975
969.878844	2651.089876
970.177480	2660.075732
970.476078	2666.818276
970.774639	2674.508556
971.073162	2681.876202
971.371649	2687.270237
971.670098	2693.163346
971.968510	2697.753316
972.266885	2704.626929
972.565223	2704.763041
972.863524	2710.031046
973.161788	2714.820142
973.460014	2714.857951
973.758204	2719.074876
974.056356	2719.004300
974.354471	2723.198540
974.652550	2721.479507
974.950591	2720.935062
975.248595	2721.376163
975.546563	2716.760987
975.844493	2715.351984
976.142386	2708.914431
976.440243	2705.678010
976.738062	2701.201465
977.035845	2694.156453
977.333590	2687.628159
977.631299	2680.167251
977.928971	2674.932013
978.226606	2667.766012
978.524204	2667.105621
978.821765	2662.359375
979.119290	2665.106804
979.416777	2665.925991
979.714228	2667.844150
980.011642	2672.539985
980.309020	2677.296314
980.606360	2691.320804
980.903664	2716.619834
981.200931	2752.565782
981.498162	2801.384316
981.795356	2877.881305
982.092513	2964.616877
982.389633	3072.127045
982.686717	3167.926612
982.983764	3244.489136
983.280775	3295.024183
983.577749	3302.275883
983.874686	3292.838842
984.171587	3257.707041
984.468451	3216.712378
984.765279	3173.078671
985.062070	3129.134933
985.358824	3081.309507
985.655543	3024.125178
985.952224	2973.585090
986.248869	2906.900707
986.545478	2847.785616
986.842050	2792.650517
987.138586	2747.252406
987.435086	2705.526775
987.731549	2672.199707
988.027975	2648.501243
988.324366	2630.469036
988.620719	2615.718620
988.917037	2604.010540
989.213318	2597.572986
989.509563	2590.626276
989.805772	2586.875658
990.101944	2579.616396
990.398080	2576.125397
990.694180	2576.168247
990.990244	2576.276632
991.286271	2577.146231
991.582262	2578.840059
991.878217	2579.142528
992.174136	2583.926583
992.470019	2588.355237
992.765865	2590.916143
993.061676	2592.957810
993.357450	2604.519696
993.653188	2611.332816
993.948890	2630.416104
994.244556	2648.176089
994.540186	2670.279028
994.835780	2698.070909
995.131337	2738.269070
995.426859	2780.123249
995.722345	2830.479335
996.017795	2881.631923
996.313208	2919.372522
996.608586	2944.603497
996.903928	2958.585137
997.199234	2958.864921
997.494504	2955.187399
997.789738	2940.502518
998.084936	2917.361101
998.380099	2885.911863
998.675225	2854.099662
998.970316	2824.732420
999.265371	2786.984260
999.560390	2752.749784
999.855373	2721.963457
1000.150320	2693.145702
1000.445232	2666.052020
1000.740108	2647.200625
1001.034948	2627.761936
1001.329752	2610.861468
1001.624521	2601.999119
1001.919254	2588.579568
1002.213951	2581.683269
1002.508613	2572.130283
1002.803239	2566.953018
1003.097829	2556.976574
1003.392384	2553.112530
1003.686903	2549.387117
1003.981386	2545.795295
1004.275834	2541.653987
1004.570246	2539.980324
1004.864623	2540.166847
1005.158964	2535.027391
1005.453270	2533.484797
1005.747540	2530.916330
1006.041775	2533.913296
1006.335974	2528.662934
1006.630138	2525.020700
1006.924266	2526.878365
1007.218359	2524.098169
1007.512416	2521.232273
1007.806438	2519.346882
1008.100425	2521.648168
1008.394376	2518.900739
1008.688292	2522.285874
1008.982172	2521.171779
1009.276017	2523.974661
1009.569827	2518.898219
1009.863602	2519.157838
1010.157341	2521.007942
1010.451045	2518.696573
1010.744714	2518.999042
1011.038347	2518.237828
1011.331945	2515.286232
1011.625508	2512.937054
1011.919036	2511.596107
1012.212528	2514.885460
1012.505986	2511.548217
1012.799408	2510.426560
1013.092795	2508.410098
1013.386147	2512.019564
1013.679464	2510.582836
1013.972745	2511.908659
1014.265992	2509.536796
1014.559204	2508.699965
1014.852380	2513.158865
1015.145521	2509.592249
1015.438628	2509.443535
1015.731699	2509.433452
1016.024736	2511.286077
1016.317737	2511.838083
1016.610703	2514.646006
1016.903635	2514.421674
1017.196531	2513.325223
1017.489393	2516.939731
1017.782219	2517.564834
1018.075011	2520.014834
1018.367768	2522.807634
1018.660490	2521.789321
1018.953177	2521.789321
1019.245829	2521.789321
