Dividing Wavelength (nm)	Counts (n)	Blue Motor Position (mm): 0.400000	Red Motor Position (mm): 0.000000	
326.493990	2060.556511
326.888308	2060.556511
327.282561	2060.556511
327.676750	2036.782430
328.070874	2039.804601
328.464933	2045.279294
328.858929	2051.583257
329.252859	2062.567932
329.646726	2077.298183
330.040528	2094.367530
330.434265	2108.308841
330.827938	2135.117697
331.221547	2153.404483
331.615091	2174.526917
332.008571	2193.406038
332.401986	2214.566282
332.795338	2232.406925
333.188625	2253.284864
333.581847	2271.546444
333.975006	2289.253497
334.368100	2307.575570
334.761129	2322.852787
335.154095	2338.097236
335.546996	2353.934021
335.939833	2367.482122
336.332606	2378.784389
336.725315	2391.213354
337.117960	2404.181722
337.510540	2412.348391
337.903056	2424.026224
338.295508	2427.292892
338.687896	2435.840168
339.080220	2442.774275
339.472480	2441.261929
339.864676	2448.564040
340.256807	2451.676953
340.648875	2453.522015
341.040879	2453.038064
341.432818	2457.948148
341.824694	2455.561162
342.216506	2457.194496
342.608253	2454.575616
342.999937	2457.554938
343.391557	2454.757098
343.783113	2452.203753
344.174605	2452.561675
344.566033	2447.933896
344.957397	2449.355502
345.348697	2446.250151
345.739934	2445.156220
346.131106	2441.889553
346.522215	2438.748914
346.913260	2440.415015
347.304241	2438.118770
347.695159	2436.283790
348.086012	2438.688420
348.476802	2432.906217
348.867528	2429.190886
349.258191	2427.013108
349.648789	2427.267686
350.039324	2424.245514
350.429796	2428.548139
350.820203	2428.180135
351.210548	2425.500762
351.600828	2427.630649
351.991045	2426.637542
352.381198	2427.015628
352.771288	2425.316759
353.161314	2424.616039
353.551276	2425.531008
353.941175	2423.317942
354.331010	2422.460946
354.720782	2427.446647
355.110490	2425.631832
355.500135	2424.651327
355.889717	2426.146029
356.279235	2426.624939
356.668689	2426.057809
357.058080	2427.239960
357.447408	2427.885227
357.836672	2427.940680
358.225873	2431.305650
358.615010	2428.696853
359.004084	2428.195258
359.393095	2429.629467
359.782043	2430.960331
360.170927	2430.985537
360.559748	2431.217430
360.948505	2433.957297
361.337199	2430.395722
361.725830	2432.835640
362.114398	2433.241453
362.502903	2433.513676
362.891344	2433.745569
363.279722	2433.213727
363.668037	2434.761361
364.056289	2435.273038
364.444478	2433.591813
364.832603	2437.654983
365.220665	2435.935950
365.608665	2433.738007
365.996601	2437.488625
366.384474	2437.445776
366.772284	2437.254212
367.160031	2438.602720
367.547715	2438.685899
367.935336	2438.665735
368.322893	2434.448810
368.710388	2434.320260
369.097820	2435.260435
369.485189	2435.792277
369.872495	2437.760848
370.259738	2437.730601
370.646918	2440.301589
371.034035	2438.459048
371.421090	2437.652463
371.808081	2440.949378
372.195010	2440.914089
372.581875	2441.808894
372.968678	2441.123297
373.355418	2440.911569
373.742096	2442.038267
374.128710	2444.395006
374.515262	2441.466096
374.901751	2444.589091
375.288177	2442.794440
375.674540	2443.200253
376.060841	2440.367124
376.447079	2446.643361
376.833254	2441.945005
377.219367	2441.193873
377.605417	2445.335181
377.991404	2445.521704
378.377329	2444.710078
378.763191	2440.528441
379.148991	2444.437856
379.534727	2442.345777
379.920402	2443.676642
380.306013	2445.909873
380.691563	2449.410954
381.077049	2446.892898
381.462474	2449.015224
381.847835	2443.671601
382.233134	2445.829214
382.618371	2446.446756
383.003545	2445.761159
383.388657	2447.016406
383.773706	2448.364915
384.158693	2447.873402
384.543618	2449.312652
384.928480	2448.793413
385.313280	2446.426591
385.698017	2449.375666
386.082692	2448.717796
386.467305	2448.092693
386.851856	2450.451952
387.236344	2450.537652
387.620770	2448.024637
388.005133	2449.022785
388.389435	2450.940944
388.773674	2447.822991
389.157851	2450.033537
389.541965	2447.651592
389.926018	2451.775255
390.310008	2450.809874
390.693936	2452.728033
391.077802	2451.127467
391.461606	2449.720985
391.845348	2452.755760
392.229027	2451.545883
392.612645	2449.481530
392.996200	2450.688887
393.379694	2453.332972
393.763125	2453.413630
394.146494	2450.341047
394.529801	2450.913218
394.913047	2453.884978
395.296230	2451.308949
395.679351	2453.237190
396.062410	2451.656788
396.445408	2452.932200
396.828343	2451.997066
397.211217	2453.403548
397.594028	2453.436316
397.976778	2452.130657
398.359466	2452.748198
398.742092	2455.767849
399.124656	2454.028651
399.507158	2455.604012
399.889598	2456.372788
400.271977	2456.793724
400.654294	2455.571244
401.036549	2456.874382
401.418742	2456.740792
401.800874	2456.501337
402.182944	2457.451595
402.564952	2456.670216
402.946898	2456.443364
403.328783	2458.784980
403.710606	2458.656430
404.092367	2457.612912
404.474067	2458.847994
404.855705	2459.241204
405.237282	2456.912191
405.618797	2459.697429
406.000250	2460.345217
406.381642	2457.076029
406.762972	2457.370936
407.144240	2455.059567
407.525447	2456.098045
407.906593	2452.871706
408.287677	2461.852522
408.668700	2459.611729
409.049661	2460.221709
409.430560	2460.418314
409.811399	2459.531071
410.192176	2459.566359
410.572891	2460.004939
410.953545	2461.182048
411.334138	2461.597944
411.714669	2463.241360
412.095139	2460.052830
412.475547	2458.953858
412.855894	2459.899075
413.236180	2459.604167
413.616405	2460.415793
413.996568	2462.994343
414.376670	2457.360854
414.756711	2463.387553
415.136691	2459.031996
415.516609	2466.145064
415.896466	2464.262193
416.276262	2460.438478
416.655997	2463.301854
417.035670	2461.600464
417.415283	2464.539457
417.794834	2461.512244
418.174324	2460.224229
418.553753	2463.188428
418.933121	2464.252111
419.312428	2461.300516
419.691674	2464.463840
420.070859	2464.645321
420.449983	2463.289251
420.829045	2465.217492
421.208047	2466.192955
421.586988	2464.569704
421.965867	2466.984417
422.344686	2467.740590
422.723444	2463.425362
423.102141	2464.300002
423.480777	2465.290589
423.859352	2464.627677
424.237866	2465.993830
424.616319	2466.621453
424.994712	2466.581124
425.373044	2464.983078
425.751314	2465.131792
426.129524	2460.143571
426.507673	2463.233798
426.885762	2461.560135
427.263789	2464.441154
427.641756	2464.083233
428.019662	2465.058696
428.397508	2466.329067
428.775292	2465.262862
429.153016	2465.565332
429.530679	2467.720425
429.908282	2464.181535
430.285824	2467.924592
430.663305	2466.596248
431.040726	2466.853347
431.418086	2467.848974
431.795385	2467.024746
432.172624	2467.889304
432.549802	2468.254787
432.926920	2466.041721
433.303977	2469.290744
433.680974	2464.864611
434.057910	2468.222020
434.434786	2470.866105
434.811601	2467.599437
435.188355	2466.734879
435.565050	2468.489201
435.941683	2467.123048
436.318257	2468.012812
436.694770	2466.986937
437.071222	2468.673203
437.447614	2468.237143
437.823946	2469.333594
438.200218	2469.053810
438.576429	2471.148410
438.952580	2467.125569
439.328670	2468.874849
439.704700	2469.263018
440.080670	2470.437607
440.456580	2469.895683
440.832429	2470.223358
441.208218	2468.819397
441.583947	2470.639253
441.959616	2469.270580
442.335224	2469.396609
442.710773	2468.837041
443.086261	2469.683954
443.461689	2473.028760
443.837057	2471.034984
444.212365	2471.806280
444.587612	2470.989613
444.962800	2467.060034
445.337927	2469.855354
445.712995	2470.152782
446.088002	2472.063379
446.462949	2470.823255
446.837837	2471.897021
447.212664	2471.561784
447.587431	2471.332412
447.962139	2469.535240
448.336786	2472.958184
448.711374	2472.562453
449.085901	2473.268215
449.460369	2471.491208
449.834776	2471.488688
450.209124	2472.443986
450.583412	2472.567494
450.957640	2472.708647
451.331808	2470.891311
451.705917	2471.544140
452.079965	2473.084213
452.453954	2473.371558
452.827883	2472.280149
453.201752	2474.226034
453.575562	2470.992134
453.949311	2475.337608
454.323001	2470.798049
454.696632	2474.369707
455.070202	2473.094295
455.443713	2475.294759
455.817164	2472.706126
456.190556	2473.550519
456.563888	2475.075468
456.937160	2473.174953
457.310373	2470.793008
457.683526	2472.771661
458.056619	2473.321147
458.429653	2472.179326
458.802628	2475.612351
459.175542	2475.317444
459.548398	2476.648308
459.921194	2473.306023
460.293930	2473.767289
460.666607	2476.013123
461.039224	2475.352732
461.411782	2471.493729
461.784280	2472.978348
462.156719	2472.063379
462.529099	2475.977835
462.901419	2474.243678
463.273680	2473.396764
463.645882	2471.743266
464.018024	2474.455407
464.390106	2469.910806
464.762130	2474.231075
465.134094	2474.601600
465.505999	2477.338947
465.877845	2475.090592
466.249631	2477.989255
466.621358	2473.890797
466.993026	2475.783751
467.364634	2478.034626
467.736184	2476.025726
468.107674	2475.314923
468.479105	2475.037660
468.850477	2475.483802
469.221790	2477.903556
469.593043	2473.593369
469.964238	2475.529172
470.335373	2475.834162
470.706449	2476.590335
471.077467	2476.502115
471.448425	2474.251240
471.819324	2474.495736
472.190164	2476.280304
472.560945	2474.296610
472.931667	2475.813998
473.302330	2475.251909
473.672934	2476.867599
474.043479	2476.333236
474.413965	2476.209728
474.784393	2477.717033
475.154761	2479.236941
475.525070	2478.185860
475.895321	2474.120170
476.265513	2475.312403
476.635645	2478.137969
477.005719	2477.321303
477.375734	2480.119143
477.745691	2476.862558
478.115588	2478.226190
478.485427	2477.502784
478.855207	2474.689820
479.224928	2477.147383
479.594591	2475.584625
479.964194	2477.472537
480.333739	2477.727115
480.703226	2476.285345
481.072653	2479.262147
481.442022	2478.332054
481.811333	2474.904069
482.180584	2473.416929
482.549777	2475.509008
482.918912	2470.898872
483.287988	2476.930613
483.657005	2475.282156
484.025964	2476.681076
484.394864	2478.213587
484.763706	2478.319451
485.132489	2476.854996
485.501213	2479.927579
485.869879	2477.878350
486.238487	2477.376755
486.607036	2480.257775
486.975527	2476.991107
487.343959	2476.854996
487.712333	2478.440439
488.080648	2478.659729
488.448905	2479.718371
488.817104	2479.960347
489.185244	2480.434215
489.553326	2477.127218
489.921350	2479.073103
490.289315	2480.093937
490.657222	2480.076293
491.025070	2478.632003
491.392861	2477.525469
491.760593	2479.108392
492.128267	2478.442959
492.495883	2479.438587
492.863440	2478.516056
493.230939	2479.065542
493.598380	2480.333392
493.965763	2481.061839
494.333088	2481.384473
494.700354	2477.845583
495.067563	2481.104688
495.434713	2476.469348
495.801805	2478.601756
496.168839	2479.899853
496.535815	2480.555203
496.902733	2480.320789
497.269593	2479.274750
497.636395	2481.714668
498.003139	2478.947075
498.369825	2479.539410
498.736453	2477.686786
499.103023	2479.690645
499.469535	2478.717702
499.835989	2477.439770
500.202385	2477.558237
500.568723	2475.990438
500.935003	2477.477578
501.301226	2477.215438
501.667390	2480.633341
502.033497	2480.575367
502.399546	2479.793988
502.765537	2476.721405
503.131470	2478.647126
503.497345	2481.160141
503.863163	2480.635861
504.228923	2478.417753
504.594625	2479.161324
504.960269	2481.013948
505.325856	2481.417240
505.691385	2478.745428
506.056856	2480.043526
506.422270	2478.526138
506.787625	2480.933289
507.152924	2479.327682
507.518164	2483.090903
507.883347	2474.964563
508.248472	2479.632672
508.613540	2483.111068
508.978550	2480.713999
509.343503	2480.741725
509.708398	2480.918166
510.073236	2480.300624
510.438016	2482.589308
510.802738	2481.881026
511.167403	2482.443115
511.532010	2481.069400
511.896561	2482.115440
512.261053	2481.465131
512.625488	2482.054946
512.989866	2480.716520
513.354186	2481.961685
513.718449	2479.388176
514.082655	2479.267188
514.446803	2482.801037
514.810894	2481.961685
515.174927	2482.032261
515.538904	2481.555872
515.902822	2479.693165
516.266684	2478.969760
516.630488	2479.637713
516.994235	2482.725419
517.357925	2482.904380
517.721558	2482.183495
518.085133	2481.437405
518.448651	2480.396406
518.812112	2477.948926
519.175516	2480.267857
519.538863	2476.232413
519.902152	2482.059987
520.265385	2480.832466
520.628560	2483.244658
520.991678	2479.100830
521.354739	2480.129225
521.717743	2480.761890
522.080690	2481.455049
522.443580	2479.509163
522.806413	2480.522435
523.169189	2480.194760
523.531908	2482.092755
523.894569	2481.593680
524.257174	2479.932620
524.619722	2480.164513
524.982213	2479.700727
525.344647	2481.676859
525.707025	2481.921355
526.069345	2482.811119
526.431608	2484.530153
526.793815	2482.778352
527.155964	2482.793475
527.518057	2477.172588
527.880093	2478.440439
528.242072	2483.342961
528.603995	2480.892960
528.965860	2481.820532
529.327669	2481.475213
529.689421	2480.038484
530.051117	2483.221973
530.412755	2479.920017
530.774337	2480.456900
531.135862	2480.777013
531.497331	2484.651140
531.858743	2480.114102
532.220098	2481.497898
532.581396	2480.109061
532.942638	2482.276757
533.303824	2481.326499
533.664953	2480.023361
534.026025	2480.419092
534.387040	2480.898001
534.747999	2482.793475
535.108902	2483.174082
535.469748	2483.824391
535.830537	2482.523773
536.191270	2482.022178
536.551947	2481.230717
536.912567	2476.292907
537.273131	2479.680563
537.633638	2475.113277
537.994089	2483.650471
538.354483	2482.135604
538.714821	2484.189875
539.075103	2482.546458
539.435328	2480.250213
539.795497	2482.667446
540.155609	2480.948413
540.515665	2482.425471
540.875665	2481.513022
541.235609	2483.479072
541.595496	2481.936479
541.955328	2485.538383
542.315102	2482.813640
542.674821	2483.718527
543.034483	2481.586119
543.394090	2482.816160
543.753640	2481.777682
544.113134	2483.078300
544.472571	2483.652992
544.831953	2482.622076
545.191278	2484.192395
545.550548	2482.765749
545.909761	2480.492188
546.268918	2479.814153
546.628019	2482.528814
546.987064	2484.194916
547.346053	2482.027220
547.704986	2481.402117
548.063863	2481.482775
548.422684	2481.853300
548.781449	2483.620224
549.140158	2485.677015
549.498811	2482.450677
549.857408	2482.417909
550.215949	2482.672487
550.574434	2481.702065
550.932864	2484.683908
551.291237	2482.226345
551.649555	2483.161479
552.007817	2482.410347
552.366022	2483.307673
552.724173	2483.632827
553.082267	2481.064359
553.440305	2483.559730
553.798288	2486.622231
554.156215	2481.122333
554.514086	2480.610655
554.871902	2479.035295
555.229661	2481.397075
555.587365	2474.830972
555.945014	2483.937817
556.302606	2484.958651
556.660143	2485.762715
557.017625	2484.578043
557.375050	2482.201139
557.732421	2482.503609
558.089735	2481.790285
558.446994	2483.506798
558.804197	2483.894967
559.161345	2482.155769
559.518437	2485.356902
559.875474	2482.838845
560.232455	2483.819350
560.589381	2483.542086
560.946251	2483.796665
561.303065	2483.882364
561.659825	2483.685759
562.016528	2484.010914
562.373177	2482.778352
562.729770	2482.702734
563.086307	2484.283136
563.442789	2481.762559
563.799216	2483.259782
564.155587	2481.177785
564.511904	2482.831284
564.868164	2481.563433
565.224370	2482.440594
565.580520	2482.896819
565.936615	2483.423619
566.292654	2479.925058
566.648638	2483.655512
567.004567	2482.922024
567.360441	2481.543269
567.716260	2484.530153
568.072023	2484.028558
568.427732	2482.032261
568.783385	2484.814978
569.138982	2484.167189
569.494525	2480.829946
569.850013	2484.474700
570.205445	2480.605614
570.560823	2482.526294
570.916145	2485.717344
571.271412	2482.352374
571.626625	2482.352374
571.981782	2481.523104
572.336884	2480.852631
572.691931	2478.198463
573.046923	2479.539410
573.401860	2479.027733
573.756743	2482.859010
574.111570	2484.285657
574.466342	2484.530152
574.821059	2483.007724
575.175722	2483.337920
575.530330	2486.143322
575.884882	2485.185502
576.239380	2484.008393
576.593823	2484.268012
576.948211	2483.587457
577.302544	2480.487147
577.656823	2482.609473
578.011047	2482.387662
578.365216	2483.405975
578.719330	2484.666264
579.073389	2484.454535
579.427394	2481.515543
579.781344	2483.237097
580.135239	2485.694659
580.489080	2483.579895
580.842866	2479.781386
581.196597	2483.312714
581.550273	2484.525111
581.903895	2485.382107
582.257463	2483.385811
582.610975	2484.540235
582.964434	2481.765080
583.317837	2483.887405
583.671186	2482.501088
584.024481	2484.300780
584.377721	2485.792962
584.730906	2483.544607
585.084037	2484.081490
585.437113	2484.361274
585.790135	2485.051912
586.143103	2482.385142
586.496016	2482.738022
586.848874	2484.416727
587.201679	2484.315903
587.554428	2483.900008
587.907124	2482.117960
588.259765	2482.392703
588.612352	2483.486634
588.964884	2483.506798
589.317362	2482.821201
589.669786	2481.079483
590.022155	2480.446818
590.374470	2478.836169
590.726731	2479.983032
591.078937	2479.040336
591.431090	2483.804226
591.783188	2483.963023
592.135232	2483.337920
592.487222	2483.988228
592.839157	2485.921511
593.191038	2482.097796
593.542866	2482.017137
593.894639	2484.509988
594.246358	2485.147694
594.598022	2484.023517
594.949633	2483.398413
595.301190	2482.836325
595.652692	2484.406644
596.004141	2485.119968
596.355535	2484.497385
596.706876	2483.612663
597.058162	2481.815491
597.409395	2484.071407
597.760573	2483.932776
598.111698	2482.538897
598.462768	2485.578713
598.813785	2483.327837
599.164748	2485.664412
599.515657	2481.197950
599.866511	2484.378918
600.217312	2483.799185
600.568060	2480.799699
600.918753	2483.166520
601.269392	2484.779690
601.619978	2482.496047
601.970510	2484.598208
602.320988	2486.604587
602.671412	2484.898157
603.021783	2485.130050
603.372100	2482.738022
603.722363	2483.673156
604.072572	2482.317086
604.422728	2485.815647
604.772830	2484.116778
605.122878	2484.147025
605.472872	2484.071408
605.822813	2482.145687
606.172701	2483.806747
606.522534	2481.775162
606.872314	2483.791623
607.222041	2480.782055
607.571714	2480.219966
607.921333	2479.612507
608.270899	2482.370018
608.620411	2477.074286
608.969870	2480.925727
609.319276	2480.532518
609.668627	2485.515698
610.017926	2483.700883
610.367171	2483.103506
610.716362	2481.732312
611.065500	2484.094093
611.414585	2483.458907
611.763616	2482.884216
612.112594	2482.952271
612.461518	2483.836994
612.810389	2486.075266
613.159207	2482.067549
613.507971	2482.299442
613.856682	2484.298259
614.205340	2482.291880
614.553945	2483.516881
614.902496	2482.969915
615.250994	2484.646099
615.599439	2484.038640
615.947830	2482.415388
616.296169	2482.133084
616.644454	2480.819863
616.992686	2482.100316
617.340864	2484.636017
617.688990	2482.412868
618.037063	2481.024030
618.385082	2484.983856
618.733048	2483.136273
619.080961	2482.649802
619.428821	2482.861531
619.776628	2485.719865
620.124382	2482.601911
620.472083	2483.146356
620.819731	2482.150728
621.167326	2484.371356
621.514868	2482.372539
621.862357	2483.683239
622.209793	2485.382107
622.557176	2482.690131
622.904506	2483.731130
623.251783	2485.346819
623.599007	2483.710965
623.946179	2482.831284
624.293297	2484.378918
624.640363	2483.658033
624.987376	2478.873978
625.334336	2478.785758
625.681243	2482.155769
626.028097	2477.399440
626.374899	2482.180975
626.721647	2483.133753
627.068343	2482.259113
627.414987	2483.068218
627.761577	2482.493526
628.108115	2484.509988
628.454600	2480.701396
628.801032	2481.427322
629.147412	2483.471510
629.493739	2482.102837
629.840014	2483.385811
630.186236	2482.289360
630.532405	2482.357415
630.878521	2483.292549
631.224585	2482.513691
631.570597	2483.587457
631.916556	2485.344299
632.262462	2483.037971
632.608316	2484.704072
632.954117	2484.565441
633.299866	2483.514360
633.645562	2481.535707
633.991206	2480.971098
634.336797	2481.749956
634.682336	2482.138125
635.027823	2485.898826
635.373257	2483.398413
635.718639	2483.259782
636.063968	2482.856489
636.409245	2482.750625
636.754470	2479.799030
637.099642	2484.230204
637.444762	2483.204329
637.789829	2482.634679
638.134845	2482.559061
638.479808	2482.957312
638.824719	2482.579226
639.169577	2483.020327
639.514383	2481.870944
639.859137	2484.759525
640.203839	2484.610811
640.548489	2481.752477
640.893086	2483.960502
641.237632	2480.260295
641.582125	2483.630307
641.926566	2482.526294
642.270955	2481.364308
642.615292	2480.497229
642.959576	2481.013948
643.303809	2476.933134
643.647990	2483.249699
643.992118	2484.026037
644.336195	2481.646613
644.680219	2482.332209
645.024192	2481.865903
645.368112	2482.826242
645.711981	2482.186016
646.055797	2482.551500
646.399562	2483.428660
646.743274	2483.642909
647.086935	2482.851448
647.430544	2482.266674
647.774101	2480.522435
648.117606	2482.922024
648.461059	2483.108547
648.804460	2485.117447
649.147810	2479.736015
649.491108	2482.498568
649.834354	2484.270533
650.177548	2480.794657
650.520690	2481.845738
650.863781	2479.945223
651.206820	2485.918990
651.549807	2480.623258
651.892742	2482.611993
652.235626	2484.084010
652.578458	2481.218114
652.921238	2483.912611
653.263967	2479.814153
653.606644	2480.766931
653.949269	2483.652992
654.291843	2481.669298
654.634365	2481.802888
654.976836	2480.724081
655.319255	2481.573516
655.661622	2480.938330
656.003938	2485.576192
656.346203	2483.723568
656.688416	2484.522591
657.030577	2482.929586
657.372687	2483.166520
657.714746	2484.361274
658.056753	2480.834987
658.398708	2481.049236
658.740612	2481.697024
659.082465	2478.546303
659.424266	2482.541417
659.766016	2477.777527
660.107715	2481.603763
660.449362	2476.295428
660.790958	2483.045533
661.132503	2482.604432
661.473996	2483.229535
661.815438	2484.961171
662.156829	2482.564102
662.498168	2483.978146
662.839456	2479.592342
663.180693	2481.570995
663.521879	2483.557210
663.863013	2482.150728
664.204097	2481.936479
664.545129	2484.643578
664.886110	2480.280460
665.227040	2482.838845
665.567918	2481.944041
665.908746	2482.974957
666.249522	2479.811632
666.590248	2482.395224
666.930922	2481.664257
667.271545	2484.010914
667.612118	2481.021509
667.952639	2484.275574
668.293109	2481.860862
668.633528	2479.836838
668.973896	2482.463279
669.314213	2481.175265
669.654480	2483.625265
669.994695	2481.586119
670.334859	2483.771459
670.674973	2483.257261
671.015035	2482.463279
671.355047	2480.688793
671.695008	2483.295070
672.034918	2480.330871
672.374777	2482.420430
672.714585	2481.921355
673.054342	2483.048053
673.394049	2481.424802
673.733705	2485.457725
674.073310	2483.073259
674.412864	2485.046871
674.752368	2480.681232
675.091820	2482.811119
675.431223	2482.173413
675.770574	2482.312045
676.109875	2480.056128
676.449125	2479.257106
676.788324	2479.945223
677.127473	2479.151241
677.466571	2478.311889
677.805619	2481.659215
678.144616	2481.427322
678.483562	2482.722899
678.822458	2481.586119
679.161303	2481.954123
679.500098	2482.803557
679.838842	2483.043012
680.177535	2483.955461
680.516179	2482.506129
680.854771	2481.354226
681.193314	2480.693834
681.531805	2482.894298
681.870247	2482.165851
682.208638	2482.559061
682.546978	2480.726602
682.885268	2481.704586
683.223508	2483.093424
683.561697	2481.455049
683.899836	2482.881695
684.237925	2482.548979
684.575963	2482.347333
684.913951	2482.417909
685.251889	2480.136787
685.589776	2480.885398
685.927614	2482.914463
686.265401	2483.350523
686.603137	2481.893629
686.940824	2482.843887
687.278460	2481.654174
687.616046	2480.595532
687.953582	2482.692652
688.291068	2481.543269
688.628504	2480.908083
688.965889	2479.768783
689.303224	2482.808598
689.640510	2480.973618
689.977745	2481.386993
690.314930	2479.241982
690.652065	2483.902529
690.989150	2480.900522
691.326185	2480.169554
691.663170	2481.134935
692.000105	2483.494195
692.336990	2481.185347
692.673825	2481.833135
693.010610	2481.074442
693.347345	2478.571509
693.684030	2477.260809
694.020665	2480.348515
694.357251	2476.219810
694.693786	2481.187868
695.030272	2480.129225
695.366707	2481.306335
695.703093	2481.855820
696.039429	2481.200470
696.375716	2483.484113
696.711952	2480.257775
697.048139	2481.003865
697.384276	2480.973618
697.720363	2481.787765
698.056400	2483.660553
698.392388	2482.337251
698.728326	2482.354895
699.064214	2481.760038
699.400053	2482.569144
699.735842	2482.740543
700.071581	2482.680049
700.407270	2481.049236
700.742910	2480.366159
701.078501	2481.946561
701.414042	2480.192240
701.749533	2481.777682
702.084974	2481.775162
702.420366	2483.204329
702.755709	2479.985552
703.091002	2479.005048
703.426246	2483.053094
703.761440	2480.096458
704.096584	2482.617035
704.431679	2480.625779
704.766725	2480.797178
705.101721	2481.016468
705.436668	2482.022178
705.771565	2481.208032
706.106413	2483.960502
706.441212	2481.013948
706.775961	2480.887919
707.110661	2478.904225
707.445311	2479.917497
707.779913	2478.964719
708.114465	2480.590491
708.448967	2480.895481
708.783421	2480.696355
709.117825	2481.296252
709.452180	2481.477734
709.786485	2482.090234
710.120742	2477.659060
710.454949	2476.025726
710.789107	2480.650985
711.123216	2477.999338
711.457275	2481.208032
711.791286	2481.591160
712.125247	2482.869092
712.459159	2480.971098
712.793023	2483.549648
713.126837	2480.088896
713.460602	2481.971767
713.794318	2480.282980
714.127985	2481.480254
714.461602	2479.254585
714.795171	2483.108547
715.128691	2479.579739
715.462162	2483.269864
715.795584	2479.173927
716.128957	2482.105357
716.462281	2481.034112
716.795556	2485.664412
717.128782	2479.877168
717.461960	2481.455049
717.795088	2481.394555
718.128167	2481.303814
718.461198	2480.527476
718.794180	2481.548310
719.127113	2481.535707
719.459997	2480.978660
719.792833	2480.761890
720.125619	2478.652167
720.458357	2482.266674
720.791046	2478.848772
721.123686	2483.085862
721.456278	2480.434215
721.788821	2480.741725
722.121315	2484.353712
722.453761	2480.625779
722.786158	2480.119143
723.118506	2480.028402
723.450805	2481.190388
723.783056	2482.191057
724.115259	2479.957826
724.447412	2478.372383
724.779518	2480.683752
725.111574	2480.524956
725.443582	2481.477734
725.775542	2480.454380
726.107453	2481.354226
726.439315	2478.337095
726.771129	2482.478403
727.102895	2477.908597
727.434612	2476.597897
727.766281	2475.909779
728.097901	2481.087044
728.429473	2480.048567
728.760996	2480.169554
729.092471	2479.831797
729.423897	2478.722743
729.755276	2482.455718
730.086606	2480.098978
730.417887	2479.612507
730.749120	2480.303145
731.080305	2480.585450
731.411442	2479.688124
731.742530	2481.845738
732.073570	2481.785244
732.404562	2480.280460
732.735506	2481.674339
733.066401	2481.197950
733.397249	2480.129225
733.728048	2481.472693
734.058798	2478.732826
734.389501	2480.340954
734.720156	2481.694503
735.050762	2479.597383
735.381320	2480.053608
735.711831	2479.922538
736.042293	2481.976808
736.372707	2480.635861
736.703073	2478.881540
737.033391	2479.494040
737.363661	2481.926397
737.693883	2479.796509
738.024056	2481.704586
738.354182	2479.796509
738.684260	2479.204173
739.014290	2481.427322
739.344272	2480.106540
739.674207	2478.158134
740.004093	2484.371356
740.333931	2480.834987
740.663722	2482.052425
740.993464	2478.967239
741.323159	2479.264667
741.652806	2478.916828
741.982405	2479.733495
742.311956	2480.149390
742.641460	2479.431025
742.970915	2480.426653
743.300323	2477.908597
743.629683	2476.786940
743.958996	2477.674183
744.288260	2477.790130
744.617477	2482.279277
744.946647	2481.273567
745.275768	2479.514204
745.604842	2479.105871
745.933869	2479.136118
746.262847	2481.381952
746.591778	2480.114102
746.920662	2479.569657
747.249498	2483.418578
747.578286	2483.063177
747.907027	2481.893629
748.235720	2477.722074
748.564365	2479.403299
748.892963	2479.597383
749.221514	2480.187198
749.550017	2478.914307
749.878473	2478.649647
750.206881	2481.369349
750.535242	2480.305666
750.863555	2481.172744
751.191821	2477.742239
751.520039	2481.480254
751.848210	2484.207519
752.176334	2479.884729
752.504411	2480.469503
752.832440	2479.670480
753.160421	2481.200470
753.488356	2480.582929
753.816243	2483.816829
754.144082	2481.326499
754.471875	2479.325161
754.799620	2480.172075
755.127318	2480.156952
755.454969	2481.881026
755.782572	2481.795327
756.110129	2479.821715
756.437638	2482.007055
756.765100	2478.498412
757.092515	2480.590491
757.419882	2479.504122
757.747203	2479.980511
758.074477	2480.663588
758.401703	2479.373052
758.728882	2478.916828
759.056014	2479.819194
759.383099	2481.593680
759.710138	2480.683752
760.037129	2475.579584
760.364073	2477.802733
760.690970	2474.926754
761.017820	2479.433546
761.344623	2480.111581
761.671379	2481.550831
761.998088	2479.113433
762.324751	2479.632672
762.651366	2477.535552
762.977935	2479.521766
763.304456	2482.443115
763.630931	2479.622589
763.957359	2479.965388
764.283740	2481.273567
764.610074	2482.775831
764.936362	2479.602425
765.262602	2478.969760
765.588796	2479.607466
765.914943	2479.688124
766.241044	2478.319451
766.567097	2478.626961
766.893104	2480.955974
767.219064	2482.062508
767.544978	2477.212918
767.870845	2477.863227
768.196665	2479.675521
768.522438	2479.395737
768.848165	2482.173413
769.173846	2480.779534
769.499479	2480.691314
769.825066	2479.821715
770.150607	2480.913125
770.476101	2481.868423
770.801548	2480.061170
771.126949	2479.002527
771.452303	2480.872795
771.777611	2478.193422
772.102872	2480.338433
772.428087	2479.234420
772.753256	2479.604945
773.078378	2478.720223
773.403453	2479.904894
773.728482	2481.092086
774.053465	2480.925728
774.378401	2478.884060
774.703291	2480.885398
775.028135	2478.707620
775.352932	2482.296921
775.677683	2476.552527
776.002388	2476.628144
776.327046	2474.152937
776.651658	2477.132259
776.976224	2474.957001
777.300743	2478.137969
777.625216	2478.808443
777.949643	2479.287353
778.274024	2481.623927
778.598359	2479.514204
778.922647	2477.538072
779.246889	2481.049236
779.571086	2479.415902
779.895236	2480.293063
780.219339	2479.879688
780.543397	2478.432877
780.867409	2478.221148
781.191374	2480.587970
781.515294	2478.253916
781.839167	2483.393372
782.162995	2479.103350
782.486776	2477.817856
782.810511	2481.490337
783.134201	2477.669142
783.457844	2479.625110
783.781441	2479.506643
784.104993	2477.190233
784.428498	2479.821715
784.751958	2476.358442
785.075372	2478.327013
785.398739	2480.300624
785.722061	2476.693679
786.045337	2479.310038
786.368568	2478.387507
786.691752	2479.100830
787.014891	2478.682414
787.337983	2480.686273
787.661030	2478.533700
787.984031	2480.303145
788.306987	2481.243320
788.629897	2478.168216
788.952760	2480.242651
789.275579	2479.720892
789.598351	2478.349698
789.921078	2483.058136
790.243759	2478.939513
790.566395	2478.248875
790.888984	2482.412868
791.211529	2478.992445
791.534027	2477.444811
791.856480	2479.584781
792.178888	2476.091261
792.501249	2474.102526
792.823566	2476.086220
793.145836	2473.427011
793.468062	2478.117805
793.790241	2477.623772
794.112375	2479.040336
794.434464	2477.792650
794.756507	2478.561426
795.078505	2481.213073
795.400457	2477.104533
795.722364	2479.085706
796.044226	2477.812815
796.366042	2477.091930
796.687812	2478.498412
797.009538	2478.511015
797.331218	2480.343474
797.652852	2478.548823
797.974442	2479.718371
798.295986	2476.116467
798.617484	2481.661736
798.938938	2478.327013
799.260346	2480.295583
799.581709	2480.368680
799.903026	2477.449852
800.224299	2478.319451
800.545526	2479.151241
800.866708	2478.493371
801.187845	2478.480768
801.508936	2478.425315
801.829983	2477.354070
802.150984	2475.882053
802.471940	2479.297435
802.792851	2476.416415
803.113717	2479.811632
803.434538	2478.289204
803.755314	2477.407002
804.076045	2478.243834
804.396731	2478.856334
804.717372	2479.809112
805.037967	2478.137969
805.358518	2476.499594
805.679024	2478.727784
805.999485	2479.415902
806.319901	2478.528659
806.640272	2479.620069
806.960598	2478.896663
807.280879	2479.562095
807.601115	2477.417084
807.921306	2479.854482
808.241453	2473.931127
808.561554	2473.724439
808.881611	2476.708802
809.201623	2473.424491
809.521590	2479.471355
809.841513	2477.318782
810.161390	2477.941364
810.481223	2479.783906
810.801011	2477.069245
811.120755	2478.437918
811.440453	2476.313072
811.760107	2477.235603
812.079716	2478.654688
812.399281	2475.929944
812.718801	2478.707620
813.038276	2480.199801
813.357707	2481.313896
813.677093	2477.086889
813.996434	2479.380614
814.315731	2478.342136
814.634983	2477.303658
814.954191	2477.263329
815.273354	2480.489668
815.592473	2478.929431
815.911547	2479.254585
816.230577	2475.627475
816.549562	2477.959008
816.868502	2476.345839
817.187399	2479.541931
817.506250	2476.018164
817.825058	2477.517907
818.143821	2477.815336
818.462539	2477.346508
818.781213	2478.382465
819.099843	2478.251395
819.418429	2475.367855
819.736970	2476.124028
820.055466	2480.819863
820.373919	2476.658391
820.692327	2476.106384
821.010691	2476.902887
821.329011	2478.823566
821.647286	2477.878350
821.965517	2479.002527
822.283704	2479.476396
822.601847	2478.747949
822.919945	2477.102012
823.237999	2477.548154
823.556010	2478.299286
823.873976	2479.370532
824.191897	2476.086220
824.509775	2475.423308
824.827609	2475.703092
825.145398	2473.560602
825.463144	2478.400109
825.780845	2478.143011
826.098502	2477.371714
826.416116	2477.749801
826.733685	2476.875160
827.051210	2478.949595
827.368692	2478.659729
827.686129	2476.918010
828.003522	2478.589153
828.320872	2477.149903
828.638177	2480.643423
828.955439	2476.756693
829.272656	2478.208546
829.589830	2475.642598
829.906960	2477.611169
830.224046	2477.553196
830.541088	2479.037815
830.858086	2478.634523
831.175041	2477.616210
831.491952	2474.508339
831.808819	2478.632002
832.125642	2478.185860
832.442421	2478.848772
832.759157	2479.683083
833.075849	2478.342136
833.392497	2481.870944
833.709101	2477.729636
834.025662	2476.950778
834.342179	2481.782724
834.658653	2476.025726
834.975083	2480.587970
835.291469	2483.179123
835.607811	2477.646457
835.924110	2477.548154
836.240366	2477.777527
836.556578	2478.150572
836.872746	2475.894656
837.188871	2478.780717
837.504952	2476.418936
837.820990	2476.028247
838.136984	2478.495891
838.452935	2476.328195
838.768842	2478.087558
839.084706	2473.789974
839.400526	2478.800881
839.716303	2475.511528
840.032037	2472.605303
840.347727	2474.886425
840.663373	2474.170581
840.978977	2471.879377
841.294537	2477.628813
841.610054	2477.747280
841.925527	2475.940026
842.240957	2478.614358
842.556344	2478.667291
842.871687	2480.403968
843.186987	2476.968422
843.502244	2475.942547
843.817458	2476.280304
844.132629	2480.403968
844.447756	2475.541775
844.762840	2478.364821
845.077881	2478.873978
845.392879	2477.984214
845.707833	2480.285501
846.022745	2477.104533
846.337613	2476.711323
846.652438	2475.801395
846.967221	2477.757362
847.281960	2478.158134
847.596656	2476.260140
847.911309	2478.614358
848.225919	2474.581435
848.540485	2478.526138
848.855009	2477.689307
849.169490	2475.899697
849.483928	2479.549492
849.798323	2476.066055
850.112675	2478.873978
850.426984	2477.321303
850.741251	2480.540079
851.055474	2477.815336
851.369654	2476.902887
851.683792	2477.759883
851.997887	2478.364821
852.311938	2476.328195
852.625947	2478.095120
852.939914	2477.933803
853.253837	2476.061014
853.567718	2476.418936
853.881555	2475.662763
854.195350	2477.737198
854.509103	2475.791312
854.822812	2473.578246
855.136479	2477.427167
855.450103	2477.270891
855.763685	2475.309882
856.077224	2472.935499
856.390720	2474.238637
856.704173	2472.585138
857.017584	2477.177630
857.330953	2476.849955
857.644278	2477.175109
857.957561	2475.801395
858.270802	2473.265694
858.584000	2477.603607
858.897155	2475.014975
859.210268	2477.414564
859.523339	2477.941364
859.836367	2476.464306
860.149352	2475.766107
860.462295	2476.645788
860.775195	2477.326344
861.088054	2474.790643
861.400869	2476.625623
861.713642	2478.132928
862.026373	2476.187043
862.339062	2475.214100
862.651708	2474.674697
862.964312	2475.135962
863.276873	2475.889615
863.589392	2478.899184
863.901869	2476.706282
864.214303	2476.093782
864.526696	2475.783751
864.839045	2475.937506
865.151353	2478.306848
865.463619	2479.683083
865.775842	2477.550675
866.088023	2478.362301
866.400162	2473.547999
866.712258	2476.131590
867.024313	2471.289562
867.336325	2476.991107
867.648296	2477.011272
867.960224	2477.018833
868.272110	2478.730305
868.583954	2477.591004
868.895755	2475.473720
869.207515	2477.343988
869.519233	2477.328864
869.830909	2475.622434
870.142542	2474.873822
870.454134	2475.912300
870.765684	2476.403812
871.077191	2476.650829
871.388657	2474.243678
871.700081	2471.473564
872.011463	2474.354583
872.322803	2470.298975
872.634101	2474.636888
872.945357	2474.707464
873.256571	2477.061683
873.567744	2475.118318
873.878874	2475.362814
874.189963	2475.998000
874.501010	2477.482619
874.812015	2475.123359
875.122979	2474.838534
875.433900	2476.981025
875.744780	2474.261322
876.055618	2476.935654
876.366415	2476.915490
876.677169	2474.039511
876.987882	2472.857361
877.298554	2475.967753
877.609183	2476.643267
877.919771	2477.623772
878.230317	2473.921044
878.540822	2479.718371
878.851285	2473.328709
879.161707	2475.400623
879.472087	2476.464306
879.782425	2474.984728
880.092722	2475.587146
880.402977	2475.693010
880.713191	2472.675879
881.023363	2473.689151
881.333494	2477.959008
881.643583	2476.252578
881.953631	2474.858699
882.263637	2473.217803
882.573602	2476.426498
882.883526	2476.759214
883.193408	2476.053452
883.503248	2473.512711
883.813048	2478.538741
884.122806	2474.541106
884.432522	2478.057311
884.742197	2473.293421
885.051831	2476.930613
885.361424	2478.332054
885.670975	2475.781230
885.980485	2476.872640
886.289954	2477.648977
886.599382	2475.395582
886.908768	2475.856847
887.218113	2472.998513
887.527417	2475.226703
887.836680	2471.478605
888.145901	2475.224183
888.455082	2475.209059
888.764221	2477.223000
889.073319	2476.091261
889.382376	2477.396920
889.691392	2474.425160
890.000366	2479.478916
890.309300	2475.241827
890.618193	2476.547485
890.927044	2478.276601
891.235855	2474.830972
891.544625	2475.844244
891.853353	2474.273925
892.162041	2477.936323
892.470687	2477.154944
892.779293	2476.015644
893.087858	2478.500933
893.396381	2476.282825
893.704864	2475.284676
894.013306	2474.462968
894.321707	2477.578401
894.630068	2474.755355
894.938387	2475.965232
895.246665	2476.247537
895.554903	2476.197125
895.863100	2475.992958
896.171256	2474.591518
896.479371	2477.147383
896.787446	2476.633185
897.095480	2476.640747
897.403473	2477.580922
897.711425	2475.188894
898.019336	2472.995992
898.327207	2475.057824
898.635038	2475.428349
898.942827	2475.539255
899.250576	2476.033288
899.558284	2476.575212
899.865952	2474.783082
900.173579	2475.483802
900.481165	2472.872484
900.788711	2473.094295
901.096216	2473.432052
901.403681	2475.982876
901.711105	2476.083699
902.018489	2475.574543
902.325832	2474.979687
902.633135	2469.895683
902.940397	2472.602783
903.247619	2472.108749
903.554800	2477.233082
903.861941	2476.948257
904.169041	2473.195118
904.476101	2475.345170
904.783121	2475.902218
905.090100	2472.713688
905.397039	2475.572022
905.703938	2477.185191
906.010796	2474.962043
906.317614	2475.209059
906.624391	2473.663945
906.931129	2476.799543
907.237826	2476.474389
907.544483	2476.754173
907.851099	2475.156127
908.157675	2474.001703
908.464211	2476.456745
908.770707	2473.653863
909.077163	2475.589666
909.383578	2477.800212
909.689954	2477.906076
909.996289	2474.261322
910.302584	2473.898359
910.608839	2472.600262
910.915054	2474.457927
911.221229	2474.594038
911.527363	2475.143524
911.833458	2475.718216
912.139513	2474.253760
912.445527	2475.819039
912.751502	2477.953967
913.057436	2474.052114
913.363331	2475.839203
913.669186	2476.091261
913.975000	2477.641416
914.280775	2476.527321
914.586510	2476.164358
914.892205	2476.499594
915.197859	2475.463637
915.503475	2474.692341
915.809050	2475.750983
916.114585	2474.422639
916.420081	2475.012454
916.725536	2478.697538
917.030952	2474.596559
917.336328	2475.924903
917.641665	2470.417442
917.946961	2470.498101
918.252218	2473.757207
918.557435	2472.176805
918.862612	2474.150417
919.167750	2474.369707
919.472848	2476.933134
919.777906	2475.181333
920.082925	2474.188225
920.387904	2475.209059
920.692843	2474.944398
920.997743	2474.422639
921.302603	2476.227372
921.607423	2475.506487
921.912204	2474.823411
922.216946	2473.084213
922.521647	2474.725108
922.826310	2475.940026
923.130932	2475.330047
923.435516	2475.934985
923.740059	2473.706795
924.044564	2475.892135
924.349028	2477.769965
924.653454	2473.023719
924.957840	2475.841724
925.262186	2473.941209
925.566493	2473.732001
925.870761	2475.496405
926.174989	2475.622434
926.479178	2472.335601
926.783328	2474.430201
927.087438	2472.902731
927.391509	2476.502115
927.695541	2472.592700
927.999533	2475.115798
928.303486	2473.560602
928.607400	2475.440952
928.911275	2474.493215
929.215110	2474.450365
929.518906	2475.299800
929.822663	2477.623772
930.126381	2475.186374
930.430060	2471.818883
930.733699	2475.541775
931.037299	2473.280818
931.340861	2472.960704
931.644383	2473.356435
931.947866	2475.224182
932.251309	2475.793833
932.554714	2473.772330
932.858080	2470.228399
933.161407	2469.772175
933.464694	2474.054635
933.767943	2470.465333
934.071153	2478.904225
934.374323	2474.936837
934.677455	2474.243678
934.980548	2473.520273
935.283602	2473.613534
935.586617	2473.701754
935.889593	2473.101857
936.192530	2474.410036
936.495428	2477.303658
936.798287	2474.510859
937.101108	2477.296097
937.403890	2476.088740
937.706632	2473.356435
938.009336	2476.010603
938.312002	2474.987248
938.614628	2473.721919
938.917216	2475.806436
939.219765	2474.967084
939.522275	2474.606641
939.824747	2474.160499
940.127179	2476.734008
940.429573	2474.485653
940.731929	2474.483133
941.034246	2475.166209
941.336524	2475.511528
941.638763	2473.018678
941.940964	2475.965232
942.243126	2471.791157
942.545250	2474.036991
942.847335	2476.718885
943.149381	2475.173771
943.451389	2474.568832
943.753359	2474.286528
944.055290	2472.383492
944.357182	2472.509521
944.659036	2473.784933
944.960851	2473.011116
945.262628	2473.111939
945.564367	2474.503298
945.866067	2473.744604
946.167729	2475.153606
946.469352	2474.740232
946.770937	2473.958853
947.072484	2474.420118
947.373992	2473.311065
947.675462	2475.871971
947.976893	2471.992803
948.278286	2469.729325
948.579641	2474.130252
948.880958	2468.164047
949.182236	2474.248719
949.483476	2474.558750
949.784678	2475.589666
950.085841	2470.540951
950.386967	2473.394244
950.688054	2473.968935
950.989103	2474.583956
951.290114	2476.343319
951.591087	2474.331898
951.892021	2474.059676
952.192917	2474.508339
952.493776	2475.803915
952.794596	2475.146045
953.095378	2474.778040
953.396122	2474.246199
953.696828	2477.124698
953.997496	2473.661425
954.298126	2476.489512
954.598718	2472.658235
954.899272	2476.035808
955.199788	2473.737042
955.500266	2473.515231
955.800706	2474.972125
956.101108	2472.625468
956.401472	2473.563122
956.701798	2472.754017
957.002087	2471.622278
957.302337	2471.609675
957.602550	2476.648308
957.902724	2473.316106
958.202861	2471.839048
958.502960	2472.317957
958.803022	2473.381641
959.103045	2474.077320
959.403031	2474.084882
959.702979	2472.612865
960.002889	2472.544809
960.302762	2472.259984
960.602596	2473.328709
960.902393	2473.764768
961.202153	2474.223513
961.501875	2475.050263
961.801559	2472.469192
962.101205	2475.443473
962.400814	2475.236785
962.700385	2472.249902
962.999918	2469.255456
963.299414	2469.767133
963.598873	2472.776702
963.898293	2466.598768
964.197677	2473.948771
964.497022	2472.408698
964.796331	2472.527165
965.095601	2474.052114
965.394835	2476.643267
965.694030	2474.097485
965.993189	2475.829121
966.292309	2472.476754
966.591393	2472.378451
966.890439	2472.403657
967.189447	2474.289048
967.488419	2472.247381
967.787353	2473.369038
968.086249	2472.123873
968.385108	2473.512711
968.683930	2473.749645
968.982714	2472.272587
969.281462	2471.786116
969.580172	2475.062866
969.878844	2472.222175
970.177480	2474.946919
970.476078	2473.205200
970.774639	2475.022536
971.073162	2474.692341
971.371649	2473.774851
971.670098	2472.784264
971.968510	2473.008595
972.266885	2472.990951
972.565223	2471.478605
972.863524	2472.446507
973.161788	2471.702937
973.460014	2471.791157
973.758204	2471.826445
974.056356	2473.805098
974.354471	2471.473564
974.652550	2471.786116
974.950591	2472.232258
975.248595	2473.222844
975.546563	2471.745786
975.844493	2472.476754
976.142386	2473.928606
976.440243	2471.400467
976.738062	2470.503142
977.035845	2473.560602
977.333590	2475.511528
977.631299	2473.343832
977.928971	2474.667135
978.226606	2470.135138
978.524204	2473.910962
978.821765	2467.123048
979.119290	2474.087402
979.416777	2470.551033
979.714228	2474.362145
980.011642	2475.599748
980.309020	2472.408698
980.606360	2473.457258
980.903664	2469.263018
981.200931	2474.389872
981.498162	2471.939871
981.795356	2473.694192
982.092513	2471.329891
982.389633	2472.254943
982.686717	2473.956332
982.983764	2473.016157
983.280775	2472.486836
983.577749	2474.919193
983.874686	2474.014306
984.171587	2475.400623
984.468451	2475.622434
984.765279	2472.033132
985.062070	2474.084882
985.358824	2472.643112
985.655543	2470.477936
985.952224	2473.842906
986.248869	2470.367031
986.545478	2473.905921
986.842050	2472.885087
987.138586	2473.626137
987.435086	2475.887094
987.731549	2474.248719
988.027975	2473.578246
988.324366	2472.287710
988.620719	2474.077320
988.917037	2471.634881
989.213318	2474.147896
989.509563	2471.271918
989.805772	2474.359625
990.101944	2475.912300
990.398080	2474.354583
990.694180	2473.169912
990.990244	2471.871815
991.286271	2472.791826
991.582262	2474.646970
991.878217	2473.366517
992.174136	2475.143524
992.470019	2471.244192
992.765865	2470.843420
993.061676	2469.081537
993.357450	2471.032463
993.653188	2466.578604
993.948890	2475.004892
994.244556	2471.972638
994.540186	2472.542289
994.835780	2473.033801
995.131337	2473.487505
995.426859	2472.018009
995.722345	2475.458596
996.017795	2472.149079
996.313208	2477.149903
996.608586	2476.189563
996.903928	2472.103708
997.199234	2472.549850
997.494504	2472.380972
997.789738	2473.295941
998.084936	2471.934830
998.380099	2471.826445
998.675225	2473.868112
998.970316	2472.489357
999.265371	2471.917186
999.560390	2472.985910
999.855373	2472.227217
1000.150320	2475.705613
1000.445232	2470.689665
1000.740108	2471.095478
1001.034948	2470.367031
1001.329752	2470.079685
1001.624521	2472.118832
1001.919254	2471.511373
1002.213951	2472.948102
1002.508613	2471.851651
1002.803239	2473.240488
1003.097829	2472.191928
1003.392384	2472.953143
1003.686903	2469.517596
1003.981386	2471.876856
1004.275834	2473.989100
1004.570246	2473.391723
1004.864623	2475.282156
1005.158964	2474.468009
1005.453270	2471.445838
1005.747540	2473.331229
1006.041775	2472.489357
1006.335974	2470.614047
1006.630138	2471.690334
1006.924266	2473.590849
1007.218359	2472.537248
1007.512416	2470.195632
1007.806438	2466.636577
1008.100425	2473.255612
1008.394376	2467.629684
1008.688292	2472.625468
1008.982172	2472.166723
1009.276017	2473.391723
1009.569827	2474.384830
1009.863602	2473.484984
1010.157341	2473.152268
1010.451045	2473.036322
1010.744714	2471.075313
1011.038347	2470.687144
1011.331945	2476.807105
1011.625508	2471.884418
1011.919036	2472.529686
1012.212528	2473.800057
1012.505986	2471.891980
1012.799408	2473.573205
1013.092795	2471.115642
1013.386147	2473.222844
1013.679464	2470.692185
1013.972745	2472.038173
1014.265992	2473.026239
1014.559204	2470.288893
1014.852380	2471.919706
1015.145521	2474.309213
1015.438628	2473.265694
1015.731699	2474.435242
1016.024736	2468.562298
1016.317737	2473.671507
1016.610703	2470.082206
1016.903635	2475.390541
1017.196531	2471.874336
1017.489393	2473.033801
1017.782219	2469.671352
1018.075011	2474.251240
1018.367768	2471.135807
1018.660490	2472.224696
1018.953177	2472.224696
1019.245829	2472.224696
