Dividing Wavelength (nm)	Counts (n)	Blue Motor Position (mm): 7.000000	Red Motor Position (mm): 0.000000	
326.493990	2105.140476
326.888308	2105.140476
327.282561	2105.140476
327.676750	2080.524522
328.070874	2082.288925
328.464933	2087.579616
328.858929	2101.122676
329.252859	2109.725405
329.646726	2128.349948
330.040528	2140.650363
330.434265	2164.114414
330.827938	2182.307938
331.221547	2200.992975
331.615091	2222.342262
332.008571	2243.757083
332.401986	2262.681575
332.795338	2282.957095
333.188625	2304.318985
333.581847	2321.569813
333.975006	2337.704026
334.368100	2356.270596
334.761129	2373.002185
335.154095	2388.244114
335.546996	2410.372259
335.939833	2434.181628
336.332606	2447.707044
336.725315	2458.096862
337.117960	2465.532564
337.510540	2474.087402
337.903056	2482.488485
338.295508	2488.472335
338.687896	2498.068171
339.080220	2504.127638
339.472480	2510.643329
339.864676	2507.600993
340.256807	2515.240862
340.648875	2515.114833
341.040879	2516.538959
341.432818	2520.894516
341.824694	2519.687159
342.216506	2516.365039
342.608253	2515.470234
342.999937	2517.660616
343.391557	2515.155162
343.783113	2517.685821
344.174605	2511.739780
344.566033	2510.353463
344.957397	2509.403206
345.348697	2508.442866
345.739934	2505.256857
346.131106	2506.355828
346.522215	2503.852895
346.913260	2501.831393
347.304241	2501.042452
347.695159	2498.529437
348.086012	2498.179077
348.476802	2493.954590
348.867528	2495.267810
349.258191	2494.483911
349.648789	2494.801503
350.039324	2492.858139
350.429796	2491.000473
350.820203	2490.085504
351.210548	2485.611480
351.600828	2488.116933
351.991045	2490.486276
352.381198	2486.415544
352.771288	2488.789928
353.161314	2486.541573
353.551276	2487.118785
353.941175	2486.080307
354.331010	2488.681543
354.720782	2487.126347
355.110490	2489.747747
355.500135	2488.482417
355.889717	2487.355719
356.279235	2484.588126
356.668689	2488.467294
357.058080	2488.313538
357.447408	2487.002838
357.836672	2485.344299
358.225873	2484.578043
358.615010	2487.355719
359.004084	2492.497696
359.393095	2492.863180
359.782043	2493.967193
360.170927	2492.336379
360.559748	2494.582213
360.948505	2493.947028
361.337199	2495.363592
361.725830	2493.916781
362.114398	2496.321411
362.502903	2494.244456
362.891344	2497.743017
363.279722	2495.257728
363.668037	2497.596823
364.056289	2498.105980
364.444478	2498.005157
364.832603	2497.178408
365.220665	2497.054899
365.608665	2498.158912
365.996601	2499.514982
366.384474	2500.747544
366.772284	2500.089674
367.160031	2498.370640
367.547715	2501.823831
367.935336	2500.102277
368.322893	2499.270486
368.710388	2502.973214
369.097820	2503.195025
369.485189	2503.063955
369.872495	2501.513800
370.259738	2504.672083
370.646918	2497.962307
371.034035	2499.888028
371.421090	2503.068996
371.808081	2501.153357
372.195010	2502.126300
372.581875	2503.396671
372.968678	2503.028667
373.355418	2500.775271
373.742096	2500.384581
374.128710	2502.527072
374.515262	2504.079747
374.901751	2505.486229
375.288177	2503.048831
375.674540	2506.360869
376.060841	2506.655777
376.447079	2505.541682
376.833254	2504.876249
377.219367	2504.087309
377.605417	2502.758965
377.991404	2502.330467
378.377329	2505.723163
378.763191	2503.043790
379.148991	2504.057062
379.534727	2504.563698
379.920402	2509.103257
380.306013	2508.357166
380.691563	2509.299862
381.077049	2509.320027
381.462474	2504.782988
381.847835	2509.320027
382.233134	2506.917917
382.618371	2506.297855
383.003545	2509.892198
383.388657	2510.610562
383.773706	2508.899090
384.158693	2509.831704
384.543618	2509.032681
384.928480	2507.235509
385.313280	2509.685510
385.698017	2509.569564
386.082692	2509.778772
386.467305	2509.012516
386.851856	2510.739111
387.236344	2513.189112
387.620770	2512.679956
388.005133	2510.776920
388.389435	2510.550068
388.773674	2513.095851
389.157851	2511.137363
389.541965	2513.831859
389.926018	2513.136180
390.310008	2514.179699
390.693936	2513.970491
391.077802	2511.797754
391.461606	2512.669873
391.845348	2514.726664
392.229027	2514.073835
392.612645	2515.213135
392.996200	2513.332785
393.379694	2516.004597
393.763125	2513.660460
394.146494	2516.843949
394.529801	2514.676253
394.913047	2517.584998
395.296230	2517.950482
395.679351	2512.674914
396.062410	2515.205574
396.445408	2516.304545
396.828343	2518.290760
397.211217	2512.145593
397.594028	2515.271109
397.976778	2511.729698
398.359466	2515.576098
398.742092	2513.925121
399.124656	2517.222035
399.507158	2518.789834
399.889598	2516.541479
400.271977	2515.757580
400.654294	2516.556603
401.036549	2518.628517
401.418742	2519.455266
401.800874	2519.513240
402.182944	2516.725482
402.564952	2519.727489
402.946898	2517.136336
403.328783	2518.285719
403.710606	2518.809999
404.092367	2518.005935
404.474067	2520.239166
404.855705	2519.999711
405.237282	2519.926614
405.618797	2517.597601
406.000250	2520.193795
406.381642	2520.488703
406.762972	2522.691687
407.144240	2521.580113
407.525447	2523.936852
407.906593	2520.014834
408.287677	2524.382994
408.668700	2520.201357
409.049661	2521.832170
409.430560	2522.976512
409.811399	2522.802593
410.192176	2522.706811
410.572891	2523.614218
410.953545	2522.053981
411.334138	2523.563807
411.714669	2521.875020
412.095139	2525.602953
412.475547	2522.515247
412.855894	2522.827798
413.236180	2524.277130
413.616405	2525.194620
413.996568	2523.914167
414.376670	2524.224198
414.756711	2523.951976
415.136691	2525.655886
415.516609	2526.323838
415.896466	2524.408200
416.276262	2526.122192
416.655997	2523.223529
417.035670	2523.500792
417.415283	2522.369053
417.794834	2520.919722
418.174324	2524.156142
418.553753	2521.194464
418.933121	2527.208561
419.312428	2527.102697
419.691674	2524.655217
420.070859	2522.447191
420.449983	2526.414579
420.829045	2527.231246
421.208047	2526.202851
421.586988	2525.900382
421.965867	2526.961544
422.344686	2528.751154
422.723444	2525.771832
423.102141	2526.170083
423.480777	2527.566483
423.859352	2524.083046
424.237866	2524.778725
424.616319	2525.408869
424.994712	2527.483304
425.373044	2526.928777
425.751314	2528.604961
426.129524	2530.623943
426.507673	2526.767460
426.885762	2528.557070
427.263789	2526.890968
427.641756	2525.706297
428.019662	2530.243336
428.397508	2529.451874
428.775292	2528.136133
429.153016	2529.651000
429.530679	2528.945238
429.908282	2528.940197
430.285824	2526.775022
430.663305	2527.137985
431.040726	2526.255783
431.418086	2528.063037
431.795385	2528.380629
432.172624	2528.400794
432.549802	2528.214271
432.926920	2532.156453
433.303977	2529.325846
433.680974	2529.804755
434.057910	2529.444313
434.434786	2527.800897
434.811601	2530.896165
435.188355	2532.829447
435.565050	2529.845084
435.941683	2530.742410
436.318257	2527.773170
436.694770	2527.115300
437.071222	2525.466842
437.447614	2524.597243
437.823946	2527.289219
438.200218	2528.211751
438.576429	2530.142512
438.952580	2529.915661
439.328670	2527.657224
439.704700	2530.656710
440.080670	2530.051772
440.456580	2529.265352
440.832429	2527.876514
441.208218	2533.235260
441.583947	2535.153419
441.959616	2535.249201
442.335224	2532.554705
442.710773	2531.362472
443.086261	2530.344159
443.461689	2534.145189
443.837057	2529.935825
444.212365	2532.285003
444.587612	2531.813655
444.962800	2532.713501
445.337927	2531.307019
445.712995	2533.789787
446.088002	2534.704757
446.462949	2530.717204
446.837837	2530.175280
447.212664	2529.877852
447.587431	2531.717873
447.962139	2532.927750
448.336786	2533.396577
448.711374	2532.942873
449.085901	2534.926567
449.460369	2533.237781
449.834776	2535.962525
450.209124	2535.072761
450.583412	2534.430014
450.957640	2534.571166
451.331808	2531.133099
451.705917	2531.246525
452.079965	2532.509334
452.453954	2532.857174
452.827883	2533.847761
453.201752	2532.025383
453.575562	2532.413552
453.949311	2534.238450
454.323001	2535.392874
454.696632	2536.567463
455.070202	2537.535365
455.443713	2534.603934
455.817164	2529.421628
456.190556	2531.501103
456.563888	2531.460774
456.937160	2531.813655
457.310373	2533.842719
457.683526	2535.970086
458.056619	2534.606454
458.429653	2535.196269
458.802628	2535.289531
459.175542	2533.956145
459.548398	2536.131403
459.921194	2533.454551
460.293930	2534.697195
460.666607	2536.864891
461.039224	2534.142668
461.411782	2535.927237
461.784280	2536.305323
462.156719	2536.322967
462.529099	2537.464788
462.901419	2533.547812
463.273680	2538.896476
463.645882	2537.663914
464.018024	2534.780374
464.390106	2535.816331
464.762130	2537.482432
465.134094	2539.277083
465.505999	2536.827082
465.877845	2536.348173
466.249631	2537.505118
466.621358	2537.794984
466.993026	2535.755837
467.364634	2537.600900
467.736184	2538.450334
468.107674	2537.348842
468.479105	2534.122503
468.850477	2534.679551
469.221790	2537.744573
469.593043	2537.666435
469.964238	2540.363452
470.335373	2536.973276
470.706449	2538.165509
471.077467	2537.948739
471.448425	2538.273894
471.819324	2537.462268
472.190164	2538.878832
472.560945	2539.622402
472.931667	2538.962011
473.302330	2538.483102
473.672934	2538.823379
474.043479	2541.623740
474.413965	2539.967721
474.784393	2533.966228
475.154761	2536.005374
475.525070	2533.986392
475.895321	2537.111908
476.265513	2536.572504
476.635645	2541.235572
477.005719	2539.173740
477.375734	2540.507125
477.745691	2541.291024
478.115588	2540.456713
478.485427	2540.650798
478.855207	2538.790612
479.224928	2542.410160
479.594591	2543.201622
479.964194	2539.488812
480.333739	2545.069369
480.703226	2541.278421
481.072653	2541.515356
481.442022	2540.184491
481.811333	2540.708771
482.180584	2542.112732
482.549777	2541.207845
482.918912	2541.691796
483.287988	2542.911755
483.657005	2543.693134
484.025964	2541.800181
484.394864	2542.594162
484.763706	2541.951415
485.132489	2541.769934
485.501213	2538.954449
485.869879	2541.780016
486.238487	2541.525438
486.607036	2542.251364
486.975527	2543.246992
487.343959	2539.665252
487.712333	2542.228679
488.080648	2541.742208
488.448905	2543.713299
488.817104	2544.318237
489.185244	2545.969215
489.553326	2541.275901
489.921350	2544.512322
490.289315	2544.973587
490.657222	2542.662218
491.025070	2542.455531
491.392861	2544.489636
491.760593	2545.253371
492.128267	2543.809081
492.495883	2542.425284
492.863440	2542.493339
493.230939	2545.449976
493.598380	2542.727753
493.965763	2538.462937
494.333088	2541.112063
494.700354	2539.002340
495.067563	2539.355221
495.434713	2540.731456
495.801805	2543.627599
496.168839	2542.936961
496.535815	2545.308824
496.902733	2545.316386
497.269593	2544.918134
497.636395	2542.715150
498.003139	2539.892104
498.369825	2543.390665
498.736453	2545.031560
499.103023	2542.505942
499.469535	2545.364277
499.835989	2544.033412
500.202385	2541.167516
500.568723	2542.599204
500.935003	2544.197249
501.301226	2544.106509
501.667390	2544.824873
502.033497	2548.371325
502.399546	2544.232538
502.765537	2542.480737
503.131470	2541.694317
503.497345	2543.108360
503.863163	2541.268339
504.228923	2545.749925
504.594625	2546.806047
504.960269	2547.037940
505.325856	2542.944523
505.691385	2544.908052
506.056856	2545.323947
506.422270	2541.931251
506.787625	2543.481406
507.152924	2543.506611
507.518164	2545.659184
507.883347	2545.157589
508.248472	2545.971736
508.613540	2543.325130
508.978550	2547.171530
509.343503	2545.223124
509.708398	2546.818649
510.073236	2542.450490
510.438016	2547.945347
510.802738	2548.862837
511.167403	2545.946530
511.532010	2544.910573
511.896561	2546.934596
512.261053	2548.668753
512.625488	2543.294883
512.989866	2542.165664
513.354186	2543.330171
513.718449	2542.785726
514.082655	2545.364277
514.446803	2546.231355
514.810894	2545.949050
515.174927	2546.899308
515.538904	2550.750749
515.902822	2548.860317
516.266684	2548.278063
516.630488	2551.973229
516.994235	2551.864844
517.357925	2549.813095
517.721558	2554.599670
518.085133	2550.937272
518.448651	2553.057077
518.812112	2555.348282
519.175516	2553.099927
519.538863	2555.310473
519.902152	2553.775442
520.265385	2550.844011
520.628560	2555.575134
520.991678	2554.508930
521.354739	2555.985988
521.717743	2559.277861
522.080690	2561.296843
522.443580	2560.787687
522.806413	2558.171328
523.169189	2563.167111
523.531908	2561.337172
523.894569	2564.613923
524.257174	2567.063923
524.619722	2564.941598
524.982213	2565.992678
525.344647	2564.931515
525.707025	2568.891342
526.069345	2568.483008
526.431608	2568.112483
526.793815	2568.969479
527.155964	2570.408729
527.518057	2570.277659
527.880093	2570.670869
528.242072	2572.331929
528.603995	2576.082547
528.965860	2577.458782
529.327669	2574.517269
529.689421	2578.073803
530.051117	2578.270408
530.412755	2579.918866
530.774337	2577.504153
531.135862	2579.790316
531.497331	2575.591035
531.858743	2578.706468
532.220098	2581.045563
532.581396	2579.694534
532.942638	2580.115471
533.303824	2583.752663
533.664953	2586.331213
534.026025	2588.204002
534.387040	2592.060485
534.747999	2588.201481
535.108902	2592.176431
535.469748	2586.658888
535.830537	2591.815989
536.191270	2595.314549
536.551947	2591.674836
536.912567	2597.109200
537.273131	2595.732965
537.633638	2597.010898
537.994089	2599.445775
538.354483	2593.328335
538.714821	2595.453181
539.075103	2599.357555
539.435328	2601.802514
539.795497	2599.670106
540.155609	2601.653800
540.515665	2602.157916
540.875665	2601.863008
541.235609	2606.185798
541.595496	2604.686054
541.955328	2605.946343
542.315102	2605.903493
542.674821	2604.214707
543.034483	2608.847527
543.394090	2608.698813
543.753640	2610.042280
544.113134	2609.853237
544.472571	2607.970366
544.831953	2609.356683
545.191278	2611.297528
545.550548	2610.377517
545.909761	2610.402723
546.268918	2614.100409
546.628019	2615.017899
546.987064	2611.597476
547.346053	2615.562344
547.704986	2613.392127
548.063863	2615.917745
548.422684	2614.314658
548.781449	2616.620986
549.140158	2619.358333
549.498811	2618.972684
549.857408	2617.644340
550.215949	2618.642489
550.574434	2616.638630
550.932864	2617.823301
551.291237	2616.386572
551.649555	2621.394959
552.007817	2622.511574
552.366022	2619.058384
552.724173	2622.584671
553.082267	2625.440485
553.440305	2624.452419
553.798288	2623.716410
554.156215	2623.355968
554.514086	2628.238325
554.871902	2628.936525
555.229661	2627.177162
555.587365	2627.618263
555.945014	2628.669344
556.302606	2629.574231
556.660143	2630.668161
557.017625	2633.531537
557.375050	2631.492390
557.732421	2632.021711
558.089735	2635.726959
558.446994	2634.849798
558.804197	2634.842237
559.161345	2635.870632
559.518437	2634.902731
559.875474	2636.256280
560.232455	2638.988586
560.589381	2639.805253
560.946251	2642.769451
561.303065	2639.926240
561.659825	2639.984214
562.016528	2638.507156
562.373177	2639.396919
562.729770	2640.710140
563.086307	2641.972949
563.442789	2642.451858
563.799216	2643.036632
564.155587	2641.778864
564.511904	2645.058135
564.868164	2642.615696
565.224370	2644.334729
565.580520	2644.516211
565.936615	2648.029895
566.292654	2645.824390
566.648638	2645.801705
567.004567	2643.649132
567.360441	2646.734319
567.716260	2646.653660
568.072023	2647.051911
568.427732	2642.802219
568.783385	2643.117291
569.138982	2642.613175
569.494525	2643.628968
569.850013	2639.722074
570.205445	2645.204328
570.560823	2642.905562
570.916145	2643.341622
571.271412	2641.025212
571.626625	2645.534524
571.981782	2643.099647
572.336884	2643.525624
572.691931	2642.207362
573.046923	2637.844244
573.401860	2639.626292
573.756743	2638.247536
574.111570	2634.685961
574.466342	2636.014305
574.821059	2637.314923
575.175722	2631.565487
575.530330	2633.241670
575.884882	2630.443830
576.239380	2631.568007
576.593823	2628.903757
576.948211	2629.932153
577.302544	2626.279837
577.656823	2625.495937
578.011047	2626.794035
578.365216	2624.255814
578.719330	2623.648355
579.073389	2622.292284
579.427394	2619.683487
579.781344	2619.791872
580.135239	2620.991667
580.489080	2619.776748
580.842866	2617.868672
581.196597	2616.068980
581.550273	2618.120729
581.903895	2615.937910
582.257463	2617.561161
582.610975	2613.344236
582.964434	2612.658639
583.317837	2615.577467
583.671186	2613.606376
584.024481	2613.079576
584.377721	2613.457662
584.730906	2611.133690
585.084037	2611.080758
585.437113	2607.244440
585.790135	2608.088833
586.143103	2608.431632
586.496016	2607.504059
586.848874	2602.208327
587.201679	2604.940633
587.554428	2600.670775
587.907124	2603.892073
588.259765	2600.728749
588.612352	2604.993565
588.964884	2605.956425
589.317362	2603.425766
589.669786	2604.330653
590.022155	2605.812752
590.374470	2605.895931
590.726731	2601.656321
591.078937	2603.869387
591.431090	2602.475508
591.783188	2600.426279
592.135232	2599.533995
592.487222	2601.046341
592.839157	2601.374016
593.191038	2599.559201
593.542866	2601.386619
593.894639	2600.401074
594.246358	2601.636156
594.598022	2600.290168
594.949633	2598.566094
595.301190	2599.912082
595.652692	2598.634149
596.004141	2598.611464
596.355535	2598.601382
596.706876	2597.386464
597.058162	2599.344952
597.409395	2598.661876
597.760573	2601.822679
598.111698	2599.108018
598.462768	2600.098604
598.813785	2602.261259
599.164748	2600.063316
599.515657	2601.588265
599.866511	2598.659355
600.217312	2601.101794
600.568060	2600.403594
600.918753	2603.468616
601.269392	2603.027515
601.619978	2600.559870
601.970510	2601.023656
602.320988	2603.652618
602.671412	2603.403081
603.021783	2603.816455
603.372100	2604.902824
603.722363	2600.968203
604.072572	2602.984665
604.422728	2605.840479
604.772830	2602.200766
605.122878	2600.590117
605.472872	2602.712443
605.822813	2602.510797
606.172701	2609.114708
606.522534	2608.091354
606.872314	2610.201077
607.222041	2610.342229
607.571714	2610.155706
607.921333	2610.632095
608.270899	2610.586725
608.620411	2612.351129
608.969870	2614.554113
609.319276	2616.353805
609.668627	2614.780965
610.017926	2616.832715
610.367171	2619.338168
610.716362	2620.235493
611.065500	2620.633745
611.414585	2624.933849
611.763616	2625.735392
612.112594	2628.291257
612.461518	2628.077008
612.810389	2627.676237
613.159207	2630.930301
613.507971	2631.474746
613.856682	2634.305354
614.205340	2635.116980
614.553945	2639.505304
614.902496	2635.442134
615.250994	2637.715694
615.599439	2641.804070
615.947830	2640.553864
616.296169	2644.622075
616.644454	2650.094248
616.992686	2650.593322
617.340864	2655.891575
617.688990	2657.434168
618.037063	2660.594971
618.385082	2664.219561
618.733048	2667.647545
619.080961	2668.706188
619.428821	2675.300017
619.776628	2676.540141
620.124382	2679.521983
620.472083	2681.984587
620.819731	2681.704803
621.167326	2680.285718
621.514868	2683.300328
621.862357	2680.746984
622.209793	2682.060204
622.557176	2683.242355
622.904506	2684.174968
623.251783	2682.866789
623.599007	2684.384176
623.946179	2685.246213
624.293297	2684.850483
624.640363	2688.293591
624.987376	2692.805424
625.334336	2693.972451
625.681243	2696.493028
626.028097	2694.980682
626.374899	2699.810107
626.721647	2701.685416
627.068343	2704.553833
627.414987	2707.286138
627.761577	2710.348639
628.108115	2714.731922
628.454600	2716.352653
628.801032	2720.279712
629.147412	2726.094683
629.493739	2728.106103
629.840014	2730.551063
630.186236	2736.083729
630.532405	2741.071951
630.878521	2747.151583
631.224585	2751.862541
631.570597	2757.065012
631.916556	2761.723038
632.262462	2765.579521
632.608316	2772.445572
632.954117	2775.424894
633.299866	2782.986625
633.645562	2783.858744
633.991206	2782.994187
634.336797	2784.435957
634.682336	2786.482665
635.027823	2787.531225
635.373257	2790.281174
635.718639	2789.552728
636.063968	2789.167079
636.409245	2789.678757
636.754470	2794.916515
637.099642	2795.720579
637.444762	2795.836526
637.789829	2804.673669
638.134845	2806.314564
638.479808	2810.251705
638.824719	2813.155410
639.169577	2812.981490
639.514383	2819.887871
639.859137	2821.624548
640.203839	2829.060250
640.548489	2831.288440
640.893086	2836.309430
641.237632	2835.820438
641.582125	2844.609689
641.926566	2846.515246
642.270955	2856.400948
642.615292	2860.406145
642.959576	2868.474512
643.303809	2872.444420
643.647990	2882.589743
643.992118	2887.212481
644.336195	2894.983419
644.680219	2901.284862
645.024192	2911.485636
645.368112	2927.380394
645.711981	2939.388423
646.055797	2956.109930
646.399562	2972.019812
646.743274	2994.710045
647.086935	3011.124042
647.430544	3024.036958
647.774101	3034.419214
648.117606	3041.910369
648.461059	3057.021227
648.804460	3055.438305
649.147810	3051.816236
649.491108	3055.113151
649.834354	3057.598439
650.177548	3048.494116
650.520690	3049.681307
650.863781	3053.883109
651.206820	3060.996177
651.549807	3061.931311
651.892742	3063.630180
652.235626	3067.060685
652.578458	3072.719380
652.921238	3070.488670
653.263967	3087.018613
653.606644	3091.018769
653.949269	3097.179059
654.291843	3099.825665
654.634365	3114.974332
654.976836	3117.205042
655.319255	3128.091414
655.661622	3131.882362
656.003938	3136.711787
656.346203	3141.332005
656.688416	3152.157883
657.030577	3157.322545
657.372687	3163.407217
657.714746	3178.185360
658.056753	3189.454859
658.398708	3181.270546
658.740612	3192.532484
659.082465	3205.558825
659.424266	3213.964949
659.766016	3225.022720
660.107715	3239.057293
660.449362	3248.809405
660.790958	3260.698966
661.132503	3271.532406
661.473996	3284.233593
661.815438	3292.551497
662.156829	3307.974907
662.498168	3311.617141
662.839456	3325.618945
663.180693	3336.805266
663.521879	3349.743387
663.863013	3362.855428
664.204097	3372.698281
664.545129	3398.279616
664.886110	3409.266811
665.227040	3423.427412
665.567918	3439.624640
665.908746	3456.212556
666.249522	3472.477839
666.590248	3484.654746
666.930922	3503.392715
667.271545	3512.146679
667.612118	3526.594626
667.952639	3529.291643
668.293109	3543.895866
668.633528	3549.345353
668.973896	3555.490520
669.314213	3571.140782
669.654480	3575.236719
669.994695	3583.161413
670.334859	3590.841611
670.674973	3599.091459
671.015035	3618.051239
671.355047	3628.065491
671.695008	3636.310298
672.034918	3646.730363
672.374777	3664.084535
672.714585	3673.861853
673.054342	3696.453784
673.394049	3700.068291
673.733705	3726.189030
674.073310	3727.018300
674.412864	3739.815269
674.752368	3738.428952
675.091820	3762.991974
675.431223	3752.345057
675.770574	3751.147783
676.109875	3754.374121
676.449125	3751.737598
676.788324	3757.013165
677.127473	3748.662494
677.466571	3755.770521
677.805619	3752.957557
678.144616	3762.777725
678.483562	3771.695526
678.822458	3771.277110
679.161303	3781.233389
679.500098	3790.035243
679.838842	3795.116727
680.177535	3811.964263
680.516179	3842.556505
680.854771	3873.693192
681.193314	3932.997325
681.531805	4011.422556
681.870247	4072.549067
682.208638	4125.231645
682.546978	4148.138648
682.885268	4166.092718
683.223508	4150.034122
683.561697	4152.773989
683.899836	4156.035616
684.237925	4149.819873
684.575963	4159.027540
684.913951	4158.770442
685.251889	4187.053835
685.589776	4206.565621
685.927614	4227.304928
686.265401	4260.359774
686.603137	4290.158034
686.940824	4343.644677
687.278460	4393.657964
687.616046	4426.934620
687.953582	4490.959795
688.291068	4507.094008
688.628504	4543.360068
688.965889	4552.819794
689.303224	4544.022980
689.640510	4535.591650
689.977745	4494.828880
690.314930	4450.295327
690.652065	4429.182975
690.989150	4390.116553
691.326185	4338.401877
691.663170	4305.520951
692.000105	4266.668778
692.336990	4230.039754
692.673825	4205.955642
693.010610	4185.458310
693.347345	4153.608300
693.684030	4123.207622
694.020665	4117.301910
694.357251	4081.529882
694.693786	4093.467335
695.030272	4090.619083
695.366707	4069.877255
695.703093	4063.205288
696.039429	4073.585024
696.375716	4072.486052
696.711952	4080.720777
697.048139	4082.336467
697.384276	4087.632199
697.720363	4109.838482
698.056400	4111.121455
698.392388	4106.244139
698.728326	4116.157568
699.064214	4112.394347
699.400053	4117.503556
699.735842	4101.223150
700.071581	4089.623455
700.407270	4077.126434
700.742910	4072.276844
701.078501	4061.624886
701.414042	4046.584604
701.749533	4034.773180
702.084974	4016.829193
702.420366	4039.113614
702.755709	4018.205428
703.091002	4002.429137
703.426246	4009.577493
703.761440	4018.996889
704.096584	4005.537009
704.431679	4009.849716
704.766725	4015.866333
705.101721	4020.446221
705.436668	4038.705280
705.771565	4025.769680
706.106413	4065.173859
706.441212	4081.461827
706.775961	4099.529322
707.110661	4118.746201
707.445311	4165.636493
707.779913	4169.278727
708.114465	4205.466650
708.448967	4244.959049
708.783421	4323.114578
709.117825	4367.481773
709.452180	4411.483484
709.786485	4471.669820
710.120742	4562.307245
710.454949	4588.869085
710.789107	4651.129855
711.123216	4740.827106
711.457275	4771.520171
711.791286	4840.793187
712.125247	4863.891753
712.459159	4852.400443
712.793023	4928.005148
713.126837	4830.421012
713.460602	4867.760839
713.794318	4839.873176
714.127985	4807.423269
714.461602	4722.689034
714.795171	4726.442173
715.128691	4630.430878
715.462162	4582.638219
715.795584	4548.638157
716.128957	4523.145042
716.462281	4492.552799
716.795556	4476.292558
717.128782	4432.472328
717.461960	4379.865367
717.795088	4382.998444
718.128167	4350.490563
718.461198	4307.366013
718.794180	4306.446002
719.127113	4276.420890
719.459997	4262.804733
719.792833	4234.297008
720.125619	4238.062750
720.458357	4211.558884
720.791046	4205.829613
721.123686	4194.792006
721.456278	4182.201725
721.788821	4180.555788
722.121315	4161.336389
722.453761	4179.794574
722.786158	4181.231303
723.118506	4191.011141
723.450805	4190.494423
723.783056	4216.668093
724.115259	4219.193712
724.447412	4218.838310
724.779518	4260.049743
725.111574	4273.650776
725.443582	4308.495231
725.775542	4321.914783
726.107453	4390.595463
726.439315	4394.656112
726.771129	4458.046101
727.102895	4515.941233
727.434612	4555.337850
727.766281	4584.160647
728.097901	4621.593735
728.429473	4639.179800
728.760996	4648.142972
729.092471	4665.837422
729.423897	4664.602339
729.755276	4664.935055
730.086606	4688.288200
730.417887	4770.577475
730.749120	4856.302296
731.080305	4891.983583
731.411442	4951.907779
731.742530	4968.669616
732.073570	4998.356971
732.404562	5047.906472
732.735506	5038.053537
733.066401	5003.168752
733.397249	4939.463691
733.728048	4857.814643
734.058798	4751.095936
734.389501	4660.574457
734.720156	4600.798975
735.050762	4531.956978
735.381320	4489.162623
735.711831	4466.984067
736.042293	4420.940688
736.372707	4437.967186
736.703073	4414.276283
737.033391	4455.664156
737.363661	4460.612049
737.693883	4486.899145
738.024056	4522.414074
738.354182	4563.617945
738.684260	4614.551243
739.014290	4661.413809
739.344272	4701.112896
739.674207	4752.527624
740.004093	4783.951656
740.333931	4790.661432
740.663722	4807.277075
740.993464	4813.286131
741.323159	4799.516219
741.652806	4763.257720
741.982405	4739.786107
742.311956	4694.549313
742.641460	4688.996483
742.970915	4648.213548
743.300323	4600.713276
743.629683	4573.901899
743.958996	4532.120816
744.288260	4496.033716
744.617477	4455.830514
744.946647	4450.728867
745.275768	4411.528854
745.604842	4389.403230
745.933869	4367.766598
746.262847	4369.934294
746.591778	4365.651834
746.920662	4357.089434
747.249498	4363.015310
747.578286	4390.872726
747.907027	4427.466462
748.235720	4475.218792
748.564365	4490.526256
748.892963	4476.821879
749.221514	4497.848532
749.550017	4483.612313
749.878473	4479.675172
750.206881	4453.531748
750.535242	4446.408598
750.863555	4433.982153
751.191821	4424.827418
751.520039	4436.623718
751.848210	4430.097944
752.176334	4443.623360
752.504411	4432.096762
752.832440	4411.261673
753.160421	4428.739353
753.488356	4408.877207
753.816243	4401.534767
754.144082	4382.542220
754.471875	4374.312536
754.799620	4369.818347
755.127318	4371.560066
755.454969	4370.904716
755.782572	4367.252400
756.110129	4375.688771
756.437638	4370.912278
756.765100	4369.583934
757.092515	4380.727404
757.419882	4389.831728
757.747203	4394.822470
758.074477	4412.965583
758.401703	4413.116818
758.728882	4452.639464
759.056014	4466.792503
759.383099	4487.819156
759.710138	4520.180843
760.037129	4547.834093
760.364073	4557.301379
760.690970	4562.461000
761.017820	4569.899223
761.344623	4617.575935
761.671379	4703.036096
761.998088	4848.080174
762.324751	5210.574424
762.651366	5826.555533
762.977935	6572.227887
763.304456	7022.685230
763.630931	7129.590459
763.957359	6896.416929
764.283740	6506.282033
764.610074	6126.171471
764.936362	5693.169123
765.262602	5377.887800
765.588796	5068.804575
765.914943	4851.813149
766.241044	4673.520140
766.567097	4540.005181
766.893104	4427.423612
767.219064	4355.128425
767.544978	4278.593627
767.870845	4210.129717
768.196665	4175.436496
768.522438	4135.553408
768.848165	4104.217595
769.173846	4070.746854
769.499479	4046.955129
769.825066	4014.984131
770.150607	3980.951301
770.476101	3971.549549
770.801548	3951.536169
771.126949	3923.371242
771.452303	3907.380702
771.777611	3874.779560
772.102872	3875.765106
772.428087	3848.207638
772.753256	3823.669822
773.078378	3809.007626
773.403453	3773.734673
773.728482	3753.615428
774.053465	3739.316195
774.378401	3720.227866
774.703291	3703.062737
775.028135	3685.133873
775.352932	3679.457534
775.677683	3659.265192
776.002388	3641.258191
776.327046	3642.258860
776.651658	3623.954430
776.976224	3613.962863
777.300743	3608.510855
777.625216	3592.880758
777.949643	3587.753904
778.274024	3593.727672
778.598359	3576.058427
778.922647	3577.399374
779.246889	3572.890062
779.571086	3574.228488
779.895236	3580.108994
780.219339	3579.982966
780.543397	3582.495981
780.867409	3601.014659
781.191374	3604.175463
781.515294	3597.659772
781.839167	3618.076445
782.162995	3612.662245
782.486776	3602.723611
782.810511	3595.749174
783.134201	3579.609920
783.457844	3580.101433
783.781441	3573.721852
784.104993	3559.863721
784.428498	3557.564954
784.751958	3556.604615
785.075372	3552.440622
785.398739	3546.570198
785.722061	3556.534038
786.045337	3559.619225
786.368568	3593.478134
786.691752	3604.172942
787.014891	3676.566432
787.337983	3753.360849
787.661030	3874.514900
787.984031	3989.402796
788.306987	4067.097059
788.629897	4099.688118
788.952760	4084.854523
789.275579	4048.583421
789.598351	3970.773212
789.921078	3900.945669
790.243759	3823.001869
790.566395	3768.063374
790.888984	3718.065211
791.211529	3680.526258
791.534027	3636.171666
791.856480	3597.344699
792.178888	3582.241402
792.501249	3567.327149
792.823566	3535.900596
793.145836	3537.201213
793.468062	3535.875390
793.790241	3526.594626
794.112375	3541.534085
794.434464	3569.920823
794.756507	3585.858430
795.078505	3620.065180
795.400457	3684.014737
795.722364	3749.549737
796.044226	3809.930157
796.366042	3858.355481
796.687812	3845.167822
797.009538	3866.058364
797.331218	3841.727235
797.652852	3829.149556
797.974442	3795.265441
798.295986	3775.932616
798.617484	3741.327615
798.938938	3713.122359
799.260346	3693.343392
799.581709	3654.118174
799.903026	3640.320536
800.224299	3619.682052
800.545526	3587.073348
800.866708	3566.208013
801.187845	3549.927606
801.508936	3526.592105
801.829983	3522.077752
802.150984	3488.286898
802.471940	3484.821104
802.792851	3476.546050
803.113717	3472.094712
803.434538	3466.143629
803.755314	3457.306487
804.076045	3454.687607
804.396731	3445.006071
804.717372	3449.860703
805.037967	3449.117132
805.358518	3457.866055
805.679024	3476.576297
805.999485	3478.872543
806.319901	3486.623317
806.640272	3493.507013
806.960598	3510.752800
807.280879	3512.383613
807.601115	3524.303421
807.921306	3513.031401
808.241453	3513.608613
808.561554	3524.832743
808.881611	3515.141124
809.201623	3517.649098
809.521590	3503.208713
809.841513	3499.906757
810.161390	3512.726412
810.481223	3485.201712
810.801011	3484.579129
811.120755	3477.650063
811.440453	3465.062302
811.760107	3455.766414
812.079716	3446.339457
812.399281	3430.243052
812.718801	3435.019546
813.038276	3422.860283
813.357707	3418.489602
813.677093	3427.120058
813.996434	3407.305802
814.315731	3417.841814
814.634983	3420.458173
814.954191	3425.564862
815.273354	3451.738532
815.592473	3464.895944
815.911547	3495.997342
816.230577	3513.641381
816.549562	3545.632543
816.868502	3565.245152
817.187399	3591.648196
817.506250	3625.068525
817.825058	3644.298006
818.143821	3705.510217
818.462539	3770.742748
818.781213	3860.145091
819.099843	3989.695183
819.418429	4216.839493
819.736970	4436.747226
820.055466	4700.167679
820.373919	5055.816042
820.692327	5604.336430
821.010691	6526.179467
821.329011	8343.238165
821.647286	10770.200861
821.965517	13357.782280
822.283704	14749.024795
822.601847	15395.008332
822.919945	14419.028344
823.237999	13217.302967
823.556010	11831.535145
823.873976	10512.184525
824.191897	9283.325137
824.509775	8369.835292
824.827609	7538.609517
825.145398	7081.356699
825.463144	6881.548045
825.780845	7014.503437
826.098502	7432.173115
826.416116	8200.545785
826.733685	8909.059793
827.051210	9063.366992
827.368692	8627.947411
827.686129	7826.640883
828.003522	7002.046746
828.320872	6253.606799
828.638177	5678.806876
828.955439	5240.322273
829.272656	4866.455180
829.589830	4564.656423
829.906960	4306.534223
830.224046	4114.748566
830.541088	3968.454281
830.858086	3878.542782
831.175041	3809.148778
831.491952	3797.521357
831.808819	3820.287208
832.125642	3934.209723
832.442421	4159.922345
832.759157	4594.817646
833.075849	5235.523094
833.392497	5881.236929
833.709101	6258.476553
834.025662	6162.566081
834.342179	5794.229134
834.658653	5322.054500
834.975083	4919.190691
835.291469	4591.208180
835.607811	4306.687978
835.924110	4107.418728
836.240366	3918.481323
836.556578	3748.203749
836.872746	3609.768623
837.188871	3503.138137
837.504952	3418.688728
837.820990	3352.999973
838.136984	3309.794763
838.452935	3294.114254
838.768842	3313.101760
839.084706	3434.034000
839.400526	3723.343299
839.716303	4068.319539
840.032037	4275.064820
840.347727	4211.422773
840.663373	3984.187722
840.978977	3761.663630
841.294537	3591.537290
841.610054	3460.527784
841.925527	3363.382229
842.240957	3283.414405
842.556344	3210.718446
842.871687	3143.935761
843.186987	3088.074735
843.502244	3037.587579
843.817458	3003.516941
844.132629	2975.266315
844.447756	2954.993315
844.762840	2931.433482
845.077881	2917.245155
845.392879	2902.204872
845.707833	2892.112482
846.022745	2880.711913
846.337613	2877.848537
846.652438	2871.237064
846.967221	2867.957793
847.281960	2857.220136
847.596656	2854.931452
847.911309	2849.108919
848.225919	2842.898218
848.540485	2842.298320
848.855009	2837.630212
849.169490	2831.658965
849.483928	2828.304077
849.798323	2826.096052
850.112675	2823.580516
850.426984	2824.717296
850.741251	2821.495999
851.055474	2821.611946
851.369654	2822.854590
851.683792	2819.698828
851.997887	2821.979950
852.311938	2821.879127
852.625947	2821.528767
852.939914	2819.159424
853.253837	2822.005156
853.567718	2820.702017
853.881555	2818.186482
854.195350	2822.829384
854.509103	2822.670588
854.822812	2820.646565
855.136479	2821.740495
855.450103	2820.727223
855.763685	2818.115905
856.077224	2820.613797
856.390720	2824.437512
856.704173	2826.897595
857.017584	2829.899602
857.330953	2831.064109
857.644278	2837.930161
857.957561	2838.167095
858.270802	2836.589214
858.584000	2838.918227
858.897155	2833.874552
859.210268	2833.115859
859.523339	2828.636793
859.836367	2823.673777
860.149352	2821.488437
860.462295	2824.724858
860.775195	2818.257058
861.088054	2816.197746
861.400869	2816.449804
861.713642	2814.173723
862.026373	2820.192861
862.339062	2823.094045
862.651708	2828.541012
862.964312	2835.182732
863.276873	2837.852023
863.589392	2853.121678
863.901869	2863.032586
864.214303	2872.477188
864.526696	2880.537993
864.839045	2887.189795
865.151353	2895.270765
865.463619	2895.689181
865.775842	2896.422669
866.088023	2900.206055
866.400162	2897.632546
866.712258	2901.151271
867.024313	2897.239336
867.336325	2900.261507
867.648296	2900.137999
867.960224	2899.427196
868.272110	2903.429873
868.583954	2902.348545
868.895755	2908.501273
869.207515	2906.225192
869.519233	2916.408323
869.830909	2917.383786
870.142542	2924.446443
870.454134	2925.658840
870.765684	2936.338525
871.077191	2943.900256
871.388657	2946.924948
871.700081	2954.227059
872.011463	2966.751806
872.322803	2973.869915
872.634101	2976.844196
872.945357	2988.693428
873.256571	3000.835047
873.567744	3007.038187
873.878874	3011.890298
874.189963	3016.422295
874.501010	3020.472862
874.812015	3017.901873
875.122979	3027.104500
875.433900	3026.252545
875.744780	3029.506610
876.055618	3035.437527
876.366415	3038.338711
876.677169	3043.289124
876.987882	3049.154507
877.298554	3059.889644
877.609183	3082.378231
877.919771	3105.718773
878.230317	3138.685399
878.540822	3191.476362
878.851285	3268.164915
879.161707	3381.353942
879.472087	3564.501582
879.782425	3857.246427
880.092722	4354.669680
880.402977	5044.594434
880.713191	5757.806797
881.023363	6414.737199
881.333494	6777.725482
881.643583	7006.888774
881.953631	6986.782132
882.263637	6811.609597
882.573602	6523.757192
882.883526	6222.013888
883.193408	5887.732456
883.503248	5550.824582
883.813048	5233.020162
884.122806	4940.557621
884.432522	4642.993433
884.742197	4388.715112
885.051831	4168.285619
885.361424	3977.689675
885.670975	3816.506342
885.980485	3678.189684
886.289954	3564.161304
886.599382	3471.038590
886.908768	3393.588823
887.218113	3321.308759
887.527417	3262.322218
887.836680	3205.105122
888.145901	3159.142401
888.455082	3127.471352
888.764221	3094.487083
889.073319	3067.025397
889.382376	3054.155331
889.691392	3041.902807
890.000366	3039.709905
890.309300	3035.142620
890.618193	3038.152188
890.927044	3034.182280
891.235855	3041.091181
891.544625	3048.897408
891.853353	3061.293605
892.162041	3092.952051
892.470687	3133.976961
892.779293	3193.702032
893.087858	3273.858898
893.396381	3401.717683
893.704864	3588.154676
894.013306	3835.284640
894.321707	4082.913679
894.630068	4234.498655
894.938387	4253.637395
895.246665	4182.166437
895.554903	4047.330695
895.863100	3903.945156
896.171256	3780.570477
896.479371	3669.622243
896.787446	3570.067016
897.095480	3478.247440
897.403473	3409.342428
897.711425	3347.525279
898.019336	3286.590332
898.327207	3231.573700
898.635038	3186.785568
898.942827	3134.097949
899.250576	3094.330807
899.558284	3056.917884
899.865952	3031.089532
900.173579	2998.206085
900.481165	2978.704382
900.788711	2957.289560
901.096216	2944.996707
901.403681	2930.142947
901.711105	2926.820826
902.018489	2926.558686
902.325832	2944.926130
902.633135	2975.316726
902.940397	3061.510375
903.247619	3254.473141
903.554800	3582.352308
903.861941	3985.289214
904.169041	4267.755147
904.476101	4349.694061
904.783121	4244.502824
905.090100	4082.530551
905.397039	3910.581835
905.703938	3748.584356
906.010796	3608.858695
906.317614	3496.214112
906.624391	3382.510887
906.931129	3297.096097
907.237826	3211.628375
907.544483	3136.023670
907.851099	3057.212791
908.157675	2984.741163
908.464211	2923.793613
908.770707	2874.080275
909.077163	2839.891169
909.383578	2810.024853
909.689954	2788.272275
909.996289	2775.271139
910.302584	2764.720004
910.608839	2758.229518
910.915054	2754.279774
911.221229	2754.337747
911.527363	2758.572317
911.833458	2758.516864
912.139513	2766.239912
912.445527	2772.543875
912.751502	2790.692028
913.057436	2811.970739
913.363331	2841.532065
913.669186	2886.254661
913.975000	2942.897066
914.280775	3039.488094
914.586510	3166.293278
914.892205	3341.725432
915.197859	3559.485634
915.503475	3811.654232
915.809050	4019.153165
916.114585	4140.042555
916.420081	4173.508255
916.725536	4150.702075
917.030952	4049.614337
917.336328	3960.842139
917.641665	3870.058520
917.946961	3770.790639
918.252218	3674.229857
918.557435	3576.842327
918.862612	3488.291939
919.167750	3408.145154
919.472848	3317.142245
919.777906	3239.639546
920.082925	3167.921571
920.387904	3098.779625
920.692843	3048.489074
920.997743	2999.945283
921.302603	2957.647482
921.607423	2925.288316
921.912204	2895.963924
922.216946	2870.712784
922.521647	2848.279649
922.826310	2826.209478
923.130932	2807.721046
923.435516	2788.332768
923.740059	2775.941612
924.044564	2760.147677
924.349028	2750.007396
924.653454	2731.718090
924.957840	2720.491441
925.262186	2711.084648
925.566493	2698.108717
925.870761	2684.346367
926.174989	2684.434588
926.479178	2674.223731
926.783328	2669.883297
927.087438	2662.198058
927.391509	2655.931904
927.695541	2648.959988
927.999533	2645.007723
928.303486	2638.670993
928.607400	2635.855509
928.911275	2634.416259
929.215110	2630.831999
929.518906	2630.675723
929.822663	2632.009108
930.126381	2631.026083
930.430060	2632.205713
930.733699	2632.974489
931.037299	2634.847278
931.340861	2634.938019
931.644383	2636.531023
931.947866	2633.897020
932.251309	2633.806280
932.554714	2631.754530
932.858080	2635.074130
933.161407	2631.482308
933.464694	2627.751854
933.767943	2624.399487
934.071153	2626.433592
934.374323	2622.088117
934.677455	2622.453601
934.980548	2622.715741
935.283602	2620.162397
935.586617	2619.348250
935.889593	2622.972840
936.192530	2622.380504
936.495428	2624.069291
936.798287	2630.980713
937.101108	2637.735859
937.403890	2650.767242
937.706632	2664.138902
938.009336	2679.181705
938.312002	2694.761391
938.614628	2706.577856
938.917216	2716.564382
939.219765	2717.799464
939.522275	2724.771380
939.824747	2725.257852
940.127179	2718.694269
940.429573	2718.837942
940.731929	2719.468086
941.034246	2712.148331
941.336524	2712.811243
941.638763	2708.811087
941.940964	2707.457537
942.243126	2698.459078
942.545250	2692.419775
942.847335	2685.699917
943.149381	2677.601304
943.451389	2672.469409
943.753359	2665.883142
944.055290	2659.319559
944.357182	2655.294198
944.659036	2652.708086
944.960851	2653.960813
945.262628	2647.278763
945.564367	2649.194402
945.866067	2649.811943
946.167729	2649.050729
946.469352	2648.166006
946.770937	2649.058291
947.072484	2642.945892
947.373992	2643.210552
947.675462	2643.336581
947.976893	2638.723925
948.278286	2637.012453
948.579641	2637.135962
948.880958	2634.239819
949.182236	2633.869294
949.483476	2633.402987
949.784678	2631.666310
950.085841	2633.027421
950.386967	2636.357103
950.688054	2641.597383
950.989103	2643.213073
951.290114	2649.219607
951.591087	2655.886533
951.892021	2660.126144
952.192917	2665.817607
952.493776	2670.848678
952.794596	2672.232475
953.095378	2670.914213
953.396122	2673.119718
953.696828	2668.867505
953.997496	2667.496311
954.298126	2664.350631
954.598718	2659.589261
954.899272	2652.385452
955.199788	2647.044350
955.500266	2642.706437
955.800706	2630.189252
956.101108	2621.034516
956.401472	2617.157869
956.701798	2605.953905
957.002087	2603.176229
957.302337	2601.850405
957.602550	2595.128027
957.902724	2590.006214
958.202861	2582.918352
958.502960	2578.988773
958.803022	2575.976683
959.103045	2576.644636
959.403031	2569.448389
959.702979	2567.711712
960.002889	2563.756926
960.302762	2562.103428
960.602596	2554.771070
960.902393	2558.867007
961.202153	2558.937583
961.501875	2555.383570
961.801559	2556.021276
962.101205	2553.157900
962.400814	2549.593805
962.700385	2547.050542
962.999918	2552.613456
963.299414	2549.409803
963.598873	2548.104144
963.898293	2547.574822
964.197677	2547.005172
964.497022	2546.314534
964.796331	2546.087682
965.095601	2545.583567
965.394835	2547.244627
965.694030	2544.343443
965.993189	2547.373176
966.292309	2545.457538
966.591393	2544.227496
966.890439	2545.989380
967.189447	2547.799154
967.488419	2544.552651
967.787353	2544.487116
968.086249	2544.524924
968.385108	2547.564740
968.683930	2545.069369
968.982714	2544.903011
969.281462	2550.327292
969.580172	2549.482899
969.878844	2549.182951
970.177480	2548.298228
970.476078	2552.263096
970.774639	2555.058415
971.073162	2553.571275
971.371649	2553.581357
971.670098	2552.179917
971.968510	2554.445915
972.266885	2554.826522
972.565223	2560.074363
972.863524	2561.498489
973.161788	2563.320867
973.460014	2561.367419
973.758204	2560.797769
974.056356	2562.622667
974.354471	2561.843808
974.652550	2562.521844
974.950591	2564.281206
975.248595	2562.305074
975.546563	2559.696277
975.844493	2560.689384
976.142386	2560.248283
976.440243	2559.822306
976.738062	2557.924311
977.035845	2557.233673
977.333590	2556.911039
977.631299	2551.640513
977.928971	2551.648075
978.226606	2550.768393
978.524204	2552.530277
978.821765	2552.164793
979.119290	2552.139587
979.416777	2549.850903
979.714228	2550.551624
980.011642	2550.004659
980.309020	2558.279713
980.606360	2556.880793
980.903664	2561.276679
981.200931	2568.961918
981.498162	2575.454924
981.795356	2588.932449
982.092513	2611.441201
982.389633	2629.841412
982.686717	2651.919145
982.983764	2665.121927
983.280775	2671.143586
983.577749	2670.783143
983.874686	2667.347597
984.171587	2659.543891
984.468451	2654.142294
984.765279	2645.221972
985.062070	2633.667648
985.358824	2623.227418
985.655543	2613.999586
985.952224	2604.439038
986.248869	2590.074270
986.545478	2574.832341
986.842050	2568.578790
987.138586	2559.471946
987.435086	2551.801830
987.731549	2546.362425
988.027975	2547.957950
988.324366	2544.960984
988.620719	2543.642722
988.917037	2541.192722
989.213318	2538.228523
989.509563	2539.282124
989.805772	2534.717360
990.101944	2535.539068
990.398080	2535.833975
990.694180	2534.309026
990.990244	2537.313554
991.286271	2534.722401
991.582262	2537.157278
991.878217	2539.322454
992.174136	2538.183153
992.470019	2537.429500
992.765865	2538.919161
993.061676	2537.820190
993.357450	2541.293545
993.653188	2542.447969
993.948890	2545.467620
994.244556	2549.563558
994.540186	2556.464897
994.835780	2556.449774
995.131337	2567.255487
995.426859	2575.283525
995.722345	2581.083372
996.017795	2595.322111
996.313208	2600.249839
996.608586	2606.591611
996.903928	2606.820983
997.199234	2603.599686
997.494504	2602.581373
997.789738	2598.843357
998.084936	2596.249683
998.380099	2588.181317
998.675225	2586.411872
998.970316	2578.414081
999.265371	2571.966445
999.560390	2563.451937
999.855373	2560.596123
1000.150320	2552.240410
1000.445232	2549.936603
1000.740108	2545.079451
1001.034948	2542.810932
1001.329752	2541.122146
1001.624521	2537.421939
1001.919254	2535.196269
1002.213951	2534.518234
1002.508613	2532.854653
1002.803239	2531.160826
1003.097829	2527.039682
1003.392384	2529.852646
1003.686903	2530.888603
1003.981386	2531.039838
1004.275834	2530.132430
1004.570246	2530.608819
1004.864623	2531.422966
1005.158964	2531.208717
1005.453270	2530.583613
1005.747540	2525.731503
1006.041775	2526.669158
1006.335974	2528.403314
1006.630138	2526.822913
1006.924266	2530.139992
1007.218359	2528.320135
1007.512416	2528.443644
1007.806438	2526.885927
1008.100425	2528.017666
1008.394376	2526.023890
1008.688292	2526.066740
1008.982172	2524.998015
1009.276017	2523.866276
1009.569827	2525.771832
1009.863602	2526.961544
1010.157341	2528.481452
1010.451045	2528.761236
1010.744714	2527.596730
1011.038347	2528.357944
1011.331945	2526.036493
1011.625508	2524.067922
1011.919036	2526.802748
1012.212528	2528.002543
1012.505986	2525.207223
1012.799408	2527.480783
1013.092795	2523.982223
1013.386147	2527.672347
1013.679464	2526.018849
1013.972745	2526.220495
1014.265992	2523.876358
1014.559204	2524.947603
1014.852380	2525.340813
1015.145521	2525.938190
1015.438628	2523.848632
1015.731699	2524.100690
1016.024736	2525.242511
1016.317737	2527.415248
1016.610703	2527.803417
1016.903635	2524.020031
1017.196531	2523.939373
1017.489393	2525.197141
1017.782219	2521.567510
1018.075011	2525.134126
1018.367768	2527.203520
1018.660490	2529.464477
1018.953177	2529.464477
1019.245829	2529.464477
