Dividing Wavelength (nm)	Counts (n)	Blue Motor Position (mm): 26.900000	Red Motor Position (mm): 0.000000	
326.493990	2131.412449
326.888308	2131.412449
327.282561	2131.412449
327.676750	2100.701740
328.070874	2100.590834
328.464933	2100.469847
328.858929	2104.527976
329.252859	2115.986518
329.646726	2129.743827
330.040528	2141.194808
330.434265	2159.126192
330.827938	2174.710919
331.221547	2192.990143
331.615091	2213.671477
332.008571	2232.122100
332.401986	2254.368712
332.795338	2271.715322
333.188625	2291.461522
333.581847	2308.752680
333.975006	2327.772953
334.368100	2344.617969
334.761129	2363.386184
335.154095	2378.444111
335.546996	2400.607544
335.939833	2426.128385
336.332606	2439.510128
336.725315	2453.559824
337.117960	2462.170115
337.510540	2470.099850
337.903056	2479.693165
338.295508	2487.688435
338.687896	2495.424086
339.080220	2506.444048
339.472480	2511.376817
339.864676	2519.213291
340.256807	2517.370749
340.648875	2522.742099
341.040879	2523.140350
341.432818	2529.182173
341.824694	2531.173428
342.216506	2529.046062
342.608253	2532.383305
342.999937	2529.678726
343.391557	2528.720907
343.783113	2529.346010
344.174605	2525.983561
344.566033	2525.310567
344.957397	2523.084897
345.348697	2523.747809
345.739934	2521.431399
346.131106	2516.266737
346.522215	2518.575585
346.913260	2514.835049
347.304241	2510.275325
347.695159	2513.557116
348.086012	2511.119718
348.476802	2509.617455
348.867528	2506.796929
349.258191	2504.634274
349.648789	2505.266939
350.039324	2504.162926
350.429796	2503.999089
350.820203	2499.588079
351.210548	2501.113028
351.600828	2496.633963
351.991045	2499.436844
352.381198	2492.908550
352.771288	2498.027842
353.161314	2493.236225
353.551276	2497.594303
353.941175	2496.467605
354.331010	2495.751761
354.720782	2496.684374
355.110490	2498.592451
355.500135	2494.320073
355.889717	2499.648573
356.279235	2494.869559
356.668689	2497.932060
357.058080	2495.852584
357.447408	2497.024652
357.836672	2491.950731
358.225873	2495.603047
358.615010	2492.429641
359.004084	2500.014057
359.393095	2498.499190
359.782043	2499.489777
360.170927	2501.465909
360.559748	2502.872391
360.948505	2502.219561
361.337199	2501.907010
361.725830	2502.811897
362.114398	2503.696619
362.502903	2501.690240
362.891344	2505.176198
363.279722	2502.874911
363.668037	2505.723163
364.056289	2503.603358
364.444478	2504.122597
364.832603	2507.966477
365.220665	2503.515138
365.608665	2506.128976
365.996601	2508.354646
366.384474	2506.318019
366.772284	2510.809688
367.160031	2509.176354
367.547715	2509.574605
367.935336	2507.079234
368.322893	2512.090141
368.710388	2508.992352
369.097820	2511.122239
369.485189	2511.616272
369.872495	2511.757424
370.259738	2512.349760
370.646918	2510.610562
371.034035	2510.842455
371.421090	2512.974863
371.808081	2511.149965
372.195010	2514.567868
372.581875	2514.880419
372.968678	2511.303721
373.355418	2513.630213
373.742096	2513.179030
374.128710	2513.045439
374.515262	2512.163237
374.901751	2515.591222
375.288177	2512.049811
375.674540	2513.741118
376.060841	2512.798423
376.447079	2516.614576
376.833254	2514.083917
377.219367	2510.229955
377.605417	2513.368073
377.991404	2513.327744
378.377329	2510.028309
378.763191	2513.405882
379.148991	2515.492919
379.534727	2517.141377
379.920402	2518.031140
380.306013	2515.445028
380.691563	2515.248423
381.077049	2516.513753
381.462474	2515.845800
381.847835	2518.691532
382.233134	2519.903929
382.618371	2518.063908
383.003545	2518.071470
383.388657	2518.230266
383.773706	2518.936027
384.158693	2519.024248
384.543618	2519.780421
384.928480	2516.959895
385.313280	2517.698424
385.698017	2519.379649
386.082692	2518.212622
386.467305	2520.718075
386.851856	2521.126409
387.236344	2520.508868
387.620770	2521.880061
388.005133	2523.324352
388.389435	2521.234794
388.773674	2521.829650
389.157851	2521.466687
389.541965	2521.499454
389.926018	2523.735206
390.310008	2521.852335
390.693936	2522.243024
391.077802	2523.611698
391.461606	2524.367871
391.845348	2523.762932
392.229027	2525.295443
392.612645	2522.371574
392.996200	2524.032634
393.379694	2525.113962
393.763125	2524.937521
394.146494	2524.446009
394.529801	2527.092614
394.913047	2524.312418
395.296230	2526.749816
395.679351	2526.336441
396.062410	2525.055988
396.445408	2525.391225
396.828343	2527.846267
397.211217	2520.879392
397.594028	2524.965248
397.976778	2524.304856
398.359466	2526.651513
398.742092	2525.363499
399.124656	2529.305681
399.507158	2526.452388
399.889598	2527.629497
400.271977	2527.727800
400.654294	2530.518078
401.036549	2530.013963
401.418742	2529.920702
401.800874	2527.911802
402.182944	2530.961700
402.564952	2527.659744
402.946898	2530.727286
403.328783	2531.697708
403.710606	2528.617563
404.092367	2529.151926
404.474067	2530.818027
404.855705	2529.451874
405.237282	2530.712163
405.618797	2530.470187
406.000250	2530.006401
406.381642	2531.685106
406.762972	2531.889272
407.144240	2533.013450
407.525447	2534.051927
407.906593	2533.424304
408.287677	2532.557225
408.668700	2532.973120
409.049661	2536.766589
409.430560	2531.899355
409.811399	2535.488656
410.192176	2532.640404
410.572891	2535.347504
410.953545	2531.569159
411.334138	2532.990764
411.714669	2531.974972
412.095139	2532.685775
412.475547	2535.138296
412.855894	2533.872966
413.236180	2533.726773
413.616405	2537.109387
413.996568	2535.312216
414.376670	2536.466640
414.756711	2535.443286
415.136691	2537.134593
415.516609	2535.954963
415.896466	2534.442617
416.276262	2536.585107
416.655997	2532.133768
417.035670	2534.127545
417.415283	2537.137113
417.794834	2532.426155
418.174324	2537.051414
418.553753	2533.353727
418.933121	2538.578883
419.312428	2541.031405
419.691674	2540.648277
420.070859	2536.259953
420.449983	2539.287166
420.829045	2538.105015
421.208047	2540.113915
421.586988	2539.861857
421.965867	2541.220448
422.344686	2537.432021
422.723444	2543.178936
423.102141	2539.806404
423.480777	2539.755993
423.859352	2542.634492
424.237866	2541.283462
424.616319	2541.497712
424.994712	2539.884542
425.373044	2543.249513
425.751314	2538.662062
426.129524	2543.216745
426.507673	2542.823535
426.885762	2543.284801
427.263789	2544.172044
427.641756	2543.526776
428.019662	2544.431663
428.397508	2541.119625
428.775292	2543.710778
429.153016	2544.081303
429.530679	2545.003834
429.908282	2545.238248
430.285824	2545.359235
430.663305	2544.577857
431.040726	2546.039791
431.418086	2547.015254
431.795385	2546.856458
432.172624	2547.305121
432.549802	2548.116747
432.926920	2548.139432
433.303977	2546.637168
433.680974	2548.726726
434.057910	2549.949206
434.434786	2549.679504
434.811601	2548.038609
435.188355	2551.338044
435.565050	2548.472148
435.941683	2553.896429
436.318257	2552.943651
436.694770	2550.372663
437.071222	2551.380894
437.447614	2550.584391
437.823946	2554.824002
438.200218	2557.750392
438.576429	2559.003118
438.952580	2563.640980
439.328670	2563.134344
439.704700	2565.511248
440.080670	2571.825293
440.456580	2573.569532
440.832429	2577.171437
441.208218	2576.939544
441.583947	2582.560430
441.959616	2588.924887
442.335224	2592.201637
442.710773	2597.341093
443.086261	2604.449120
443.461689	2607.756117
443.837057	2615.937910
444.212365	2626.214302
444.587612	2628.611371
444.962800	2640.082516
445.337927	2649.857313
445.712995	2646.348670
446.088002	2670.016888
446.462949	2678.130625
446.837837	2687.681091
447.212664	2697.249201
447.587431	2723.090155
447.962139	2762.824530
448.336786	2824.571103
448.711374	2824.316525
449.085901	2794.200672
449.460369	2803.892290
449.834776	2815.844866
450.209124	2866.397556
450.583412	2900.858884
450.957640	2927.347627
451.331808	2931.115889
451.705917	2916.441091
452.079965	2933.613781
452.453954	2975.558702
452.827883	2989.106803
453.201752	3021.145856
453.575562	3023.643748
453.949311	3077.904207
454.323001	3091.376691
454.696632	3127.176445
455.070202	3183.176102
455.443713	3235.256263
455.817164	3286.088738
456.190556	3333.604133
456.563888	3386.800909
456.937160	3427.530912
457.310373	3406.857140
457.683526	3449.686783
458.056619	3470.559680
458.429653	3509.598376
458.802628	3532.911192
459.175542	3598.529371
459.548398	3731.346130
459.921194	3817.539779
460.293930	3869.897203
460.666607	4079.659614
461.039224	4225.754773
461.411782	4318.466634
461.784280	4381.153382
462.156719	4406.006270
462.529099	4420.257612
462.901419	4352.247406
463.273680	4372.109552
463.645882	4423.768776
464.018024	4450.083599
464.390106	4566.796393
464.762130	4777.927477
465.134094	5037.531777
465.505999	5532.419330
465.877845	6134.733871
466.249631	6492.444065
466.621358	6420.395894
466.993026	6249.296612
467.364634	6211.427465
467.736184	6134.033150
468.107674	6057.783178
468.479105	6168.156721
468.850477	6113.296364
469.221790	6081.640438
469.593043	5984.326004
469.964238	5991.101315
470.335373	6068.001597
470.706449	6171.904818
471.077467	6231.728191
471.448425	7075.783703
471.819324	7810.201681
472.190164	7906.840600
472.560945	7220.497586
472.931667	6807.969884
473.302330	6784.926770
473.672934	6616.307736
474.043479	6916.074908
474.413965	6943.115657
474.784393	6931.135355
475.154761	7099.540141
475.525070	7229.012095
475.895321	7165.072620
476.265513	7349.669592
476.635645	7542.617234
477.005719	7604.719209
477.375734	7753.433247
477.745691	7990.985019
478.115588	8156.675143
478.485427	8410.149400
478.855207	8884.234631
479.224928	9581.113656
479.594591	10143.814810
479.964194	10080.888608
480.333739	10101.839643
480.703226	10119.771027
481.072653	10251.035112
481.442022	10511.355255
481.811333	10715.842099
482.180584	10616.697726
482.549777	10427.750239
482.918912	10324.058746
483.287988	10391.826977
483.657005	10452.865267
484.025964	10221.935051
484.394864	10390.233972
484.763706	10407.825078
485.132489	10233.212112
485.501213	10240.153781
485.869879	10347.207724
486.238487	10240.327701
486.607036	10368.680519
486.975527	10212.805521
487.343959	10413.093084
487.712333	10485.526903
488.080648	10446.818403
488.448905	10519.179126
488.817104	10485.370628
489.185244	10761.494788
489.553326	10936.700090
489.921350	11461.980759
490.289315	12481.118065
490.657222	12833.146879
491.025070	12765.572732
491.392861	12666.640088
491.760593	12330.440497
492.128267	12018.887107
492.495883	11725.955739
492.863440	11407.967316
493.230939	11098.982394
493.598380	11048.369210
493.965763	10937.133629
494.333088	10843.862201
494.700354	10775.519278
495.067563	10846.163488
495.434713	10683.525782
495.801805	10812.203755
496.168839	10744.440565
496.535815	10694.656650
496.902733	10692.468789
497.269593	10635.138267
497.636395	10739.409493
498.003139	10730.158976
498.369825	10610.640780
498.736453	10763.685170
499.103023	10693.451814
499.469535	10725.460621
499.835989	10723.736546
500.202385	10686.873108
500.568723	10544.924298
500.935003	10765.411765
501.301226	10574.878835
501.667390	10836.403814
502.033497	10931.066601
502.399546	10795.210025
502.765537	10703.395490
503.131470	10774.994998
503.497345	10956.718512
503.863163	10575.624925
504.228923	10877.421162
504.594625	10944.077819
504.960269	10694.195384
505.325856	10912.439537
505.691385	10712.913189
506.056856	10859.373831
506.422270	10887.654704
506.787625	10777.354258
507.152924	10896.471683
507.518164	10884.075485
507.883347	10805.645214
508.248472	10718.713036
508.613540	10953.456886
508.978550	10846.476039
509.343503	10816.909672
509.708398	10935.109606
510.073236	11051.572863
510.438016	11055.212576
510.802738	11005.567293
511.167403	11060.949409
511.532010	10957.512494
511.896561	11181.765702
512.261053	11248.482853
512.625488	11124.740170
512.989866	11107.479259
513.354186	11097.210429
513.718449	10997.874492
514.082655	11189.486229
514.446803	11089.477299
514.810894	11211.309384
515.174927	11078.772408
515.538904	11103.085893
515.902822	11251.290775
516.266684	11144.325052
516.630488	11081.121586
516.994235	11136.385235
517.357925	11206.273272
517.721558	11290.624378
518.085133	11298.967488
518.448651	11312.860908
518.812112	11203.125071
519.175516	11217.782226
519.538863	11330.832621
519.902152	11254.108780
520.265385	11409.494786
520.628560	11320.190746
520.991678	11301.243569
521.354739	11373.485824
521.717743	11297.366922
522.080690	11277.184662
522.443580	11412.516958
522.806413	11371.983560
523.169189	11399.193188
523.531908	11454.693771
523.894569	11283.791094
524.257174	11283.934767
524.619722	11400.690411
524.982213	11343.380053
525.344647	11398.983980
525.707025	11351.420694
526.069345	11439.799682
526.431608	11358.468227
526.793815	11470.848149
527.155964	11259.212949
527.518057	11313.574231
527.880093	11265.237127
528.242072	11330.741881
528.603995	11233.117416
528.965860	11159.501446
529.327669	11206.253107
529.689421	11156.958184
530.051117	11132.523711
530.412755	11233.059442
530.774337	11124.740170
531.135862	11104.373908
531.497331	11129.599842
531.858743	10979.126441
532.220098	11143.473097
532.581396	11021.290652
532.942638	10997.839204
533.303824	10961.842845
533.664953	10974.665020
534.026025	10892.428677
534.387040	10979.985958
534.747999	10991.744449
535.108902	11051.426669
535.469748	10812.496142
535.830537	10918.022615
536.191270	10889.557740
536.551947	10906.974927
536.912567	10909.966851
537.273131	10839.799031
537.633638	10819.679786
537.994089	10815.339353
538.354483	10755.652091
538.714821	10897.830273
539.075103	10910.226471
539.435328	10873.809175
539.795497	10696.441218
540.155609	10861.654953
540.515665	10945.837182
540.875665	10686.051400
541.235609	10751.649415
541.595496	10744.639690
541.955328	10906.722869
542.315102	10778.793508
542.674821	10736.780532
543.034483	10732.833308
543.394090	10741.763712
543.753640	10669.365181
544.113134	10894.994624
544.472571	10741.476366
544.831953	10886.991793
545.191278	10695.087669
545.550548	10720.409384
545.909761	10861.876764
546.268918	10834.468011
546.628019	10915.809549
546.987064	10777.843250
547.346053	10705.991684
547.704986	10800.576333
548.063863	10789.233737
548.422684	10777.724783
548.781449	10698.598832
549.140158	10800.462908
549.498811	10681.831955
549.857408	10531.923163
550.215949	10764.756415
550.574434	10618.010947
550.932864	10715.194311
551.291237	10773.976685
551.649555	10714.332273
552.007817	10734.857331
552.366022	10694.555827
552.724173	10693.487102
553.082267	10672.818372
553.440305	10814.777264
553.798288	10609.990471
554.156215	10767.639955
554.514086	10741.105842
554.871902	10584.731770
555.229661	10631.624583
555.587365	10611.974165
555.945014	10501.582978
556.302606	10627.183326
556.660143	10521.361945
557.017625	10675.119658
557.375050	10566.651672
557.732421	10708.202230
558.089735	10615.041707
558.446994	10618.837696
558.804197	10650.944805
559.161345	10654.433283
559.518437	10502.533236
559.875474	10591.476834
560.232455	10621.320464
560.589381	10574.556201
560.946251	10571.408000
561.303065	10679.291213
561.659825	10613.146233
562.016528	10540.520851
562.373177	10421.244630
562.729770	10539.689060
563.086307	10454.848962
563.442789	10541.009842
563.799216	10425.695969
564.155587	10475.547939
564.511904	10428.183778
564.868164	10418.502242
565.224370	10425.511967
565.580520	10355.109733
565.936615	10365.476866
566.292654	10228.249096
566.648638	10363.982163
567.004567	10324.772069
567.360441	10306.996960
567.716260	10216.208300
568.072023	10307.352362
568.427732	10264.651268
568.783385	10169.559983
569.138982	10241.046065
569.494525	10251.871943
569.850013	10128.565320
570.205445	10216.417508
570.560823	10107.284089
570.916145	10030.235094
571.271412	10103.336866
571.626625	10042.590962
571.981782	10021.380307
572.336884	9989.984001
572.691931	9997.490279
573.046923	9947.040932
573.401860	9899.376822
573.756743	9838.731741
574.111570	9882.100788
574.466342	9864.434064
574.821059	9890.716120
575.175722	9781.965828
575.530330	9791.304566
575.884882	9784.897259
576.239380	9721.305624
576.593823	9693.198671
576.948211	9709.776505
577.302544	9596.325338
577.656823	9609.432338
578.011047	9604.081153
578.365216	9583.125077
578.719330	9501.140792
579.073389	9516.581846
579.427394	9458.338875
579.781344	9443.107029
580.135239	9387.321620
580.489080	9395.347137
580.842866	9293.893916
581.196597	9305.095360
581.550273	9345.268315
581.903895	9312.331936
582.257463	9382.386331
582.610975	9257.690870
582.964434	9286.427967
583.317837	9203.480822
583.671186	9186.106485
584.024481	9183.787554
584.377721	9099.650697
584.730906	9081.484899
585.084037	9109.546482
585.437113	9046.363180
585.790135	9072.804032
586.143103	8970.493814
586.496016	8940.801418
586.848874	9003.233588
587.201679	8988.490734
587.554428	8876.125935
587.907124	8925.025127
588.259765	8892.920539
588.612352	8895.166373
588.964884	8772.676417
589.317362	8789.019838
589.669786	8782.196636
590.022155	8837.087240
590.374470	8853.448304
590.726731	8784.727295
591.078937	8638.556519
591.431090	8744.561902
591.783188	8621.419116
592.135232	8619.836194
592.487222	8618.923745
592.839157	8671.218155
593.191038	8604.304399
593.542866	8552.856903
593.894639	8452.222870
594.246358	8505.999378
594.598022	8517.520936
594.949633	8417.779186
595.301190	8393.609374
595.652692	8414.532683
596.004141	8528.613995
596.355535	8306.389851
596.706876	8287.898898
597.058162	8220.773414
597.409395	8300.912637
597.760573	8360.894806
598.111698	8270.085981
598.462768	8257.863704
598.813785	8220.801141
599.164748	8186.866614
599.515657	8181.223042
599.866511	8091.724917
600.217312	8215.520532
600.568060	8076.072134
600.918753	8182.226232
601.269392	8153.353023
601.619978	8066.987975
601.970510	8126.781101
602.320988	8121.750029
602.671412	8178.583998
603.021783	8115.781303
603.372100	8089.920184
603.722363	8092.145853
604.072572	8065.178201
604.422728	8074.380827
604.772830	8009.226434
605.122878	8009.075200
605.472872	8003.008171
605.822813	8039.233903
606.172701	7981.817681
606.522534	8056.842653
606.872314	8052.522384
607.222041	8026.268055
607.571714	8077.962567
607.921333	8038.513018
608.270899	8045.936117
608.620411	8132.326370
608.969870	8044.179275
609.319276	8032.564456
609.668627	8047.382928
610.017926	8087.961696
610.367171	8130.206565
610.716362	8106.533307
611.065500	8095.694826
611.414585	8128.469887
611.763616	8111.070345
612.112594	8101.872760
612.461518	8118.231304
612.810389	8171.140734
613.159207	8112.738967
613.507971	8058.397849
613.856682	8177.900922
614.205340	8130.377964
614.553945	8210.058442
614.902496	8109.686548
615.250994	8164.836771
615.599439	8148.374883
615.947830	8158.757140
616.296169	8134.214282
616.644454	8141.549161
616.992686	8145.660222
617.340864	8202.794139
617.688990	8103.937112
618.037063	8193.054630
618.385082	8145.070407
618.733048	8228.438489
619.080961	8169.328439
619.428821	8183.148763
619.776628	8188.484824
620.124382	8138.111094
620.472083	8123.995863
620.819731	8148.316910
621.167326	8044.869913
621.514868	8052.184627
621.862357	7936.948891
622.209793	7959.752551
622.557176	7890.018269
622.904506	7866.465999
623.251783	7798.917058
623.599007	7753.707990
623.946179	7756.276458
624.293297	7718.409831
624.640363	7630.265256
624.987376	7617.803523
625.334336	7560.863691
625.681243	7517.401383
626.028097	7503.785226
626.374899	7477.851010
626.721647	7477.228428
627.068343	7408.865341
627.414987	7381.980867
627.761577	7335.430852
628.108115	7370.897890
628.454600	7267.468537
628.801032	7318.162380
629.147412	7274.183354
629.493739	7266.009123
629.840014	7199.470933
630.186236	7261.774554
630.532405	7140.610421
630.878521	7192.488935
631.224585	7149.487893
631.570597	7073.570637
631.916556	7108.732685
632.262462	7103.953671
632.608316	7061.640746
632.954117	7041.892026
633.299866	7029.145468
633.645562	7020.106679
633.991206	6938.528207
634.336797	6884.910495
634.682336	6843.008424
635.027823	6810.737478
635.373257	6798.222813
635.718639	6731.813173
636.063968	6745.827581
636.409245	6641.712631
636.754470	6634.844058
637.099642	6598.535148
637.444762	6542.754781
637.789829	6551.329783
638.134845	6497.820456
638.479808	6479.989895
638.824719	6481.845039
639.169577	6417.149391
639.514383	6433.462565
639.859137	6360.517069
640.203839	6369.782710
640.548489	6355.589341
640.893086	6334.958419
641.237632	6302.390045
641.582125	6325.060113
641.926566	6299.685466
642.270955	6307.831970
642.615292	6302.211084
642.959576	6318.002498
643.303809	6310.408000
643.647990	6315.814637
643.992118	6305.170241
644.336195	6249.253762
644.680219	6278.918432
645.024192	6266.260095
645.368112	6365.371700
645.711981	6380.979112
646.055797	6460.654549
646.399562	6419.730462
646.743274	6544.216715
647.086935	6591.659014
647.430544	6588.447799
647.774101	6613.404031
648.117606	6620.045751
648.461059	6604.324913
648.804460	6571.237300
649.147810	6478.800182
649.491108	6451.225071
649.834354	6427.246822
650.177548	6342.464697
650.520690	6260.712305
650.863781	6240.333441
651.206820	6253.110245
651.549807	6180.300860
651.892742	6123.524865
652.235626	6126.846985
652.578458	6110.173369
652.921238	6024.990472
653.263967	6062.126132
653.606644	6002.262430
653.949269	6002.033057
654.291843	5945.728410
654.634365	5990.413198
654.976836	5952.780984
655.319255	5950.439368
655.661622	5921.858547
656.003938	5916.572897
656.346203	5880.987392
656.688416	5915.756230
657.030577	5866.657912
657.372687	5836.355536
657.714746	5823.251057
658.056753	5867.648499
658.398708	5809.876876
658.740612	5799.902953
659.082465	5845.888358
659.424266	5839.783521
659.766016	5837.845197
660.107715	5812.369726
660.449362	5825.789278
660.790958	5826.265667
661.132503	5811.053985
661.473996	5846.982288
661.815438	5833.197253
662.156829	5831.342109
662.498168	5823.031767
662.839456	5799.557634
663.180693	5833.441749
663.521879	5835.047357
663.863013	5823.167878
664.204097	5843.859294
664.545129	5883.029059
664.886110	5879.021342
665.227040	5912.214819
665.567918	5879.026383
665.908746	5904.645527
666.249522	5909.626187
666.590248	5893.686058
666.930922	5922.909627
667.271545	5933.944713
667.612118	5938.010403
667.952639	5914.357310
668.293109	5935.741884
668.633528	5894.112036
668.973896	5892.145986
669.314213	5888.113063
669.654480	5870.481627
669.994695	5864.817891
670.334859	5848.615622
670.674973	5843.496331
671.015035	5850.982444
671.355047	5846.909192
671.695008	5834.835628
672.034918	5808.372091
672.374777	5819.732331
672.714585	5804.089631
673.054342	5808.296474
673.394049	5798.874557
673.733705	5833.842521
674.073310	5816.906765
674.412864	5779.556856
674.752368	5770.059322
675.091820	5770.192913
675.431223	5709.976330
675.770574	5713.681578
676.109875	5664.527807
676.449125	5667.955792
676.788324	5633.565040
677.127473	5579.753244
677.466571	5569.532304
677.805619	5560.982507
678.144616	5544.094642
678.483562	5526.942116
678.822458	5495.702086
679.161303	5487.674048
679.500098	5479.570393
679.838842	5465.644206
680.177535	5469.213343
680.516179	5479.361185
680.854771	5498.157127
681.193314	5572.083128
681.531805	5684.016908
681.870247	5830.875802
682.208638	5931.010761
682.546978	5942.071053
682.885268	5922.617240
683.223508	5839.412996
683.561697	5784.585407
683.899836	5756.465851
684.237925	5711.917174
684.575963	5678.978275
684.913951	5636.141070
685.251889	5695.808167
685.589776	5666.249361
685.927614	5635.624352
686.265401	5706.331576
686.603137	5690.963618
686.940824	5767.125370
687.278460	5791.859792
687.616046	5803.633407
687.953582	5868.011462
688.291068	5844.232339
688.628504	5914.543832
688.965889	5875.278285
689.303224	5821.073278
689.640510	5774.291371
689.977745	5693.789185
690.314930	5596.837714
690.652065	5540.737233
690.989150	5452.375889
691.326185	5374.716914
691.663170	5321.179860
692.000105	5245.618005
692.336990	5172.785935
692.673825	5142.569259
693.010610	5076.341100
693.347345	5011.408518
693.684030	4991.717771
694.020665	4952.079178
694.357251	4865.578019
694.693786	4873.404411
695.030272	4840.662117
695.366707	4807.544256
695.703093	4770.968165
696.039429	4795.614366
696.375716	4779.288589
696.711952	4751.534517
697.048139	4742.815841
697.384276	4718.870360
697.720363	4727.296649
698.056400	4741.621087
698.392388	4689.666956
698.728326	4670.087114
699.064214	4650.096419
699.400053	4640.351868
699.735842	4611.140902
700.071581	4587.986883
700.407270	4561.548552
700.742910	4538.515520
701.078501	4487.544413
701.414042	4489.664218
701.749533	4457.473930
702.084974	4388.805853
702.420366	4448.477991
702.755709	4396.566710
703.091002	4335.442719
703.426246	4385.546747
703.761440	4335.493131
704.096584	4302.040034
704.431679	4323.558199
704.766725	4308.013801
705.101721	4297.966782
705.436668	4326.797140
705.771565	4271.848563
706.106413	4301.089776
706.441212	4331.422399
706.775961	4342.044110
707.110661	4324.442922
707.445311	4350.261191
707.779913	4368.996639
708.114465	4381.571797
708.448967	4408.224378
708.783421	4468.335096
709.117825	4510.118700
709.452180	4515.953836
709.786485	4559.229621
710.120742	4645.604751
710.454949	4626.566833
710.789107	4695.282801
711.123216	4769.067650
711.457275	4760.371659
711.791286	4835.119368
712.125247	4847.971790
712.459159	4749.079475
712.793023	4827.235003
713.126837	4785.370741
713.460602	4778.476963
713.794318	4700.102144
714.127985	4704.336714
714.461602	4622.785968
714.795171	4593.030557
715.128691	4531.490672
715.462162	4471.707628
715.795584	4428.250362
716.128957	4404.372936
716.462281	4352.484340
716.795556	4329.393335
717.128782	4290.357160
717.461960	4225.343919
717.795088	4231.741143
718.128167	4193.607335
718.461198	4133.463849
718.794180	4128.314311
719.127113	4110.743369
719.459997	4087.876695
719.792833	4046.781209
720.125619	4038.745610
720.458357	4000.508458
720.791046	4004.755630
721.123686	3977.777895
721.456278	3939.654169
721.788821	3954.104637
722.121315	3928.926594
722.453761	3900.870052
722.786158	3915.872526
723.118506	3938.270372
723.450805	3888.942682
723.783056	3911.849685
724.115259	3928.601439
724.447412	3930.512037
724.779518	3927.716717
725.111574	3931.363992
725.443582	3959.690235
725.775542	3946.915951
726.107453	3997.995442
726.439315	3997.471162
726.771129	4009.123790
727.102895	4045.967062
727.434612	4092.141511
727.766281	4103.504272
728.097901	4105.412349
728.429473	4113.344604
728.760996	4116.180253
729.092471	4111.618009
729.423897	4096.731482
729.755276	4104.242801
730.086606	4101.639045
730.417887	4142.343842
730.749120	4205.965724
731.080305	4267.014097
731.411442	4292.764311
731.742530	4263.651647
732.073570	4268.120630
732.404562	4320.788085
732.735506	4314.743742
733.066401	4277.608082
733.397249	4211.901683
733.728048	4135.049292
734.058798	4051.640881
734.389501	3980.852999
734.720156	3921.692538
735.050762	3878.764592
735.381320	3870.718911
735.711831	3820.514060
736.042293	3789.785706
736.372707	3815.321671
736.703073	3782.597021
737.033391	3773.328860
737.363661	3793.506078
737.693883	3816.294614
738.024056	3830.306501
738.354182	3822.248217
738.684260	3887.085017
739.014290	3909.712236
739.344272	3900.857449
739.674207	3945.640539
740.004093	3947.364614
740.333931	3940.962348
740.663722	3945.007874
740.993464	3942.542750
741.323159	3919.565171
741.652806	3890.916294
741.982405	3858.025285
742.311956	3829.764577
742.641460	3819.112619
742.970915	3798.148981
743.300323	3755.702465
743.629683	3724.787589
743.958996	3713.548337
744.288260	3688.443391
744.617477	3652.762104
744.946647	3639.579486
745.275768	3616.153244
745.604842	3611.777523
745.933869	3566.790266
746.262847	3555.694686
746.591778	3597.314452
746.920662	3564.148701
747.249498	3536.475287
747.578286	3581.046649
747.907027	3598.085749
748.235720	3597.304370
748.564365	3619.908904
748.892963	3623.657002
749.221514	3603.192438
749.550017	3581.515476
749.878473	3578.939447
750.206881	3549.191598
750.535242	3545.481309
750.863555	3549.592370
751.191821	3541.355124
751.520039	3526.181251
751.848210	3500.877179
752.176334	3535.129299
752.504411	3539.298333
752.832440	3498.525481
753.160421	3483.623830
753.488356	3494.497599
753.816243	3502.931450
754.144082	3460.913432
754.471875	3448.625620
754.799620	3469.543888
755.127318	3456.870427
755.454969	3458.561734
755.782572	3466.186479
756.110129	3442.984569
756.437638	3433.943259
756.765100	3443.854168
757.092515	3454.044860
757.419882	3462.889565
757.747203	3434.623815
758.074477	3434.606171
758.401703	3452.073769
758.728882	3471.613281
759.056014	3480.021926
759.383099	3481.370435
759.710138	3479.510249
760.037129	3497.751664
760.364073	3528.333824
760.690970	3512.328160
761.017820	3491.165397
761.344623	3506.172912
761.671379	3554.731826
761.998088	3603.452057
762.324751	3731.870410
762.651366	3979.189418
762.977935	4447.033701
763.304456	4889.614241
763.630931	4980.879290
763.957359	4621.795381
764.283740	4281.920789
764.610074	4090.624124
764.936362	3893.943507
765.262602	3737.798807
765.588796	3628.297384
765.914943	3539.079043
766.241044	3453.064356
766.567097	3422.577978
766.893104	3375.231461
767.219064	3342.693333
767.544978	3319.756083
767.870845	3263.874893
768.196665	3245.709095
768.522438	3252.406268
768.848165	3247.407964
769.173846	3214.027964
769.499479	3196.777135
769.825066	3178.157634
770.150607	3162.391425
770.476101	3179.327181
770.801548	3172.667817
771.126949	3129.916312
771.452303	3114.255967
771.777611	3118.470372
772.102872	3122.112606
772.428087	3098.005808
772.753256	3088.838470
773.078378	3080.419743
773.403453	3048.017727
773.728482	3039.276366
774.053465	3056.441495
774.378401	3042.759803
774.703291	3014.420957
775.028135	3016.850793
775.352932	3007.721263
775.677683	2998.538802
776.002388	2991.534118
776.327046	2994.231136
776.651658	2983.828715
776.976224	2973.615337
777.300743	2973.524596
777.625216	2964.453040
777.949643	2958.708645
778.274024	2960.654530
778.598359	2950.365535
778.922647	2954.423664
779.246889	2956.656895
779.571086	2941.142744
779.895236	2933.366765
780.219339	2943.779268
780.543397	2957.503809
780.867409	2958.358285
781.191374	2953.745629
781.515294	2950.839404
781.839167	2947.958384
782.162995	2940.865481
782.486776	2951.416616
782.810511	2947.328240
783.134201	2930.548760
783.457844	2942.329936
783.781441	2931.410797
784.104993	2911.979669
784.428498	2913.053435
784.751958	2928.776794
785.075372	2922.810588
785.398739	2906.109246
785.722061	2922.193047
786.045337	2932.832402
786.368568	2920.930238
786.691752	2909.817014
787.014891	2957.266875
787.337983	2984.068169
787.661030	3012.338960
787.984031	3081.579208
788.306987	3127.914974
788.629897	3118.241000
788.952760	3104.549226
789.275579	3089.420723
789.598351	3026.323121
789.921078	2985.310814
790.243759	2976.219093
790.566395	2958.635548
790.888984	2937.931529
791.211529	2918.674322
791.534027	2908.960018
791.856480	2899.180180
792.178888	2883.981101
792.501249	2877.553630
792.823566	2872.968700
793.145836	2870.231354
793.468062	2868.875283
793.790241	2865.119624
794.112375	2869.591127
794.434464	2884.807850
794.756507	2888.071997
795.078505	2892.092318
795.400457	2906.015984
795.722364	2942.927313
796.044226	2967.881024
796.366042	2970.736838
796.687812	2957.939869
797.009538	2979.528610
797.331218	2967.069399
797.652852	2952.165227
797.974442	2933.676796
798.295986	2931.804007
798.617484	2925.558017
798.938938	2909.880029
799.260346	2895.790004
799.581709	2887.835063
799.903026	2884.066801
800.224299	2878.118239
800.545526	2869.099615
800.866708	2852.723427
801.187845	2843.624144
801.508936	2844.523990
801.829983	2852.557068
802.150984	2838.126766
802.471940	2826.942966
802.792851	2828.367092
803.113717	2825.430620
803.434538	2832.047134
803.755314	2823.192347
804.076045	2819.968529
804.396731	2817.321924
804.717372	2815.002993
805.037967	2811.539720
805.358518	2817.684887
805.679024	2831.026300
805.999485	2825.589416
806.319901	2827.820127
806.640272	2823.308294
806.960598	2827.787359
807.280879	2836.785819
807.601115	2844.609689
807.921306	2830.993533
808.241453	2827.399190
808.561554	2833.940087
808.881611	2836.032166
809.201623	2826.159066
809.521590	2826.789211
809.841513	2825.196206
810.161390	2830.867504
810.481223	2822.549600
810.801011	2813.097437
811.120755	2807.390851
811.440453	2812.459731
811.760107	2812.638692
812.079716	2811.915286
812.399281	2800.139151
812.718801	2795.816361
813.038276	2790.888633
813.357707	2793.436937
813.677093	2802.901703
813.996434	2797.916002
814.315731	2792.887451
814.634983	2784.256996
814.954191	2788.413427
815.273354	2804.973617
815.592473	2811.408650
815.911547	2812.648774
816.230577	2823.474652
816.549562	2831.946311
816.868502	2826.784169
817.187399	2839.172805
817.506250	2855.869107
817.825058	2849.618076
818.143821	2862.881352
818.462539	2876.414329
818.781213	2905.242167
819.099843	2935.985644
819.418429	2995.413286
819.736970	3057.500137
820.055466	3126.821043
820.373919	3233.438927
820.692327	3372.645349
821.010691	3543.966442
821.329011	3981.841065
821.647286	4874.329462
821.965517	6244.870479
822.283704	6978.184444
822.601847	6948.303005
822.919945	6328.606565
823.237999	5831.783210
823.556010	5253.300723
823.873976	4699.711455
824.191897	4294.473262
824.509775	4003.989374
824.827609	3734.872418
825.145398	3607.731997
825.463144	3600.863425
825.780845	3696.622663
826.098502	3797.523877
826.416116	4078.048966
826.733685	4390.703848
827.051210	4451.351449
827.368692	4337.179397
827.686129	4074.968821
828.003522	3751.288935
828.320872	3497.277796
828.638177	3301.955769
828.955439	3165.219512
829.272656	3084.069538
829.589830	3017.324661
829.906960	2968.743062
830.224046	2924.295208
830.541088	2890.320352
830.858086	2873.480378
831.175041	2855.657378
831.491952	2861.462267
831.808819	2869.371837
832.125642	2893.702966
832.442421	2936.532609
832.759157	3018.544621
833.075849	3198.342414
833.392497	3477.292141
833.709101	3680.632123
834.025662	3626.646406
834.342179	3465.848722
834.658653	3293.383287
834.975083	3145.007006
835.291469	3048.385731
835.607811	2961.448512
835.924110	2907.188053
836.240366	2854.946575
836.556578	2813.415029
836.872746	2791.450722
837.188871	2767.527927
837.504952	2754.710793
837.820990	2746.067735
838.136984	2731.360168
838.452935	2724.524364
838.768842	2720.317521
839.084706	2740.330902
839.400526	2821.001966
839.716303	2949.735391
840.032037	3024.876310
840.347727	3017.160824
840.663373	2953.433078
840.978977	2881.984804
841.294537	2808.457055
841.610054	2761.259252
841.925527	2739.481467
842.240957	2716.491285
842.556344	2695.872966
842.871687	2680.086592
843.186987	2671.231806
843.502244	2666.039417
843.817458	2663.919612
844.132629	2646.550317
844.447756	2643.414719
844.762840	2634.181846
845.077881	2638.103863
845.392879	2637.713174
845.707833	2632.036835
846.022745	2624.533077
846.337613	2624.858232
846.652438	2626.073150
846.967221	2627.976185
847.281960	2625.198509
847.596656	2622.819085
847.911309	2621.369753
848.225919	2619.660802
848.540485	2615.421192
848.855009	2617.946810
849.169490	2615.915225
849.483928	2617.782972
849.798323	2614.654936
850.112675	2612.174688
850.426984	2615.789196
850.741251	2613.273660
851.055474	2610.753083
851.369654	2619.030658
851.683792	2615.330451
851.997887	2612.192332
852.311938	2611.504215
852.625947	2614.964967
852.939914	2617.588888
853.253837	2617.805657
853.567718	2612.688886
853.881555	2611.852055
854.195350	2615.700976
854.509103	2614.768362
854.822812	2612.162086
855.136479	2613.427415
855.450103	2612.530090
855.763685	2616.005965
856.077224	2612.749380
856.390720	2611.184102
856.704173	2612.945985
857.017584	2618.415637
857.330953	2616.200050
857.644278	2620.129629
857.957561	2618.007303
858.270802	2618.022427
858.584000	2616.434463
858.897155	2620.817747
859.210268	2622.625000
859.523339	2616.905811
859.836367	2612.918259
860.149352	2609.074379
860.462295	2611.506736
860.775195	2611.005141
861.088054	2608.925665
861.400869	2610.296859
861.713642	2604.474326
862.026373	2607.854420
862.339062	2609.381889
862.651708	2614.647374
862.964312	2617.994701
863.276873	2616.137035
863.589392	2619.378497
863.901869	2622.423354
864.214303	2626.547018
864.526696	2629.344858
864.839045	2630.564818
865.151353	2633.627319
865.463619	2629.324694
865.775842	2633.264356
866.088023	2633.307205
866.400162	2634.081022
866.712258	2634.980868
867.024313	2629.975003
867.336325	2630.080867
867.648296	2628.197996
867.960224	2635.648821
868.272110	2636.715025
868.583954	2625.682460
868.895755	2632.306536
869.207515	2632.896351
869.519233	2640.621920
869.830909	2635.709315
870.142542	2630.282513
870.454134	2634.383492
870.765684	2639.102012
871.077191	2641.932620
871.388657	2644.226345
871.700081	2642.381282
872.011463	2642.771972
872.322803	2645.900008
872.634101	2646.280615
872.945357	2655.924342
873.256571	2660.481545
873.567744	2657.885351
873.878874	2654.953920
874.189963	2657.194713
874.501010	2662.311484
874.812015	2666.833399
875.122979	2667.743327
875.433900	2657.550114
875.744780	2658.175217
876.055618	2664.428769
876.366415	2666.067144
876.677169	2668.827175
876.987882	2662.276196
877.298554	2658.354178
877.609183	2671.594769
877.919771	2677.649195
878.230317	2684.321162
878.540822	2693.909436
878.851285	2708.306972
879.161707	2731.786146
879.472087	2770.560181
879.782425	2818.524239
880.092722	2932.507248
880.402977	3118.493057
880.713191	3376.527038
881.023363	3665.276768
881.333494	3852.288452
881.643583	4028.272612
881.953631	4022.535779
882.263637	3847.310313
882.573602	3626.038947
882.883526	3500.378105
883.193408	3387.189078
883.503248	3285.768624
883.813048	3174.495235
884.122806	3057.323697
884.432522	2972.390337
884.742197	2911.581418
885.051831	2873.624050
885.361424	2839.623988
885.670975	2805.853299
885.980485	2770.590427
886.289954	2755.590474
886.599382	2742.511201
886.908768	2730.049468
887.218113	2710.353680
887.527417	2696.999664
887.836680	2688.308714
888.145901	2685.009279
888.455082	2675.194153
888.764221	2665.613440
889.073319	2656.120947
889.382376	2657.963489
889.691392	2656.733447
890.000366	2659.748057
890.309300	2654.074239
890.618193	2658.404590
890.927044	2661.489776
891.235855	2661.215033
891.544625	2660.370640
891.853353	2661.900630
892.162041	2667.145951
892.470687	2689.122861
892.779293	2699.232895
893.087858	2708.352342
893.396381	2728.332955
893.704864	2771.742331
894.013306	2842.678927
894.321707	2935.065633
894.630068	2984.625217
894.938387	3002.266735
895.246665	2996.827330
895.554903	2953.652368
895.863100	2911.909093
896.171256	2855.364991
896.479371	2791.118006
896.787446	2752.487644
897.095480	2736.033318
897.403473	2729.545353
897.711425	2712.758311
898.019336	2695.008408
898.327207	2680.915862
898.635038	2680.535255
898.942827	2679.521983
899.250576	2672.171981
899.558284	2658.379384
899.865952	2653.723878
900.173579	2652.478713
900.481165	2647.213228
900.788711	2641.292393
901.096216	2634.809469
901.403681	2632.172946
901.711105	2633.710498
902.018489	2631.454581
902.325832	2634.885087
902.633135	2633.508852
902.940397	2651.674649
903.247619	2688.701924
903.554800	2756.896133
903.861941	2880.855586
904.169041	3005.944257
904.476101	3067.048082
904.783121	3057.827812
905.090100	3001.989471
905.397039	2931.194027
905.703938	2856.156452
906.010796	2794.495579
906.317614	2743.799215
906.624391	2709.330326
906.931129	2682.955009
907.237826	2658.346617
907.544483	2640.989924
907.851099	2623.890330
908.157675	2617.737602
908.464211	2610.959770
908.770707	2599.886876
909.077163	2599.032400
909.383578	2591.309353
909.689954	2592.645258
909.996289	2590.480083
910.302584	2589.756677
910.608839	2585.486820
910.915054	2586.280802
911.221229	2586.933631
911.527363	2590.606112
911.833458	2590.555700
912.139513	2588.647623
912.445527	2593.451843
912.751502	2596.990733
913.057436	2604.870057
913.363331	2611.113526
913.669186	2621.687346
913.975000	2633.186218
914.280775	2648.594504
914.586510	2669.152330
914.892205	2704.082485
915.197859	2770.124121
915.503475	2854.555886
915.809050	2920.111051
916.114585	2936.381375
916.420081	2945.558795
916.725536	2955.953654
917.030952	2929.369130
917.336328	2885.203581
917.641665	2835.079388
917.946961	2785.484517
918.252218	2750.360277
918.557435	2729.235322
918.862612	2705.148689
919.167750	2690.209229
919.472848	2672.918072
919.777906	2657.051040
920.082925	2645.922693
920.387904	2632.772843
920.692843	2627.272944
920.997743	2625.130454
921.302603	2617.132663
921.607423	2613.366921
921.912204	2607.458689
922.216946	2603.176229
922.521647	2599.556680
922.826310	2597.787235
923.130932	2593.411514
923.435516	2587.583940
923.740059	2585.315421
924.044564	2583.946747
924.349028	2583.200657
924.653454	2574.229923
924.957840	2572.089954
925.262186	2569.178687
925.566493	2571.215313
925.870761	2564.596278
926.174989	2568.924109
926.479178	2562.277348
926.783328	2563.446895
927.087438	2563.913202
927.391509	2562.347924
927.695541	2557.717624
927.999533	2559.270299
928.303486	2557.515978
928.607400	2557.838612
928.911275	2555.252500
929.215110	2556.885834
929.518906	2559.124106
929.822663	2556.958930
930.126381	2556.480021
930.430060	2556.797613
930.733699	2554.440874
931.037299	2557.178221
931.340861	2558.481359
931.644383	2560.265927
931.947866	2559.093859
932.251309	2557.599157
932.554714	2558.166287
932.858080	2559.819785
933.161407	2556.747202
933.464694	2555.834753
933.767943	2557.705021
934.071153	2554.609753
934.374323	2555.383570
934.677455	2555.779300
934.980548	2553.558672
935.283602	2553.732592
935.586617	2552.376522
935.889593	2554.987839
936.192530	2554.055226
936.495428	2556.008673
936.798287	2553.946841
937.101108	2557.006821
937.403890	2562.007646
937.706632	2565.097873
938.009336	2568.563667
938.312002	2569.604665
938.614628	2571.018708
938.917216	2574.295458
939.219765	2574.499625
939.522275	2578.111612
939.824747	2576.185891
940.127179	2573.763617
940.429573	2571.021229
940.731929	2570.292782
941.034246	2567.321022
941.336524	2567.338666
941.638763	2567.689026
941.940964	2569.569377
942.243126	2565.569221
942.545250	2565.702812
942.847335	2563.663665
943.149381	2563.257852
943.451389	2561.251473
943.753359	2559.235011
944.055290	2560.628890
944.357182	2558.299877
944.659036	2557.420196
944.960851	2557.180741
945.262628	2556.376677
945.564367	2556.928683
945.866067	2558.496482
946.167729	2558.698128
946.469352	2555.940617
946.770937	2559.514795
947.072484	2560.349106
947.373992	2558.032696
947.675462	2556.217881
947.976893	2554.738302
948.278286	2553.024310
948.579641	2558.002449
948.880958	2553.757798
949.182236	2554.095555
949.483476	2554.178734
949.784678	2556.648899
950.085841	2553.556152
950.386967	2554.743343
950.688054	2554.471121
950.989103	2556.139743
951.290114	2557.392470
951.591087	2559.882800
951.892021	2558.574620
952.192917	2562.839436
952.493776	2558.531770
952.794596	2564.175342
953.095378	2562.352965
953.396122	2561.823644
953.696828	2560.238201
953.997496	2559.025803
954.298126	2556.288457
954.598718	2558.491441
954.899272	2556.835422
955.199788	2553.460370
955.500266	2553.478014
955.800706	2550.317210
956.101108	2547.005172
956.401472	2547.025337
956.701798	2544.628268
957.002087	2545.621375
957.302337	2546.130532
957.602550	2546.455686
957.902724	2545.059287
958.202861	2543.436035
958.502960	2543.095757
958.803022	2543.864533
959.103045	2541.240613
959.403031	2541.850592
959.702979	2541.091899
960.002889	2540.297917
960.302762	2542.258926
960.602596	2541.044008
960.902393	2539.032587
961.202153	2539.902186
961.501875	2539.322454
961.801559	2539.980324
962.101205	2541.107022
962.400814	2541.643905
962.700385	2541.974101
962.999918	2541.810263
963.299414	2537.124511
963.598873	2540.668442
963.898293	2539.171219
964.197677	2541.439738
964.497022	2538.672145
964.796331	2539.196425
965.095601	2537.517721
965.394835	2541.240613
965.694030	2538.399923
965.993189	2540.030736
966.292309	2538.004192
966.591393	2541.028884
966.890439	2539.506456
967.189447	2538.621733
967.488419	2540.111394
967.787353	2540.401261
968.086249	2539.529141
968.385108	2539.834131
968.683930	2539.123328
968.982714	2537.805066
969.281462	2537.936136
969.580172	2539.715664
969.878844	2537.749614
970.177480	2542.203473
970.476078	2539.796322
970.774639	2537.328677
971.073162	2541.442259
971.371649	2537.358924
971.670098	2537.343801
971.968510	2536.726259
972.266885	2535.609644
972.565223	2539.866898
972.863524	2542.279090
973.161788	2539.135931
973.460014	2542.637012
973.758204	2538.974614
974.056356	2538.830941
974.354471	2539.115766
974.652550	2539.244316
974.950591	2540.867567
975.248595	2541.469985
975.546563	2541.008720
975.844493	2539.761034
976.142386	2542.740356
976.440243	2540.993596
976.738062	2540.784388
977.035845	2537.525282
977.333590	2540.970911
977.631299	2537.479912
977.928971	2540.542413
978.226606	2534.929088
978.524204	2538.168029
978.821765	2536.259953
979.119290	2538.551157
979.416777	2536.706095
979.714228	2537.104346
980.011642	2539.685417
980.309020	2542.836138
980.606360	2538.863709
980.903664	2537.769778
981.200931	2540.461754
981.498162	2541.855633
981.795356	2542.490819
982.092513	2546.251520
982.389633	2546.314534
982.686717	2548.948537
982.983764	2552.240410
983.280775	2554.997922
983.577749	2555.247459
983.874686	2552.091696
984.171587	2548.381407
984.468451	2547.710934
984.765279	2545.956612
985.062070	2544.671118
985.358824	2542.694986
985.655543	2540.865047
985.952224	2540.025695
986.248869	2538.278935
986.545478	2534.737524
986.842050	2537.535365
987.138586	2532.610157
987.435086	2536.007895
987.731549	2531.899355
988.027975	2538.042001
988.324366	2534.649304
988.620719	2538.097453
988.917037	2535.622247
989.213318	2537.847916
989.509563	2537.721887
989.805772	2536.322967
990.101944	2537.129552
990.398080	2535.617206
990.694180	2535.965045
990.990244	2536.149047
991.286271	2533.729293
991.582262	2536.854809
991.878217	2533.991433
992.174136	2537.409336
992.470019	2537.109387
992.765865	2534.293903
993.061676	2535.239119
993.357450	2538.462937
993.653188	2535.294572
993.948890	2536.577545
994.244556	2538.452855
994.540186	2537.926054
994.835780	2536.080992
995.131337	2536.892617
995.426859	2539.985365
995.722345	2536.080992
996.017795	2538.556198
996.313208	2541.709440
996.608586	2540.895294
996.903928	2540.406302
997.199234	2538.220962
997.494504	2539.710623
997.789738	2540.345808
998.084936	2540.113915
998.380099	2536.098636
998.675225	2541.729605
998.970316	2534.629139
999.265371	2536.693492
999.560390	2536.302803
999.855373	2537.089223
1000.150320	2534.094777
1000.445232	2535.440765
1000.740108	2535.715508
1001.034948	2536.542257
1001.329752	2534.397246
1001.624521	2534.498069
1001.919254	2529.003212
1002.213951	2531.753161
1002.508613	2530.946577
1002.803239	2534.324150
1003.097829	2531.102852
1003.392384	2533.971269
1003.686903	2533.502442
1003.981386	2532.494211
1004.275834	2532.922709
1004.570246	2536.035621
1004.864623	2532.925229
1005.158964	2532.935312
1005.453270	2532.504293
1005.747540	2533.487318
1006.041775	2532.542102
1006.335974	2532.716022
1006.630138	2533.993954
1006.924266	2534.808100
1007.218359	2534.871115
1007.512416	2536.368338
1007.806438	2533.991433
1008.100425	2532.995806
1008.394376	2533.454551
1008.688292	2533.570497
1008.982172	2531.317101
1009.276017	2534.377082
1009.569827	2532.816845
1009.863602	2536.209541
1010.157341	2532.993285
1010.451045	2534.490508
1010.744714	2533.925898
1011.038347	2535.158461
1011.331945	2532.582431
1011.625508	2536.186856
1011.919036	2531.896834
1012.212528	2532.345497
1012.505986	2532.070754
1012.799408	2531.551515
1013.092795	2533.036135
1013.386147	2532.622760
1013.679464	2530.560928
1013.972745	2536.960673
1014.265992	2533.265507
1014.559204	2531.884231
1014.852380	2532.741227
1015.145521	2535.662576
1015.438628	2533.663758
1015.731699	2535.977648
1016.024736	2533.368851
1016.317737	2533.157122
1016.610703	2532.043028
1016.903635	2529.696370
1017.196531	2531.491021
1017.489393	2530.732327
1017.782219	2530.152595
1018.075011	2533.303316
1018.367768	2535.039993
1018.660490	2534.450178
1018.953177	2534.450178
1019.245829	2534.450178
