Dividing Wavelength (nm)	Counts (n)	Blue Motor Position (mm): 22.400000	Red Motor Position (mm): 0.000000	
326.493990	2189.776408
326.888308	2189.776408
327.282561	2189.776408
327.676750	2150.157980
328.070874	2146.336785
328.464933	2149.283339
328.858929	2151.259472
329.252859	2157.145019
329.646726	2165.362100
330.040528	2176.354336
330.434265	2190.091480
330.827938	2209.152083
331.221547	2224.875441
331.615091	2244.150293
332.008571	2261.023035
332.401986	2280.537342
332.795338	2296.646349
333.188625	2315.598567
333.581847	2336.950374
333.975006	2355.153980
334.368100	2369.642256
334.761129	2391.049516
335.154095	2410.770510
335.546996	2434.446289
335.939833	2467.720425
336.332606	2478.079996
336.725315	2493.311842
337.117960	2505.065293
337.510540	2516.551562
337.903056	2526.081863
338.295508	2537.094264
338.687896	2544.749256
339.080220	2554.778631
339.472480	2558.246945
339.864676	2564.808007
340.256807	2572.508369
340.648875	2577.398289
341.040879	2579.288721
341.432818	2580.513722
341.824694	2583.021696
342.216506	2584.128229
342.608253	2583.792992
342.999937	2587.435226
343.391557	2587.561255
343.783113	2585.973291
344.174605	2584.105544
344.566033	2583.979515
344.957397	2580.022209
345.348697	2579.003896
345.739934	2579.891139
346.131106	2579.969277
346.522215	2574.650860
346.913260	2575.351580
347.304241	2570.885118
347.695159	2569.987792
348.086012	2567.424366
348.476802	2567.318502
348.867528	2560.598643
349.258191	2556.192675
349.648789	2557.909188
350.039324	2555.849877
350.429796	2557.626883
350.820203	2555.416337
351.210548	2557.571431
351.600828	2556.023796
351.991045	2552.331151
352.381198	2555.655792
352.771288	2551.517005
353.161314	2550.246634
353.551276	2551.532128
353.941175	2551.222097
354.331010	2551.897612
354.720782	2550.574309
355.110490	2550.034906
355.500135	2547.564740
355.889717	2551.131357
356.279235	2550.486089
356.668689	2547.453835
357.058080	2549.979453
357.447408	2551.380894
357.836672	2553.384752
358.225873	2550.241593
358.615010	2552.603373
359.004084	2551.431305
359.393095	2553.266285
359.782043	2551.421223
360.170927	2554.811399
360.559748	2555.315514
360.948505	2554.055226
361.337199	2557.644527
361.725830	2555.252500
362.114398	2554.640000
362.502903	2556.704352
362.891344	2556.437171
363.279722	2556.822819
363.668037	2559.033365
364.056289	2557.016904
364.444478	2561.674930
364.832603	2557.475649
365.220665	2562.307595
365.608665	2559.860114
365.996601	2560.248283
366.384474	2559.300546
366.772284	2559.292985
367.160031	2559.814744
367.547715	2561.911864
367.935336	2564.863460
368.322893	2563.862791
368.710388	2559.900444
369.097820	2563.812379
369.485189	2560.086966
369.872495	2564.051834
370.259738	2564.014025
370.646918	2565.186093
371.034035	2567.769685
371.421090	2566.027966
371.808081	2564.944118
372.195010	2566.884962
372.581875	2565.982596
372.968678	2565.728017
373.355418	2564.359344
373.742096	2566.837071
374.128710	2567.812535
374.515262	2565.594427
374.901751	2568.803121
375.288177	2565.783470
375.674540	2568.074675
376.060841	2568.084757
376.447079	2570.519634
376.833254	2568.745148
377.219367	2568.200703
377.605417	2568.036866
377.991404	2568.508214
378.377329	2570.759089
378.763191	2569.783626
379.148991	2569.589541
379.534727	2572.755386
379.920402	2572.064748
380.306013	2570.882597
380.691563	2570.048286
381.077049	2572.873853
381.462474	2573.017526
381.847835	2571.416960
382.233134	2572.710016
382.618371	2571.379151
383.003545	2571.134655
383.388657	2572.878894
383.773706	2571.343863
384.158693	2574.093812
384.543618	2572.941909
384.928480	2572.578946
385.313280	2572.500808
385.698017	2576.412743
386.082692	2574.539954
386.467305	2573.745973
386.851856	2574.358473
387.236344	2576.415264
387.620770	2573.042732
388.005133	2569.713050
388.389435	2571.162381
388.773674	2572.452917
389.157851	2576.014492
389.541965	2575.507856
389.926018	2577.428536
390.310008	2576.379976
390.693936	2578.658577
391.077802	2577.995665
391.461606	2580.758218
391.845348	2578.835017
392.229027	2579.593711
392.612645	2576.926941
392.996200	2578.093968
393.379694	2580.007086
393.763125	2581.216963
394.146494	2579.626479
394.529801	2578.494740
394.913047	2579.916345
395.296230	2580.201170
395.679351	2581.469020
396.062410	2580.876685
396.445408	2581.481623
396.828343	2580.964905
397.211217	2584.493713
397.594028	2580.627148
397.976778	2580.828794
398.359466	2582.013465
398.742092	2582.777200
399.124656	2584.614700
399.507158	2584.309711
399.889598	2585.837180
400.271977	2582.709144
400.654294	2584.251737
401.036549	2582.714185
401.418742	2584.836511
401.800874	2584.191243
402.182944	2582.739391
402.564952	2582.255440
402.946898	2586.348857
403.328783	2587.619228
403.710606	2587.372212
404.092367	2584.806264
404.474067	2586.800041
404.855705	2586.394228
405.237282	2589.111410
405.618797	2588.982860
406.000250	2586.754670
406.381642	2584.226532
406.762972	2584.317272
407.144240	2582.827611
407.525447	2586.384145
407.906593	2584.052612
408.287677	2589.610484
408.668700	2587.427664
409.049661	2588.781214
409.430560	2589.386152
409.811399	2590.028900
410.192176	2592.181472
410.572891	2590.195258
410.953545	2588.945052
411.334138	2588.340113
411.714669	2587.382294
412.095139	2590.462439
412.475547	2592.247007
412.855894	2590.732141
413.236180	2593.043510
413.616405	2589.368508
413.996568	2591.667275
414.376670	2592.567121
414.756711	2591.803386
415.136691	2594.049220
415.516609	2592.418407
415.896466	2594.253387
416.276262	2592.536874
416.655997	2594.190372
417.035670	2592.892275
417.415283	2595.967379
417.794834	2593.247676
418.174324	2593.169538
418.553753	2594.578541
418.933121	2595.979982
419.312428	2594.833119
419.691674	2595.927050
420.070859	2596.244642
420.449983	2597.852770
420.829045	2596.658017
421.208047	2596.141299
421.586988	2598.049375
421.965867	2594.268510
422.344686	2598.878645
422.723444	2596.458891
423.102141	2593.623242
423.480777	2598.556011
423.859352	2595.264138
424.237866	2597.741865
424.616319	2597.262955
424.994712	2596.968048
425.373044	2598.064499
425.751314	2594.921339
426.129524	2596.249683
426.507673	2594.016452
426.885762	2595.869076
427.263789	2598.538367
427.641756	2600.141454
428.019662	2597.996443
428.397508	2599.297061
428.775292	2601.679006
429.153016	2600.146495
429.530679	2599.791094
429.908282	2602.621702
430.285824	2599.541557
430.663305	2602.646908
431.040726	2601.409304
431.418086	2602.067175
431.795385	2600.423759
432.172624	2600.418718
432.549802	2605.913575
432.926920	2601.500045
433.303977	2603.413163
433.680974	2602.682196
434.057910	2604.610437
434.434786	2603.546754
434.811601	2604.617999
435.188355	2603.337546
435.565050	2601.593307
435.941683	2605.550612
436.318257	2604.612958
436.694770	2603.955087
437.071222	2603.927361
437.447614	2605.507762
437.823946	2607.486415
438.200218	2605.409460
438.576429	2604.239912
438.952580	2607.438524
439.328670	2607.342742
439.704700	2606.347115
440.080670	2606.049687
440.456580	2608.295521
440.832429	2605.873246
441.208218	2604.343256
441.583947	2606.735283
441.959616	2606.357197
442.335224	2608.303082
442.710773	2608.809718
443.086261	2606.039604
443.461689	2608.658484
443.837057	2608.098916
444.212365	2611.655450
444.587612	2606.941971
444.962800	2606.339553
445.337927	2608.131683
445.712995	2605.089347
446.088002	2611.012702
446.462949	2611.237034
446.837837	2610.806015
447.212664	2612.943464
447.587431	2612.197374
447.962139	2612.971191
448.336786	2617.293980
448.711374	2616.792385
449.085901	2613.636623
449.460369	2613.054370
449.834776	2616.552931
450.209124	2615.653085
450.583412	2615.816922
450.957640	2616.961264
451.331808	2618.637448
451.705917	2617.893877
452.079965	2616.303393
452.453954	2617.795575
452.827883	2617.984618
453.201752	2618.702983
453.575562	2618.632407
453.949311	2620.968981
454.323001	2622.095679
454.696632	2620.457304
455.070202	2620.578292
455.443713	2623.411420
455.817164	2621.246245
456.190556	2625.374950
456.563888	2626.456277
456.937160	2626.756226
457.310373	2625.296812
457.683526	2626.904940
458.056619	2628.218161
458.429653	2629.042389
458.802628	2628.336628
459.175542	2627.489714
459.548398	2630.947945
459.921194	2630.922740
460.293930	2633.113121
460.666607	2634.875004
461.039224	2637.783750
461.411782	2640.546302
461.784280	2642.199801
462.156719	2642.991262
462.529099	2646.257930
462.901419	2643.732312
463.273680	2640.795839
463.645882	2642.809780
464.018024	2645.600059
464.390106	2645.957981
464.762130	2656.108344
465.134094	2661.300733
465.505999	2671.345232
465.877845	2690.983047
466.249631	2703.747248
466.621358	2705.425952
466.993026	2706.751776
467.364634	2711.825697
467.736184	2706.746735
468.107674	2709.317723
468.479105	2720.622511
468.850477	2726.573593
469.221790	2732.133985
469.593043	2735.892166
469.964238	2740.784605
470.335373	2747.973291
470.706449	2761.039962
471.077467	2776.294493
471.448425	2809.356901
471.819324	2879.123949
472.190164	2928.126485
472.560945	2899.712022
472.931667	2885.435474
473.302330	2896.377298
473.672934	2912.889598
474.043479	2943.791871
474.413965	2969.905048
474.784393	2991.594612
475.154761	3039.714946
475.525070	3071.305337
475.895321	3097.632763
476.265513	3149.970022
476.635645	3210.045452
477.005719	3246.775299
477.375734	3305.353507
477.745691	3370.258363
478.115588	3450.009417
478.485427	3532.291130
478.855207	3653.225890
479.224928	3840.290506
479.594591	4078.437134
479.964194	4153.668794
480.333739	4248.152620
480.703226	4279.881642
481.072653	4362.937172
481.442022	4528.418088
481.811333	4719.044280
482.180584	4835.101724
482.549777	4834.907639
482.918912	4937.006128
483.287988	5068.769287
483.657005	5164.079862
484.025964	5240.735647
484.394864	5349.773285
484.763706	5436.841573
485.132489	5516.070868
485.501213	5637.199712
485.869879	5778.830930
486.238487	5843.161094
486.607036	6042.624428
486.975527	6126.284897
487.343959	6308.978833
487.712333	6463.840558
488.080648	6518.491707
488.448905	6775.525018
488.817104	6869.363577
489.185244	7154.082905
489.553326	7345.679518
489.921350	7693.216664
490.289315	8402.796877
490.657222	9047.522645
491.025070	9357.160397
491.392861	9512.032205
491.760593	9490.491354
492.128267	9498.128702
492.495883	9375.381647
492.863440	9364.412097
493.230939	9291.927866
493.598380	9442.161812
493.965763	9498.025359
494.333088	9558.904853
494.700354	9721.048525
495.067563	9897.330114
495.434713	10006.831537
495.801805	10195.690804
496.168839	10370.752433
496.535815	10503.044913
496.902733	10763.274316
497.269593	10789.957143
497.636395	11087.438152
498.003139	11277.174580
498.369825	11421.984245
498.736453	11647.671661
499.103023	11778.161928
499.469535	11987.027015
499.835989	12277.475614
500.202385	12520.988551
500.568723	12482.522026
500.935003	12762.109460
501.301226	12807.563023
501.667390	13347.891537
502.033497	13733.794384
502.399546	13742.208070
502.765537	13798.691678
503.131470	14153.160411
503.497345	14432.999902
503.863163	14197.585579
504.228923	14749.516308
504.594625	15051.224324
504.960269	14942.363128
505.325856	15441.031546
505.691385	15308.423994
506.056856	15815.324616
506.422270	16042.597475
506.787625	15934.588233
507.152924	16424.182574
507.518164	16586.550578
507.883347	16650.580794
508.248472	16612.958662
508.613540	17323.073237
508.978550	17390.914565
509.343503	17552.228968
509.708398	17942.283205
510.073236	18211.407724
510.438016	18540.229587
510.802738	18527.823307
511.167403	18855.379840
511.532010	18805.719433
511.896561	19546.012876
512.261053	19734.027749
512.625488	19756.793600
512.989866	19840.743935
513.354186	19876.614265
513.718449	20145.524535
514.082655	20559.796476
514.446803	20540.539268
514.810894	21040.246164
515.174927	20772.918816
515.538904	20960.142229
515.902822	21475.564922
516.266684	21443.510745
516.630488	21484.848207
516.994235	21634.363788
517.357925	21983.163744
517.721558	22283.442593
518.085133	22489.998831
518.448651	22546.852964
518.812112	22440.686264
519.175516	22690.818235
519.538863	22984.881342
519.902152	22892.885326
520.265385	23281.404532
520.628560	23189.116128
520.991678	23323.956912
521.354739	23486.455985
521.717743	23640.478359
522.080690	23534.034395
522.443580	23938.014820
522.806413	24033.809346
523.169189	24223.805394
523.531908	24341.768394
523.894569	24058.982348
524.257174	24197.898904
524.619722	24473.171110
524.982213	24238.384411
525.344647	24398.466251
525.707025	24551.477873
526.069345	24633.522652
526.431608	24649.268696
526.793815	24902.503498
527.155964	24404.341716
527.518057	24641.177644
527.880093	24628.131138
528.242072	24884.491455
528.603995	24642.790813
528.965860	24502.490461
529.327669	24619.747699
529.689421	24629.164574
530.051117	24513.777604
530.412755	24733.334978
530.774337	24575.493930
531.135862	24479.777542
531.497331	24713.180444
531.858743	24297.073524
532.220098	24801.226717
532.581396	24490.701722
532.942638	24498.316385
533.303824	24610.197233
533.664953	24655.439068
534.026025	24344.959444
534.387040	24592.149902
534.747999	24689.792011
535.108902	24867.689289
535.469748	24373.368867
535.830537	24593.563946
536.191270	24703.498908
536.551947	24622.361537
536.912567	24305.570388
537.273131	24612.574137
537.633638	24366.941395
537.994089	24571.657612
538.354483	24154.552543
538.714821	24652.651310
539.075103	24704.116450
539.435328	24506.530945
539.795497	24054.301637
540.155609	24485.947914
540.515665	24781.084787
540.875665	24036.317320
541.235609	24295.014212
541.595496	24299.987311
541.955328	24656.142309
542.315102	24557.910385
542.674821	24148.183045
543.034483	24025.395661
543.394090	24199.277660
543.753640	23982.898734
544.113134	24628.103412
544.472571	24241.688887
544.831953	24528.588514
545.191278	24126.697647
545.550548	24079.126799
545.909761	24292.186125
546.268918	24522.549212
546.628019	24476.271419
546.987064	24186.067316
547.346053	23956.541061
547.704986	24086.849847
548.063863	24233.514656
548.422684	24229.189346
548.781449	23806.312156
549.140158	24197.029305
549.498811	23777.660758
549.857408	23519.336911
550.215949	23962.040960
550.574434	23625.236430
550.932864	23852.942829
551.291237	23986.762778
551.649555	23868.114181
552.007817	23924.638119
552.366022	23794.846051
552.724173	23843.674667
553.082267	23773.731178
553.440305	24249.739610
553.798288	23527.329661
554.156215	24048.688312
554.514086	24130.181084
554.871902	23499.759590
555.229661	23787.801039
555.587365	23655.924454
555.945014	23495.184743
556.302606	23773.650520
556.660143	23688.722201
557.017625	23961.373007
557.375050	23494.007634
557.732421	23883.552715
558.089735	23698.514642
558.446994	23764.815898
558.804197	23781.625625
559.161345	23750.887190
559.518437	23473.734633
559.875474	23686.042828
560.232455	23868.033523
560.589381	23696.452810
560.946251	23657.706502
561.303065	23991.647656
561.659825	24074.935079
562.016528	23681.039482
562.373177	23427.353498
562.729770	23770.194809
563.086307	23643.664368
563.442789	23811.638135
563.799216	23637.413337
564.155587	23663.282018
564.511904	23639.230673
564.868164	23576.541404
565.224370	23558.113467
565.580520	23449.058185
565.936615	23604.681125
566.292654	23259.523404
566.648638	23590.946502
567.004567	23408.572679
567.360441	23352.751982
567.716260	23074.603798
568.072023	23404.963213
568.427732	23159.942971
568.783385	22957.132311
569.138982	23189.211910
569.494525	23228.323703
569.850013	22967.373415
570.205445	23075.990116
570.560823	22866.152087
570.916145	22638.092807
571.271412	22813.164519
571.626625	22566.883989
571.981782	22681.454292
572.336884	22485.759220
572.691931	22629.502681
573.046923	22353.847348
573.401860	22241.338876
573.756743	22228.993090
574.111570	22155.369559
574.466342	22089.312800
574.821059	22183.226975
575.175722	21878.217003
575.530330	21878.257332
575.884882	21894.915825
576.239380	21790.725257
576.593823	21699.205630
576.948211	21659.952685
577.302544	21520.325327
577.656823	21387.591746
578.011047	21487.547744
578.365216	21358.471521
578.719330	21235.787480
579.073389	21141.036473
579.427394	21285.410078
579.781344	21080.550189
580.135239	20950.861465
580.489080	20924.970099
580.842866	20690.894202
581.196597	20866.354082
581.550273	20857.920232
581.903895	20755.441136
582.257463	21061.305584
582.610975	20591.059191
582.964434	20893.994729
583.317837	20607.866398
583.671186	20701.127744
584.024481	20663.374543
584.377721	20454.118768
584.730906	20496.333390
585.084037	20532.783453
585.437113	20424.723800
585.790135	20624.436671
586.143103	20102.667166
586.496016	20112.999010
586.848874	20348.312510
587.201679	20302.269132
587.554428	19950.996490
587.907124	20279.369690
588.259765	20062.418593
588.612352	20154.916205
588.964884	19716.817250
589.317362	19883.825636
589.669786	19949.534556
590.022155	20003.706795
590.374470	20154.172634
590.726731	19970.931733
591.078937	19722.962417
591.431090	19830.649025
591.783188	19572.725950
592.135232	19541.808553
592.487222	19647.284615
592.839157	19675.930972
593.191038	19555.714576
593.542866	19448.552248
593.894639	19164.369803
594.246358	19380.962978
594.598022	19294.224885
594.949633	19049.045847
595.301190	19000.713785
595.652692	19167.676800
596.004141	19418.133926
596.355535	18742.147963
596.706876	18756.323687
597.058162	18643.820257
597.409395	18855.921764
597.760573	18960.992013
598.111698	18742.808354
598.462768	18663.624430
598.813785	18636.195512
599.164748	18456.871587
599.515657	18488.290578
599.866511	18274.807795
600.217312	18640.233476
600.568060	18167.615221
600.918753	18479.466039
601.269392	18375.545173
601.619978	18144.872055
601.970510	18362.518831
602.320988	18309.115368
602.671412	18526.918420
603.021783	18418.032017
603.372100	18151.889341
603.722363	18295.194222
604.072572	18227.496567
604.422728	18367.096199
604.772830	18143.760481
605.122878	18074.810099
605.472872	18074.273216
605.822813	18062.943223
606.172701	18019.475874
606.522534	18228.106546
606.872314	18252.397346
607.222041	18073.789265
607.571714	18297.772772
607.921333	18127.555692
608.270899	18201.476651
608.620411	18394.865395
608.969870	18148.751223
609.319276	18158.954518
609.668627	18183.535184
610.017926	18319.142223
610.367171	18424.930836
610.716362	18470.207960
611.065500	18288.244991
611.414585	18417.394311
611.763616	18405.746725
612.112594	18366.894553
612.461518	18331.982042
612.810389	18517.443571
613.159207	18371.867651
613.507971	18275.284184
613.856682	18554.554025
614.205340	18492.371393
614.553945	18638.514442
614.902496	18379.961223
615.250994	18618.838819
615.599439	18555.723573
615.947830	18542.724958
616.296169	18589.411083
616.644454	18549.356596
616.992686	18519.409621
617.340864	18736.527076
617.688990	18497.732660
618.037063	18680.464404
618.385082	18514.169342
618.733048	18804.350760
619.080961	18665.295572
619.428821	18708.508343
619.776628	18598.578422
620.124382	18505.783382
620.472083	18552.580413
620.819731	18583.339014
621.167326	18265.229603
621.514868	18314.625349
621.862357	18078.127178
622.209793	18081.046006
622.557176	17925.135721
622.904506	17748.183659
623.251783	17659.655956
623.599007	17426.946212
623.946179	17381.744706
624.293297	17313.192576
624.640363	17066.513795
624.987376	17090.348370
625.334336	16881.364817
625.681243	16739.705873
626.028097	16731.193885
626.374899	16665.474883
626.721647	16539.758588
627.068343	16365.543873
627.414987	16292.774817
627.761577	16270.510561
628.108115	16319.787840
628.454600	16034.967689
628.801032	16128.738192
629.147412	16060.352419
629.493739	16088.098930
629.840014	15885.956222
630.186236	15995.853376
630.532405	15755.607107
630.878521	15956.905422
631.224585	15852.314082
631.570597	15671.896227
631.916556	15709.520879
632.262462	15688.216963
632.608316	15609.325426
632.954117	15551.624379
633.299866	15542.658687
633.645562	15459.668691
633.991206	15218.545262
634.336797	15092.065232
634.682336	15055.310180
635.027823	14954.479541
635.373257	14839.190873
635.718639	14716.673191
636.063968	14682.383262
636.409245	14440.491057
636.754470	14464.882679
637.099642	14311.671932
637.444762	14082.180965
637.789829	14128.385660
638.134845	13967.986227
638.479808	13985.718486
638.824719	13937.028501
639.169577	13785.304894
639.514383	13836.117204
639.859137	13660.934587
640.203839	13742.301331
640.548489	13580.175303
640.893086	13574.375455
641.237632	13437.286318
641.582125	13587.855501
641.926566	13424.002877
642.270955	13431.688116
642.615292	13396.110173
642.959576	13405.547213
643.303809	13442.042646
643.647990	13373.732491
643.992118	13424.950614
644.336195	13207.187892
644.680219	13398.141758
645.024192	13329.536695
645.368112	13561.873394
645.711981	13622.074853
646.055797	13801.429025
646.399562	13767.582718
646.743274	14036.830745
647.086935	14314.769721
647.430544	14281.402323
647.774101	14306.252691
648.117606	14456.937821
648.461059	14428.631742
648.804460	14422.005145
649.147810	14148.847704
649.491108	14045.188978
649.834354	14072.640581
650.177548	13771.262760
650.520690	13576.200353
650.863781	13497.427283
651.206820	13540.882029
651.549807	13365.223023
651.892742	13172.451821
652.235626	13117.238583
652.578458	13121.543729
652.921238	12803.749390
653.263967	13000.495543
653.606644	12844.224815
653.949269	12801.929534
654.291843	12613.864248
654.634365	12767.518618
654.976836	12615.971451
655.319255	12630.452165
655.661622	12586.594127
656.003938	12509.126716
656.346203	12435.989656
656.688416	12496.596928
657.030577	12467.048204
657.372687	12381.252807
657.714746	12359.469981
658.056753	12533.800643
658.398708	12369.522042
658.740612	12363.107174
659.082465	12471.345788
659.424266	12433.368256
659.766016	12448.887448
660.107715	12358.847399
660.449362	12434.305910
660.790958	12391.650187
661.132503	12343.245028
661.473996	12400.492371
661.815438	12419.048858
662.156829	12425.758634
662.498168	12413.957293
662.839456	12399.340467
663.180693	12431.946650
663.521879	12522.606761
663.863013	12501.254954
664.204097	12473.798309
664.545129	12592.424221
664.886110	12560.100343
665.227040	12645.736944
665.567918	12654.664827
665.908746	12689.889890
666.249522	12670.483968
666.590248	12716.396277
666.930922	12829.645798
667.271545	12813.786328
667.612118	12901.935944
667.952639	12805.034885
668.293109	12811.285915
668.633528	12776.723765
668.973896	12743.943662
669.314213	12824.609685
669.654480	12578.591295
669.994695	12629.441414
670.334859	12659.075837
670.674973	12608.729833
671.015035	12638.255871
671.355047	12587.924991
671.695008	12546.700956
672.034918	12564.856671
672.374777	12599.839758
672.714585	12515.057633
673.054342	12547.585678
673.394049	12502.842917
673.733705	12598.690375
674.073310	12509.061181
674.412864	12521.853108
674.752368	12402.440777
675.091820	12405.508319
675.431223	12398.324675
675.770574	12274.897064
676.109875	12194.243643
676.449125	12153.911892
676.788324	12095.058942
677.127473	11933.374014
677.466571	11917.764081
677.805619	11822.708084
678.144616	11737.653737
678.483562	11704.034282
678.822458	11577.559293
679.161303	11557.603886
679.500098	11555.010212
679.838842	11503.718993
680.177535	11520.332115
680.516179	11580.936867
680.854771	11532.093127
681.193314	11742.152967
681.531805	11890.448589
681.870247	12298.867750
682.208638	12708.645503
682.546978	13026.061754
682.885268	13087.152977
683.223508	12778.324331
683.561697	12613.768467
683.899836	12521.689271
684.237925	12330.571567
684.575963	12237.416085
684.913951	12164.818428
685.251889	12111.238525
685.589776	12209.243597
685.927614	12135.599901
686.265401	12092.893766
686.603137	12132.832307
686.940824	12288.697223
687.278460	12409.246334
687.616046	12465.641722
687.953582	12638.318886
688.291068	12558.378789
688.628504	12792.149695
688.965889	12787.894962
689.303224	12763.783123
689.640510	12657.981906
689.977745	12360.357224
690.314930	12133.124694
690.652065	12044.586909
690.989150	11756.336253
691.326185	11539.652337
691.663170	11331.316572
692.000105	11092.817063
692.336990	10981.737759
692.673825	10732.790458
693.010610	10610.613054
693.347345	10405.153267
693.684030	10204.273368
694.020665	10144.109718
694.357251	9948.422208
694.693786	9897.055371
695.030272	9733.134692
695.366707	9618.352660
695.703093	9541.764930
696.039429	9536.691009
696.375716	9474.057193
696.711952	9334.747427
697.048139	9374.648159
697.384276	9323.430036
697.720363	9345.971556
698.056400	9278.498232
698.392388	9237.314526
698.728326	9202.094504
699.064214	9135.047158
699.400053	9179.903345
699.735842	8991.976692
700.071581	8957.964027
700.407270	8884.673211
700.742910	8798.217423
701.078501	8708.631078
701.414042	8583.965864
701.749533	8520.197788
702.084974	8387.991008
702.420366	8494.923963
702.755709	8378.548927
703.091002	8245.991787
703.426246	8273.839120
703.761440	8226.414466
704.096584	8178.659615
704.431679	8116.600491
704.766725	8102.331505
705.101721	8050.624390
705.436668	8095.059640
705.771565	7991.078281
706.106413	8069.811021
706.441212	8116.061087
706.775961	8066.251967
707.110661	8098.288499
707.445311	8246.301818
707.779913	8140.727453
708.114465	8279.205429
708.448967	8314.180954
708.783421	8445.503012
709.117825	8634.770612
709.452180	8668.498452
709.786485	8758.737627
710.120742	9038.982931
710.454949	9039.681130
710.789107	9131.183114
711.123216	9350.440539
711.457275	9513.098409
711.791286	9677.003964
712.125247	9668.318056
712.459159	9656.642744
712.793023	9908.246732
713.126837	9485.354418
713.460602	9632.878745
713.794318	9464.715935
714.127985	9492.255758
714.461602	9174.940329
714.795171	9126.744378
715.128691	8878.492757
715.462162	8634.836147
715.795584	8582.922345
716.128957	8434.236033
716.462281	8260.467460
716.795556	8315.786562
717.128782	8104.332843
717.461960	7838.643871
717.795088	7909.265395
718.128167	7818.698545
718.461198	7656.640573
718.794180	7597.878363
719.127113	7587.158349
719.459997	7447.813295
719.792833	7208.358487
720.125619	7272.791995
720.458357	7127.072402
720.791046	7110.134125
721.123686	7114.217460
721.456278	6958.788605
721.788821	6978.055895
722.121315	6869.497167
722.453761	6936.443690
722.786158	6881.558128
723.118506	6891.658079
723.450805	6856.725404
723.783056	6927.989675
724.115259	6833.546178
724.447412	6830.208935
724.779518	6871.470779
725.111574	6876.781634
725.443582	6956.961186
725.775542	6935.465706
726.107453	7127.838658
726.439315	7039.159720
726.771129	7091.807011
727.102895	7261.227588
727.434612	7371.704475
727.766281	7409.061946
728.097901	7490.496745
728.429473	7483.542473
728.760996	7454.732279
729.092471	7434.058507
729.423897	7382.621094
729.755276	7390.878504
730.086606	7322.109603
730.417887	7417.246259
730.749120	7601.719722
731.080305	7800.089126
731.411442	7924.595544
731.742530	7922.410203
732.073570	8031.856174
732.404562	8113.376673
732.735506	7960.639794
733.066401	8100.345290
733.397249	8036.720888
733.728048	7798.581821
734.058798	7470.208621
734.389501	7251.089828
734.720156	7074.155410
735.050762	6834.347722
735.381320	6734.076651
735.711831	6689.525454
736.042293	6581.092756
736.372707	6603.530931
736.703073	6467.283666
737.033391	6501.034191
737.363661	6514.678074
737.693883	6537.335540
738.024056	6620.461647
738.354182	6670.240520
738.684260	6706.466252
739.014290	6810.717313
739.344272	6918.262769
739.674207	6951.473890
740.004093	7016.068715
740.333931	7039.205091
740.663722	7042.290277
740.993464	7120.287009
741.323159	7121.333049
741.652806	6864.219079
741.982405	6867.016919
742.311956	6930.230468
742.641460	6777.425533
742.970915	6577.642086
743.300323	6568.535241
743.629683	6515.167066
743.958996	6384.628908
744.288260	6294.258663
744.617477	6243.012814
744.946647	6256.490339
745.275768	6082.900727
745.604842	6037.550507
745.933869	6021.945615
746.262847	5979.143698
746.591778	5968.108613
746.920662	5925.415081
747.249498	5916.600623
747.578286	5963.674918
747.907027	6040.839860
748.235720	6100.781699
748.564365	6068.296504
748.892963	6089.751655
749.221514	6250.826602
749.550017	6094.515545
749.878473	5960.836748
750.206881	6016.861611
750.535242	5961.025791
750.863555	5889.864864
751.191821	5909.943779
751.520039	5908.113841
751.848210	5820.150747
752.176334	5833.882850
752.504411	5885.887393
752.832440	5818.484646
753.160421	5742.695939
753.488356	5794.836593
753.816243	5825.451520
754.144082	5674.516854
754.471875	5642.651720
754.799620	5691.913876
755.127318	5706.623963
755.454969	5652.683616
755.782572	5625.042970
756.110129	5661.671994
756.437638	5655.494060
756.765100	5590.397640
757.092515	5589.185242
757.419882	5631.578826
757.747203	5616.878821
758.074477	5684.150499
758.401703	5668.162479
758.728882	5624.556498
759.056014	5669.392521
759.383099	5801.642151
759.710138	5813.125899
760.037129	5797.939423
760.364073	5800.268436
760.690970	5885.100973
761.017820	5870.494230
761.344623	5819.702084
761.671379	5919.915182
761.998088	6038.478079
762.324751	6273.095900
762.651366	6858.066351
762.977935	8140.198132
763.304456	9767.769939
763.630931	10685.181801
763.957359	10315.650101
764.283740	9385.398420
764.610074	8562.198162
764.936362	7573.471617
765.262602	6971.819987
765.588796	6433.046670
765.914943	6093.373724
766.241044	5929.705103
766.567097	5740.881123
766.893104	5475.842460
767.219064	5299.671777
767.544978	5233.960337
767.870845	5156.654243
768.196665	5052.332605
768.522438	4979.253518
768.848165	4945.326553
769.173846	4880.741810
769.499479	4841.884596
769.825066	4788.952481
770.150607	4722.767172
770.476101	4699.827402
770.801548	4701.175910
771.126949	4624.615907
771.452303	4570.486517
771.777611	4529.958161
772.102872	4548.166809
772.428087	4507.623329
772.753256	4467.798213
773.078378	4425.507974
773.403453	4355.256974
773.728482	4341.713915
774.053465	4297.886123
774.378401	4282.742497
774.703291	4283.107981
775.028135	4217.668763
775.352932	4165.389477
775.677683	4154.417405
776.002388	4171.572452
776.327046	4184.515614
776.651658	4110.761013
776.976224	4045.558729
777.300743	4049.085016
777.625216	4074.585693
777.949643	4068.382553
778.274024	4023.637272
778.598359	3977.767813
778.922647	3998.305473
779.246889	3993.143332
779.571086	3990.723578
779.895236	3976.328563
780.219339	3962.137715
780.543397	3949.686065
780.867409	4004.848891
781.191374	4020.657950
781.515294	3960.862303
781.839167	3950.049028
782.162995	3970.168273
782.486776	3955.269143
782.810511	3966.621822
783.134201	3965.941266
783.457844	3925.168413
783.781441	3865.410576
784.104993	3870.542470
784.428498	3887.954616
784.751958	3882.338770
785.075372	3865.695401
785.398739	3827.959844
785.722061	3836.532326
786.045337	3878.290724
786.368568	3917.364707
786.691752	3824.415913
787.014891	3873.927605
787.337983	3998.197089
787.661030	4155.854134
787.984031	4318.063341
788.306987	4488.540041
788.629897	4572.271086
788.952760	4523.873488
789.275579	4458.555258
789.598351	4395.606370
789.921078	4262.630814
790.243759	4061.246800
790.566395	4036.950959
790.888984	4037.036658
791.211529	3931.752160
791.534027	3870.386195
791.856480	3863.051316
792.178888	3797.735606
792.501249	3747.679469
792.823566	3759.478289
793.145836	3790.536838
793.468062	3737.682861
793.790241	3689.764173
794.112375	3720.006055
794.434464	3780.111732
794.756507	3807.303716
795.078505	3791.088845
795.400457	3818.991631
795.722364	3954.747384
796.044226	4060.614135
796.366042	4133.378150
796.687812	4116.437352
797.009538	4124.122591
797.331218	4078.686672
797.652852	4054.521901
797.974442	4035.426010
798.295986	4037.175290
798.617484	3957.431798
798.938938	3864.588868
799.260346	3906.589241
799.581709	3903.733427
799.903026	3835.861852
800.224299	3792.928866
800.545526	3789.526087
800.866708	3749.640478
801.187845	3686.434491
801.508936	3725.616859
801.829983	3725.523598
802.150984	3642.820948
802.471940	3635.803662
802.792851	3644.431597
803.113717	3644.693737
803.434538	3650.561640
803.755314	3592.991663
804.076045	3565.063671
804.396731	3583.862133
804.717372	3609.319960
805.037967	3597.127930
805.358518	3585.235848
805.679024	3609.095629
805.999485	3625.484420
806.319901	3630.124802
806.640272	3642.314312
806.960598	3656.321158
807.280879	3628.599853
807.601115	3644.381185
807.921306	3656.774862
808.241453	3702.843447
808.561554	3678.179601
808.881611	3610.429014
809.201623	3644.464364
809.521590	3659.202178
809.841513	3632.090852
810.161390	3660.893485
810.481223	3639.594610
810.801011	3583.589911
811.120755	3571.672623
811.440453	3612.405147
811.760107	3616.286835
812.079716	3573.787387
812.399281	3541.458468
812.718801	3561.199626
813.038276	3536.903785
813.357707	3534.920091
813.677093	3553.174109
813.996434	3498.772498
814.315731	3506.155267
814.634983	3511.703057
814.954191	3524.411806
815.273354	3555.518246
815.592473	3552.554048
815.911547	3556.042526
816.230577	3595.923094
816.549562	3646.495949
816.868502	3689.630582
817.187399	3713.228223
817.506250	3711.773851
817.825058	3682.835107
818.143821	3770.896503
818.462539	3874.613202
818.781213	3919.098864
819.099843	3972.033500
819.418429	4212.904872
819.736970	4453.236841
820.055466	4693.604097
820.373919	5053.232451
820.692327	5461.878464
821.010691	5883.187855
821.329011	7220.096814
821.647286	9895.515298
821.965517	14371.149985
822.283704	18391.142503
822.601847	20618.866196
822.919945	18862.860912
823.237999	16325.328068
823.556010	13857.678219
823.873976	11792.148610
824.191897	9710.308347
824.509775	8352.254268
824.827609	7226.095787
825.145398	6678.729823
825.463144	6562.110291
825.780845	6678.858373
826.098502	6847.363981
826.416116	7694.938218
826.733685	8998.457095
827.051210	10126.019537
827.368692	10205.430313
827.686129	8985.299683
828.003522	7466.480688
828.320872	6448.714576
828.638177	5756.274287
828.955439	5205.969330
829.272656	4708.674627
829.589830	4418.163013
829.906960	4241.780601
830.224046	4060.145308
830.541088	3933.534208
830.858086	3887.682393
831.175041	3815.349398
831.491952	3794.577323
831.808819	3808.054848
832.125642	3877.504304
832.442421	4021.857744
832.759157	4286.362045
833.075849	4826.312472
833.392497	5672.926370
833.709101	6444.598474
834.025662	6796.297093
834.342179	6459.394261
834.658653	5798.173837
834.975083	5156.820601
835.291469	4584.805915
835.607811	4167.612625
835.924110	4034.145557
836.240366	3838.344621
836.556578	3631.140595
836.872746	3521.056918
837.188871	3485.322699
837.504952	3419.160076
837.820990	3335.960873
838.136984	3286.597894
838.452935	3312.988334
838.768842	3309.641008
839.084706	3330.521468
839.400526	3481.103253
839.716303	3809.436124
840.032037	4325.398220
840.347727	4601.519860
840.663373	4337.880117
840.978977	3959.995225
841.294537	3652.817556
841.610054	3422.976229
841.925527	3312.035556
842.240957	3248.433839
842.556344	3195.083308
842.871687	3135.199441
843.186987	3087.195054
843.502244	3052.506874
843.817458	3016.046729
844.132629	2981.368632
844.447756	2992.323059
844.762840	2980.788899
845.077881	2944.555606
845.392879	2931.430962
845.707833	2928.970878
846.022745	2922.881165
846.337613	2925.883172
846.652438	2912.607293
846.967221	2909.179308
847.281960	2896.959552
847.596656	2895.336300
847.911309	2893.839077
848.225919	2887.847666
848.540485	2881.972201
848.855009	2882.133518
849.169490	2872.099101
849.483928	2861.905888
849.798323	2860.252390
850.112675	2857.620907
850.426984	2866.921836
850.741251	2867.322608
851.055474	2855.831298
851.369654	2854.671832
851.683792	2856.489168
851.997887	2864.219778
852.311938	2866.374871
852.625947	2854.250896
852.939914	2857.373891
853.253837	2865.147350
853.567718	2849.098837
853.881555	2845.388548
854.195350	2860.257431
854.509103	2859.261803
854.822812	2850.278467
855.136479	2847.402489
855.450103	2850.999352
855.763685	2842.530213
856.077224	2836.863957
856.390720	2852.312572
856.704173	2863.766074
857.017584	2855.617049
857.330953	2850.742253
857.644278	2863.191382
857.957561	2867.761188
858.270802	2872.751931
858.584000	2873.498022
858.897155	2859.014787
859.210268	2859.954962
859.523339	2856.993284
859.836367	2856.479086
860.149352	2850.593539
860.462295	2844.506346
860.775195	2853.577902
861.088054	2853.403982
861.400869	2835.149964
861.713642	2835.003771
862.026373	2849.108919
862.339062	2850.742253
862.651708	2857.769622
862.964312	2862.762884
863.276873	2855.120495
863.589392	2866.054758
863.901869	2872.288145
864.214303	2891.875548
864.526696	2913.040832
864.839045	2907.021695
865.151353	2906.386509
865.463619	2902.446848
865.775842	2906.784760
866.088023	2924.693459
866.400162	2931.622525
866.712258	2906.144534
867.024313	2893.566855
867.336325	2900.967269
867.648296	2923.266813
867.960224	2916.859506
868.272110	2899.495252
868.583954	2907.281314
868.895755	2922.014086
869.207515	2907.616551
869.519233	2910.626120
869.830909	2919.743046
870.142542	2930.339552
870.454134	2932.683688
870.765684	2935.542023
871.077191	2935.922630
871.388657	2939.458999
871.700081	2956.495578
872.011463	2964.952114
872.322803	2966.353555
872.634101	2966.477063
872.945357	2981.230000
873.256571	3005.125069
873.567744	2999.002588
873.878874	2994.407576
874.189963	3018.290042
874.501010	3016.467665
874.812015	3008.674041
875.122979	3009.745287
875.433900	3003.070799
875.744780	3012.298631
876.055618	3019.283150
876.366415	3014.592356
876.677169	3028.188348
876.987882	3022.451515
877.298554	3019.930938
877.609183	3036.665048
877.919771	3056.948131
878.230317	3084.505598
878.540822	3139.219761
878.851285	3175.445493
879.161707	3217.924776
879.472087	3314.730053
879.782425	3532.664175
880.092722	3958.555975
880.402977	4483.723218
880.713191	5090.143779
881.023363	6216.269493
881.333494	7490.668144
881.643583	8052.986170
881.953631	7771.841020
882.263637	7158.168760
882.573602	6588.803200
882.883526	6013.138719
883.193408	5444.509168
883.503248	4976.778312
883.813048	4682.241336
884.122806	4385.304772
884.432522	4069.998243
884.742197	3840.230012
885.051831	3650.352432
885.361424	3511.831607
885.670975	3444.857357
885.980485	3359.359388
886.289954	3281.168571
886.599382	3240.219279
886.908768	3200.532795
887.218113	3153.392965
887.527417	3100.753237
887.836680	3049.482182
888.145901	3047.753066
888.455082	3038.308464
888.764221	2985.020948
889.073319	2957.372739
889.382376	2951.913170
889.691392	2957.942390
890.000366	2959.444653
890.309300	2942.072837
890.618193	2958.005404
890.927044	2972.372693
891.235855	2974.595841
891.544625	2959.754684
891.853353	2972.871767
892.162041	2986.046822
892.470687	3027.258255
892.779293	3077.001841
893.087858	3122.344499
893.396381	3194.133050
893.704864	3311.070175
894.013306	3541.226575
894.321707	3837.374199
894.630068	4051.789595
894.938387	4051.487126
895.246665	4002.721524
895.554903	3888.191550
895.863100	3691.674770
896.171256	3522.697814
896.479371	3388.509860
896.787446	3266.758433
897.095480	3163.702125
897.403473	3101.335490
897.711425	3061.732186
898.019336	3051.412944
898.327207	3028.800848
898.635038	2992.686022
898.942827	2974.752117
899.250576	2966.897999
899.558284	2935.468926
899.865952	2913.963363
900.173579	2892.798079
900.481165	2887.580485
900.788711	2875.007847
901.096216	2849.940710
901.403681	2838.444358
901.711105	2843.679597
902.018489	2842.925944
902.325832	2844.382837
902.633135	2852.748632
902.940397	2885.334651
903.247619	2962.623101
903.554800	3148.223262
903.861941	3483.623830
904.169041	3904.640835
904.476101	4207.994788
904.783121	4171.375847
905.090100	3931.805092
905.397039	3660.651509
905.703938	3414.620517
906.010796	3230.933473
906.317614	3120.736371
906.624391	3028.304294
906.931129	2955.905763
907.237826	2895.026269
907.544483	2847.437777
907.851099	2822.136226
908.157675	2796.796866
908.464211	2780.667694
908.770707	2767.258225
909.077163	2752.666605
909.383578	2737.906107
909.689954	2727.947307
909.996289	2724.874724
910.302584	2731.546691
910.608839	2727.228943
910.915054	2721.333313
911.221229	2714.560523
911.527363	2718.721996
911.833458	2722.558314
912.139513	2726.679457
912.445527	2729.232801
912.751502	2735.067937
913.057436	2747.844741
913.363331	2762.605240
913.669186	2780.874381
913.975000	2815.280256
914.280775	2872.580532
914.586510	2945.810853
914.892205	3020.581247
915.197859	3144.182777
915.503475	3333.084894
915.809050	3543.477450
916.114585	3690.767363
916.420081	3710.188408
916.725536	3654.362670
917.030952	3541.816390
917.336328	3413.040115
917.641665	3284.581432
917.946961	3184.801874
918.252218	3117.613376
918.557435	3036.901982
918.862612	2977.935606
919.167750	2933.558328
919.472848	2893.760939
919.777906	2866.392515
920.082925	2843.276304
920.387904	2809.729946
920.692843	2794.392235
920.997743	2785.088786
921.302603	2769.725870
921.607423	2759.502410
921.912204	2749.364649
922.216946	2733.764799
922.521647	2729.666341
922.826310	2723.087635
923.130932	2712.775955
923.435516	2702.557536
923.740059	2698.423790
924.044564	2689.755526
924.349028	2684.038857
924.653454	2678.637261
924.957840	2672.759275
925.262186	2670.079902
925.566493	2667.322391
925.870761	2660.421051
926.174989	2657.562717
926.479178	2651.709937
926.783328	2647.553506
927.087438	2646.126860
927.391509	2645.247178
927.695541	2640.891621
927.999533	2638.602937
928.303486	2632.611526
928.607400	2635.638739
928.911275	2632.866104
929.215110	2633.178656
929.518906	2631.409211
929.822663	2632.951804
930.126381	2632.170425
930.430060	2631.520116
930.733699	2631.671351
931.037299	2633.813841
931.340861	2635.711836
931.644383	2635.472381
931.947866	2632.767802
932.251309	2633.597072
932.554714	2630.844602
932.858080	2628.039200
933.161407	2627.686319
933.464694	2625.264044
933.767943	2621.175669
934.071153	2624.344034
934.374323	2626.050464
934.677455	2625.430402
934.980548	2620.071656
935.283602	2622.125926
935.586617	2623.396297
935.889593	2623.892851
936.192530	2621.087448
936.495428	2624.807820
936.798287	2625.049795
937.101108	2629.753192
937.403890	2631.568007
937.706632	2634.875004
938.009336	2642.479585
938.312002	2652.589619
938.614628	2661.167142
938.917216	2668.214675
939.219765	2667.057730
939.522275	2667.657628
939.824747	2664.201917
940.127179	2661.285609
940.429573	2656.690597
940.731929	2657.217398
941.034246	2655.170690
941.336524	2651.006697
941.638763	2646.194915
941.940964	2647.193064
942.243126	2645.000162
942.545250	2645.582415
942.847335	2641.090747
943.149381	2637.269552
943.451389	2632.049437
943.753359	2628.664303
944.055290	2627.283027
944.357182	2630.796711
944.659036	2627.371247
944.960851	2626.436113
945.262628	2623.015690
945.564367	2625.256483
945.866067	2627.172121
946.167729	2628.041720
946.469352	2627.267903
946.770937	2624.394445
947.072484	2623.187089
947.373992	2624.230608
947.675462	2621.581482
947.976893	2619.496964
948.278286	2616.265585
948.579641	2617.883795
948.880958	2613.104781
949.182236	2618.650051
949.483476	2616.109309
949.784678	2615.882457
950.085841	2615.398506
950.386967	2616.363887
950.688054	2617.094855
950.989103	2615.811881
951.290114	2622.914867
951.591087	2621.647017
951.892021	2621.488220
952.192917	2627.547687
952.493776	2627.751854
952.794596	2629.894344
953.095378	2630.524488
953.396122	2630.625312
953.696828	2624.964096
953.997496	2624.790176
954.298126	2622.730865
954.598718	2620.895885
954.899272	2617.775410
955.199788	2614.687704
955.500266	2613.818105
955.800706	2611.473968
956.101108	2608.706375
956.401472	2607.244440
956.701798	2603.705550
957.002087	2602.498194
957.302337	2604.030704
957.602550	2601.754623
957.902724	2597.764550
958.202861	2599.420569
958.502960	2598.180445
958.803022	2597.091556
959.103045	2597.172215
959.403031	2596.786566
959.702979	2593.650969
960.002889	2592.983016
960.302762	2592.912440
960.602596	2594.492841
960.902393	2592.539394
961.202153	2592.362954
961.501875	2590.631317
961.801559	2590.757346
962.101205	2590.906060
962.400814	2592.988057
962.700385	2587.823395
962.999918	2588.093097
963.299414	2586.182499
963.598873	2586.215267
963.898293	2584.773497
964.197677	2591.541246
964.497022	2589.897830
964.796331	2588.846749
965.095601	2588.879517
965.394835	2587.470514
965.694030	2587.941862
965.993189	2588.907243
966.292309	2587.591502
966.591393	2585.985894
966.890439	2588.125864
967.189447	2588.103179
967.488419	2586.056470
967.787353	2589.408838
968.086249	2587.911615
968.385108	2590.575865
968.683930	2588.319948
968.982714	2588.191399
969.281462	2590.588468
969.580172	2588.682912
969.878844	2590.699373
970.177480	2587.004207
970.476078	2589.582757
970.774639	2588.128385
971.073162	2586.366501
971.371649	2588.113261
971.670098	2588.763570
971.968510	2587.435226
972.266885	2588.866914
972.565223	2589.169383
972.863524	2589.192068
973.161788	2590.533015
973.460014	2588.168714
973.758204	2589.950762
974.056356	2588.425813
974.354471	2589.774321
974.652550	2588.980340
974.950591	2589.643251
975.248595	2586.348857
975.546563	2589.905391
975.844493	2585.196954
976.142386	2586.242993
976.440243	2590.167531
976.738062	2587.846080
977.035845	2588.771132
977.333590	2588.854311
977.631299	2588.241811
977.928971	2584.067735
978.226606	2581.927765
978.524204	2583.616552
978.821765	2580.705286
979.119290	2585.454052
979.416777	2585.670822
979.714228	2585.272571
980.011642	2587.006728
980.309020	2587.662078
980.606360	2585.522108
980.903664	2589.214753
981.200931	2585.181830
981.498162	2588.524115
981.795356	2584.269381
982.092513	2587.828436
982.389633	2591.228694
982.686717	2595.266658
982.983764	2599.828903
983.280775	2602.271342
983.577749	2605.104470
983.874686	2603.995416
984.171587	2600.360744
984.468451	2599.793615
984.765279	2595.750609
985.062070	2594.437389
985.358824	2592.615012
985.655543	2592.819178
985.952224	2587.621749
986.248869	2588.632500
986.545478	2587.266347
986.842050	2585.486820
987.138586	2583.951789
987.435086	2583.868610
987.731549	2581.821901
988.027975	2584.536562
988.324366	2583.097313
988.620719	2583.742581
988.917037	2581.562282
989.213318	2582.021027
989.509563	2584.279464
989.805772	2581.859710
990.101944	2584.657550
990.398080	2585.025554
990.694180	2583.903898
990.990244	2584.188723
991.286271	2581.436253
991.582262	2582.971284
991.878217	2584.932293
992.174136	2583.629155
992.470019	2585.501943
992.765865	2581.539597
993.061676	2579.349215
993.357450	2579.006417
993.653188	2577.766293
993.948890	2581.302662
994.244556	2583.505647
994.540186	2585.194433
994.835780	2585.078487
995.131337	2585.824577
995.426859	2583.787951
995.722345	2586.810123
996.017795	2584.188723
996.313208	2587.422623
996.608586	2587.518405
996.903928	2588.481265
997.199234	2587.788107
997.494504	2588.209043
997.789738	2586.903384
998.084936	2585.431367
998.380099	2582.792323
998.675225	2586.212746
998.970316	2586.187540
999.265371	2582.361305
999.560390	2585.053281
999.855373	2582.555389
1000.150320	2581.526994
1000.445232	2582.439442
1000.740108	2584.097982
1001.034948	2583.099834
1001.329752	2580.380131
1001.624521	2581.761407
1001.919254	2581.443815
1002.213951	2583.372056
1002.508613	2579.989442
1002.803239	2583.324165
1003.097829	2579.066911
1003.392384	2581.022878
1003.686903	2580.584298
1003.981386	2581.811819
1004.275834	2579.296283
1004.570246	2580.725450
1004.864623	2580.120512
1005.158964	2580.738053
1005.453270	2581.211922
1005.747540	2581.602611
1006.041775	2580.294432
1006.335974	2581.733681
1006.630138	2581.073290
1006.924266	2583.442632
1007.218359	2580.203691
1007.512416	2578.303176
1007.806438	2576.344687
1008.100425	2578.688824
1008.394376	2575.291086
1008.688292	2579.702096
1008.982172	2582.575554
1009.276017	2581.741243
1009.569827	2580.879205
1009.863602	2581.539597
1010.157341	2580.241499
1010.451045	2579.848289
1010.744714	2577.478947
1011.038347	2580.072621
1011.331945	2578.714030
1011.625508	2579.371900
1011.919036	2576.884091
1012.212528	2579.079513
1012.505986	2580.969946
1012.799408	2583.649319
1013.092795	2577.426015
1013.386147	2580.236458
1013.679464	2578.628330
1013.972745	2580.014648
1014.265992	2579.447518
1014.559204	2580.911973
1014.852380	2580.357446
1015.145521	2583.041860
1015.438628	2579.765110
1015.731699	2581.436253
1016.024736	2578.673701
1016.317737	2578.734194
1016.610703	2579.893660
1016.903635	2580.901891
1017.196531	2579.571026
1017.489393	2580.675039
1017.782219	2578.303176
1018.075011	2579.737384
1018.367768	2580.659915
1018.660490	2581.053125
1018.953177	2581.053125
1019.245829	2581.053125
