Dividing Wavelength (nm)	Counts (n)	Blue Motor Position (mm): 7.600000	Red Motor Position (mm): 0.000000	
326.493990	2064.100442
326.888308	2064.100442
327.282561	2064.100442
327.676750	2037.881401
328.070874	2039.862575
328.464933	2045.223842
328.858929	2053.143494
329.252859	2065.718653
329.646726	2076.975549
330.040528	2095.811821
330.434265	2111.736826
330.827938	2134.905969
331.221547	2153.240645
331.615091	2173.432987
332.008571	2195.808148
332.401986	2214.614173
332.795338	2234.655280
333.188625	2255.815523
333.581847	2272.983173
333.975006	2291.746347
334.368100	2308.896353
334.761129	2325.335555
335.154095	2338.987000
335.546996	2366.196628
335.939833	2395.868859
336.332606	2409.011147
336.725315	2421.528332
337.117960	2429.901689
337.510540	2444.528597
337.903056	2450.933383
338.295508	2456.687860
338.687896	2463.228757
339.080220	2466.694550
339.472480	2473.999182
339.864676	2475.398102
340.256807	2480.875316
340.648875	2482.606952
341.040879	2482.584267
341.432818	2482.241469
341.824694	2483.869761
342.216506	2483.597539
342.608253	2483.947899
342.999937	2483.058136
343.391557	2482.460759
343.783113	2480.177116
344.174605	2479.055459
344.566033	2477.648977
344.957397	2476.348360
345.348697	2475.887094
345.739934	2471.763430
346.131106	2471.710498
346.522215	2470.916517
346.913260	2467.652369
347.304241	2467.717904
347.695159	2465.121710
348.086012	2462.417131
348.476802	2462.049127
348.867528	2455.354475
349.258191	2452.826336
349.648789	2454.066460
350.039324	2451.109823
350.429796	2457.771708
350.820203	2455.198199
351.210548	2454.419341
351.600828	2453.726182
351.991045	2452.029834
352.381198	2453.272478
352.771288	2451.044288
353.161314	2452.659978
353.551276	2454.121913
353.941175	2453.053188
354.331010	2450.174689
354.720782	2451.563527
355.110490	2451.825667
355.500135	2452.559155
355.889717	2454.376491
356.279235	2453.819443
356.668689	2454.842797
357.058080	2453.945472
357.447408	2453.683332
357.836672	2455.493106
358.225873	2455.200719
358.615010	2453.993363
359.004084	2455.157870
359.393095	2455.861111
359.782043	2455.674588
360.170927	2457.106276
360.559748	2455.538477
360.948505	2458.568210
361.337199	2457.769187
361.725830	2457.774228
362.114398	2456.884465
362.502903	2459.077367
362.891344	2458.737089
363.279722	2459.773046
363.668037	2460.519137
364.056289	2462.674230
364.444478	2460.133488
364.832603	2460.680454
365.220665	2462.286061
365.608665	2463.034673
365.996601	2463.017028
366.384474	2461.182048
366.772284	2463.500979
367.160031	2464.068109
367.547715	2464.657924
367.935336	2463.334621
368.322893	2463.851339
368.710388	2460.544342
369.097820	2463.248922
369.485189	2461.025773
369.872495	2465.192286
370.259738	2465.277986
370.646918	2465.492235
371.034035	2466.734879
371.421090	2465.976186
371.808081	2467.770837
372.195010	2467.690178
372.581875	2468.597586
372.968678	2466.492904
373.355418	2467.917030
373.742096	2468.249746
374.128710	2468.030456
374.515262	2468.690847
374.901751	2466.737400
375.288177	2469.744448
375.674540	2469.714201
376.060841	2468.227061
376.447079	2469.121866
376.833254	2470.049438
377.219367	2466.893676
377.605417	2469.278142
377.991404	2469.709160
378.377329	2471.153451
378.763191	2470.934161
379.148991	2470.482977
379.534727	2472.811990
379.920402	2472.668318
380.306013	2470.407360
380.691563	2474.286528
381.077049	2472.640591
381.462474	2473.641260
381.847835	2472.665797
382.233134	2471.647484
382.618371	2474.697382
383.003545	2473.923565
383.388657	2471.949953
383.773706	2475.146045
384.158693	2475.312403
384.543618	2474.503298
384.928480	2475.274594
385.313280	2474.150417
385.698017	2473.122021
386.082692	2476.658391
386.467305	2477.351549
386.851856	2476.754173
387.236344	2474.059676
387.620770	2472.249902
388.005133	2472.549850
388.389435	2474.329378
388.773674	2470.281331
389.157851	2476.287866
389.541965	2475.299800
389.926018	2477.180150
390.310008	2476.287866
390.693936	2477.616210
391.077802	2479.080665
391.461606	2475.940026
391.845348	2480.041005
392.229027	2478.422795
392.612645	2478.006899
392.996200	2475.813997
393.379694	2478.223669
393.763125	2478.919348
394.146494	2480.106540
394.529801	2478.702579
394.913047	2479.935141
395.296230	2479.806591
395.679351	2479.403299
396.062410	2483.852117
396.445408	2482.506129
396.828343	2480.532518
397.211217	2478.117805
397.594028	2482.095275
397.976778	2482.826243
398.359466	2480.648464
398.742092	2477.167547
399.124656	2482.024699
399.507158	2480.046046
399.889598	2483.332878
400.271977	2480.797178
400.654294	2485.382107
401.036549	2480.817343
401.418742	2484.429329
401.800874	2481.374390
402.182944	2483.181644
402.564952	2483.960502
402.946898	2486.433188
403.328783	2482.775831
403.710606	2480.340954
404.092367	2484.204998
404.474067	2483.993270
404.855705	2484.676346
405.237282	2484.764566
405.618797	2485.069556
406.000250	2485.518219
406.381642	2483.418578
406.762972	2483.640389
407.144240	2481.591160
407.525447	2480.862713
407.906593	2480.048567
408.287677	2488.101810
408.668700	2484.883033
409.049661	2485.765235
409.430560	2488.101810
409.811399	2486.450832
410.192176	2485.409834
410.572891	2484.668784
410.953545	2486.786069
411.334138	2485.054433
411.714669	2488.915956
412.095139	2483.423619
412.475547	2489.115082
412.855894	2485.866058
413.236180	2487.264978
413.616405	2487.451501
413.996568	2487.247334
414.376670	2489.044506
414.756711	2487.169197
415.136691	2487.887561
415.516609	2488.515185
415.896466	2486.977633
416.276262	2489.415031
416.655997	2487.912767
417.035670	2487.580051
417.415283	2490.017448
417.794834	2490.445947
418.174324	2488.232880
418.553753	2488.679022
418.933121	2487.360760
419.312428	2490.730772
419.691674	2489.047026
420.070859	2489.122644
420.449983	2492.411997
420.829045	2490.070381
421.208047	2492.225474
421.586988	2488.857983
421.965867	2491.166832
422.344686	2490.380412
422.723444	2491.272696
423.102141	2486.891933
423.480777	2490.037613
423.859352	2491.368478
424.237866	2491.630618
424.616319	2492.729589
424.994712	2490.201451
425.373044	2492.248159
425.751314	2488.250524
426.129524	2486.884371
426.507673	2490.997953
426.885762	2484.751963
427.263789	2491.973416
427.641756	2490.786224
428.019662	2492.391832
428.397508	2493.200937
428.775292	2490.781183
429.153016	2492.109527
429.530679	2491.708756
429.908282	2493.127840
430.285824	2491.844867
430.663305	2491.691112
431.040726	2490.703045
431.418086	2494.040289
431.795385	2493.339569
432.172624	2489.639362
432.549802	2490.007366
432.926920	2493.440392
433.303977	2493.584065
433.680974	2492.711945
434.057910	2491.940649
434.434786	2493.067347
434.811601	2490.818992
435.188355	2494.302429
435.565050	2491.325628
435.941683	2493.682367
436.318257	2493.795793
436.694770	2495.015753
437.071222	2491.287819
437.447614	2492.689260
437.823946	2492.275885
438.200218	2493.795793
438.576429	2491.169352
438.952580	2494.511637
439.328670	2492.154898
439.704700	2494.284785
440.080670	2492.895947
440.456580	2492.729589
440.832429	2492.462408
441.208218	2494.015083
441.583947	2496.003819
441.959616	2495.353510
442.335224	2493.236225
442.710773	2496.205465
443.086261	2492.369147
443.461689	2496.205465
443.837057	2495.746720
444.212365	2493.929384
444.587612	2491.991060
444.962800	2490.939980
445.337927	2491.333190
445.712995	2489.319249
446.088002	2492.490134
446.462949	2494.471308
446.837837	2491.396204
447.212664	2493.175731
447.587431	2496.240753
447.962139	2493.092552
448.336786	2494.783859
448.711374	2493.324445
449.085901	2495.464415
449.460369	2496.147492
449.834776	2496.618839
450.209124	2493.841164
450.583412	2495.918119
450.957640	2494.015083
451.331808	2493.904178
451.705917	2492.966523
452.079965	2494.252018
452.453954	2495.822337
452.827883	2497.064982
453.201752	2495.857625
453.575562	2498.042965
453.949311	2494.246977
454.323001	2495.444251
454.696632	2494.778818
455.070202	2497.009529
455.443713	2494.811586
455.817164	2490.768580
456.190556	2495.096411
456.563888	2496.873418
456.937160	2495.368633
457.310373	2495.625732
457.683526	2495.545074
458.056619	2496.013901
458.429653	2495.325783
458.802628	2496.981803
459.175542	2496.220588
459.548398	2494.652789
459.921194	2496.805362
460.293930	2498.683192
460.666607	2495.650938
461.039224	2495.144302
461.411782	2496.391988
461.784280	2497.359889
462.156719	2497.115393
462.529099	2497.100270
462.901419	2498.731083
463.273680	2495.088849
463.645882	2493.049703
464.018024	2496.427276
464.390106	2493.049702
464.762130	2498.128665
465.134094	2495.701349
465.505999	2498.163953
465.877845	2496.815444
466.249631	2496.873418
466.621358	2498.403408
466.993026	2498.466422
467.364634	2502.383399
467.736184	2499.109169
468.107674	2497.463233
468.479105	2497.743017
468.850477	2494.131030
469.221790	2498.252173
469.593043	2500.061948
469.964238	2496.878459
470.335373	2498.557163
470.706449	2498.363079
471.077467	2497.014570
471.448425	2496.334014
471.819324	2501.876763
472.190164	2497.947183
472.560945	2498.075733
472.931667	2501.523882
473.302330	2496.908706
473.672934	2498.937770
474.043479	2498.151350
474.413965	2497.122955
474.784393	2497.435506
475.154761	2497.369971
475.525070	2500.074550
475.895321	2497.503562
476.265513	2498.985661
476.635645	2496.649086
477.005719	2499.391474
477.375734	2499.739314
477.745691	2499.666217
478.115588	2498.915085
478.485427	2499.588079
478.855207	2499.888028
479.224928	2498.985661
479.594591	2497.185969
479.964194	2502.040600
480.333739	2500.926505
480.703226	2500.283758
481.072653	2501.203769
481.442022	2501.329798
481.811333	2498.083295
482.180584	2495.673623
482.549777	2500.107318
482.918912	2494.725886
483.287988	2503.351300
483.657005	2500.354334
484.025964	2500.717297
484.394864	2499.986330
484.763706	2501.594458
485.132489	2498.993223
485.501213	2502.577483
485.869879	2501.286948
486.238487	2499.593120
486.607036	2500.573625
486.975527	2500.664365
487.343959	2499.746875
487.712333	2504.906496
488.080648	2500.926505
488.448905	2505.065293
488.817104	2500.535816
489.185244	2500.729900
489.553326	2501.375168
489.921350	2501.962463
490.289315	2503.749552
490.657222	2502.940446
491.025070	2504.006650
491.392861	2503.447082
491.760593	2504.833400
492.128267	2500.692092
492.495883	2501.917092
492.863440	2501.682678
493.230939	2503.371465
493.598380	2503.794922
493.965763	2503.976403
494.333088	2501.934736
494.700354	2502.083450
495.067563	2502.431290
495.434713	2502.244767
495.801805	2502.718636
496.168839	2501.798625
496.535815	2502.186794
496.902733	2503.033708
497.269593	2504.450272
497.636395	2504.727535
498.003139	2503.230313
498.369825	2503.331136
498.736453	2506.232320
499.103023	2502.995899
499.469535	2502.519510
499.835989	2502.209479
500.202385	2499.618326
500.568723	2497.243942
500.935003	2498.526916
501.301226	2498.841988
501.667390	2500.475322
502.033497	2503.452123
502.399546	2503.537823
502.765537	2501.055055
503.131470	2504.866167
503.497345	2504.941784
503.863163	2503.381547
504.228923	2505.002278
504.594625	2504.155364
504.960269	2504.649398
505.325856	2502.791732
505.691385	2504.011692
506.056856	2503.704181
506.422270	2504.808194
506.787625	2504.588904
507.152924	2501.221413
507.518164	2505.362721
507.883347	2502.368275
508.248472	2503.749552
508.613540	2504.951867
508.978550	2502.627895
509.343503	2505.912207
509.708398	2504.127638
510.073236	2503.250477
510.438016	2503.389109
510.802738	2501.208810
511.167403	2504.735097
511.532010	2503.429438
511.896561	2502.955570
512.261053	2503.754593
512.625488	2502.227123
512.989866	2502.577483
513.354186	2504.402381
513.718449	2504.619151
514.082655	2504.422546
514.446803	2503.815087
514.810894	2503.459685
515.174927	2505.496311
515.538904	2503.321053
515.902822	2502.910199
516.266684	2503.898266
516.630488	2500.031701
516.994235	2504.785509
517.357925	2503.805004
517.721558	2503.469768
518.085133	2504.503204
518.448651	2503.701661
518.812112	2502.408605
519.175516	2500.545898
519.538863	2500.729900
519.902152	2504.790550
520.265385	2505.511435
520.628560	2505.697958
520.991678	2502.534633
521.354739	2504.750221
521.717743	2505.914727
522.080690	2505.150992
522.443580	2504.407422
522.806413	2506.179388
523.169189	2506.305417
523.531908	2506.809532
523.894569	2506.854902
524.257174	2505.760972
524.619722	2506.418843
524.982213	2508.175685
525.344647	2505.274501
525.707025	2506.159223
526.069345	2505.271980
526.431608	2507.013699
526.793815	2505.909686
527.155964	2508.740294
527.518057	2508.974708
527.880093	2507.175016
528.242072	2508.095026
528.603995	2507.795078
528.965860	2508.233658
529.327669	2509.078051
529.689421	2510.313134
530.051117	2507.721981
530.412755	2507.943792
530.774337	2507.356497
531.135862	2509.002434
531.497331	2510.124091
531.858743	2511.921262
532.220098	2511.538134
532.581396	2513.073166
532.942638	2509.965294
533.303824	2513.173989
533.664953	2512.906808
534.026025	2511.064266
534.387040	2512.541324
534.747999	2511.550737
535.108902	2512.858917
535.469748	2513.272291
535.830537	2515.485358
536.191270	2514.789678
536.551947	2510.605521
536.912567	2510.146776
537.273131	2513.262209
537.633638	2510.855058
537.994089	2513.395799
538.354483	2513.398320
538.714821	2515.245903
539.075103	2516.962416
539.435328	2516.097858
539.795497	2516.233969
540.155609	2519.513240
540.515665	2518.787313
540.875665	2515.999555
541.235609	2516.687673
541.595496	2515.530728
541.955328	2518.873013
542.315102	2517.146418
542.674821	2518.373939
543.034483	2518.293280
543.394090	2521.524660
543.753640	2522.505164
544.113134	2523.344517
544.472571	2520.879392
544.831953	2521.408713
545.191278	2523.984743
545.550548	2525.696215
545.909761	2522.611029
546.268918	2523.475587
546.628019	2524.438447
546.987064	2527.037162
547.346053	2525.353416
547.704986	2525.693694
548.063863	2524.080525
548.422684	2525.550021
548.781449	2523.876358
549.140158	2527.490866
549.498811	2528.859539
549.857408	2525.607995
550.215949	2525.855011
550.574434	2526.908612
550.932864	2529.454395
551.291237	2530.223171
551.649555	2531.201155
552.007817	2528.773839
552.366022	2527.589168
552.724173	2530.772657
553.082267	2530.150074
553.440305	2531.559077
553.798288	2533.247863
554.156215	2531.244005
554.514086	2529.925743
554.871902	2528.098325
555.229661	2532.113604
555.587365	2529.192255
555.945014	2531.528830
556.302606	2533.648635
556.660143	2535.309695
557.017625	2534.301464
557.375050	2536.867412
557.732421	2537.169881
558.089735	2534.392205
558.446994	2536.935467
558.804197	2534.737524
559.161345	2535.501259
559.518437	2535.899510
559.875474	2532.726104
560.232455	2537.684079
560.589381	2535.181146
560.946251	2537.500077
561.303065	2537.245498
561.659825	2538.775488
562.016528	2538.936805
562.373177	2541.316230
562.729770	2537.527803
563.086307	2538.299099
563.442789	2536.272556
563.799216	2540.991076
564.155587	2542.599204
564.511904	2540.582742
564.868164	2538.639377
565.224370	2540.930582
565.580520	2542.097609
565.936615	2542.067362
566.292654	2541.071734
566.648638	2538.873791
567.004567	2542.213555
567.360441	2543.299924
567.716260	2542.808412
568.072023	2544.184647
568.427732	2541.863195
568.783385	2543.872095
569.138982	2541.840510
569.494525	2542.127856
569.850013	2546.070038
570.205445	2543.113401
570.560823	2545.074410
570.916145	2545.719678
571.271412	2546.082641
571.626625	2543.977959
571.981782	2541.840510
572.336884	2543.423432
572.691931	2541.424615
573.046923	2540.484440
573.401860	2540.078627
573.756743	2547.017775
574.111570	2545.066848
574.466342	2544.182126
574.821059	2544.159441
575.175722	2546.014585
575.530330	2544.822353
575.884882	2547.007693
576.239380	2546.241437
576.593823	2547.728578
576.948211	2543.534338
577.302544	2545.507949
577.656823	2548.126829
578.011047	2548.295707
578.365216	2543.849410
578.719330	2544.817311
579.073389	2546.014585
579.427394	2546.168341
579.781344	2543.698175
580.135239	2546.627086
580.489080	2547.448794
580.842866	2542.339584
581.196597	2547.786551
581.550273	2545.699513
581.903895	2546.438042
582.257463	2549.563558
582.610975	2545.263453
582.964434	2543.862013
583.317837	2546.972405
583.671186	2544.098947
584.024481	2548.530121
584.377721	2546.485933
584.730906	2544.083823
585.084037	2547.786551
585.437113	2543.972918
585.790135	2546.561551
586.143103	2546.523742
586.496016	2546.692621
586.848874	2544.111550
587.201679	2546.685059
587.554428	2544.507280
587.907124	2545.971736
588.259765	2546.211190
588.612352	2545.462579
588.964884	2548.278063
589.317362	2547.224462
589.669786	2543.806560
590.022155	2543.768751
590.374470	2542.664739
590.726731	2543.927548
591.078937	2543.282280
591.431090	2544.482075
591.783188	2545.328988
592.135232	2547.055584
592.487222	2546.367466
592.839157	2546.954761
593.191038	2546.798485
593.542866	2546.521221
593.894639	2546.858979
594.246358	2546.359904
594.598022	2546.130532
594.949633	2544.653474
595.301190	2545.563402
595.652692	2546.397713
596.004141	2545.787733
596.355535	2544.338402
596.706876	2544.040974
597.058162	2541.059131
597.409395	2544.887888
597.760573	2544.303114
598.111698	2545.291180
598.462768	2543.196580
598.813785	2545.291180
599.164748	2544.504760
599.515657	2544.204811
599.866511	2543.884698
600.217312	2545.883515
600.568060	2544.988711
600.918753	2546.528783
601.269392	2546.163299
601.619978	2544.224976
601.970510	2546.125491
602.320988	2547.161448
602.671412	2542.427804
603.021783	2545.530635
603.372100	2547.375697
603.722363	2543.287321
604.072572	2548.298228
604.422728	2548.376366
604.772830	2544.587939
605.122878	2545.157589
605.472872	2546.392672
605.822813	2544.736653
606.172701	2544.358566
606.522534	2548.404092
606.872314	2546.765717
607.222041	2548.489792
607.571714	2544.396375
607.921333	2544.988711
608.270899	2544.600542
608.620411	2542.276570
608.969870	2548.552806
609.319276	2544.807229
609.668627	2549.447611
610.017926	2547.471479
610.367171	2550.665050
610.716362	2547.345450
611.065500	2551.360729
611.414585	2551.844680
611.763616	2552.336192
612.112594	2550.402910
612.461518	2550.743188
612.810389	2552.396686
613.159207	2550.357539
613.507971	2554.617314
613.856682	2555.358364
614.205340	2552.260575
614.553945	2558.806513
614.902496	2554.415668
615.250994	2555.537325
615.599439	2555.040771
615.947830	2557.032027
616.296169	2560.475135
616.644454	2558.597305
616.992686	2556.696790
617.340864	2559.653427
617.688990	2559.628221
618.037063	2559.161915
618.385082	2560.906154
618.733048	2567.290775
619.080961	2567.520148
619.428821	2566.648028
619.776628	2568.745148
620.124382	2567.013512
620.472083	2568.951835
620.819731	2573.272104
621.167326	2571.999213
621.514868	2571.111970
621.862357	2570.839747
622.209793	2572.858730
622.557176	2571.905952
622.904506	2571.931157
623.251783	2574.083730
623.599007	2571.437124
623.946179	2572.029460
624.293297	2574.887794
624.640363	2574.081209
624.987376	2569.067782
625.334336	2570.517114
625.681243	2574.043401
626.028097	2571.732032
626.374899	2577.395768
626.721647	2578.187229
627.068343	2577.783937
627.414987	2581.133784
627.761577	2580.443146
628.108115	2584.902046
628.454600	2586.374063
628.801032	2587.720051
629.147412	2591.311873
629.493739	2588.075453
629.840014	2591.629466
630.186236	2595.329673
630.532405	2595.526278
630.878521	2599.329828
631.224585	2604.214707
631.570597	2604.534820
631.916556	2607.282249
632.262462	2606.909203
632.608316	2612.797271
632.954117	2612.915738
633.299866	2617.278857
633.645562	2616.477313
633.991206	2620.308590
634.336797	2620.033847
634.682336	2621.110134
635.027823	2622.567027
635.373257	2622.425875
635.718639	2625.185907
636.063968	2626.005094
636.409245	2625.218674
636.754470	2628.162708
637.099642	2630.814355
637.444762	2629.080198
637.789829	2630.438789
638.134845	2632.056999
638.479808	2634.398615
638.824719	2638.098822
639.169577	2636.977165
639.514383	2645.660553
639.859137	2644.102836
640.203839	2648.526449
640.548489	2648.977632
640.893086	2652.317397
641.237632	2655.221101
641.582125	2659.090187
641.926566	2660.869714
642.270955	2665.157215
642.615292	2666.049500
642.959576	2668.239881
643.303809	2671.113339
643.647990	2678.279339
643.992118	2681.475430
644.336195	2685.238652
644.680219	2690.630166
645.024192	2698.227185
645.368112	2707.596169
645.711981	2711.059442
646.055797	2725.409086
646.399562	2730.639283
646.743274	2743.406005
647.086935	2754.330186
647.430544	2762.723707
647.774101	2769.988010
648.117606	2778.673918
648.461059	2783.369752
648.804460	2789.154477
649.147810	2785.610545
649.491108	2784.085596
649.834354	2791.458284
650.177548	2789.071297
650.520690	2787.879065
650.863781	2794.293933
651.206820	2797.043882
651.549807	2799.693009
651.892742	2801.278452
652.235626	2803.552012
652.578458	2809.636685
652.921238	2810.226500
653.263967	2823.386432
653.606644	2822.380722
653.949269	2830.905313
654.291843	2833.236846
654.634365	2845.801922
654.976836	2847.200843
655.319255	2851.654702
655.661622	2854.578571
656.003938	2863.821527
656.346203	2864.938142
656.688416	2876.270656
657.030577	2879.224772
657.372687	2883.575288
657.714746	2890.161556
658.056753	2900.994995
658.398708	2900.127917
658.740612	2909.131418
659.082465	2919.601894
659.424266	2924.537184
659.766016	2932.711415
660.107715	2939.983279
660.449362	2946.120884
660.790958	2961.509006
661.132503	2968.256590
661.473996	2979.957108
661.815438	2990.714931
662.156829	2998.952176
662.498168	3004.076509
662.839456	3012.374248
663.180693	3021.435722
663.521879	3034.971220
663.863013	3040.980276
664.204097	3049.217521
664.545129	3066.057496
664.886110	3079.363621
665.227040	3090.275199
665.567918	3099.707197
665.908746	3114.709671
666.249522	3128.570324
666.590248	3139.156747
666.930922	3153.292142
667.271545	3166.053823
667.612118	3176.778878
667.952639	3184.438911
668.293109	3194.440561
668.633528	3198.276879
668.973896	3208.432283
669.314213	3220.009293
669.654480	3224.528687
669.994695	3230.560428
670.334859	3241.167016
670.674973	3247.672625
671.015035	3263.292640
671.355047	3268.454781
671.695008	3280.465330
672.034918	3295.435037
672.374777	3308.504228
672.714585	3316.154179
673.054342	3332.893330
673.394049	3342.826924
673.733705	3363.798124
674.073310	3367.836088
674.412864	3378.825804
674.752368	3379.062738
675.091820	3395.590161
675.431223	3394.639903
675.770574	3399.824730
676.109875	3400.603588
676.449125	3402.751120
676.788324	3408.898807
677.127473	3403.426634
677.466571	3407.318405
677.805619	3413.778644
678.144616	3421.829367
678.483562	3432.531736
678.822458	3432.078032
679.161303	3443.047583
679.500098	3447.624951
679.838842	3455.975622
680.177535	3471.099084
680.516179	3492.155983
680.854771	3511.398067
681.193314	3562.497723
681.531805	3622.621045
681.870247	3678.318233
682.208638	3723.819688
682.546978	3750.091661
682.885268	3769.855505
683.223508	3761.091459
683.561697	3763.344854
683.899836	3774.967235
684.237925	3772.527316
684.575963	3784.585756
684.913951	3783.718678
685.251889	3805.753561
685.589776	3830.180472
685.927614	3846.922144
686.265401	3878.159654
686.603137	3902.921802
686.940824	3952.088175
687.278460	3995.222808
687.616046	4028.907798
687.953582	4088.232096
688.291068	4104.114252
688.628504	4140.604644
688.965889	4159.793796
689.303224	4158.294053
689.640510	4158.029392
689.977745	4126.043271
690.314930	4094.324331
690.652065	4078.628698
690.989150	4047.174419
691.326185	4006.477184
691.663170	3977.513234
692.000105	3942.462092
692.336990	3915.801950
692.673825	3903.844333
693.010610	3882.215262
693.347345	3860.104761
693.684030	3828.363136
694.020665	3829.439422
694.357251	3796.893733
694.693786	3809.032832
695.030272	3807.838078
695.366707	3788.994245
695.703093	3779.799181
696.039429	3800.818272
696.375716	3798.345586
696.711952	3812.672545
697.048139	3812.032318
697.384276	3815.291424
697.720363	3838.316894
698.056400	3841.633974
698.392388	3843.980631
698.728326	3853.972198
699.064214	3852.963967
699.400053	3859.091489
699.735842	3847.680838
700.071581	3837.596009
700.407270	3827.818692
700.742910	3829.661233
701.078501	3816.067762
701.414042	3812.312102
701.749533	3797.007159
702.084974	3784.991569
702.420366	3806.091318
702.755709	3788.593473
703.091002	3774.634518
703.426246	3787.360911
703.761440	3791.073721
704.096584	3781.102319
704.431679	3787.058442
704.766725	3790.385604
705.101721	3797.637303
705.436668	3813.491732
705.771565	3805.647697
706.106413	3838.130372
706.441212	3851.534800
706.775961	3872.395094
707.110661	3891.206160
707.445311	3931.386677
707.779913	3934.063529
708.114465	3970.243891
708.448967	4011.823327
708.783421	4076.881938
709.117825	4124.483034
709.452180	4159.009896
709.786485	4216.163978
710.120742	4300.704128
710.454949	4333.605219
710.789107	4395.742481
711.123216	4480.834637
711.457275	4517.987941
711.791286	4590.520063
712.125247	4621.036687
712.459159	4612.620481
712.793023	4692.404302
713.126837	4615.224237
713.460602	4645.309843
713.794318	4620.396461
714.127985	4602.359213
714.461602	4525.668139
714.795171	4528.821381
715.128691	4438.670427
715.462162	4399.921597
715.795584	4356.091285
716.128957	4345.714070
716.462281	4313.922033
716.795556	4291.327582
717.128782	4253.715533
717.461960	4200.433058
717.795088	4207.755333
718.128167	4183.111653
718.461198	4146.974142
718.794180	4143.140344
719.127113	4118.131180
719.459997	4104.005867
719.792833	4075.112493
720.125619	4087.339812
720.458357	4061.123292
720.791046	4052.671797
721.123686	4049.967218
721.456278	4030.347047
721.788821	4041.780384
722.121315	4019.793392
722.453761	4038.274262
722.786158	4039.350548
723.118506	4053.001993
723.450805	4053.967374
723.783056	4080.826641
724.115259	4078.792536
724.447412	4087.047425
724.779518	4121.866675
725.111574	4141.237308
725.443582	4180.177701
725.775542	4186.695913
726.107453	4260.790793
726.439315	4261.000000
726.771129	4328.064991
727.102895	4385.322416
727.434612	4432.454684
727.766281	4465.451556
728.097901	4514.572559
728.429473	4535.977299
728.760996	4554.279208
729.092471	4572.898709
729.423897	4568.749840
729.755276	4561.183068
730.086606	4589.169033
730.417887	4675.062733
730.749120	4757.442749
731.080305	4798.974295
731.411442	4863.634655
731.742530	4886.269435
732.073570	4920.574487
732.404562	4975.326459
732.735506	4971.878310
733.066401	4950.584476
733.397249	4890.642636
733.728048	4818.261749
734.058798	4709.435841
734.389501	4617.838075
734.720156	4559.950506
735.050762	4486.768075
735.381320	4443.847692
735.711831	4413.356273
736.042293	4371.287844
736.372707	4384.730080
736.703073	4363.234600
737.033391	4404.786311
737.363661	4413.482301
737.693883	4440.591106
738.024056	4480.106191
738.354182	4520.092623
738.684260	4587.225669
739.014290	4641.707939
739.344272	4686.138148
739.674207	4747.148713
740.004093	4786.963746
740.333931	4804.370850
740.663722	4826.811546
740.993464	4844.122869
741.323159	4829.067463
741.652806	4792.713182
741.982405	4777.685502
742.311956	4736.264862
742.641460	4727.473089
742.970915	4681.540616
743.300323	4636.916322
743.629683	4611.934884
743.958996	4569.112803
744.288260	4523.195453
744.617477	4487.037777
744.946647	4488.552644
745.275768	4448.888845
745.604842	4425.684414
745.933869	4403.843615
746.262847	4407.231271
746.591778	4401.955703
746.920662	4390.187129
747.249498	4395.256010
747.578286	4432.457204
747.907027	4472.216785
748.235720	4523.651678
748.564365	4549.454823
748.892963	4540.879821
749.221514	4566.519129
749.550017	4552.988672
749.878473	4556.464548
750.206881	4527.571175
750.535242	4522.593035
750.863555	4516.853682
751.191821	4507.638452
751.520039	4516.830996
751.848210	4512.213299
752.176334	4531.631824
752.504411	4525.015310
752.832440	4498.304756
753.160421	4525.915156
753.488356	4516.009288
753.816243	4508.732383
754.144082	4490.957274
754.471875	4484.824711
754.799620	4486.488291
755.127318	4493.024147
755.454969	4492.956092
755.782572	4500.351464
756.110129	4506.289944
756.437638	4498.662678
756.765100	4506.000077
757.092515	4517.808980
757.419882	4532.420765
757.747203	4539.334707
758.074477	4568.361671
758.401703	4569.871497
758.728882	4611.350110
759.056014	4627.181854
759.383099	4667.198533
759.710138	4697.521074
760.037129	4727.760435
760.364073	4749.820524
760.690970	4763.605559
761.017820	4775.769864
761.344623	4826.075538
761.671379	4913.905041
761.998088	5062.551024
762.324751	5424.029481
762.651366	6090.525472
762.977935	6968.553320
763.304456	7568.206131
763.630931	7804.663973
763.957359	7586.077022
764.283740	7151.738768
764.610074	6719.512758
764.936362	6212.463422
765.262602	5840.927863
765.588796	5469.530935
765.914943	5211.819589
766.241044	4997.603318
766.567097	4838.154142
766.893104	4697.435374
767.219064	4613.716932
767.544978	4516.553733
767.870845	4442.743679
768.196665	4400.324890
768.522438	4359.809136
768.848165	4316.601407
769.173846	4283.538999
769.499479	4259.490175
769.825066	4229.225608
770.150607	4186.428732
770.476101	4171.320394
770.801548	4150.709637
771.126949	4122.764000
771.452303	4101.192903
771.777611	4064.437850
772.102872	4065.609918
772.428087	4040.373902
772.753256	4009.196886
773.078378	3996.339423
773.403453	3957.245275
773.728482	3935.359106
774.053465	3919.623144
774.378401	3901.865680
774.703291	3880.670148
775.028135	3853.193339
775.352932	3850.922300
775.677683	3831.256758
776.002388	3808.977379
776.327046	3814.300837
776.651658	3796.084628
776.976224	3776.477060
777.300743	3782.954943
777.625216	3763.997684
777.949643	3759.727827
778.274024	3766.271244
778.598359	3744.695106
778.922647	3757.602980
779.246889	3746.648553
779.571086	3750.126949
779.895236	3755.049636
780.219339	3759.803444
780.543397	3762.772683
780.867409	3787.534831
781.191374	3795.025986
781.515294	3788.459883
781.839167	3816.513904
782.162995	3810.651042
782.486776	3806.587872
782.810511	3800.253662
783.134201	3777.487812
783.457844	3782.738173
783.781441	3771.720732
784.104993	3763.972478
784.428498	3760.806633
784.751958	3756.657764
785.075372	3756.297321
785.398739	3746.270466
785.722061	3762.455091
786.045337	3764.670678
786.368568	3809.657935
786.691752	3819.881395
787.014891	3909.084612
787.337983	3997.582068
787.661030	4150.838186
787.984031	4312.818021
788.306987	4420.376079
788.629897	4484.073579
788.952760	4480.958146
789.275579	4434.614818
789.598351	4340.715766
789.921078	4255.921038
790.243759	4151.675018
790.566395	4076.574428
790.888984	4015.636960
791.211529	3965.527891
791.534027	3909.578645
791.856480	3859.709031
792.178888	3839.299919
792.501249	3817.859892
792.823566	3779.383285
793.145836	3784.016106
793.468062	3780.598203
793.790241	3770.281482
794.112375	3793.548928
794.434464	3836.524764
794.756507	3851.547403
795.078505	3893.643558
795.400457	3974.468377
795.722364	4074.295827
796.044226	4153.333557
796.366042	4231.360536
796.687812	4218.641705
797.009538	4251.305862
797.331218	4230.022110
797.652852	4211.238771
797.974442	4176.502700
798.295986	4153.656191
798.617484	4109.173049
798.938938	4074.568049
799.260346	4048.870767
799.581709	3994.559896
799.903026	3974.934684
800.224299	3947.528451
800.545526	3903.907347
800.866708	3877.451372
801.187845	3859.749360
801.508936	3832.012932
801.829983	3822.089420
802.150984	3783.539717
802.471940	3772.272738
802.792851	3767.571862
803.113717	3764.431223
803.434538	3755.780603
803.755314	3735.679002
804.076045	3743.276021
804.396731	3729.922004
804.717372	3740.568921
805.037967	3739.474991
805.358518	3753.262547
805.679024	3779.295065
805.999485	3783.897639
806.319901	3796.901295
806.640272	3805.418324
806.960598	3830.737520
807.280879	3833.570648
807.601115	3859.293136
807.921306	3849.982124
808.241453	3852.457331
808.561554	3862.988301
808.881611	3856.054194
809.201623	3862.635421
809.521590	3851.045808
809.841513	3848.857947
810.161390	3864.283878
810.481223	3832.953107
810.801011	3826.651664
811.120755	3824.579750
811.440453	3804.183242
811.760107	3797.596974
812.079716	3792.742343
812.399281	3777.800363
812.718801	3780.497380
813.038276	3767.345010
813.357707	3752.929831
813.677093	3767.158487
813.996434	3738.118921
814.315731	3756.567023
814.634983	3759.964761
814.954191	3765.890637
815.273354	3806.426555
815.592473	3824.738547
815.911547	3869.405690
816.230577	3894.805544
816.549562	3945.922844
816.868502	3981.374758
817.187399	4014.033873
817.506250	4074.794901
817.825058	4089.247889
818.143821	4179.827341
818.462539	4273.592803
818.781213	4398.747009
819.099843	4578.519596
819.418429	4893.959716
819.736970	5206.690215
820.055466	5590.357311
820.373919	6090.976655
820.692327	6847.726944
821.010691	8092.163498
821.329011	10551.157685
821.647286	13933.668572
821.965517	17814.691602
822.283704	20178.874288
822.601847	21610.977876
822.919945	20459.356527
823.237999	18859.034676
823.556010	16872.706635
823.873976	14911.299538
824.191897	13007.820339
824.509775	11593.131418
824.827609	10299.992277
825.145398	9556.560717
825.463144	9182.824694
825.780845	9285.374366
826.098502	9803.826792
826.416116	10902.203474
826.733685	11998.553613
827.051210	12388.002912
827.368692	11916.370202
827.686129	10772.280337
828.003522	9530.359319
828.320872	8380.242755
828.638177	7480.240517
828.955439	6795.064531
829.272656	6210.076435
829.589830	5741.198716
829.906960	5328.287887
830.224046	5016.008571
830.541088	4770.020428
830.858086	4622.843941
831.175041	4499.207122
831.491952	4467.803255
831.808819	4494.458356
832.125642	4644.263804
832.442421	4953.977173
832.759157	5563.145162
833.075849	6506.347568
833.392497	7530.357148
833.709101	8228.095690
834.025662	8213.360398
834.342179	7708.224179
834.658653	7010.820874
834.975083	6379.731427
835.291469	5839.778480
835.607811	5379.974837
835.924110	5065.265685
836.240366	4766.673102
836.556578	4488.683714
836.872746	4268.508799
837.188871	4092.519598
837.504952	3939.656690
837.820990	3831.019824
838.136984	3755.445366
838.452935	3723.739029
838.768842	3738.476842
839.084706	3887.528638
839.400526	4306.728307
839.716303	4851.815669
840.032037	5244.481225
840.347727	5234.595522
840.663373	4910.194752
840.978977	4545.384092
841.294537	4258.509670
841.610054	4037.654200
841.925527	3883.226013
842.240957	3751.296497
842.556344	3628.801499
842.871687	3523.232176
843.186987	3423.039243
843.502244	3340.233250
843.817458	3279.424332
844.132629	3229.292578
844.447756	3193.137422
844.762840	3168.962569
845.077881	3139.703712
845.392879	3117.101699
845.707833	3102.651231
846.022745	3085.796133
846.337613	3069.830799
846.652438	3055.418140
846.967221	3052.428736
847.281960	3039.803166
847.596656	3035.981972
847.911309	3026.638193
848.225919	3018.716020
848.540485	3012.596059
848.855009	3007.454082
849.169490	2999.201713
849.483928	2996.013183
849.798323	2992.963285
850.112675	2986.961792
850.426984	2988.690908
850.741251	2986.351812
851.055474	2981.590442
851.369654	2985.613283
851.683792	2984.942810
851.997887	2988.005311
852.311938	2989.822647
852.625947	2991.471104
852.939914	2988.963130
853.253837	2990.407420
853.567718	2992.794407
853.881555	2987.740650
854.195350	2993.313646
854.509103	2991.483707
854.822812	2994.853718
855.136479	2991.597133
855.450103	2997.384377
855.763685	2992.305415
856.077224	2989.268120
856.390720	3000.270438
856.704173	3009.374762
857.017584	3014.786440
857.330953	3020.929086
857.644278	3029.473842
857.957561	3035.780326
858.270802	3035.286293
858.584000	3035.593803
858.897155	3029.246990
859.210268	3029.572145
859.523339	3020.407327
859.836367	3021.753315
860.149352	3017.745598
860.462295	3014.194105
860.775195	3014.884743
861.088054	3011.759228
861.400869	3008.938702
861.713642	3010.521624
862.026373	3018.620238
862.339062	3018.887419
862.651708	3026.560055
862.964312	3040.501366
863.276873	3047.117881
863.589392	3070.178639
863.901869	3086.416195
864.214303	3105.602827
864.526696	3120.383490
864.839045	3144.739825
865.151353	3151.835249
865.463619	3157.012514
865.775842	3160.238852
866.088023	3173.116480
866.400162	3168.851664
866.712258	3172.345183
867.024313	3175.246367
867.336325	3176.705781
867.648296	3182.074610
867.960224	3184.958150
868.272110	3187.327492
868.583954	3191.728420
868.895755	3197.014070
869.207515	3195.277392
869.519233	3211.807336
869.830909	3217.776062
870.142542	3232.387846
870.454134	3237.411356
870.765684	3251.524066
871.077191	3268.802621
871.388657	3279.951133
871.700081	3295.399749
872.011463	3312.612768
872.322803	3321.817915
872.634101	3339.913137
872.945357	3352.551310
873.256571	3373.154506
873.567744	3388.403996
873.878874	3397.604102
874.189963	3414.096237
874.501010	3422.288112
874.812015	3423.399686
875.122979	3444.474230
875.433900	3445.855506
875.744780	3455.259778
876.055618	3466.332673
876.366415	3469.710246
876.677169	3483.943944
876.987882	3506.825741
877.298554	3532.694422
877.609183	3569.885534
877.919771	3624.193885
878.230317	3689.965819
878.540822	3787.754121
878.851285	3930.202006
879.161707	4139.114983
879.472087	4461.411072
879.782425	4960.175271
880.092722	5789.571108
880.402977	6878.225925
880.713191	7956.871531
881.023363	8936.828989
881.333494	9526.336479
881.643583	9981.635850
881.953631	10166.086628
882.263637	10084.616541
882.573602	9747.610365
882.883526	9309.403026
883.193408	8794.464284
883.503248	8245.422136
883.813048	7710.094447
884.122806	7196.247115
884.432522	6665.166599
884.742197	6215.873762
885.051831	5818.915664
885.361424	5444.587306
885.670975	5132.227332
885.980485	4861.030899
886.289954	4640.732476
886.599382	4447.300882
886.908768	4291.335144
887.218113	4140.778563
887.527417	4022.893701
887.836680	3915.333122
888.145901	3818.787464
888.455082	3754.933689
888.764221	3690.152342
889.073319	3630.152529
889.382376	3598.410903
889.691392	3571.138261
890.000366	3560.088052
890.309300	3551.397103
890.618193	3555.064542
890.927044	3549.945250
891.235855	3559.604101
891.544625	3575.183787
891.853353	3601.100359
892.162041	3654.584481
892.470687	3737.713108
892.779293	3846.304603
893.087858	4007.170342
893.396381	4247.887959
893.704864	4578.199483
894.013306	5039.371798
894.321707	5509.414024
894.630068	5848.366085
894.938387	5952.294513
895.246665	5883.457557
895.554903	5653.631353
895.863100	5372.019897
896.171256	5145.591430
896.479371	4935.594605
896.787446	4728.307400
897.095480	4543.329822
897.403473	4402.285899
897.711425	4268.405455
898.019336	4155.024864
898.327207	4032.887789
898.635038	3940.496042
898.942827	3828.973116
899.250576	3748.624685
899.558284	3662.113444
899.865952	3606.650669
900.173579	3542.817059
900.481165	3496.690501
900.788711	3454.254068
901.096216	3420.511105
901.403681	3393.167886
901.711105	3381.666494
902.018489	3375.859085
902.325832	3412.049528
902.633135	3468.850729
902.940397	3619.576188
903.247619	3959.387766
903.554800	4529.685939
903.861941	5266.876551
904.169041	5864.137335
904.476101	6136.871320
904.783121	6045.008894
905.090100	5779.342607
905.397039	5456.234892
905.703938	5149.533613
906.010796	4855.767934
906.317614	4623.842090
906.624391	4397.113675
906.931129	4212.461251
907.237826	4038.586813
907.544483	3873.010115
907.851099	3714.123028
908.157675	3562.187692
908.464211	3421.945313
908.770707	3321.281033
909.077163	3235.213413
909.383578	3167.621622
909.689954	3113.948457
909.996289	3081.823704
910.302584	3052.247255
910.608839	3040.493804
910.915054	3022.998480
911.221229	3018.204343
911.527363	3021.047553
911.833458	3031.147505
912.139513	3044.902293
912.445527	3060.424006
912.751502	3100.062599
913.057436	3152.326761
913.363331	3214.141390
913.669186	3310.203097
913.975000	3432.357816
914.280775	3623.248668
914.586510	3880.251733
914.892205	4213.164492
915.197859	4640.142661
915.503475	5119.962204
915.809050	5534.793713
916.114585	5793.644360
916.420081	5915.743627
916.725536	5934.050577
917.030952	5778.122647
917.336328	5624.077589
917.641665	5458.984842
917.946961	5262.964615
918.252218	5089.899283
918.557435	4873.028845
918.862612	4689.472872
919.167750	4534.558214
919.472848	4348.945450
919.777906	4189.806305
920.082925	4034.347203
920.387904	3877.363152
920.692843	3764.032972
920.997743	3650.150786
921.302603	3546.411402
921.607423	3474.154023
921.912204	3396.878176
922.216946	3340.495390
922.521647	3284.215949
922.826310	3236.254411
923.130932	3191.766228
923.435516	3143.126656
923.740059	3112.489043
924.044564	3071.650656
924.349028	3049.114177
924.653454	3015.540093
924.957840	2981.411481
925.262186	2959.462298
925.566493	2931.672937
925.870761	2906.681417
926.174989	2886.045453
926.479178	2865.666589
926.783328	2847.140349
927.087438	2833.257011
927.391509	2815.365956
927.695541	2800.870118
927.999533	2788.438633
928.303486	2777.320368
928.607400	2771.676796
928.911275	2764.780498
929.215110	2754.080649
929.518906	2752.467479
929.822663	2752.101996
930.126381	2748.772314
930.430060	2752.122160
930.733699	2755.454363
931.037299	2759.840167
931.340861	2755.472007
931.644383	2764.536002
931.947866	2762.653131
932.251309	2759.530136
932.554714	2762.325456
932.858080	2757.982502
933.161407	2750.687952
933.464694	2747.544793
933.767943	2744.840214
934.071153	2745.009092
934.374323	2740.746797
934.677455	2737.903586
934.980548	2735.808987
935.283602	2732.073492
935.586617	2731.251783
935.889593	2735.178842
936.192530	2736.633215
936.495428	2745.649319
936.798287	2757.385125
937.101108	2775.641664
937.403890	2797.230405
937.706632	2828.614108
938.009336	2868.192207
938.312002	2904.654873
938.614628	2937.278700
938.917216	2962.121506
939.219765	2975.452838
939.522275	2995.057885
939.824747	2997.318842
940.127179	2998.523678
940.429573	2997.591065
940.731929	2993.122082
941.034246	2989.003459
941.336524	2983.586739
941.638763	2969.819348
941.940964	2967.563432
942.243126	2942.821449
942.545250	2935.181580
942.847335	2919.344795
943.149381	2897.282185
943.451389	2884.346585
943.753359	2867.851929
944.055290	2856.080835
944.357182	2836.185921
944.659036	2835.160047
944.960851	2830.504541
945.262628	2822.232007
945.564367	2821.526246
945.866067	2818.332675
946.167729	2813.026861
946.469352	2817.077428
946.770937	2815.451656
947.072484	2806.579225
947.373992	2809.987045
947.675462	2803.796508
947.976893	2796.005405
948.278286	2794.939201
948.579641	2790.727317
948.880958	2785.129115
949.182236	2791.649848
949.483476	2785.333282
949.784678	2785.154321
950.085841	2792.259827
950.386967	2791.707821
950.688054	2802.427835
950.989103	2811.005358
951.290114	2823.136895
951.591087	2833.105776
951.892021	2845.912828
952.192917	2861.411855
952.493776	2873.792929
952.794596	2876.895759
953.095378	2878.874412
953.396122	2873.485419
953.696828	2872.303268
953.997496	2867.451158
954.298126	2855.405320
954.598718	2845.315451
954.899272	2830.638132
955.199788	2814.761017
955.500266	2804.658545
955.800706	2784.080555
956.101108	2766.655807
956.401472	2750.161152
956.701798	2732.209603
957.002087	2711.694627
957.302337	2700.856146
957.602550	2684.643796
957.902724	2669.162412
958.202861	2659.206133
958.502960	2648.549134
958.803022	2636.122690
959.103045	2627.807307
959.403031	2616.777262
959.702979	2608.232506
960.002889	2603.312340
960.302762	2596.133737
960.602596	2589.907912
960.902393	2584.798702
961.202153	2579.974318
961.501875	2575.805284
961.801559	2572.513411
962.101205	2567.782288
962.400814	2566.282544
962.700385	2561.276679
962.999918	2560.036555
963.299414	2551.199412
963.598873	2552.600853
963.898293	2547.736139
964.197677	2551.733774
964.497022	2549.543393
964.796331	2547.350491
965.095601	2546.962322
965.394835	2544.517363
965.694030	2542.841179
965.993189	2544.555171
966.292309	2543.138607
966.591393	2546.306972
966.890439	2542.168185
967.189447	2541.482588
967.488419	2542.316899
967.787353	2545.351674
968.086249	2547.907539
968.385108	2545.187836
968.683930	2547.398382
968.982714	2548.600697
969.281462	2553.404917
969.580172	2553.704866
969.878844	2559.686195
970.177480	2561.773232
970.476078	2566.567370
970.774639	2572.551219
971.073162	2573.451065
971.371649	2579.162692
971.670098	2582.807447
971.968510	2586.384145
972.266885	2588.871955
972.565223	2590.868252
972.863524	2591.422779
973.161788	2594.623911
973.460014	2596.902513
973.758204	2596.771443
974.056356	2595.450661
974.354471	2600.577514
974.652550	2596.211875
974.950591	2596.806731
975.248595	2595.513675
975.546563	2595.803541
975.844493	2593.300608
976.142386	2592.282295
976.440243	2587.664598
976.738062	2586.162335
977.035845	2580.695203
977.333590	2581.287539
977.631299	2577.756211
977.928971	2574.615572
978.226606	2567.295816
978.524204	2564.739951
978.821765	2565.044941
979.119290	2567.555436
979.416777	2566.176680
979.714228	2565.080229
980.011642	2569.531568
980.309020	2574.557598
980.606360	2584.397931
980.903664	2600.151537
981.200931	2618.834053
981.498162	2638.408853
981.795356	2677.787826
982.092513	2716.556820
982.389633	2759.600712
982.686717	2802.195942
982.983764	2832.702484
983.280775	2854.755012
983.577749	2858.951772
983.874686	2855.057481
984.171587	2842.205059
984.468451	2824.387101
984.765279	2805.092084
985.062070	2783.372273
985.358824	2760.311515
985.655543	2735.554408
985.952224	2710.315872
986.248869	2679.322858
986.545478	2653.794455
986.842050	2629.659931
987.138586	2604.018102
987.435086	2584.105544
987.731549	2571.064079
988.027975	2556.958930
988.324366	2547.877292
988.620719	2541.442259
988.917037	2534.205682
989.213318	2530.122348
989.509563	2526.336441
989.805772	2524.078004
990.101944	2520.266892
990.398080	2519.435102
990.694180	2518.991480
990.990244	2522.550535
991.286271	2520.115657
991.582262	2523.276461
991.878217	2524.602284
992.174136	2526.696884
992.470019	2528.466329
992.765865	2527.707635
993.061676	2526.124713
993.357450	2536.358255
993.653188	2535.014788
993.948890	2548.444422
994.244556	2559.018242
994.540186	2572.410067
994.835780	2586.694176
995.131337	2605.384254
995.426859	2624.109620
995.722345	2652.801347
996.017795	2673.528051
996.313208	2691.431709
996.608586	2700.858667
996.903928	2709.811756
997.199234	2711.132538
997.494504	2711.883670
997.789738	2706.005685
998.084936	2692.127388
998.380099	2677.276149
998.675225	2662.891217
998.970316	2647.233393
999.265371	2631.013480
999.560390	2612.509925
999.855373	2596.479056
1000.150320	2583.614031
1000.445232	2567.442010
1000.740108	2558.647717
1001.034948	2547.733619
1001.329752	2539.851775
1001.624521	2534.679551
1001.919254	2526.094466
1002.213951	2526.039013
1002.508613	2518.532735
1002.803239	2517.302694
1003.097829	2514.976201
1003.392384	2511.636437
1003.686903	2507.162413
1003.981386	2508.599142
1004.275834	2504.601507
1004.570246	2502.131341
1004.864623	2498.733603
1005.158964	2503.782319
1005.453270	2499.577997
1005.747540	2499.202431
1006.041775	2497.624550
1006.335974	2496.923829
1006.630138	2498.957935
1006.924266	2496.399549
1007.218359	2496.013901
1007.512416	2495.388798
1007.806438	2492.064157
1008.100425	2496.795280
1008.394376	2493.730258
1008.688292	2495.905516
1008.982172	2493.021976
1009.276017	2497.800990
1009.569827	2492.041472
1009.863602	2494.463746
1010.157341	2493.034579
1010.451045	2491.469301
1010.744714	2492.611122
1011.038347	2490.486276
1011.331945	2491.403766
1011.625508	2491.043323
1011.919036	2489.178096
1012.212528	2491.973416
1012.505986	2489.510813
1012.799408	2489.813282
1013.092795	2486.859166
1013.386147	2486.775987
1013.679464	2488.608446
1013.972745	2489.392345
1014.265992	2488.681543
1014.559204	2490.501399
1014.852380	2488.646255
1015.145521	2489.336893
1015.438628	2486.980153
1015.731699	2488.069043
1016.024736	2489.888899
1016.317737	2490.264465
1016.610703	2491.935608
1016.903635	2494.703201
1017.196531	2492.258241
1017.489393	2493.115238
1017.782219	2491.630618
1018.075011	2493.117758
1018.367768	2493.871411
1018.660490	2496.374343
1018.953177	2496.374343
1019.245829	2496.374343
