Dividing Wavelength (nm)	Counts (n)	Blue Motor Position (mm): 9.000000	Red Motor Position (mm): 0.000000	
326.493990	2101.190732
326.888308	2101.190732
327.282561	2101.190732
327.676750	2078.888667
328.070874	2081.000911
328.464933	2089.396952
328.858929	2099.506986
329.252859	2111.068873
329.646726	2123.066819
330.040528	2139.127935
330.434265	2158.846408
330.827938	2179.338699
331.221547	2199.495752
331.615091	2221.069370
332.008571	2243.502505
332.401986	2261.247366
332.795338	2281.374173
333.188625	2301.264046
333.581847	2321.221974
333.975006	2339.612103
334.368100	2353.629031
334.761129	2371.951105
335.154095	2390.447098
335.546996	2416.530028
335.939833	2452.554114
336.332606	2465.134313
336.725315	2476.479430
337.117960	2484.346150
337.510540	2490.939980
337.903056	2502.370796
338.295508	2508.644512
338.687896	2513.148783
339.080220	2523.548683
339.472480	2525.146729
339.864676	2530.689478
340.256807	2534.112421
340.648875	2532.433717
341.040879	2535.803728
341.432818	2539.206507
341.824694	2539.491332
342.216506	2538.699871
342.608253	2536.741383
342.999937	2536.161650
343.391557	2536.259953
343.783113	2533.194931
344.174605	2528.846936
344.566033	2530.901206
344.957397	2529.376257
345.348697	2528.501617
345.739934	2523.871317
346.131106	2525.209743
346.522215	2521.212108
346.913260	2521.146573
347.304241	2519.485513
347.695159	2518.479803
348.086012	2516.753208
348.476802	2514.998886
348.867528	2511.565861
349.258191	2512.332116
349.648789	2513.516787
350.039324	2511.359173
350.429796	2509.007475
350.820203	2509.015037
351.210548	2507.565705
351.600828	2505.002278
351.991045	2505.650067
352.381198	2505.314830
352.771288	2502.872391
353.161314	2504.339367
353.551276	2503.767196
353.941175	2502.370796
354.331010	2505.753410
354.720782	2507.038904
355.110490	2505.513955
355.500135	2506.055879
355.889717	2503.283245
356.279235	2504.662000
356.668689	2507.119563
357.058080	2505.140910
357.447408	2503.636126
357.836672	2502.292658
358.225873	2503.331136
358.615010	2504.455313
359.004084	2508.894049
359.393095	2509.113339
359.782043	2510.718947
360.170927	2509.584687
360.559748	2510.592918
360.948505	2510.013185
361.337199	2514.610717
361.725830	2512.037208
362.114398	2512.248937
362.502903	2514.141890
362.891344	2515.991994
363.279722	2514.472086
363.668037	2517.282529
364.056289	2512.868999
364.444478	2515.344205
364.832603	2514.577950
365.220665	2518.358815
365.608665	2516.622138
365.996601	2519.228414
366.384474	2517.665657
366.772284	2519.266223
367.160031	2518.628517
367.547715	2519.304032
367.935336	2516.407889
368.322893	2518.401665
368.710388	2517.930317
369.097820	2522.459794
369.485189	2519.654392
369.872495	2520.990298
370.259738	2519.112468
370.646918	2519.198168
371.034035	2522.230422
371.421090	2522.041378
371.808081	2519.840915
372.195010	2522.220339
372.581875	2521.038189
372.968678	2523.006759
373.355418	2524.798889
373.742096	2522.825278
374.128710	2522.147243
374.515262	2522.585823
374.901751	2522.752181
375.288177	2523.755371
375.674540	2522.648837
376.060841	2521.610360
376.447079	2525.184538
376.833254	2521.660771
377.219367	2520.498785
377.605417	2519.298991
377.991404	2520.241686
378.377329	2521.015503
378.763191	2520.753363
379.148991	2523.543642
379.534727	2528.632687
379.920402	2527.816020
380.306013	2526.235618
380.691563	2526.515402
381.077049	2524.856863
381.462474	2525.234949
381.847835	2527.868952
382.233134	2526.820392
382.618371	2526.139836
383.003545	2524.423323
383.388657	2528.983047
383.773706	2527.080012
384.158693	2529.396422
384.543618	2527.369878
384.928480	2527.601771
385.313280	2528.975485
385.698017	2528.201668
386.082692	2528.892306
386.467305	2529.693850
386.851856	2531.801052
387.236344	2530.162677
387.620770	2532.842050
388.005133	2531.077647
388.389435	2528.118489
388.773674	2530.780218
389.157851	2530.860877
389.541965	2532.469005
389.926018	2528.826771
390.310008	2529.900537
390.693936	2530.853315
391.077802	2533.913296
391.461606	2535.244160
391.845348	2529.656041
392.229027	2533.026053
392.612645	2533.323481
392.996200	2531.899355
393.379694	2535.521424
393.763125	2532.249715
394.146494	2535.816331
394.529801	2534.752648
394.913047	2536.065868
395.296230	2533.562935
395.679351	2536.103677
396.062410	2533.202493
396.445408	2533.963707
396.828343	2533.998995
397.211217	2530.089580
397.594028	2532.408511
397.976778	2529.025897
398.359466	2529.618232
398.742092	2532.466484
399.124656	2535.052596
399.507158	2540.181970
399.889598	2536.632998
400.271977	2538.314223
400.654294	2538.316743
401.036549	2533.663758
401.418742	2537.051414
401.800874	2536.779192
402.182944	2536.007895
402.564952	2538.291538
402.946898	2539.750952
403.328783	2536.209541
403.710606	2540.187012
404.092367	2538.871270
404.474067	2541.089378
404.855705	2537.225334
405.237282	2537.900848
405.618797	2539.302289
406.000250	2539.569470
406.381642	2541.273380
406.762972	2539.004861
407.144240	2538.697351
407.525447	2541.964018
407.906593	2539.902186
408.287677	2535.970086
408.668700	2538.573842
409.049661	2543.030222
409.430560	2539.995448
409.811399	2540.648277
410.192176	2538.866229
410.572891	2540.857485
410.953545	2541.603576
411.334138	2542.382434
411.714669	2541.301107
412.095139	2544.058618
412.475547	2543.940151
412.855894	2543.221786
413.236180	2543.471323
413.616405	2540.557536
413.996568	2545.301262
414.376670	2541.311189
414.756711	2540.857485
415.136691	2542.873947
415.516609	2543.564585
415.896466	2540.791950
416.276262	2544.446787
416.655997	2539.753472
417.035670	2538.505787
417.415283	2541.454862
417.794834	2537.210210
418.174324	2543.183978
418.553753	2543.776313
418.933121	2544.038453
419.312428	2542.952084
419.691674	2544.227496
420.070859	2545.218083
420.449983	2543.816642
420.829045	2543.115922
421.208047	2545.061807
421.586988	2544.308155
421.965867	2544.940820
422.344686	2544.328319
422.723444	2545.976777
423.102141	2544.020809
423.480777	2546.193546
423.859352	2545.001313
424.237866	2543.917465
424.616319	2543.357897
424.994712	2546.589277
425.373044	2543.456200
425.751314	2546.425439
426.129524	2545.568443
426.507673	2548.222611
426.885762	2542.715150
427.263789	2544.837476
427.641756	2549.235883
428.019662	2546.339740
428.397508	2544.139276
428.775292	2548.300749
429.153016	2549.031716
429.530679	2546.301931
429.908282	2546.944678
430.285824	2544.603062
430.663305	2547.504246
431.040726	2545.666746
431.418086	2545.397044
431.795385	2547.839483
432.172624	2547.322765
432.549802	2545.906201
432.926920	2547.171530
433.303977	2548.499874
433.680974	2546.642209
434.057910	2547.857127
434.434786	2546.677497
434.811601	2553.059598
435.188355	2549.523228
435.565050	2545.772610
435.941683	2549.366953
436.318257	2545.812939
436.694770	2547.640357
437.071222	2545.760007
437.447614	2544.613145
437.823946	2546.725388
438.200218	2547.784030
438.576429	2550.559186
438.952580	2548.653629
439.328670	2547.877292
439.704700	2550.453321
440.080670	2550.044988
440.456580	2548.809905
440.832429	2551.212015
441.208218	2548.250337
441.583947	2550.428116
441.959616	2547.340409
442.335224	2549.251006
442.710773	2551.300235
443.086261	2549.281253
443.461689	2549.334185
443.837057	2549.818136
444.212365	2548.895605
444.587612	2551.116233
444.962800	2548.179761
445.337927	2552.167314
445.712995	2547.884853
446.088002	2551.078424
446.462949	2550.342416
446.837837	2551.950544
447.212664	2550.539021
447.587431	2552.414330
447.962139	2552.739485
448.336786	2552.462221
448.711374	2551.010369
449.085901	2553.422561
449.460369	2549.351829
449.834776	2551.580019
450.209124	2552.779814
450.583412	2554.632438
450.957640	2550.188661
451.331808	2552.684032
451.705917	2553.503219
452.079965	2551.408620
452.453954	2552.116902
452.827883	2553.034392
453.201752	2552.250493
453.575562	2553.641851
453.949311	2552.033723
454.323001	2553.828374
454.696632	2553.757798
455.070202	2554.289639
455.443713	2553.535987
455.817164	2551.363250
456.190556	2548.346119
456.563888	2550.634803
456.937160	2548.003321
457.310373	2553.387273
457.683526	2553.495658
458.056619	2553.707386
458.429653	2554.793755
458.802628	2553.341902
459.175542	2555.723848
459.548398	2554.927345
459.921194	2556.263251
460.293930	2558.456153
460.666607	2553.362067
461.039224	2554.352654
461.411782	2554.932387
461.784280	2556.769887
462.156719	2554.123281
462.529099	2556.172510
462.901419	2556.404403
463.273680	2556.321224
463.645882	2555.008004
464.018024	2555.980947
464.390106	2557.079918
464.762130	2557.299208
465.134094	2555.771739
465.505999	2559.353478
465.877845	2558.347768
466.249631	2559.285423
466.621358	2558.118396
466.993026	2560.565876
467.364634	2563.749365
467.736184	2559.885320
468.107674	2560.369271
468.479105	2557.699980
468.850477	2559.522357
469.221790	2562.882286
469.593043	2560.754919
469.964238	2557.795762
470.335373	2558.529250
470.706449	2559.666030
471.077467	2563.031000
471.448425	2562.569735
471.819324	2565.296999
472.190164	2564.450085
472.560945	2562.778942
472.931667	2561.947152
473.302330	2563.787173
473.672934	2561.536298
474.043479	2561.264076
474.413965	2558.662840
474.784393	2557.614280
475.154761	2559.494631
475.525070	2558.534291
475.895321	2560.354147
476.265513	2556.500185
476.635645	2561.495969
477.005719	2561.082594
477.375734	2567.734397
477.745691	2563.920764
478.115588	2564.477811
478.485427	2561.311967
478.855207	2567.797411
479.224928	2567.240364
479.594591	2568.167936
479.964194	2563.235167
480.333739	2569.650035
480.703226	2568.057031
481.072653	2567.598286
481.442022	2569.831517
481.811333	2569.529047
482.180584	2564.225754
482.549777	2568.409911
482.918912	2566.879921
483.287988	2572.097515
483.657005	2564.321536
484.025964	2567.583162
484.394864	2570.459140
484.763706	2566.302709
485.132489	2569.897052
485.501213	2564.891186
485.869879	2568.125086
486.238487	2566.509396
486.607036	2568.447720
486.975527	2566.627863
487.343959	2567.373954
487.712333	2567.636094
488.080648	2569.007288
488.448905	2566.784139
488.817104	2565.140723
489.185244	2568.747669
489.553326	2571.936198
489.921350	2572.077351
490.289315	2572.531055
490.657222	2572.082392
491.025070	2569.972669
491.392861	2572.437793
491.760593	2574.406364
492.128267	2571.918554
492.495883	2571.018708
492.863440	2569.234140
493.230939	2567.348748
493.598380	2568.530899
493.965763	2568.697257
494.333088	2567.862946
494.700354	2566.574931
495.067563	2566.814386
495.434713	2563.081412
495.801805	2569.657597
496.168839	2567.142061
496.535815	2569.531568
496.902733	2569.541650
497.269593	2570.169274
497.636395	2568.724983
498.003139	2569.420663
498.369825	2570.789336
498.736453	2572.304203
499.103023	2567.653738
499.469535	2573.667835
499.835989	2571.215313
500.202385	2568.961918
500.568723	2570.698595
500.935003	2570.812021
501.301226	2568.929150
501.667390	2568.611557
502.033497	2573.138514
502.399546	2572.823442
502.765537	2570.267577
503.131470	2574.207238
503.497345	2571.545509
503.863163	2572.755386
504.228923	2573.196487
504.594625	2575.008782
504.960269	2573.272104
505.325856	2576.495922
505.691385	2572.737742
506.056856	2575.964080
506.422270	2576.155644
506.787625	2577.758731
507.152924	2579.712178
507.518164	2580.803588
507.883347	2580.717888
508.248472	2581.295101
508.613540	2578.162023
508.978550	2583.399782
509.343503	2584.889443
509.708398	2586.500092
510.073236	2586.684094
510.438016	2586.195102
510.802738	2586.583271
511.167403	2590.790114
511.532010	2591.634507
511.896561	2592.516709
512.261053	2594.931422
512.625488	2593.053592
512.989866	2592.713314
513.354186	2597.628439
513.718449	2593.736668
514.082655	2598.987030
514.446803	2601.091712
514.810894	2604.320571
515.174927	2607.872064
515.538904	2608.131683
515.902822	2609.759976
516.266684	2611.998248
516.630488	2611.821808
516.994235	2613.979422
517.357925	2616.207612
517.721558	2619.222222
518.085133	2620.893364
518.448651	2623.698766
518.812112	2623.398817
519.175516	2624.185237
519.538863	2624.843108
519.902152	2629.430558
520.265385	2632.482977
520.628560	2632.634211
520.991678	2635.671507
521.354739	2636.498256
521.717743	2641.355407
522.080690	2639.258287
522.443580	2645.894967
522.806413	2649.693476
523.169189	2649.335554
523.531908	2651.583909
523.894569	2651.868734
524.257174	2656.398211
524.619722	2654.601039
524.982213	2658.775115
525.344647	2660.327790
525.707025	2660.327790
526.069345	2664.050682
526.431608	2666.417504
526.793815	2670.291631
527.155964	2671.332629
527.518057	2671.050324
527.880093	2674.415294
528.242072	2676.373783
528.603995	2677.656756
528.965860	2676.681293
529.327669	2679.093485
529.689421	2682.997859
530.051117	2682.823939
530.412755	2685.397448
530.774337	2686.844259
531.135862	2688.926256
531.497331	2688.737212
531.858743	2690.456246
532.220098	2692.903726
532.581396	2692.266020
532.942638	2693.065043
533.303824	2699.832792
533.664953	2698.564942
534.026025	2698.093594
534.387040	2704.579038
534.747999	2704.137937
535.108902	2706.381251
535.469748	2704.891590
535.830537	2711.803012
536.191270	2711.873588
536.551947	2713.469113
536.912567	2713.428784
537.273131	2715.490616
537.633638	2714.608414
537.994089	2715.747715
538.354483	2718.883312
538.714821	2720.967830
539.075103	2722.119733
539.435328	2722.497820
539.795497	2722.094527
540.155609	2727.284395
540.515665	2728.464025
540.875665	2728.763974
541.235609	2729.152143
541.595496	2733.235478
541.955328	2736.103894
542.315102	2733.512741
542.674821	2736.124059
543.034483	2736.323184
543.394090	2734.649521
543.753640	2736.360993
544.113134	2743.020357
544.472571	2741.513052
544.831953	2746.276942
545.191278	2743.539596
545.550548	2744.303331
545.909761	2746.244175
546.268918	2748.033785
546.628019	2750.234248
546.987064	2749.379773
547.346053	2748.537900
547.704986	2755.048550
548.063863	2753.692480
548.422684	2753.747932
548.781449	2756.820516
549.140158	2758.506782
549.498811	2758.274889
549.857408	2757.561565
550.215949	2759.961155
550.574434	2762.864859
550.932864	2762.736310
551.291237	2765.498862
551.649555	2768.122783
552.007817	2771.860798
552.366022	2771.407094
552.724173	2773.980603
553.082267	2776.420522
553.440305	2781.136521
553.798288	2779.120060
554.156215	2780.975204
554.514086	2784.599794
554.871902	2783.851183
555.229661	2787.304373
555.587365	2788.887295
555.945014	2791.339817
556.302606	2790.800413
556.660143	2796.386012
557.017625	2795.531536
557.375050	2799.045220
557.732421	2802.498411
558.089735	2802.752989
558.446994	2803.529327
558.804197	2809.603917
559.161345	2807.683237
559.518437	2807.010243
559.875474	2810.826397
560.232455	2814.209011
560.589381	2816.195226
560.946251	2817.412664
561.303065	2822.148828
561.659825	2821.037254
562.016528	2821.435505
562.373177	2818.630103
562.729770	2821.803509
563.086307	2824.838284
563.442789	2826.516988
563.799216	2827.656289
564.155587	2827.338696
564.511904	2829.153512
564.868164	2828.866166
565.224370	2831.694253
565.580520	2831.185097
565.936615	2832.198369
566.292654	2830.796928
566.648638	2832.722649
567.004567	2831.162412
567.360441	2832.072340
567.716260	2835.011332
568.072023	2833.060406
568.427732	2830.814572
568.783385	2826.950527
569.138982	2829.534119
569.494525	2833.146106
569.850013	2826.252328
570.205445	2831.459840
570.560823	2834.928153
570.916145	2831.903461
571.271412	2833.443534
571.626625	2834.686178
571.981782	2830.038234
572.336884	2830.507062
572.691931	2831.439675
573.046923	2829.156032
573.401860	2828.490600
573.756743	2825.929694
574.111570	2829.513954
574.466342	2829.392967
574.821059	2831.175014
575.175722	2827.865497
575.530330	2827.477328
575.884882	2827.368943
576.239380	2825.251659
576.593823	2827.144612
576.948211	2828.483038
577.302544	2825.236535
577.656823	2828.533450
578.011047	2830.844819
578.365216	2829.541681
578.719330	2834.121569
579.073389	2832.899089
579.427394	2830.880107
579.781344	2835.069306
580.135239	2837.899914
580.489080	2837.746158
580.842866	2839.258505
581.196597	2845.444000
581.550273	2846.502643
581.903895	2847.127746
582.257463	2854.553365
582.610975	2853.396421
582.964434	2860.053264
583.317837	2859.932277
583.671186	2861.132071
584.024481	2867.678009
584.377721	2870.488453
584.730906	2873.654297
585.084037	2879.204608
585.437113	2878.012375
585.790135	2881.384907
586.143103	2884.225597
586.496016	2890.857235
586.848874	2891.215157
587.201679	2899.028945
587.554428	2897.483832
587.907124	2905.554719
588.259765	2908.518917
588.612352	2923.717996
588.964884	2921.613314
589.317362	2931.042793
589.669786	2934.435489
590.022155	2941.099895
590.374470	2949.243879
590.726731	2952.225721
591.078937	2952.739919
591.431090	2960.495734
591.783188	2965.133596
592.135232	2968.433031
592.487222	2974.714308
592.839157	2983.528766
593.191038	2988.267451
593.542866	2993.127123
593.894639	2992.766680
594.246358	3004.547857
594.598022	3015.870288
594.949633	3018.650485
595.301190	3022.340609
595.652692	3030.230015
596.004141	3039.747714
596.355535	3036.574307
596.706876	3042.212838
597.058162	3048.668035
597.409395	3062.102710
597.760573	3069.687126
598.111698	3072.278279
598.462768	3077.821028
598.813785	3091.301073
599.164748	3093.257041
599.515657	3106.916047
599.866511	3113.028447
600.217312	3127.872124
600.568060	3125.238121
600.918753	3144.749907
601.269392	3154.010507
601.619978	3160.397649
601.970510	3174.946419
602.320988	3188.557534
602.671412	3205.097560
603.021783	3214.464024
603.372100	3218.365877
603.722363	3230.462125
604.072572	3244.559712
604.422728	3257.548245
604.772830	3262.556631
605.122878	3274.773868
605.472872	3287.381793
605.822813	3307.090184
606.172701	3315.582008
606.522534	3338.471367
606.872314	3356.090200
607.222041	3364.811396
607.571714	3388.623286
607.921333	3395.043196
608.270899	3413.498860
608.620411	3438.679423
608.969870	3446.026905
609.319276	3464.500213
609.668627	3488.543997
610.017926	3511.451000
610.367171	3535.230122
610.716362	3551.729819
611.065500	3572.610278
611.414585	3596.643979
611.763616	3623.218422
612.112594	3643.163747
612.461518	3671.237933
612.810389	3700.829506
613.159207	3719.106209
613.507971	3741.206627
613.856682	3779.297586
614.205340	3799.313487
614.553945	3843.657997
614.902496	3852.336343
615.250994	3889.862692
615.599439	3921.538783
615.947830	3951.720171
616.296169	3982.745952
616.644454	4020.584853
616.992686	4058.441398
617.340864	4108.336218
617.688990	4132.495948
618.037063	4191.827808
618.385082	4222.651943
618.733048	4267.664406
619.080961	4305.208399
619.428821	4337.333152
619.776628	4366.644941
620.124382	4388.137900
620.472083	4415.377775
620.819731	4444.878608
621.167326	4449.763486
621.514868	4470.049089
621.862357	4468.708142
622.209793	4492.857789
622.557176	4494.448273
622.904506	4499.118902
623.251783	4506.211806
623.599007	4511.099204
623.946179	4525.554713
624.293297	4549.064134
624.640363	4542.109862
624.987376	4569.649686
625.334336	4584.447993
625.681243	4593.471658
626.028097	4616.469402
626.374899	4643.527795
626.721647	4672.922763
627.068343	4698.229356
627.414987	4714.292992
627.761577	4735.445674
628.108115	4786.769661
628.454600	4786.293272
628.801032	4830.794058
629.147412	4866.014079
629.493739	4898.801744
629.840014	4913.287499
630.186236	4970.255058
630.532405	4984.695444
630.878521	5036.858783
631.224585	5066.450356
631.570597	5092.200570
631.916556	5138.455677
632.262462	5171.576058
632.608316	5214.004929
632.954117	5236.160800
633.299866	5267.252117
633.645562	5288.228358
633.991206	5287.552843
634.336797	5277.137819
634.682336	5301.274864
635.027823	5309.204599
635.373257	5324.575077
635.718639	5326.591539
636.063968	5346.685578
636.409245	5326.130273
636.754470	5354.338049
637.099642	5362.270305
637.444762	5361.055387
637.789829	5393.994286
638.134845	5397.747425
638.479808	5421.430766
638.824719	5445.691319
639.169577	5448.799190
639.514383	5479.792204
639.859137	5487.626157
640.203839	5543.923243
640.548489	5542.867121
640.893086	5578.223253
641.237632	5586.241209
641.582125	5629.882477
641.926566	5654.702598
642.270955	5691.820614
642.615292	5728.207663
642.959576	5760.103043
643.303809	5797.231141
643.647990	5845.520354
643.992118	5878.330704
644.336195	5918.586838
644.680219	5964.710875
645.024192	6038.742740
645.368112	6134.875023
645.711981	6187.303023
646.055797	6326.322922
646.399562	6383.628239
646.743274	6544.693104
647.086935	6650.043137
647.430544	6694.236413
647.774101	6751.514003
648.117606	6819.698129
648.461059	6890.821248
648.804460	6880.718776
649.147810	6838.073135
649.491108	6839.091448
649.834354	6829.097360
650.177548	6752.244970
650.520690	6733.398616
650.863781	6766.277022
651.206820	6778.048116
651.549807	6764.258039
651.892742	6746.505616
652.235626	6754.135403
652.578458	6775.429236
652.921238	6740.020172
653.263967	6823.151319
653.606644	6821.026473
653.949269	6854.222471
654.291843	6841.503640
654.634365	6937.204904
654.976836	6920.780825
655.319255	6961.982176
655.661622	7006.845924
656.003938	7010.934300
656.346203	7031.996241
656.688416	7103.106757
657.030577	7110.418951
657.372687	7129.103987
657.714746	7200.332971
658.056753	7259.306909
658.398708	7218.002215
658.740612	7265.010974
659.082465	7348.547935
659.424266	7373.539455
659.766016	7432.089936
660.107715	7463.408105
660.449362	7526.495624
660.790958	7564.843682
661.132503	7611.275229
661.473996	7661.233064
661.815438	7720.307825
662.156829	7800.071482
662.498168	7809.095147
662.839456	7856.280347
663.180693	7921.762415
663.521879	7994.314701
663.863013	8040.239613
664.204097	8079.512722
664.545129	8211.754790
664.886110	8252.827591
665.227040	8319.484248
665.567918	8392.545691
665.908746	8451.340668
666.249522	8538.923154
666.590248	8589.226308
666.930922	8658.169128
667.271545	8698.712608
667.612118	8760.897761
667.952639	8758.755271
668.293109	8819.906987
668.633528	8840.399278
668.973896	8874.474957
669.314213	8927.591075
669.654480	8921.471114
669.994695	8968.918454
670.334859	8993.637752
670.674973	9021.656485
671.015035	9101.266386
671.355047	9139.891707
671.695008	9176.082151
672.034918	9212.759065
672.374777	9281.714488
672.714585	9298.471284
673.054342	9400.607581
673.394049	9398.129854
673.733705	9509.690589
674.073310	9480.777051
674.412864	9540.030773
674.752368	9505.065330
675.091820	9615.854768
675.431223	9567.721831
675.770574	9542.818531
676.109875	9548.623420
676.449125	9529.630873
676.788324	9554.871930
677.127473	9477.959046
677.466571	9501.302109
677.805619	9474.533582
678.144616	9514.267956
678.483562	9535.576914
678.822458	9504.798149
679.161303	9534.460298
679.500098	9557.173217
679.838842	9583.984593
680.177535	9669.815279
680.516179	9780.241754
680.854771	9897.791379
681.193314	10185.802581
681.531805	10544.556294
681.870247	10806.784514
682.208638	11041.838395
682.546978	11141.171811
682.885268	11213.865249
683.223508	11127.641354
683.561697	11083.453120
683.899836	11086.424880
684.237925	11002.782055
684.575963	11019.349807
684.913951	10947.397419
685.251889	11045.619260
685.589776	11104.409196
685.927614	11162.263998
686.265401	11258.673545
686.603137	11345.396515
686.940824	11547.755992
687.278460	11715.157588
687.616046	11820.326139
687.953582	12049.378526
688.291068	12062.387223
688.628504	12195.191380
688.965889	12225.332439
689.303224	12156.921461
689.640510	12100.425250
689.977745	11927.027202
690.314930	11728.867006
690.652065	11614.699994
690.989150	11437.745412
691.326185	11196.664832
691.663170	11024.121260
692.000105	10839.347848
692.336990	10671.404328
692.673825	10574.190717
693.010610	10456.709147
693.347345	10315.488784
693.684030	10153.403085
694.020665	10104.327452
694.357251	9933.039127
694.693786	9949.682496
695.030272	9920.645450
695.366707	9793.729361
695.703093	9742.387730
696.039429	9770.431668
696.375716	9727.826357
696.711952	9743.534592
697.048139	9742.107946
697.384276	9711.687103
697.720363	9794.180544
698.056400	9759.371377
698.392388	9721.318227
698.728326	9751.287887
699.064214	9711.861022
699.400053	9726.021624
699.735842	9643.124890
700.071581	9571.646369
700.407270	9511.089509
700.742910	9480.252771
701.078501	9418.420498
701.414042	9356.643678
701.749533	9284.078789
702.084974	9193.786683
702.420366	9297.972209
702.755709	9176.566101
703.091002	9103.459288
703.426246	9138.777612
703.761440	9130.275706
704.096584	9067.344462
704.431679	9078.470289
704.766725	9078.228313
705.101721	9093.765149
705.436668	9147.831524
705.771565	9063.538391
706.106413	9226.801199
706.441212	9250.882791
706.775961	9335.344803
707.110661	9389.506960
707.445311	9558.607425
707.779913	9529.840081
708.114465	9653.524790
708.448967	9789.220049
708.783421	10080.921375
709.117825	10222.217356
709.452180	10337.410242
709.786485	10520.820021
710.120742	10853.029539
710.454949	10889.129242
710.789107	11084.373130
711.123216	11392.208669
711.457275	11454.555140
711.791286	11684.346055
712.125247	11743.108265
712.459159	11659.215903
712.793023	11940.093872
713.126837	11546.818337
713.460602	11672.695949
713.794318	11573.193654
714.127985	11454.870212
714.461602	11132.216201
714.795171	11151.503656
715.128691	10783.474219
715.462162	10596.996897
715.795584	10460.323655
716.128957	10381.149813
716.462281	10254.624413
716.795556	10187.138487
717.128782	10008.704326
717.461960	9809.271238
717.795088	9801.833016
718.128167	9655.384976
718.461198	9492.107044
718.794180	9455.586405
719.127113	9333.580400
719.459997	9267.768136
719.792833	9144.370772
720.125619	9157.291250
720.458357	9040.717087
720.791046	8983.754570
721.123686	8934.658772
721.456278	8854.078449
721.788821	8856.503244
722.121315	8763.892206
722.453761	8817.386410
722.786158	8799.172722
723.118506	8828.817227
723.450805	8789.871793
723.783056	8883.715392
724.115259	8852.850928
724.447412	8839.254936
724.779518	8974.405750
725.111574	9004.277107
725.443582	9113.029919
725.775542	9129.025500
726.107453	9364.417138
726.439315	9321.872320
726.771129	9529.124237
727.102895	9713.874963
727.434612	9816.633843
727.766281	9888.936593
728.097901	10026.396255
728.429473	10066.231453
728.760996	10085.614689
729.092471	10154.812088
729.423897	10124.998704
729.755276	10091.253220
730.086606	10177.003247
730.417887	10453.775196
730.749120	10722.458613
731.080305	10837.071767
731.411442	11014.338901
731.742530	11084.766340
732.073570	11152.942905
732.404562	11312.571042
732.735506	11240.774928
733.066401	11122.194387
733.397249	10897.870603
733.728048	10617.126224
734.058798	10247.327343
734.389501	9935.867214
734.720156	9737.162574
735.050762	9497.609463
735.381320	9339.503755
735.711831	9235.837468
736.042293	9076.166481
736.372707	9095.826981
736.703073	9005.892797
737.033391	9120.815981
737.363661	9118.499571
737.693883	9180.321761
738.024056	9274.243498
738.354182	9371.338642
738.684260	9519.858596
739.014290	9644.715374
739.344272	9746.246733
739.674207	9897.783818
740.004093	9966.840063
740.333931	9977.817176
740.663722	10016.883598
740.993464	10030.109065
741.323159	9962.479465
741.652806	9840.685188
741.982405	9755.434236
742.311956	9600.491852
742.641460	9567.968848
742.970915	9428.875851
743.300323	9270.477756
743.629683	9185.594808
743.958996	9050.658243
744.288260	8924.924304
744.617477	8773.369576
744.946647	8752.834435
745.275768	8624.325342
745.604842	8541.378196
745.933869	8457.901730
746.262847	8445.573588
746.591778	8426.926360
746.920662	8383.464052
747.249498	8395.129282
747.578286	8469.793812
747.907027	8556.841936
748.235720	8689.051236
748.564365	8711.675935
748.892963	8666.731528
749.221514	8711.524700
749.550017	8643.887539
749.878473	8639.715984
750.206881	8526.322790
750.535242	8494.757605
750.863555	8452.535421
751.191821	8410.963546
751.520039	8427.435516
751.848210	8394.826813
752.176334	8417.116274
752.504411	8374.979790
752.832440	8281.453783
753.160421	8331.635949
753.488356	8266.068182
753.816243	8225.436482
754.144082	8142.461610
754.471875	8116.628217
754.799620	8093.605267
755.127318	8087.898681
755.454969	8076.692196
755.782572	8055.363074
756.110129	8065.788181
756.437638	8027.387191
756.765100	8031.268880
757.092515	8043.317237
757.419882	8054.422899
757.747203	8062.234167
758.074477	8115.080583
758.401703	8082.993639
758.728882	8192.517747
759.056014	8225.784321
759.383099	8302.369531
759.710138	8372.234882
760.037129	8426.346627
760.364073	8448.260523
760.690970	8450.050133
761.017820	8464.540929
761.344623	8600.410108
761.671379	8830.478287
761.998088	9253.673070
762.324751	10271.671075
762.651366	12026.826924
762.977935	14223.237490
763.304456	15514.554254
763.630931	15792.742767
763.957359	15099.936994
764.283740	13968.888594
764.610074	12828.814007
764.936362	11549.422093
765.262602	10626.901022
765.588796	9729.580678
765.914943	9111.598231
766.241044	8593.478521
766.567097	8202.577370
766.893104	7858.095163
767.219064	7641.688510
767.544978	7403.685555
767.870845	7215.020372
768.196665	7098.572239
768.522438	6978.950699
768.848165	6879.403034
769.173846	6780.069618
769.499479	6710.247117
769.825066	6615.365040
770.150607	6502.816239
770.476101	6470.348688
770.801548	6404.561630
771.126949	6320.676830
771.452303	6271.661691
771.777611	6169.976577
772.102872	6161.288148
772.428087	6089.229895
772.753256	6014.164594
773.078378	5962.467561
773.403453	5870.032964
773.728482	5804.235824
774.053465	5769.247696
774.378401	5711.188727
774.703291	5653.502804
775.028135	5589.575932
775.352932	5571.571451
775.677683	5519.037587
776.002388	5460.550120
776.327046	5462.929544
776.651658	5406.198920
776.976224	5358.799471
777.300743	5358.716292
777.625216	5311.727697
777.949643	5286.342966
778.274024	5292.780520
778.598359	5247.079940
778.922647	5248.304940
779.246889	5224.669490
779.571086	5232.014451
779.895236	5241.564917
780.219339	5238.673816
780.543397	5236.485955
780.867409	5279.670999
781.191374	5277.152943
781.515294	5261.737094
781.839167	5295.931241
782.162995	5282.736021
782.486776	5251.664869
782.810511	5231.001179
783.134201	5180.463612
783.457844	5174.779711
783.781441	5145.427593
784.104993	5116.856853
784.428498	5101.458649
784.751958	5095.079069
785.075372	5080.500052
785.398739	5054.994334
785.722061	5075.151388
786.045337	5081.984672
786.368568	5165.922404
786.691752	5179.556204
787.014891	5359.931210
787.337983	5553.874480
787.661030	5852.371282
787.984031	6142.686291
788.306987	6322.358055
788.629897	6382.695625
788.952760	6332.437842
789.275579	6226.543364
789.598351	6024.929978
789.921078	5845.061609
790.243759	5646.251104
790.566395	5511.995095
790.888984	5378.291092
791.211529	5286.579901
791.534027	5171.933980
791.856480	5073.722221
792.178888	5036.389956
792.501249	4991.775744
792.823566	4918.447120
793.145836	4914.865381
793.468062	4904.329369
793.790241	4877.601171
794.112375	4908.916819
794.434464	4979.908868
794.756507	5005.313763
795.078505	5091.615796
795.400457	5243.788066
795.722364	5407.035751
796.044226	5538.718251
796.366042	5651.105735
796.687812	5615.794973
797.009538	5641.159539
797.331218	5583.208955
797.652852	5535.204567
797.974442	5453.600889
798.295986	5403.179268
798.617484	5313.476977
798.938938	5244.909723
799.260346	5198.868865
799.581709	5096.341878
799.903026	5060.519439
800.224299	5004.754195
800.545526	4927.654788
800.866708	4878.664855
801.187845	4846.449361
801.508936	4787.218324
801.829983	4770.761477
802.150984	4691.915311
802.471940	4674.142723
802.792851	4657.620341
803.113717	4646.060975
803.434538	4626.158500
803.755314	4603.017083
804.076045	4597.527267
804.396731	4570.473914
804.717372	4584.372376
805.037967	4583.071758
805.358518	4601.116568
805.679024	4645.299761
805.999485	4649.171367
806.319901	4662.127132
806.640272	4676.514586
806.960598	4709.047672
807.280879	4705.171025
807.601115	4732.231938
807.921306	4707.968865
808.241453	4702.078277
808.561554	4707.721848
808.881611	4688.946071
809.201623	4688.366338
809.521590	4656.717974
809.841513	4648.959639
810.161390	4661.186957
810.481223	4599.682360
810.801011	4590.199949
811.120755	4573.397784
811.440453	4540.360582
811.760107	4520.531203
812.079716	4499.801979
812.399281	4462.961226
812.718801	4462.706648
813.038276	4437.485755
813.357707	4414.072116
813.677093	4430.816309
813.996434	4389.481368
814.315731	4404.423348
814.634983	4404.201537
814.954191	4411.937188
815.273354	4456.014516
815.592473	4489.606245
815.911547	4549.038928
816.230577	4587.853292
816.549562	4656.355011
816.868502	4693.576371
817.187399	4744.706274
817.506250	4805.106858
817.825058	4830.257175
818.143821	4952.885763
818.462539	5092.379531
818.781213	5272.794865
819.099843	5549.791146
819.418429	6032.952974
819.736970	6502.299521
820.055466	7040.639299
820.373919	7767.102336
820.692327	8930.121734
821.010691	10997.536735
821.329011	15412.319654
821.647286	21792.945886
821.965517	28520.471557
822.283704	31984.870948
822.601847	33119.233907
822.919945	30157.757668
823.237999	26822.167321
823.556010	23329.131656
823.873976	20095.881772
824.191897	17140.273437
824.509775	15025.211971
824.827609	13137.554433
825.145398	12063.526524
825.463144	11584.246384
825.780845	11865.096627
826.098502	12842.044516
826.416116	14593.474952
826.733685	16168.238152
827.051210	16467.294522
827.368692	15393.145625
827.686129	13569.624168
828.003522	11754.478588
828.320872	10154.260081
828.638177	8951.029919
828.955439	8020.939555
829.272656	7227.809780
829.589830	6604.057732
829.906960	6060.727212
830.224046	5667.030740
830.541088	5365.053022
830.858086	5177.421276
831.175041	5029.493657
831.491952	4995.546527
831.808819	5037.894740
832.125642	5244.874435
832.442421	5702.008786
832.759157	6583.792293
833.075849	7937.475692
833.392497	9296.424575
833.709101	10068.073994
834.025662	9820.182816
834.342179	9013.711626
834.658653	8041.331023
834.975083	7207.173816
835.291469	6539.266302
835.607811	5980.799717
835.924110	5583.067802
836.240366	5208.419331
836.556578	4861.761866
836.872746	4593.005352
837.188871	4385.004823
837.504952	4220.307807
837.820990	4092.343157
838.136984	4000.949559
838.452935	3973.351762
838.768842	4002.683716
839.084706	4248.611365
839.400526	4835.409234
839.716303	5515.755796
840.032037	5915.093318
840.347727	5772.678201
840.663373	5304.929701
840.978977	4867.907032
841.294537	4537.033420
841.610054	4282.901293
841.925527	4099.977985
842.240957	3940.654838
842.556344	3800.173004
842.871687	3675.517872
843.186987	3561.844894
843.502244	3472.823158
843.817458	3406.106008
844.132629	3350.040815
844.447756	3312.988334
844.762840	3278.095988
845.077881	3244.239599
845.392879	3219.391752
845.707833	3200.666386
846.022745	3178.220648
846.337613	3171.278979
846.652438	3150.700989
846.967221	3145.848879
847.281960	3129.329018
847.596656	3121.028758
847.911309	3113.409054
848.225919	3101.350614
848.540485	3096.916919
848.855009	3087.495002
849.169490	3080.966708
849.483928	3075.267684
849.798323	3071.282652
850.112675	3062.432906
850.426984	3060.492062
850.741251	3058.011814
851.055474	3057.883265
851.369654	3054.510733
851.683792	3051.279353
851.997887	3054.866134
852.311938	3056.806978
852.625947	3055.153480
852.939914	3049.278015
853.253837	3056.728840
853.567718	3055.521484
853.881555	3050.460166
854.195350	3054.049467
854.509103	3055.080383
854.822812	3052.222049
855.136479	3046.419681
855.450103	3049.978735
855.763685	3044.017571
856.077224	3048.105947
856.390720	3054.528377
856.704173	3061.734706
857.017584	3068.315932
857.330953	3069.528330
857.644278	3077.556368
857.957561	3081.196081
858.270802	3076.149886
858.584000	3076.301120
858.897155	3071.249884
859.210268	3062.185889
859.523339	3053.147101
859.836367	3054.533418
860.149352	3047.228786
860.462295	3045.129145
860.775195	3037.469112
861.088054	3033.441230
861.400869	3033.496683
861.713642	3035.750079
862.026373	3039.586397
862.339062	3046.132335
862.651708	3053.515105
862.964312	3063.955334
863.276873	3072.792477
863.589392	3098.109152
863.901869	3116.088427
864.214303	3132.535191
864.526696	3150.980773
864.839045	3162.381343
865.151353	3169.930471
865.463619	3170.295954
865.775842	3175.856347
866.088023	3178.941533
866.400162	3171.586490
866.712258	3174.152437
867.024313	3172.362827
867.336325	3173.676048
867.648296	3172.529185
867.960224	3168.849143
868.272110	3173.928106
868.583954	3172.645132
868.895755	3178.790298
869.207515	3177.754341
869.519233	3193.545756
869.830909	3199.615305
870.142542	3210.360524
870.454134	3213.397820
870.765684	3224.238821
871.077191	3239.999988
871.388657	3248.010382
871.700081	3259.201743
872.011463	3276.134979
872.322803	3292.122999
872.634101	3299.803197
872.945357	3322.082576
873.256571	3346.575022
873.567744	3354.655992
873.878874	3358.966178
874.189963	3371.702653
874.501010	3373.348590
874.812015	3371.654762
875.122979	3384.313100
875.433900	3381.651370
875.744780	3385.220507
876.055618	3387.857031
876.366415	3392.378946
876.677169	3395.086045
876.987882	3409.559198
877.298554	3428.473607
877.609183	3459.534677
877.919771	3499.722755
878.230317	3558.076632
878.540822	3646.526196
878.851285	3769.144702
879.161707	3960.030513
879.472087	4270.643728
879.782425	4794.210404
880.092722	5753.965438
880.402977	7204.600307
880.713191	8856.170527
881.023363	10408.866077
881.333494	11254.199521
881.643583	11609.041299
881.953631	11385.947556
882.263637	10850.241781
882.573602	10158.892902
882.883526	9478.982400
883.193408	8772.308413
883.503248	8096.582069
883.813048	7473.263560
884.122806	6896.646301
884.432522	6323.635987
884.742197	5831.518549
885.051831	5416.467750
885.361424	5047.470412
885.670975	4751.360597
885.980485	4500.452287
886.289954	4295.302532
886.599382	4130.648365
886.908768	3991.434381
887.218113	3863.021069
887.527417	3757.439143
887.836680	3656.908453
888.145901	3583.438677
888.455082	3526.793751
888.764221	3469.004484
889.073319	3425.700973
889.382376	3399.159298
889.691392	3384.310579
890.000366	3376.600134
890.309300	3373.353631
890.618193	3375.788508
890.927044	3370.868342
891.235855	3375.019733
891.544625	3391.211919
891.853353	3416.823501
892.162041	3461.425109
892.470687	3539.338663
892.779293	3637.195021
893.087858	3777.520579
893.396381	4011.427597
893.704864	4342.230633
894.013306	4801.499913
894.321707	5245.222274
894.630068	5508.584754
894.938387	5521.762330
895.246665	5371.372108
895.554903	5117.189570
895.863100	4852.423128
896.171256	4639.356241
896.479371	4449.183753
896.787446	4274.238070
897.095480	4122.700986
897.403473	4007.301412
897.711425	3893.167169
898.019336	3794.468938
898.327207	3701.424362
898.635038	3616.196094
898.942827	3530.642672
899.250576	3462.710604
899.558284	3394.952455
899.865952	3353.577185
900.173579	3302.273362
900.481165	3267.686005
900.788711	3235.508320
901.096216	3211.857747
901.403681	3187.135929
901.711105	3177.835000
902.018489	3176.627643
902.325832	3207.151830
902.633135	3257.588574
902.940397	3406.116090
903.247619	3748.352463
903.554800	4355.899722
903.861941	5098.892702
904.169041	5618.431497
904.476101	5745.947483
904.783121	5515.468450
905.090100	5202.495975
905.397039	4883.143920
905.703938	4608.338021
906.010796	4354.442828
906.317614	4160.008045
906.624391	3975.826968
906.931129	3821.832321
907.237826	3676.863860
907.544483	3544.712533
907.851099	3408.044331
908.157675	3284.420116
908.464211	3174.603620
908.770707	3092.987339
909.077163	3032.826209
909.383578	2988.171669
909.689954	2954.257306
909.996289	2932.209820
910.302584	2913.958322
910.608839	2904.876684
910.915054	2890.685836
911.221229	2889.569220
911.527363	2894.912843
911.833458	2901.350397
912.139513	2909.890111
912.445527	2925.351330
912.751502	2947.361008
913.057436	2988.494303
913.363331	3034.600696
913.669186	3108.574587
913.975000	3207.151830
914.280775	3361.799307
914.586510	3580.373655
914.892205	3887.788258
915.197859	4285.174854
915.503475	4739.471035
915.809050	5116.095639
916.114585	5330.324513
916.420081	5366.381366
916.725536	5310.159898
917.030952	5124.254747
917.336328	4961.178461
917.641665	4796.552020
917.946961	4616.240030
918.252218	4453.342705
918.557435	4283.269298
918.862612	4128.367243
919.167750	3986.524297
919.472848	3838.939477
919.777906	3705.507696
920.082925	3582.896752
920.387904	3458.450829
920.692843	3372.635267
920.997743	3294.245324
921.302603	3221.909808
921.607423	3171.878877
921.912204	3119.428191
922.216946	3077.710123
922.521647	3042.865667
922.826310	3008.220338
923.130932	2980.640185
923.435516	2948.570885
923.740059	2926.462904
924.044564	2902.136817
924.349028	2882.219218
924.653454	2859.218953
924.957840	2838.855212
925.262186	2817.891574
925.566493	2801.293575
925.870761	2783.359670
926.174989	2773.746190
926.479178	2762.978285
926.783328	2750.037643
927.087438	2740.217476
927.391509	2731.292113
927.695541	2720.771225
927.999533	2712.947354
928.303486	2708.236396
928.607400	2701.871939
928.911275	2699.585776
929.215110	2694.784077
929.518906	2690.489013
929.822663	2692.497913
930.126381	2691.330886
930.430060	2693.276772
930.733699	2696.631659
931.037299	2698.822041
931.340861	2698.746423
931.644383	2701.040148
931.947866	2701.108204
932.251309	2697.886907
932.554714	2698.088553
932.858080	2697.334900
933.161407	2692.059333
933.464694	2688.699404
933.767943	2688.875844
934.071153	2684.119516
934.374323	2681.624144
934.677455	2680.041222
934.980548	2679.789164
935.283602	2674.780778
935.586617	2675.151303
935.889593	2676.789678
936.192530	2678.763290
936.495428	2681.591377
936.798287	2688.175124
937.101108	2702.199614
937.403890	2719.384907
937.706632	2740.043556
938.009336	2765.466095
938.312002	2789.857717
938.614628	2810.536531
938.917216	2824.631597
939.219765	2832.349603
939.522275	2838.928309
939.824747	2836.223730
940.127179	2832.394974
940.429573	2827.920950
940.731929	2825.607060
941.034246	2820.472645
941.336524	2814.997952
941.638763	2813.503250
941.940964	2806.886735
942.243126	2793.424334
942.545250	2783.619290
942.847335	2774.283073
943.149381	2762.474170
943.451389	2754.398241
943.753359	2743.950450
944.055290	2738.107753
944.357182	2729.804972
944.659036	2725.232646
944.960851	2723.707697
945.262628	2719.649568
945.564367	2718.646378
945.866067	2719.127808
946.167729	2718.064125
946.469352	2717.214691
946.770937	2716.405585
947.072484	2710.399051
947.373992	2711.258567
947.675462	2705.839327
947.976893	2704.964687
948.278286	2703.994265
948.579641	2699.749613
948.880958	2696.324149
949.182236	2693.891792
949.483476	2694.020342
949.784678	2694.337934
950.085841	2693.803572
950.386967	2698.867411
950.688054	2702.731456
950.989103	2707.167671
951.290114	2714.994062
951.591087	2724.605022
951.892021	2734.314284
952.192917	2743.968094
952.493776	2751.529825
952.794596	2756.480238
953.095378	2755.782038
953.396122	2757.642224
953.696828	2751.277767
953.997496	2750.239289
954.298126	2740.492218
954.598718	2733.646332
954.899272	2724.804148
955.199788	2717.479351
955.500266	2708.717826
955.800706	2693.801052
956.101108	2681.992149
956.401472	2672.582835
956.701798	2661.242759
957.002087	2648.332364
957.302337	2645.708444
957.602550	2634.854840
957.902724	2628.578603
958.202861	2621.037037
958.502960	2613.061932
958.803022	2608.073710
959.103045	2603.418204
959.403031	2598.881166
959.702979	2592.688108
960.002889	2589.295412
960.302762	2585.925400
960.602596	2583.145204
960.902393	2580.233938
961.202153	2577.720922
961.501875	2574.126580
961.801559	2574.295458
962.101205	2570.494428
962.400814	2570.832186
962.700385	2568.021742
962.999918	2567.308419
963.299414	2569.927299
963.598873	2566.572411
963.898293	2563.628377
964.197677	2564.069478
964.497022	2560.712069
964.796331	2559.660989
965.095601	2561.112841
965.394835	2559.487069
965.694030	2562.317677
965.993189	2561.480845
966.292309	2556.359033
966.591393	2558.499003
966.890439	2558.839281
967.189447	2560.714590
967.488419	2556.976574
967.787353	2560.701987
968.086249	2557.785680
968.385108	2560.951524
968.683930	2563.434292
968.982714	2561.362378
969.281462	2562.683161
969.580172	2565.760785
969.878844	2567.477298
970.177480	2569.740776
970.476078	2571.618606
970.774639	2574.784450
971.073162	2578.482137
971.371649	2577.365521
971.670098	2573.350242
971.968510	2579.830645
972.266885	2577.330233
972.565223	2581.181675
972.863524	2583.382138
973.161788	2584.607139
973.460014	2585.522108
973.758204	2585.945565
974.056356	2585.149063
974.354471	2586.346337
974.652550	2585.900195
974.950591	2586.205184
975.248595	2584.206367
975.546563	2583.195616
975.844493	2585.902715
976.142386	2580.463310
976.440243	2582.114288
976.738062	2577.244533
977.035845	2578.207394
977.333590	2576.148082
977.631299	2573.927454
977.928971	2576.115315
978.226606	2568.767833
978.524204	2568.530899
978.821765	2567.404201
979.119290	2568.727504
979.416777	2568.646846
979.714228	2569.045097
980.011642	2570.247412
980.309020	2574.010633
980.606360	2576.601786
980.903664	2581.552199
981.200931	2593.018304
981.498162	2611.375666
981.795356	2631.086577
982.092513	2663.249139
982.389633	2697.486135
982.686717	2727.881772
982.983764	2752.341451
983.280775	2766.295364
983.577749	2763.195055
983.874686	2755.623242
984.171587	2741.313927
984.468451	2730.505693
984.765279	2715.180585
985.062070	2702.302957
985.358824	2691.255269
985.655543	2673.026457
985.952224	2656.516678
986.248869	2634.433903
986.545478	2614.299535
986.842050	2598.881166
987.138586	2584.271902
987.435086	2572.619275
987.731549	2566.872359
988.027975	2561.364899
988.324366	2560.870866
988.620719	2552.343754
988.917037	2553.230997
989.213318	2549.911397
989.509563	2548.973743
989.805772	2546.405275
990.101944	2546.674977
990.398080	2546.745553
990.694180	2548.628424
990.990244	2546.632127
991.286271	2546.445604
991.582262	2543.647764
991.878217	2545.530635
992.174136	2547.300080
992.470019	2549.193033
992.765865	2551.038095
993.061676	2552.081614
993.357450	2554.700493
993.653188	2556.185113
993.948890	2557.730227
994.244556	2564.634087
994.540186	2571.548030
994.835780	2582.812488
995.131337	2596.637852
995.426859	2606.294182
995.722345	2619.514608
996.017795	2634.257463
996.313208	2649.161634
996.608586	2652.130874
996.903928	2657.262768
997.199234	2657.676143
997.494504	2655.616832
997.789738	2647.243475
998.084936	2638.620582
998.380099	2628.944087
998.675225	2621.992336
998.970316	2610.627054
999.265371	2599.065168
999.560390	2586.558065
999.855373	2581.864751
1000.150320	2575.989286
1000.445232	2566.549726
1000.740108	2562.390774
1001.034948	2556.492624
1001.329752	2552.807540
1001.624521	2550.912066
1001.919254	2544.555171
1002.213951	2545.003834
1002.508613	2541.812784
1002.803239	2541.061652
1003.097829	2537.938657
1003.392384	2541.938813
1003.686903	2538.800694
1003.981386	2536.272556
1004.275834	2538.530992
1004.570246	2539.783719
1004.864623	2535.942360
1005.158964	2536.869932
1005.453270	2535.413039
1005.747540	2534.233409
1006.041775	2535.039993
1006.335974	2531.911958
1006.630138	2534.729962
1006.924266	2531.732997
1007.218359	2534.404808
1007.512416	2533.479756
1007.806438	2533.935981
1008.100425	2532.398429
1008.394376	2535.468492
1008.688292	2535.609644
1008.982172	2532.151412
1009.276017	2530.815507
1009.569827	2532.037986
1009.863602	2535.841537
1010.157341	2532.229550
1010.451045	2533.177287
1010.744714	2530.956659
1011.038347	2531.244005
1011.331945	2530.636546
1011.625508	2532.083357
1011.919036	2528.809127
1012.212528	2531.274252
1012.505986	2531.677544
1012.799408	2529.739220
1013.092795	2530.571011
1013.386147	2532.932791
1013.679464	2529.950949
1013.972745	2529.998840
1014.265992	2531.123017
1014.559204	2530.855836
1014.852380	2533.116793
1015.145521	2530.024045
1015.438628	2530.492873
1015.731699	2532.746268
1016.024736	2528.615043
1016.317737	2532.393388
1016.610703	2531.669982
1016.903635	2529.252749
1017.196531	2528.229395
1017.489393	2528.317615
1017.782219	2528.773839
1018.075011	2532.123686
1018.367768	2532.892462
1018.660490	2533.419262
1018.953177	2533.419262
1019.245829	2533.419262
