Dividing Wavelength (nm)	Counts (n)	Blue Motor Position (mm): 9.000000	Red Motor Position (mm): 0.000000	
326.493990	2129.887500
326.888308	2129.887500
327.282561	2129.887500
327.676750	2150.052115
328.070874	2134.928654
328.464933	2026.543846
328.858929	2079.475962
329.252859	2051.749615
329.646726	2061.831923
330.040528	2114.764038
330.434265	2051.749615
330.827938	2137.449231
331.221547	2094.599423
331.615091	2145.010962
332.008571	2180.299038
332.401986	2150.052115
332.795338	2238.272308
333.188625	2245.834038
333.581847	2296.245577
333.975006	2228.190000
334.368100	2394.548077
334.761129	2278.601538
335.154095	2392.027500
335.546996	2316.410192
335.939833	2339.095385
336.332606	2427.315577
336.725315	2344.136538
337.117960	2465.124231
337.510540	2447.480192
337.903056	2374.383462
338.295508	2452.521346
338.687896	2371.862885
339.080220	2447.480192
339.472480	2462.603654
339.864676	2457.562500
340.256807	2374.383462
340.648875	2485.288846
341.040879	2432.356731
341.432818	2369.342308
341.824694	2472.685962
342.216506	2482.768269
342.608253	2487.809423
342.999937	2535.700385
343.391557	2369.342308
343.783113	2444.959615
344.174605	2485.288846
344.566033	2417.233269
344.957397	2402.109808
345.348697	2475.206538
345.739934	2422.274423
346.131106	2487.809423
346.522215	2507.974038
346.913260	2429.836154
347.304241	2432.356731
347.695159	2475.206538
348.086012	2467.644808
348.476802	2381.945192
348.867528	2485.288846
349.258191	2550.823846
349.648789	2432.356731
350.039324	2432.356731
350.429796	2409.671538
350.820203	2427.315577
351.210548	2490.330000
351.600828	2470.165385
351.991045	2555.865000
352.381198	2444.959615
352.771288	2518.056346
353.161314	2510.494615
353.551276	2419.753846
353.941175	2417.233269
354.331010	2462.603654
354.720782	2341.615962
355.110490	2444.959615
355.500135	2485.288846
355.889717	2553.344423
356.279235	2384.465769
356.668689	2530.659231
357.058080	2447.480192
357.447408	2477.727115
357.836672	2419.753846
358.225873	2477.727115
358.615010	2379.424615
359.004084	2417.233269
359.393095	2472.685962
359.782043	2404.630385
360.170927	2427.315577
360.559748	2434.877308
360.948505	2422.274423
361.337199	2530.659231
361.725830	2351.698269
362.114398	2472.685962
362.502903	2487.809423
362.891344	2495.371154
363.279722	2465.124231
363.668037	2515.535769
364.056289	2439.918462
364.444478	2417.233269
364.832603	2477.727115
365.220665	2412.192115
365.608665	2462.603654
365.996601	2475.206538
366.384474	2467.644808
366.772284	2407.150962
367.160031	2439.918462
367.547715	2439.918462
367.935336	2452.521346
368.322893	2402.109808
368.710388	2487.809423
369.097820	2439.918462
369.485189	2460.083077
369.872495	2520.576923
370.259738	2419.753846
370.646918	2528.138654
371.034035	2450.000769
371.421090	2520.576923
371.808081	2450.000769
372.195010	2505.453462
372.581875	2452.521346
372.968678	2465.124231
373.355418	2364.301154
373.742096	2465.124231
374.128710	2452.521346
374.515262	2515.535769
374.901751	2412.192115
375.288177	2422.274423
375.674540	2472.685962
376.060841	2510.494615
376.447079	2442.439038
376.833254	2434.877308
377.219367	2450.000769
377.605417	2475.206538
377.991404	2495.371154
378.377329	2399.589231
378.763191	2437.397885
379.148991	2419.753846
379.534727	2487.809423
379.920402	2427.315577
380.306013	2450.000769
380.691563	2432.356731
381.077049	2505.453462
381.462474	2513.015192
381.847835	2507.974038
382.233134	2429.836154
382.618371	2540.741538
383.003545	2447.480192
383.388657	2480.247692
383.773706	2518.056346
384.158693	2419.753846
384.543618	2495.371154
384.928480	2427.315577
385.313280	2470.165385
385.698017	2528.138654
386.082692	2470.165385
386.467305	2407.150962
386.851856	2528.138654
387.236344	2475.206538
387.620770	2513.015192
388.005133	2480.247692
388.389435	2437.397885
388.773674	2467.644808
389.157851	2422.274423
389.541965	2465.124231
389.926018	2444.959615
390.310008	2462.603654
390.693936	2442.439038
391.077802	2444.959615
391.461606	2376.904038
391.845348	2427.315577
392.229027	2470.165385
392.612645	2520.576923
392.996200	2502.932885
393.379694	2467.644808
393.763125	2477.727115
394.146494	2434.877308
394.529801	2500.412308
394.913047	2480.247692
395.296230	2558.385577
395.679351	2472.685962
396.062410	2492.850577
396.445408	2500.412308
396.828343	2455.041923
397.211217	2422.274423
397.594028	2515.535769
397.976778	2525.618077
398.359466	2414.712692
398.742092	2487.809423
399.124656	2450.000769
399.507158	2386.986346
399.889598	2492.850577
400.271977	2502.932885
400.654294	2533.179808
401.036549	2429.836154
401.418742	2492.850577
401.800874	2450.000769
402.182944	2429.836154
402.564952	2480.247692
402.946898	2450.000769
403.328783	2470.165385
403.710606	2475.206538
404.092367	2525.618077
404.474067	2505.453462
404.855705	2591.153077
405.237282	2450.000769
405.618797	2487.809423
406.000250	2482.768269
406.381642	2507.974038
406.762972	2429.836154
407.144240	2414.712692
407.525447	2492.850577
407.906593	2444.959615
408.287677	2462.603654
408.668700	2444.959615
409.049661	2452.521346
409.430560	2515.535769
409.811399	2497.891731
410.192176	2505.453462
410.572891	2467.644808
410.953545	2444.959615
411.334138	2457.562500
411.714669	2386.986346
412.095139	2482.768269
412.475547	2412.192115
412.855894	2452.521346
413.236180	2482.768269
413.616405	2492.850577
413.996568	2505.453462
414.376670	2495.371154
414.756711	2520.576923
415.136691	2450.000769
415.516609	2399.589231
415.896466	2462.603654
416.276262	2462.603654
416.655997	2510.494615
417.035670	2450.000769
417.415283	2510.494615
417.794834	2419.753846
418.174324	2515.535769
418.553753	2510.494615
418.933121	2465.124231
419.312428	2525.618077
419.691674	2555.865000
420.070859	2467.644808
420.449983	2450.000769
420.829045	2432.356731
421.208047	2392.027500
421.586988	2477.727115
421.965867	2427.315577
422.344686	2470.165385
422.723444	2419.753846
423.102141	2505.453462
423.480777	2422.274423
423.859352	2462.603654
424.237866	2515.535769
424.616319	2495.371154
424.994712	2518.056346
425.373044	2485.288846
425.751314	2525.618077
426.129524	2467.644808
426.507673	2412.192115
426.885762	2548.303269
427.263789	2533.179808
427.641756	2497.891731
428.019662	2502.932885
428.397508	2535.700385
428.775292	2472.685962
429.153016	2530.659231
429.530679	2533.179808
429.908282	2470.165385
430.285824	2492.850577
430.663305	2444.959615
431.040726	2409.671538
431.418086	2485.288846
431.795385	2455.041923
432.172624	2505.453462
432.549802	2437.397885
432.926920	2460.083077
433.303977	2432.356731
433.680974	2548.303269
434.057910	2457.562500
434.434786	2487.809423
434.811601	2480.247692
435.188355	2424.795000
435.565050	2573.509038
435.941683	2402.109808
436.318257	2523.097500
436.694770	2399.589231
437.071222	2482.768269
437.447614	2495.371154
437.823946	2460.083077
438.200218	2404.630385
438.576429	2505.453462
438.952580	2500.412308
439.328670	2467.644808
439.704700	2389.506923
440.080670	2477.727115
440.456580	2472.685962
440.832429	2485.288846
441.208218	2422.274423
441.583947	2510.494615
441.959616	2467.644808
442.335224	2450.000769
442.710773	2543.262115
443.086261	2439.918462
443.461689	2465.124231
443.837057	2523.097500
444.212365	2525.618077
444.587612	2510.494615
444.962800	2444.959615
445.337927	2467.644808
445.712995	2460.083077
446.088002	2427.315577
446.462949	2500.412308
446.837837	2477.727115
447.212664	2538.220962
447.587431	2414.712692
447.962139	2402.109808
448.336786	2500.412308
448.711374	2442.439038
449.085901	2371.862885
449.460369	2472.685962
449.834776	2404.630385
450.209124	2455.041923
450.583412	2434.877308
450.957640	2455.041923
451.331808	2480.247692
451.705917	2462.603654
452.079965	2477.727115
452.453954	2412.192115
452.827883	2452.521346
453.201752	2470.165385
453.575562	2545.782692
453.949311	2386.986346
454.323001	2596.194231
454.696632	2520.576923
455.070202	2510.494615
455.443713	2457.562500
455.817164	2513.015192
456.190556	2472.685962
456.563888	2439.918462
456.937160	2439.918462
457.310373	2497.891731
457.683526	2495.371154
458.056619	2429.836154
458.429653	2470.165385
458.802628	2510.494615
459.175542	2447.480192
459.548398	2442.439038
459.921194	2540.741538
460.293930	2586.111923
460.666607	2525.618077
461.039224	2558.385577
461.411782	2480.247692
461.784280	2520.576923
462.156719	2533.179808
462.529099	2492.850577
462.901419	2462.603654
463.273680	2470.165385
463.645882	2535.700385
464.018024	2515.535769
464.390106	2444.959615
464.762130	2419.753846
465.134094	2465.124231
465.505999	2502.932885
465.877845	2513.015192
466.249631	2487.809423
466.621358	2450.000769
466.993026	2502.932885
467.364634	2450.000769
467.736184	2535.700385
468.107674	2407.150962
468.479105	2596.194231
468.850477	2560.906154
469.221790	2399.589231
469.593043	2502.932885
469.964238	2452.521346
470.335373	2452.521346
470.706449	2505.453462
471.077467	2485.288846
471.448425	2555.865000
471.819324	2480.247692
472.190164	2419.753846
472.560945	2422.274423
472.931667	2523.097500
473.302330	2497.891731
473.672934	2530.659231
474.043479	2444.959615
474.413965	2515.535769
474.784393	2475.206538
475.154761	2507.974038
475.525070	2510.494615
475.895321	2482.768269
476.265513	2402.109808
476.635645	2472.685962
477.005719	2543.262115
477.375734	2570.988462
477.745691	2439.918462
478.115588	2495.371154
478.485427	2444.959615
478.855207	2510.494615
479.224928	2500.412308
479.594591	2540.741538
479.964194	2513.015192
480.333739	2482.768269
480.703226	2480.247692
481.072653	2485.288846
481.442022	2540.741538
481.811333	2505.453462
482.180584	2429.836154
482.549777	2424.795000
482.918912	2482.768269
483.287988	2465.124231
483.657005	2513.015192
484.025964	2429.836154
484.394864	2533.179808
484.763706	2465.124231
485.132489	2528.138654
485.501213	2495.371154
485.869879	2565.947308
486.238487	2429.836154
486.607036	2472.685962
486.975527	2518.056346
487.343959	2442.439038
487.712333	2523.097500
488.080648	2495.371154
488.448905	2424.795000
488.817104	2518.056346
489.185244	2480.247692
489.553326	2485.288846
489.921350	2492.850577
490.289315	2513.015192
490.657222	2513.015192
491.025070	2520.576923
491.392861	2482.768269
491.760593	2510.494615
492.128267	2495.371154
492.495883	2439.918462
492.863440	2439.918462
493.230939	2540.741538
493.598380	2429.836154
493.965763	2528.138654
494.333088	2550.823846
494.700354	2490.330000
495.067563	2455.041923
495.434713	2475.206538
495.801805	2447.480192
496.168839	2475.206538
496.535815	2520.576923
496.902733	2432.356731
497.269593	2502.932885
497.636395	2497.891731
498.003139	2523.097500
498.369825	2596.194231
498.736453	2470.165385
499.103023	2505.453462
499.469535	2467.644808
499.835989	2495.371154
500.202385	2543.262115
500.568723	2505.453462
500.935003	2427.315577
501.301226	2533.179808
501.667390	2538.220962
502.033497	2460.083077
502.399546	2548.303269
502.765537	2558.385577
503.131470	2485.288846
503.497345	2422.274423
503.863163	2510.494615
504.228923	2457.562500
504.594625	2563.426731
504.960269	2543.262115
505.325856	2450.000769
505.691385	2470.165385
506.056856	2487.809423
506.422270	2439.918462
506.787625	2510.494615
507.152924	2530.659231
507.518164	2465.124231
507.883347	2533.179808
508.248472	2429.836154
508.613540	2455.041923
508.978550	2525.618077
509.343503	2507.974038
509.708398	2465.124231
510.073236	2570.988462
510.438016	2553.344423
510.802738	2497.891731
511.167403	2523.097500
511.532010	2432.356731
511.896561	2450.000769
512.261053	2545.782692
512.625488	2497.891731
512.989866	2475.206538
513.354186	2510.494615
513.718449	2515.535769
514.082655	2381.945192
514.446803	2477.727115
514.810894	2518.056346
515.174927	2540.741538
515.538904	2533.179808
515.902822	2525.618077
516.266684	2507.974038
516.630488	2548.303269
516.994235	2490.330000
517.357925	2450.000769
517.721558	2598.714808
518.085133	2442.439038
518.448651	2513.015192
518.812112	2495.371154
519.175516	2525.618077
519.538863	2497.891731
519.902152	2581.070769
520.265385	2520.576923
520.628560	2502.932885
520.991678	2462.603654
521.354739	2492.850577
521.717743	2535.700385
522.080690	2530.659231
522.443580	2470.165385
522.806413	2545.782692
523.169189	2545.782692
523.531908	2492.850577
523.894569	2515.535769
524.257174	2460.083077
524.619722	2513.015192
524.982213	2482.768269
525.344647	2460.083077
525.707025	2528.138654
526.069345	2485.288846
526.431608	2444.959615
526.793815	2495.371154
527.155964	2520.576923
527.518057	2553.344423
527.880093	2553.344423
528.242072	2482.768269
528.603995	2452.521346
528.965860	2535.700385
529.327669	2444.959615
529.689421	2419.753846
530.051117	2495.371154
530.412755	2465.124231
530.774337	2568.467885
531.135862	2492.850577
531.497331	2485.288846
531.858743	2497.891731
532.220098	2452.521346
532.581396	2467.644808
532.942638	2591.153077
533.303824	2467.644808
533.664953	2543.262115
534.026025	2429.836154
534.387040	2553.344423
534.747999	2495.371154
535.108902	2442.439038
535.469748	2530.659231
535.830537	2540.741538
536.191270	2515.535769
536.551947	2568.467885
536.912567	2520.576923
537.273131	2470.165385
537.633638	2535.700385
537.994089	2397.068654
538.354483	2477.727115
538.714821	2439.918462
539.075103	2540.741538
539.435328	2477.727115
539.795497	2518.056346
540.155609	2447.480192
540.515665	2535.700385
540.875665	2530.659231
541.235609	2482.768269
541.595496	2462.603654
541.955328	2518.056346
542.315102	2402.109808
542.674821	2500.412308
543.034483	2465.124231
543.394090	2505.453462
543.753640	2513.015192
544.113134	2460.083077
544.472571	2550.823846
544.831953	2437.397885
545.191278	2502.932885
545.550548	2515.535769
545.909761	2490.330000
546.268918	2419.753846
546.628019	2452.521346
546.987064	2510.494615
547.346053	2487.809423
547.704986	2540.741538
548.063863	2500.412308
548.422684	2515.535769
548.781449	2450.000769
549.140158	2502.932885
549.498811	2439.918462
549.857408	2510.494615
550.215949	2507.974038
550.574434	2465.124231
550.932864	2525.618077
551.291237	2460.083077
551.649555	2535.700385
552.007817	2452.521346
552.366022	2392.027500
552.724173	2452.521346
553.082267	2515.535769
553.440305	2543.262115
553.798288	2510.494615
554.156215	2495.371154
554.514086	2550.823846
554.871902	2437.397885
555.229661	2520.576923
555.587365	2535.700385
555.945014	2558.385577
556.302606	2525.618077
556.660143	2507.974038
557.017625	2485.288846
557.375050	2482.768269
557.732421	2518.056346
558.089735	2482.768269
558.446994	2513.015192
558.804197	2513.015192
559.161345	2450.000769
559.518437	2518.056346
559.875474	2450.000769
560.232455	2545.782692
560.589381	2439.918462
560.946251	2439.918462
561.303065	2518.056346
561.659825	2444.959615
562.016528	2437.397885
562.373177	2515.535769
562.729770	2490.330000
563.086307	2442.439038
563.442789	2442.439038
563.799216	2548.303269
564.155587	2523.097500
564.511904	2515.535769
564.868164	2495.371154
565.224370	2470.165385
565.580520	2477.727115
565.936615	2500.412308
566.292654	2558.385577
566.648638	2492.850577
567.004567	2475.206538
567.360441	2533.179808
567.716260	2535.700385
568.072023	2523.097500
568.427732	2450.000769
568.783385	2538.220962
569.138982	2475.206538
569.494525	2452.521346
569.850013	2520.576923
570.205445	2555.865000
570.560823	2533.179808
570.916145	2472.685962
571.271412	2490.330000
571.626625	2460.083077
571.981782	2437.397885
572.336884	2520.576923
572.691931	2535.700385
573.046923	2455.041923
573.401860	2394.548077
573.756743	2513.015192
574.111570	2520.576923
574.466342	2492.850577
574.821059	2533.179808
575.175722	2462.603654
575.530330	2540.741538
575.884882	2500.412308
576.239380	2535.700385
576.593823	2505.453462
576.948211	2550.823846
577.302544	2525.618077
577.656823	2490.330000
578.011047	2518.056346
578.365216	2477.727115
578.719330	2465.124231
579.073389	2513.015192
579.427394	2525.618077
579.781344	2563.426731
580.135239	2548.303269
580.489080	2482.768269
580.842866	2565.947308
581.196597	2502.932885
581.550273	2550.823846
581.903895	2452.521346
582.257463	2460.083077
582.610975	2467.644808
582.964434	2475.206538
583.317837	2525.618077
583.671186	2505.453462
584.024481	2540.741538
584.377721	2502.932885
584.730906	2558.385577
585.084037	2477.727115
585.437113	2502.932885
585.790135	2480.247692
586.143103	2535.700385
586.496016	2502.932885
586.848874	2392.027500
587.201679	2434.877308
587.554428	2419.753846
587.907124	2442.439038
588.259765	2439.918462
588.612352	2581.070769
588.964884	2543.262115
589.317362	2545.782692
589.669786	2520.576923
590.022155	2535.700385
590.374470	2540.741538
590.726731	2510.494615
591.078937	2563.426731
591.431090	2505.453462
591.783188	2492.850577
592.135232	2520.576923
592.487222	2424.795000
592.839157	2500.412308
593.191038	2548.303269
593.542866	2530.659231
593.894639	2545.782692
594.246358	2538.220962
594.598022	2485.288846
594.949633	2447.480192
595.301190	2505.453462
595.652692	2588.632500
596.004141	2482.768269
596.355535	2507.974038
596.706876	2538.220962
597.058162	2412.192115
597.409395	2487.809423
597.760573	2570.988462
598.111698	2482.768269
598.462768	2507.974038
598.813785	2470.165385
599.164748	2553.344423
599.515657	2444.959615
599.866511	2545.782692
600.217312	2497.891731
600.568060	2495.371154
600.918753	2581.070769
601.269392	2523.097500
601.619978	2543.262115
601.970510	2518.056346
602.320988	2472.685962
602.671412	2515.535769
603.021783	2545.782692
603.372100	2495.371154
603.722363	2402.109808
604.072572	2515.535769
604.422728	2427.315577
604.772830	2497.891731
605.122878	2366.821731
605.472872	2601.235385
605.822813	2467.644808
606.172701	2477.727115
606.522534	2467.644808
606.872314	2548.303269
607.222041	2586.111923
607.571714	2502.932885
607.921333	2543.262115
608.270899	2487.809423
608.620411	2492.850577
608.969870	2553.344423
609.319276	2490.330000
609.668627	2540.741538
610.017926	2518.056346
610.367171	2490.330000
610.716362	2505.453462
611.065500	2550.823846
611.414585	2581.070769
611.763616	2467.644808
612.112594	2485.288846
612.461518	2472.685962
612.810389	2505.453462
613.159207	2490.330000
613.507971	2457.562500
613.856682	2467.644808
614.205340	2530.659231
614.553945	2518.056346
614.902496	2525.618077
615.250994	2472.685962
615.599439	2422.274423
615.947830	2535.700385
616.296169	2487.809423
616.644454	2447.480192
616.992686	2510.494615
617.340864	2485.288846
617.688990	2523.097500
618.037063	2467.644808
618.385082	2513.015192
618.733048	2530.659231
619.080961	2548.303269
619.428821	2485.288846
619.776628	2472.685962
620.124382	2485.288846
620.472083	2495.371154
620.819731	2462.603654
621.167326	2392.027500
621.514868	2515.535769
621.862357	2528.138654
622.209793	2507.974038
622.557176	2465.124231
622.904506	2555.865000
623.251783	2533.179808
623.599007	2487.809423
623.946179	2472.685962
624.293297	2543.262115
624.640363	2472.685962
624.987376	2535.700385
625.334336	2371.862885
625.681243	2490.330000
626.028097	2470.165385
626.374899	2485.288846
626.721647	2447.480192
627.068343	2510.494615
627.414987	2485.288846
627.761577	2475.206538
628.108115	2477.727115
628.454600	2497.891731
628.801032	2520.576923
629.147412	2558.385577
629.493739	2442.439038
629.840014	2462.603654
630.186236	2507.974038
630.532405	2555.865000
630.878521	2543.262115
631.224585	2485.288846
631.570597	2520.576923
631.916556	2548.303269
632.262462	2523.097500
632.608316	2601.235385
632.954117	2497.891731
633.299866	2555.865000
633.645562	2442.439038
633.991206	2581.070769
634.336797	2510.494615
634.682336	2507.974038
635.027823	2417.233269
635.373257	2485.288846
635.718639	2490.330000
636.063968	2465.124231
636.409245	2553.344423
636.754470	2548.303269
637.099642	2523.097500
637.444762	2515.535769
637.789829	2528.138654
638.134845	2490.330000
638.479808	2427.315577
638.824719	2505.453462
639.169577	2462.603654
639.514383	2513.015192
639.859137	2490.330000
640.203839	2487.809423
640.548489	2467.644808
640.893086	2520.576923
641.237632	2505.453462
641.582125	2490.330000
641.926566	2502.932885
642.270955	2563.426731
642.615292	2490.330000
642.959576	2533.179808
643.303809	2480.247692
643.647990	2505.453462
643.992118	2399.589231
644.336195	2530.659231
644.680219	2490.330000
645.024192	2490.330000
645.368112	2598.714808
645.711981	2525.618077
646.055797	2455.041923
646.399562	2465.124231
646.743274	2485.288846
647.086935	2472.685962
647.430544	2523.097500
647.774101	2482.768269
648.117606	2543.262115
648.461059	2528.138654
648.804460	2535.700385
649.147810	2510.494615
649.491108	2576.029615
649.834354	2429.836154
650.177548	2548.303269
650.520690	2366.821731
650.863781	2414.712692
651.206820	2523.097500
651.549807	2495.371154
651.892742	2457.562500
652.235626	2563.426731
652.578458	2548.303269
652.921238	2470.165385
653.263967	2472.685962
653.606644	2492.850577
653.949269	2455.041923
654.291843	2457.562500
654.634365	2460.083077
654.976836	2520.576923
655.319255	2329.013077
655.661622	2528.138654
656.003938	2432.356731
656.346203	2540.741538
656.688416	2384.465769
657.030577	2545.782692
657.372687	2462.603654
657.714746	2460.083077
658.056753	2525.618077
658.398708	2603.755962
658.740612	2452.521346
659.082465	2444.959615
659.424266	2495.371154
659.766016	2578.550192
660.107715	2505.453462
660.449362	2550.823846
660.790958	2457.562500
661.132503	2513.015192
661.473996	2462.603654
661.815438	2543.262115
662.156829	2434.877308
662.498168	2513.015192
662.839456	2510.494615
663.180693	2379.424615
663.521879	2485.288846
663.863013	2447.480192
664.204097	2465.124231
664.545129	2480.247692
664.886110	2465.124231
665.227040	2422.274423
665.567918	2366.821731
665.908746	2497.891731
666.249522	2565.947308
666.590248	2457.562500
666.930922	2530.659231
667.271545	2422.274423
667.612118	2467.644808
667.952639	2432.356731
668.293109	2457.562500
668.633528	2500.412308
668.973896	2505.453462
669.314213	2452.521346
669.654480	2560.906154
669.994695	2487.809423
670.334859	2545.782692
670.674973	2573.509038
671.015035	2460.083077
671.355047	2520.576923
671.695008	2482.768269
672.034918	2452.521346
672.374777	2455.041923
672.714585	2490.330000
673.054342	2490.330000
673.394049	2475.206538
673.733705	2530.659231
674.073310	2427.315577
674.412864	2530.659231
674.752368	2480.247692
675.091820	2588.632500
675.431223	2485.288846
675.770574	2573.509038
676.109875	2409.671538
676.449125	2490.330000
676.788324	2472.685962
677.127473	2487.809423
677.466571	2535.700385
677.805619	2470.165385
678.144616	2485.288846
678.483562	2550.823846
678.822458	2513.015192
679.161303	2558.385577
679.500098	2596.194231
679.838842	2402.109808
680.177535	2505.453462
680.516179	2515.535769
680.854771	2437.397885
681.193314	2518.056346
681.531805	2520.576923
681.870247	2533.179808
682.208638	2578.550192
682.546978	2467.644808
682.885268	2533.179808
683.223508	2505.453462
683.561697	2490.330000
683.899836	2492.850577
684.237925	2487.809423
684.575963	2520.576923
684.913951	2482.768269
685.251889	2495.371154
685.589776	2525.618077
685.927614	2442.439038
686.265401	2465.124231
686.603137	2505.453462
686.940824	2502.932885
687.278460	2467.644808
687.616046	2555.865000
687.953582	2538.220962
688.291068	2513.015192
688.628504	2485.288846
688.965889	2523.097500
689.303224	2583.591346
689.640510	2538.220962
689.977745	2480.247692
690.314930	2558.385577
690.652065	2495.371154
690.989150	2470.165385
691.326185	2457.562500
691.663170	2374.383462
692.000105	2467.644808
692.336990	2437.397885
692.673825	2535.700385
693.010610	2422.274423
693.347345	2568.467885
693.684030	2528.138654
694.020665	2558.385577
694.357251	2477.727115
694.693786	2424.795000
695.030272	2497.891731
695.366707	2563.426731
695.703093	2482.768269
696.039429	2417.233269
696.375716	2543.262115
696.711952	2437.397885
697.048139	2515.535769
697.384276	2555.865000
697.720363	2513.015192
698.056400	2485.288846
698.392388	2467.644808
698.728326	2386.986346
699.064214	2518.056346
699.400053	2460.083077
699.735842	2457.562500
700.071581	2528.138654
700.407270	2472.685962
700.742910	2507.974038
701.078501	2475.206538
701.414042	2502.932885
701.749533	2558.385577
702.084974	2545.782692
702.420366	2528.138654
702.755709	2472.685962
703.091002	2379.424615
703.426246	2477.727115
703.761440	2497.891731
704.096584	2553.344423
704.431679	2495.371154
704.766725	2470.165385
705.101721	2452.521346
705.436668	2497.891731
705.771565	2505.453462
706.106413	2543.262115
706.441212	2535.700385
706.775961	2470.165385
707.110661	2538.220962
707.445311	2608.797115
707.779913	2485.288846
708.114465	2528.138654
708.448967	2505.453462
708.783421	2477.727115
709.117825	2457.562500
709.452180	2558.385577
709.786485	2462.603654
710.120742	2543.262115
710.454949	2543.262115
710.789107	2487.809423
711.123216	2482.768269
711.457275	2555.865000
711.791286	2434.877308
712.125247	2550.823846
712.459159	2427.315577
712.793023	2465.124231
713.126837	2502.932885
713.460602	2487.809423
713.794318	2535.700385
714.127985	2523.097500
714.461602	2482.768269
714.795171	2485.288846
715.128691	2432.356731
715.462162	2507.974038
715.795584	2444.959615
716.128957	2444.959615
716.462281	2417.233269
716.795556	2455.041923
717.128782	2462.603654
717.461960	2462.603654
717.795088	2482.768269
718.128167	2422.274423
718.461198	2507.974038
718.794180	2470.165385
719.127113	2495.371154
719.459997	2434.877308
719.792833	2515.535769
720.125619	2447.480192
720.458357	2404.630385
720.791046	2558.385577
721.123686	2447.480192
721.456278	2487.809423
721.788821	2422.274423
722.121315	2417.233269
722.453761	2467.644808
722.786158	2442.439038
723.118506	2528.138654
723.450805	2560.906154
723.783056	2447.480192
724.115259	2538.220962
724.447412	2460.083077
724.779518	2472.685962
725.111574	2520.576923
725.443582	2477.727115
725.775542	2502.932885
726.107453	2465.124231
726.439315	2470.165385
726.771129	2565.947308
727.102895	2513.015192
727.434612	2555.865000
727.766281	2477.727115
728.097901	2475.206538
728.429473	2548.303269
728.760996	2465.124231
729.092471	2613.838269
729.423897	2427.315577
729.755276	2548.303269
730.086606	2437.397885
730.417887	2477.727115
730.749120	2530.659231
731.080305	2482.768269
731.411442	2477.727115
731.742530	2477.727115
732.073570	2543.262115
732.404562	2409.671538
732.735506	2581.070769
733.066401	2477.727115
733.397249	2442.439038
733.728048	2450.000769
734.058798	2490.330000
734.389501	2500.412308
734.720156	2513.015192
735.050762	2485.288846
735.381320	2500.412308
735.711831	2515.535769
736.042293	2525.618077
736.372707	2520.576923
736.703073	2497.891731
737.033391	2606.276538
737.363661	2422.274423
737.693883	2497.891731
738.024056	2500.412308
738.354182	2472.685962
738.684260	2558.385577
739.014290	2480.247692
739.344272	2507.974038
739.674207	2379.424615
740.004093	2540.741538
740.333931	2452.521346
740.663722	2455.041923
740.993464	2477.727115
741.323159	2581.070769
741.652806	2465.124231
741.982405	2414.712692
742.311956	2472.685962
742.641460	2437.397885
742.970915	2570.988462
743.300323	2497.891731
743.629683	2568.467885
743.958996	2485.288846
744.288260	2528.138654
744.617477	2495.371154
744.946647	2528.138654
745.275768	2533.179808
745.604842	2427.315577
745.933869	2477.727115
746.262847	2467.644808
746.591778	2442.439038
746.920662	2500.412308
747.249498	2487.809423
747.578286	2432.356731
747.907027	2462.603654
748.235720	2439.918462
748.564365	2535.700385
748.892963	2457.562500
749.221514	2475.206538
749.550017	2515.535769
749.878473	2576.029615
750.206881	2543.262115
750.535242	2492.850577
750.863555	2487.809423
751.191821	2402.109808
751.520039	2507.974038
751.848210	2485.288846
752.176334	2515.535769
752.504411	2422.274423
752.832440	2444.959615
753.160421	2497.891731
753.488356	2462.603654
753.816243	2452.521346
754.144082	2460.083077
754.471875	2528.138654
754.799620	2457.562500
755.127318	2465.124231
755.454969	2490.330000
755.782572	2570.988462
756.110129	2573.509038
756.437638	2502.932885
756.765100	2457.562500
757.092515	2515.535769
757.419882	2530.659231
757.747203	2540.741538
758.074477	2485.288846
758.401703	2417.233269
758.728882	2442.439038
759.056014	2515.535769
759.383099	2530.659231
759.710138	2492.850577
760.037129	2518.056346
760.364073	2434.877308
760.690970	2497.891731
761.017820	2510.494615
761.344623	2439.918462
761.671379	2472.685962
761.998088	2482.768269
762.324751	2482.768269
762.651366	2490.330000
762.977935	2570.988462
763.304456	2530.659231
763.630931	2444.959615
763.957359	2460.083077
764.283740	2520.576923
764.610074	2495.371154
764.936362	2399.589231
765.262602	2447.480192
765.588796	2460.083077
765.914943	2455.041923
766.241044	2447.480192
766.567097	2520.576923
766.893104	2528.138654
767.219064	2485.288846
767.544978	2482.768269
767.870845	2502.932885
768.196665	2540.741538
768.522438	2442.439038
768.848165	2492.850577
769.173846	2455.041923
769.499479	2414.712692
769.825066	2525.618077
770.150607	2545.782692
770.476101	2525.618077
770.801548	2462.603654
771.126949	2528.138654
771.452303	2467.644808
771.777611	2467.644808
772.102872	2518.056346
772.428087	2460.083077
772.753256	2492.850577
773.078378	2533.179808
773.403453	2528.138654
773.728482	2518.056346
774.053465	2505.453462
774.378401	2424.795000
774.703291	2455.041923
775.028135	2533.179808
775.352932	2482.768269
775.677683	2477.727115
776.002388	2628.961731
776.327046	2492.850577
776.651658	2570.988462
776.976224	2611.317692
777.300743	2487.809423
777.625216	2477.727115
777.949643	2470.165385
778.274024	2515.535769
778.598359	2485.288846
778.922647	2482.768269
779.246889	2457.562500
779.571086	2480.247692
779.895236	2472.685962
780.219339	2492.850577
780.543397	2520.576923
780.867409	2442.439038
781.191374	2490.330000
781.515294	2495.371154
781.839167	2465.124231
782.162995	2490.330000
782.486776	2480.247692
782.810511	2535.700385
783.134201	2472.685962
783.457844	2538.220962
783.781441	2520.576923
784.104993	2520.576923
784.428498	2502.932885
784.751958	2530.659231
785.075372	2467.644808
785.398739	2505.453462
785.722061	2495.371154
786.045337	2545.782692
786.368568	2444.959615
786.691752	2422.274423
787.014891	2497.891731
787.337983	2502.932885
787.661030	2507.974038
787.984031	2417.233269
788.306987	2515.535769
788.629897	2462.603654
788.952760	2550.823846
789.275579	2457.562500
789.598351	2513.015192
789.921078	2487.809423
790.243759	2394.548077
790.566395	2460.083077
790.888984	2422.274423
791.211529	2485.288846
791.534027	2553.344423
791.856480	2467.644808
792.178888	2470.165385
792.501249	2470.165385
792.823566	2523.097500
793.145836	2434.877308
793.468062	2417.233269
793.790241	2530.659231
794.112375	2515.535769
794.434464	2570.988462
794.756507	2492.850577
795.078505	2487.809423
795.400457	2490.330000
795.722364	2533.179808
796.044226	2480.247692
796.366042	2444.959615
796.687812	2538.220962
797.009538	2470.165385
797.331218	2545.782692
797.652852	2535.700385
797.974442	2452.521346
798.295986	2528.138654
798.617484	2515.535769
798.938938	2563.426731
799.260346	2472.685962
799.581709	2515.535769
799.903026	2482.768269
800.224299	2482.768269
800.545526	2409.671538
800.866708	2576.029615
801.187845	2518.056346
801.508936	2429.836154
801.829983	2414.712692
802.150984	2495.371154
802.471940	2507.974038
802.792851	2507.974038
803.113717	2480.247692
803.434538	2563.426731
803.755314	2452.521346
804.076045	2518.056346
804.396731	2407.150962
804.717372	2535.700385
805.037967	2444.959615
805.358518	2475.206538
805.679024	2457.562500
805.999485	2528.138654
806.319901	2553.344423
806.640272	2507.974038
806.960598	2558.385577
807.280879	2427.315577
807.601115	2553.344423
807.921306	2490.330000
808.241453	2553.344423
808.561554	2447.480192
808.881611	2568.467885
809.201623	2444.959615
809.521590	2450.000769
809.841513	2495.371154
810.161390	2553.344423
810.481223	2452.521346
810.801011	2472.685962
811.120755	2520.576923
811.440453	2492.850577
811.760107	2510.494615
812.079716	2465.124231
812.399281	2495.371154
812.718801	2434.877308
813.038276	2576.029615
813.357707	2460.083077
813.677093	2558.385577
813.996434	2386.986346
814.315731	2502.932885
814.634983	2482.768269
814.954191	2470.165385
815.273354	2513.015192
815.592473	2422.274423
815.911547	2480.247692
816.230577	2500.412308
816.549562	2560.906154
816.868502	2444.959615
817.187399	2490.330000
817.506250	2545.782692
817.825058	2490.330000
818.143821	2555.865000
818.462539	2447.480192
818.781213	2515.535769
819.099843	2452.521346
819.418429	2389.506923
819.736970	2543.262115
820.055466	2376.904038
820.373919	2492.850577
820.692327	2535.700385
821.010691	2455.041923
821.329011	2535.700385
821.647286	2442.439038
821.965517	2570.988462
822.283704	2518.056346
822.601847	2588.632500
822.919945	2518.056346
823.237999	2525.618077
823.556010	2424.795000
823.873976	2553.344423
824.191897	2457.562500
824.509775	2442.439038
824.827609	2523.097500
825.145398	2472.685962
825.463144	2424.795000
825.780845	2492.850577
826.098502	2470.165385
826.416116	2460.083077
826.733685	2560.906154
827.051210	2502.932885
827.368692	2535.700385
827.686129	2500.412308
828.003522	2475.206538
828.320872	2460.083077
828.638177	2429.836154
828.955439	2462.603654
829.272656	2565.947308
829.589830	2432.356731
829.906960	2439.918462
830.224046	2495.371154
830.541088	2525.618077
830.858086	2513.015192
831.175041	2465.124231
831.491952	2490.330000
831.808819	2457.562500
832.125642	2472.685962
832.442421	2480.247692
832.759157	2518.056346
833.075849	2515.535769
833.392497	2502.932885
833.709101	2465.124231
834.025662	2515.535769
834.342179	2482.768269
834.658653	2427.315577
834.975083	2520.576923
835.291469	2442.439038
835.607811	2497.891731
835.924110	2510.494615
836.240366	2452.521346
836.556578	2535.700385
836.872746	2394.548077
837.188871	2477.727115
837.504952	2470.165385
837.820990	2495.371154
838.136984	2447.480192
838.452935	2523.097500
838.768842	2533.179808
839.084706	2510.494615
839.400526	2538.220962
839.716303	2467.644808
840.032037	2470.165385
840.347727	2455.041923
840.663373	2485.288846
840.978977	2548.303269
841.294537	2518.056346
841.610054	2495.371154
841.925527	2603.755962
842.240957	2528.138654
842.556344	2497.891731
842.871687	2447.480192
843.186987	2467.644808
843.502244	2475.206538
843.817458	2533.179808
844.132629	2502.932885
844.447756	2492.850577
844.762840	2386.986346
845.077881	2538.220962
845.392879	2475.206538
845.707833	2560.906154
846.022745	2480.247692
846.337613	2533.179808
846.652438	2452.521346
846.967221	2518.056346
847.281960	2414.712692
847.596656	2535.700385
847.911309	2490.330000
848.225919	2495.371154
848.540485	2427.315577
848.855009	2442.439038
849.169490	2497.891731
849.483928	2495.371154
849.798323	2472.685962
850.112675	2507.974038
850.426984	2485.288846
850.741251	2513.015192
851.055474	2482.768269
851.369654	2500.412308
851.683792	2452.521346
851.997887	2482.768269
852.311938	2500.412308
852.625947	2560.906154
852.939914	2470.165385
853.253837	2500.412308
853.567718	2455.041923
853.881555	2470.165385
854.195350	2450.000769
854.509103	2429.836154
854.822812	2510.494615
855.136479	2497.891731
855.450103	2525.618077
855.763685	2525.618077
856.077224	2485.288846
856.390720	2475.206538
856.704173	2528.138654
857.017584	2497.891731
857.330953	2457.562500
857.644278	2507.974038
857.957561	2543.262115
858.270802	2452.521346
858.584000	2518.056346
858.897155	2447.480192
859.210268	2507.974038
859.523339	2565.947308
859.836367	2465.124231
860.149352	2538.220962
860.462295	2573.509038
860.775195	2467.644808
861.088054	2437.397885
861.400869	2523.097500
861.713642	2457.562500
862.026373	2560.906154
862.339062	2462.603654
862.651708	2482.768269
862.964312	2555.865000
863.276873	2548.303269
863.589392	2565.947308
863.901869	2495.371154
864.214303	2434.877308
864.526696	2437.397885
864.839045	2482.768269
865.151353	2502.932885
865.463619	2447.480192
865.775842	2482.768269
866.088023	2432.356731
866.400162	2515.535769
866.712258	2535.700385
867.024313	2568.467885
867.336325	2540.741538
867.648296	2465.124231
867.960224	2518.056346
868.272110	2477.727115
868.583954	2507.974038
868.895755	2470.165385
869.207515	2497.891731
869.519233	2432.356731
869.830909	2412.192115
870.142542	2543.262115
870.454134	2419.753846
870.765684	2467.644808
871.077191	2384.465769
871.388657	2545.782692
871.700081	2439.918462
872.011463	2490.330000
872.322803	2538.220962
872.634101	2558.385577
872.945357	2457.562500
873.256571	2455.041923
873.567744	2560.906154
873.878874	2472.685962
874.189963	2452.521346
874.501010	2457.562500
874.812015	2548.303269
875.122979	2470.165385
875.433900	2525.618077
875.744780	2581.070769
876.055618	2538.220962
876.366415	2583.591346
876.677169	2414.712692
876.987882	2452.521346
877.298554	2535.700385
877.609183	2472.685962
877.919771	2510.494615
878.230317	2452.521346
878.540822	2429.836154
878.851285	2432.356731
879.161707	2455.041923
879.472087	2540.741538
879.782425	2399.589231
880.092722	2444.959615
880.402977	2581.070769
880.713191	2472.685962
881.023363	2560.906154
881.333494	2520.576923
881.643583	2513.015192
881.953631	2434.877308
882.263637	2485.288846
882.573602	2429.836154
882.883526	2470.165385
883.193408	2500.412308
883.503248	2533.179808
883.813048	2502.932885
884.122806	2439.918462
884.432522	2530.659231
884.742197	2475.206538
885.051831	2540.741538
885.361424	2465.124231
885.670975	2455.041923
885.980485	2450.000769
886.289954	2477.727115
886.599382	2444.959615
886.908768	2467.644808
887.218113	2427.315577
887.527417	2485.288846
887.836680	2523.097500
888.145901	2457.562500
888.455082	2507.974038
888.764221	2502.932885
889.073319	2472.685962
889.382376	2525.618077
889.691392	2472.685962
890.000366	2482.768269
890.309300	2535.700385
890.618193	2515.535769
890.927044	2578.550192
891.235855	2475.206538
891.544625	2429.836154
891.853353	2497.891731
892.162041	2492.850577
892.470687	2538.220962
892.779293	2538.220962
893.087858	2525.618077
893.396381	2538.220962
893.704864	2470.165385
894.013306	2548.303269
894.321707	2457.562500
894.630068	2553.344423
894.938387	2457.562500
895.246665	2505.453462
895.554903	2568.467885
895.863100	2452.521346
896.171256	2475.206538
896.479371	2376.904038
896.787446	2528.138654
897.095480	2457.562500
897.403473	2480.247692
897.711425	2603.755962
898.019336	2437.397885
898.327207	2492.850577
898.635038	2437.397885
898.942827	2439.918462
899.250576	2439.918462
899.558284	2507.974038
899.865952	2510.494615
900.173579	2457.562500
900.481165	2429.836154
900.788711	2455.041923
901.096216	2447.480192
901.403681	2475.206538
901.711105	2427.315577
902.018489	2515.535769
902.325832	2533.179808
902.633135	2543.262115
902.940397	2528.138654
903.247619	2487.809423
903.554800	2482.768269
903.861941	2515.535769
904.169041	2369.342308
904.476101	2533.179808
904.783121	2487.809423
905.090100	2525.618077
905.397039	2462.603654
905.703938	2419.753846
906.010796	2495.371154
906.317614	2507.974038
906.624391	2447.480192
906.931129	2470.165385
907.237826	2530.659231
907.544483	2492.850577
907.851099	2497.891731
908.157675	2523.097500
908.464211	2404.630385
908.770707	2565.947308
909.077163	2510.494615
909.383578	2472.685962
909.689954	2505.453462
909.996289	2523.097500
910.302584	2497.891731
910.608839	2535.700385
910.915054	2540.741538
911.221229	2548.303269
911.527363	2525.618077
911.833458	2502.932885
912.139513	2467.644808
912.445527	2510.494615
912.751502	2487.809423
913.057436	2533.179808
913.363331	2429.836154
913.669186	2623.920577
913.975000	2510.494615
914.280775	2492.850577
914.586510	2530.659231
914.892205	2465.124231
915.197859	2470.165385
915.503475	2505.453462
915.809050	2495.371154
916.114585	2510.494615
916.420081	2477.727115
916.725536	2485.288846
917.030952	2502.932885
917.336328	2528.138654
917.641665	2485.288846
917.946961	2467.644808
918.252218	2487.809423
918.557435	2434.877308
918.862612	2507.974038
919.167750	2523.097500
919.472848	2482.768269
919.777906	2563.426731
920.082925	2487.809423
920.387904	2533.179808
920.692843	2455.041923
920.997743	2485.288846
921.302603	2485.288846
921.607423	2563.426731
921.912204	2515.535769
922.216946	2533.179808
922.521647	2477.727115
922.826310	2507.974038
923.130932	2495.371154
923.435516	2487.809423
923.740059	2495.371154
924.044564	2417.233269
924.349028	2518.056346
924.653454	2492.850577
924.957840	2497.891731
925.262186	2497.891731
925.566493	2477.727115
925.870761	2492.850577
926.174989	2581.070769
926.479178	2432.356731
926.783328	2442.439038
927.087438	2417.233269
927.391509	2530.659231
927.695541	2465.124231
927.999533	2480.247692
928.303486	2591.153077
928.607400	2467.644808
928.911275	2560.906154
929.215110	2533.179808
929.518906	2505.453462
929.822663	2480.247692
930.126381	2497.891731
930.430060	2555.865000
930.733699	2455.041923
931.037299	2447.480192
931.340861	2530.659231
931.644383	2548.303269
931.947866	2427.315577
932.251309	2492.850577
932.554714	2563.426731
932.858080	2460.083077
933.161407	2482.768269
933.464694	2518.056346
933.767943	2470.165385
934.071153	2565.947308
934.374323	2460.083077
934.677455	2500.412308
934.980548	2467.644808
935.283602	2525.618077
935.586617	2457.562500
935.889593	2485.288846
936.192530	2565.947308
936.495428	2407.150962
936.798287	2533.179808
937.101108	2447.480192
937.403890	2462.603654
937.706632	2487.809423
938.009336	2502.932885
938.312002	2525.618077
938.614628	2437.397885
938.917216	2444.959615
939.219765	2462.603654
939.522275	2419.753846
939.824747	2518.056346
940.127179	2472.685962
940.429573	2457.562500
940.731929	2429.836154
941.034246	2500.412308
941.336524	2457.562500
941.638763	2434.877308
941.940964	2502.932885
942.243126	2480.247692
942.545250	2545.782692
942.847335	2457.562500
943.149381	2528.138654
943.451389	2550.823846
943.753359	2535.700385
944.055290	2513.015192
944.357182	2482.768269
944.659036	2492.850577
944.960851	2570.988462
945.262628	2548.303269
945.564367	2490.330000
945.866067	2399.589231
946.167729	2510.494615
946.469352	2394.548077
946.770937	2487.809423
947.072484	2429.836154
947.373992	2490.330000
947.675462	2545.782692
947.976893	2477.727115
948.278286	2553.344423
948.579641	2475.206538
948.880958	2500.412308
949.182236	2497.891731
949.483476	2513.015192
949.784678	2429.836154
950.085841	2492.850577
950.386967	2444.959615
950.688054	2502.932885
950.989103	2444.959615
951.290114	2409.671538
951.591087	2545.782692
951.892021	2482.768269
952.192917	2455.041923
952.493776	2447.480192
952.794596	2480.247692
953.095378	2573.509038
953.396122	2530.659231
953.696828	2528.138654
953.997496	2523.097500
954.298126	2565.947308
954.598718	2439.918462
954.899272	2434.877308
955.199788	2467.644808
955.500266	2510.494615
955.800706	2492.850577
956.101108	2460.083077
956.401472	2507.974038
956.701798	2563.426731
957.002087	2470.165385
957.302337	2525.618077
957.602550	2520.576923
957.902724	2482.768269
958.202861	2470.165385
958.502960	2480.247692
958.803022	2482.768269
959.103045	2505.453462
959.403031	2515.535769
959.702979	2409.671538
960.002889	2419.753846
960.302762	2601.235385
960.602596	2518.056346
960.902393	2452.521346
961.202153	2490.330000
961.501875	2480.247692
961.801559	2465.124231
962.101205	2518.056346
962.400814	2460.083077
962.700385	2439.918462
962.999918	2470.165385
963.299414	2437.397885
963.598873	2467.644808
963.898293	2455.041923
964.197677	2565.947308
964.497022	2424.795000
964.796331	2472.685962
965.095601	2588.632500
965.394835	2578.550192
965.694030	2513.015192
965.993189	2442.439038
966.292309	2495.371154
966.591393	2492.850577
966.890439	2513.015192
967.189447	2450.000769
967.488419	2424.795000
967.787353	2447.480192
968.086249	2490.330000
968.385108	2470.165385
968.683930	2560.906154
968.982714	2507.974038
969.281462	2513.015192
969.580172	2480.247692
969.878844	2480.247692
970.177480	2429.836154
970.476078	2472.685962
970.774639	2475.206538
971.073162	2535.700385
971.371649	2480.247692
971.670098	2485.288846
971.968510	2565.947308
972.266885	2457.562500
972.565223	2472.685962
972.863524	2455.041923
973.161788	2467.644808
973.460014	2548.303269
973.758204	2452.521346
974.056356	2429.836154
974.354471	2482.768269
974.652550	2356.739423
974.950591	2452.521346
975.248595	2419.753846
975.546563	2460.083077
975.844493	2505.453462
976.142386	2477.727115
976.440243	2450.000769
976.738062	2485.288846
977.035845	2414.712692
977.333590	2472.685962
977.631299	2472.685962
977.928971	2596.194231
978.226606	2548.303269
978.524204	2507.974038
978.821765	2419.753846
979.119290	2439.918462
979.416777	2528.138654
979.714228	2497.891731
980.011642	2502.932885
980.309020	2510.494615
980.606360	2540.741538
980.903664	2472.685962
981.200931	2422.274423
981.498162	2525.618077
981.795356	2535.700385
982.092513	2510.494615
982.389633	2500.412308
982.686717	2510.494615
982.983764	2518.056346
983.280775	2437.397885
983.577749	2535.700385
983.874686	2404.630385
984.171587	2439.918462
984.468451	2497.891731
984.765279	2432.356731
985.062070	2492.850577
985.358824	2502.932885
985.655543	2520.576923
985.952224	2447.480192
986.248869	2399.589231
986.545478	2505.453462
986.842050	2570.988462
987.138586	2490.330000
987.435086	2477.727115
987.731549	2495.371154
988.027975	2533.179808
988.324366	2500.412308
988.620719	2465.124231
988.917037	2502.932885
989.213318	2482.768269
989.509563	2480.247692
989.805772	2409.671538
990.101944	2472.685962
990.398080	2434.877308
990.694180	2530.659231
990.990244	2505.453462
991.286271	2500.412308
991.582262	2555.865000
991.878217	2402.109808
992.174136	2535.700385
992.470019	2462.603654
992.765865	2404.630385
993.061676	2462.603654
993.357450	2530.659231
993.653188	2407.150962
993.948890	2485.288846
994.244556	2472.685962
994.540186	2586.111923
994.835780	2419.753846
995.131337	2487.809423
995.426859	2507.974038
995.722345	2535.700385
996.017795	2442.439038
996.313208	2414.712692
996.608586	2497.891731
996.903928	2533.179808
997.199234	2477.727115
997.494504	2439.918462
997.789738	2543.262115
998.084936	2472.685962
998.380099	2520.576923
998.675225	2432.356731
998.970316	2500.412308
999.265371	2460.083077
999.560390	2510.494615
999.855373	2515.535769
1000.150320	2455.041923
1000.445232	2540.741538
1000.740108	2455.041923
1001.034948	2535.700385
1001.329752	2553.344423
1001.624521	2543.262115
1001.919254	2434.877308
1002.213951	2462.603654
1002.508613	2381.945192
1002.803239	2485.288846
1003.097829	2495.371154
1003.392384	2477.727115
1003.686903	2525.618077
1003.981386	2500.412308
1004.275834	2538.220962
1004.570246	2502.932885
1004.864623	2497.891731
1005.158964	2447.480192
1005.453270	2475.206538
1005.747540	2457.562500
1006.041775	2485.288846
1006.335974	2502.932885
1006.630138	2462.603654
1006.924266	2548.303269
1007.218359	2477.727115
1007.512416	2407.150962
1007.806438	2555.865000
1008.100425	2540.741538
1008.394376	2447.480192
1008.688292	2497.891731
1008.982172	2437.397885
1009.276017	2477.727115
1009.569827	2460.083077
1009.863602	2502.932885
1010.157341	2407.150962
1010.451045	2502.932885
1010.744714	2477.727115
1011.038347	2500.412308
1011.331945	2439.918462
1011.625508	2507.974038
1011.919036	2419.753846
1012.212528	2477.727115
1012.505986	2505.453462
1012.799408	2460.083077
1013.092795	2563.426731
1013.386147	2485.288846
1013.679464	2523.097500
1013.972745	2472.685962
1014.265992	2535.700385
1014.559204	2550.823846
1014.852380	2497.891731
1015.145521	2465.124231
1015.438628	2359.260000
1015.731699	2507.974038
1016.024736	2460.083077
1016.317737	2553.344423
1016.610703	2497.891731
1016.903635	2465.124231
1017.196531	2452.521346
1017.489393	2490.330000
1017.782219	2444.959615
1018.075011	2497.891731
1018.367768	2477.727115
1018.660490	2500.412308
1018.953177	2500.412308
1019.245829	2500.412308
