Dividing Wavelength (nm)	Counts (n)	Blue Motor Position (mm): 8.900000	Red Motor Position (mm): 0.000000	
326.493990	2141.013327
326.888308	2141.013327
327.282561	2141.013327
327.676750	2108.329006
328.070874	2106.299941
328.464933	2109.475868
328.858929	2115.028699
329.252859	2125.453805
329.646726	2137.928140
330.040528	2148.854841
330.434265	2164.873108
330.827938	2184.261385
331.221547	2201.295444
331.615091	2222.342262
332.008571	2238.993193
332.401986	2262.081677
332.795338	2280.607918
333.188625	2299.449230
333.581847	2319.684422
333.975006	2336.022801
334.368100	2354.788497
334.761129	2370.335415
335.154095	2388.770915
335.546996	2406.931671
335.939833	2422.425658
336.332606	2438.161619
336.725315	2447.381890
337.117960	2459.034517
337.510540	2467.100363
337.903056	2478.420274
338.295508	2484.724237
338.687896	2493.430310
339.080220	2503.731907
339.472480	2509.501508
339.864676	2514.772034
340.256807	2518.041223
340.648875	2519.286388
341.040879	2522.507685
341.432818	2524.725793
341.824694	2527.858870
342.216506	2526.200330
342.608253	2523.876358
342.999937	2529.653521
343.391557	2525.378622
343.783113	2525.882737
344.174605	2526.790145
344.566033	2523.969620
344.957397	2522.096831
345.348697	2519.367046
345.739934	2521.171779
346.131106	2515.654236
346.522215	2513.005110
346.913260	2512.662312
347.304241	2512.465707
347.695159	2509.012516
348.086012	2508.916734
348.476802	2507.764831
348.867528	2502.930364
349.258191	2501.435662
349.648789	2502.169150
350.039324	2500.684530
350.429796	2500.243429
350.820203	2499.104128
351.210548	2497.611947
351.600828	2498.194200
351.991045	2494.423417
352.381198	2496.197903
352.771288	2494.070536
353.161314	2493.876452
353.551276	2495.497183
353.941175	2494.819148
354.331010	2491.242449
354.720782	2493.989878
355.110490	2493.420227
355.500135	2492.003663
355.889717	2492.883344
356.279235	2491.958293
356.668689	2493.304281
357.058080	2490.977788
357.447408	2490.821513
357.836672	2490.072901
358.225873	2493.258910
358.615010	2494.930053
359.004084	2493.800834
359.393095	2496.202944
359.782043	2496.875938
360.170927	2496.951556
360.559748	2498.912564
360.948505	2497.364930
361.337199	2501.763337
361.725830	2500.813079
362.114398	2502.821979
362.502903	2501.659993
362.891344	2500.561022
363.279722	2501.788543
363.668037	2503.071516
364.056289	2502.635457
364.444478	2501.276866
364.832603	2501.672596
365.220665	2505.130828
365.608665	2506.048318
365.996601	2505.007319
366.384474	2506.013030
366.772284	2504.901455
367.160031	2505.266939
367.547715	2506.751559
367.935336	2505.140910
368.322893	2506.028153
368.710388	2504.969511
369.097820	2509.257012
369.485189	2505.579490
369.872495	2509.171312
370.259738	2504.525889
370.646918	2508.102588
371.034035	2506.242402
371.421090	2511.638957
371.808081	2508.553771
372.195010	2507.555623
372.581875	2507.840448
372.968678	2510.587877
373.355418	2510.729029
373.742096	2510.610562
374.128710	2508.979749
374.515262	2509.589728
374.901751	2510.797085
375.288177	2511.006293
375.674540	2509.725839
376.060841	2511.979235
376.447079	2508.838596
376.833254	2508.770541
377.219367	2505.047649
377.605417	2507.537979
377.991404	2504.762823
378.377329	2510.194667
378.763191	2508.273987
379.148991	2511.051663
379.534727	2512.440501
379.920402	2514.295645
380.306013	2513.249606
380.691563	2512.614421
381.077049	2513.390758
381.462474	2514.071314
381.847835	2514.293125
382.233134	2518.114319
382.618371	2514.204905
383.003545	2514.038547
383.388657	2513.852024
383.773706	2515.384535
384.158693	2512.485871
384.543618	2516.692714
384.928480	2515.303876
385.313280	2515.795389
385.698017	2517.290091
386.082692	2519.054495
386.467305	2516.120543
386.851856	2517.824453
387.236344	2515.142559
387.620770	2516.642303
388.005133	2518.613394
388.389435	2519.097344
388.773674	2517.895029
389.157851	2514.328413
389.541965	2516.112981
389.926018	2516.312107
390.310008	2518.832684
390.693936	2518.681449
391.077802	2516.158352
391.461606	2522.162366
391.845348	2519.268744
392.229027	2520.067767
392.612645	2520.062725
392.996200	2518.936027
393.379694	2517.884947
393.763125	2523.256296
394.146494	2520.745802
394.529801	2521.418796
394.913047	2521.895185
395.296230	2519.215812
395.679351	2520.360153
396.062410	2523.336955
396.445408	2524.037675
396.828343	2520.392921
397.211217	2518.512571
397.594028	2521.514578
397.976778	2520.662623
398.359466	2519.109947
398.742092	2517.136336
399.124656	2522.137160
399.507158	2524.098169
399.889598	2523.946934
400.271977	2526.220495
400.654294	2526.946421
401.036549	2524.330062
401.418742	2521.902747
401.800874	2524.498941
402.182944	2524.420803
402.564952	2522.013652
402.946898	2525.567665
403.328783	2525.653365
403.710606	2525.741585
404.092367	2523.556245
404.474067	2526.263345
404.855705	2526.084384
405.237282	2526.729651
405.618797	2524.836698
406.000250	2526.598581
406.381642	2525.973478
406.762972	2523.573889
407.144240	2530.374406
407.525447	2530.016484
407.906593	2526.497758
408.287677	2526.107069
408.668700	2526.066740
409.049661	2526.187727
409.430560	2526.102028
409.811399	2524.183869
410.192176	2528.196627
410.572891	2527.286699
410.953545	2528.723428
411.334138	2528.753675
411.714669	2526.321318
412.095139	2529.098994
412.475547	2526.979188
412.855894	2529.116638
413.236180	2529.257790
413.616405	2530.444982
413.996568	2529.842564
414.376670	2533.608306
414.756711	2530.795342
415.136691	2530.939015
415.516609	2528.400794
415.896466	2530.996988
416.276262	2532.045548
416.655997	2529.275434
417.035670	2526.437264
417.415283	2527.269055
417.794834	2525.169414
418.174324	2530.903727
418.553753	2530.021525
418.933121	2529.938346
419.312428	2531.352389
419.691674	2531.987575
420.070859	2532.894983
420.449983	2530.283665
420.829045	2531.838861
421.208047	2533.666279
421.586988	2529.270393
421.965867	2532.017822
422.344686	2532.398429
422.723444	2534.314067
423.102141	2532.647966
423.480777	2532.713501
423.859352	2532.842050
424.237866	2533.411701
424.616319	2533.661238
424.994712	2534.165353
425.373044	2532.365661
425.751314	2533.308357
426.129524	2533.963707
426.507673	2534.616537
426.885762	2533.497400
427.263789	2535.034952
427.641756	2530.225692
428.019662	2535.080323
428.397508	2533.978831
428.775292	2538.835982
429.153016	2535.501259
429.530679	2536.607792
429.908282	2533.210055
430.285824	2536.161650
430.663305	2533.348686
431.040726	2533.837678
431.418086	2534.929088
431.795385	2533.615868
432.172624	2534.924047
432.549802	2536.353214
432.926920	2534.596372
433.303977	2534.810621
433.680974	2534.825744
434.057910	2538.195756
434.434786	2534.036804
434.811601	2537.321116
435.188355	2534.392205
435.565050	2536.575025
435.941683	2534.031763
436.318257	2536.073430
436.694770	2535.002185
437.071222	2533.774664
437.447614	2532.128727
437.823946	2532.320291
438.200218	2539.466127
438.576429	2538.533513
438.952580	2538.339429
439.328670	2537.794984
439.704700	2536.227185
440.080670	2536.572504
440.456580	2536.075951
440.832429	2539.524100
441.208218	2539.695499
441.583947	2537.608461
441.959616	2537.263142
442.335224	2538.331867
442.710773	2536.983358
443.086261	2535.937319
443.461689	2539.771116
443.837057	2536.247350
444.212365	2535.143337
444.587612	2539.342618
444.962800	2539.405633
445.337927	2539.360262
445.712995	2540.905376
446.088002	2538.311702
446.462949	2540.837320
446.837837	2538.283976
447.212664	2538.498225
447.587431	2540.507125
447.962139	2538.228523
448.336786	2539.735828
448.711374	2538.795653
449.085901	2537.142155
449.460369	2538.959491
449.834776	2538.513348
450.209124	2540.058462
450.583412	2540.456713
450.957640	2540.444110
451.331808	2539.829090
451.705917	2538.470499
452.079965	2541.376724
452.453954	2538.576363
452.827883	2539.471168
453.201752	2541.238092
453.575562	2540.628112
453.949311	2540.978473
454.323001	2541.018802
454.696632	2540.242464
455.070202	2543.010058
455.443713	2541.220448
455.817164	2539.604758
456.190556	2537.217772
456.563888	2536.428831
456.937160	2535.501259
457.310373	2542.942002
457.683526	2538.291538
458.056619	2541.638864
458.429653	2540.648277
458.802628	2541.220448
459.175542	2539.909748
459.548398	2543.562064
459.921194	2540.030736
460.293930	2540.726415
460.666607	2539.907228
461.039224	2541.268339
461.411782	2542.815973
461.784280	2542.934440
462.156719	2542.667259
462.529099	2543.168854
462.901419	2541.263298
463.273680	2541.901004
463.645882	2542.616848
464.018024	2540.875129
464.390106	2541.729605
464.762130	2542.115253
465.134094	2540.549975
465.505999	2543.168854
465.877845	2541.510314
466.249631	2541.485109
466.621358	2540.741538
466.993026	2545.979297
467.364634	2546.982487
467.736184	2540.655839
468.107674	2542.032074
468.479105	2540.630633
468.850477	2543.756148
469.221790	2542.483257
469.593043	2544.393854
469.964238	2544.933258
470.335373	2541.903524
470.706449	2545.550799
471.077467	2540.481919
471.448425	2544.608103
471.819324	2544.600542
472.190164	2543.962836
472.560945	2540.761703
472.931667	2544.081303
473.302330	2542.044677
473.672934	2547.721016
474.043479	2547.007693
474.413965	2543.814122
474.784393	2538.525951
475.154761	2541.485109
475.525070	2539.826569
475.895321	2539.894625
476.265513	2538.563760
476.635645	2544.744215
477.005719	2545.702034
477.375734	2548.134391
477.745691	2544.222455
478.115588	2546.087682
478.485427	2544.184647
478.855207	2544.862682
479.224928	2544.966025
479.594591	2543.108360
479.964194	2545.770089
480.333739	2547.005172
480.703226	2541.689275
481.072653	2546.755635
481.442022	2542.453010
481.811333	2543.345294
482.180584	2545.558361
482.549777	2549.341747
482.918912	2542.516025
483.287988	2547.116078
483.657005	2545.006355
484.025964	2544.136756
484.394864	2546.067517
484.763706	2548.411654
485.132489	2546.896787
485.501213	2543.617517
485.869879	2542.231199
486.238487	2543.683052
486.607036	2545.412167
486.975527	2545.470141
487.343959	2545.875954
487.712333	2548.169679
488.080648	2543.559543
488.448905	2547.836963
488.817104	2547.070707
489.185244	2548.668753
489.553326	2546.876623
489.921350	2546.067517
490.289315	2547.388300
490.657222	2545.714637
491.025070	2545.694472
491.392861	2547.143804
491.760593	2546.579195
492.128267	2546.032229
492.495883	2549.331665
492.863440	2544.792106
493.230939	2547.569781
493.598380	2547.501726
493.965763	2544.461910
494.333088	2544.086344
494.700354	2545.399565
495.067563	2547.358053
495.434713	2542.092568
495.801805	2548.479710
496.168839	2548.373845
496.535815	2545.475182
496.902733	2547.970553
497.269593	2546.405275
497.636395	2548.250337
498.003139	2547.768907
498.369825	2547.945347
498.736453	2546.586756
499.103023	2546.720347
499.469535	2549.389638
499.835989	2547.655481
500.202385	2547.476520
500.568723	2547.058104
500.935003	2548.341078
501.301226	2548.520039
501.667390	2550.571788
502.033497	2548.411654
502.399546	2547.955430
502.765537	2550.289484
503.131470	2547.766386
503.497345	2549.661860
503.863163	2549.452652
504.228923	2546.279246
504.594625	2546.206149
504.960269	2548.197405
505.325856	2548.991387
505.691385	2548.910728
506.056856	2547.385779
506.422270	2547.665563
506.787625	2548.787220
507.152924	2548.661191
507.518164	2546.758156
507.883347	2548.091541
508.248472	2551.494320
508.613540	2548.477189
508.978550	2546.493495
509.343503	2546.952240
509.708398	2550.017262
510.073236	2547.426108
510.438016	2547.975594
510.802738	2549.538352
511.167403	2549.543393
511.532010	2547.544576
511.896561	2549.613969
512.261053	2551.680842
512.625488	2544.953422
512.989866	2547.552137
513.354186	2546.538865
513.718449	2542.125335
514.082655	2546.357384
514.446803	2548.484751
514.810894	2551.723692
515.174927	2549.261088
515.538904	2549.341747
515.902822	2547.501726
516.266684	2546.180943
516.630488	2548.278063
516.994235	2549.563558
517.357925	2551.398538
517.721558	2550.997766
518.085133	2550.521377
518.448651	2547.693290
518.812112	2550.450801
519.175516	2545.969215
519.538863	2549.485420
519.902152	2550.798640
520.265385	2547.663043
520.628560	2550.097920
520.991678	2546.871582
521.354739	2549.200595
521.717743	2550.975081
522.080690	2549.790410
522.443580	2548.146993
522.806413	2550.002138
523.169189	2551.897612
523.531908	2552.492468
523.894569	2549.999617
524.257174	2549.467776
524.619722	2552.295863
524.982213	2551.423743
525.344647	2549.074566
525.707025	2552.242931
526.069345	2551.474155
526.431608	2549.810574
526.793815	2550.004659
527.155964	2552.356357
527.518057	2550.614638
527.880093	2552.305945
528.242072	2551.847200
528.603995	2553.064639
528.965860	2550.753270
529.327669	2551.771583
529.689421	2548.832590
530.051117	2550.662529
530.412755	2551.801830
530.774337	2551.101110
531.135862	2552.991542
531.497331	2545.838145
531.858743	2549.596325
532.220098	2548.071376
532.581396	2548.136911
532.942638	2549.964329
533.303824	2551.670760
533.664953	2551.854762
534.026025	2550.934752
534.387040	2553.278888
534.747999	2550.067673
535.108902	2551.948023
535.469748	2553.891388
535.830537	2552.444577
536.191270	2553.656975
536.551947	2555.587737
536.912567	2550.213867
537.273131	2553.515822
537.633638	2554.602191
537.994089	2550.627241
538.354483	2552.416851
538.714821	2555.013045
539.075103	2553.425082
539.435328	2555.587737
539.795497	2553.160421
540.155609	2556.454815
540.515665	2555.013045
540.875665	2554.488765
541.235609	2555.275185
541.595496	2556.472459
541.955328	2555.418858
542.315102	2556.646379
542.674821	2555.287788
543.034483	2558.562017
543.394090	2554.919784
543.753640	2555.741492
544.113134	2556.626214
544.472571	2557.495813
544.831953	2555.494475
545.191278	2558.315001
545.550548	2559.003118
545.909761	2555.764177
546.268918	2559.061092
546.628019	2557.279044
546.987064	2555.350802
547.346053	2558.007490
547.704986	2559.456822
548.063863	2562.146278
548.422684	2558.430947
548.781449	2558.055381
549.140158	2556.283416
549.498811	2559.729044
549.857408	2557.495813
550.215949	2556.243087
550.574434	2553.263765
550.932864	2555.323076
551.291237	2558.826678
551.649555	2558.511606
552.007817	2558.909857
552.366022	2558.330124
552.724173	2559.227450
553.082267	2559.247614
553.440305	2560.885989
553.798288	2560.147460
554.156215	2558.844322
554.514086	2558.940104
554.871902	2559.807182
555.229661	2558.758622
555.587365	2558.103272
555.945014	2559.182079
556.302606	2557.946997
556.660143	2560.054199
557.017625	2560.230639
557.375050	2559.839950
557.732421	2561.344734
558.089735	2560.124775
558.446994	2558.070505
558.804197	2559.514795
559.161345	2557.445402
559.518437	2559.464384
559.875474	2560.707028
560.232455	2560.913716
560.589381	2561.793397
560.946251	2562.922615
561.303065	2559.686195
561.659825	2561.130485
562.016528	2560.830537
562.373177	2561.057388
562.729770	2558.887172
563.086307	2558.582182
563.442789	2559.751730
563.799216	2559.151832
564.155587	2557.357182
564.511904	2560.165104
564.868164	2563.008315
565.224370	2560.626370
565.580520	2558.748540
565.936615	2561.949673
566.292654	2556.011193
566.648638	2560.114693
567.004567	2559.759291
567.360441	2558.720814
567.716260	2557.420196
568.072023	2560.608726
568.427732	2554.534135
568.783385	2557.485731
569.138982	2555.318035
569.494525	2555.373488
569.850013	2554.226625
570.205445	2557.800803
570.560823	2559.197203
570.916145	2559.106462
571.271412	2561.853891
571.626625	2559.285423
571.981782	2557.301729
572.336884	2557.810885
572.691931	2557.316852
573.046923	2560.535629
573.401860	2558.773746
573.756743	2559.787018
574.111570	2556.946327
574.466342	2557.624363
574.821059	2555.302911
575.175722	2558.771225
575.530330	2559.285423
575.884882	2560.026473
576.239380	2557.647048
576.593823	2560.291133
576.948211	2556.880792
577.302544	2559.114024
577.656823	2557.354661
578.011047	2559.638304
578.365216	2560.263407
578.719330	2556.787531
579.073389	2559.106462
579.427394	2553.593960
579.781344	2554.045143
580.135239	2559.439178
580.489080	2553.543549
580.842866	2557.258879
581.196597	2560.921277
581.550273	2555.219732
581.903895	2554.544218
582.257463	2558.173848
582.610975	2559.431616
582.964434	2556.994218
583.317837	2555.827191
583.671186	2554.418189
584.024481	2556.328786
584.377721	2557.873900
584.730906	2554.241748
585.084037	2555.325597
585.437113	2554.607232
585.790135	2555.078580
586.143103	2557.074877
586.496016	2555.428940
586.848874	2551.769062
587.201679	2552.144628
587.554428	2551.126315
587.907124	2553.636810
588.259765	2551.393497
588.612352	2556.356512
588.964884	2554.791234
589.317362	2555.408776
589.669786	2556.336348
590.022155	2555.547407
590.374470	2556.038920
590.726731	2555.179403
591.078937	2555.680998
591.431090	2556.795093
591.783188	2556.938766
592.135232	2556.182593
592.487222	2555.159238
592.839157	2553.258723
593.191038	2554.599670
593.542866	2555.401214
593.894639	2557.493293
594.246358	2556.515309
594.598022	2557.894064
594.949633	2555.078580
595.301190	2556.825340
595.652692	2556.512788
596.004141	2553.651933
596.355535	2554.314845
596.706876	2555.557490
597.058162	2557.082439
597.409395	2554.629917
597.760573	2556.112017
598.111698	2554.952551
598.462768	2554.783672
598.813785	2555.560010
599.164748	2556.671585
599.515657	2552.310987
599.866511	2553.972047
600.217312	2555.711245
600.568060	2555.693601
600.918753	2556.570762
601.269392	2556.076728
601.619978	2555.577654
601.970510	2556.011193
602.320988	2555.721327
602.671412	2556.580844
603.021783	2553.851059
603.372100	2555.486913
603.722363	2555.975905
604.072572	2553.319217
604.422728	2558.130999
604.772830	2550.715461
605.122878	2554.859290
605.472872	2553.777962
605.822813	2552.021120
606.172701	2552.424412
606.522534	2558.514126
606.872314	2558.441030
607.222041	2556.124619
607.571714	2557.029507
607.921333	2556.366595
608.270899	2554.750905
608.620411	2556.079249
608.969870	2556.563200
609.319276	2557.326935
609.668627	2562.312636
610.017926	2564.074519
610.367171	2565.307081
610.716362	2566.302709
611.065500	2563.116700
611.414585	2560.981771
611.763616	2560.777604
612.112594	2558.090669
612.461518	2560.011349
612.810389	2555.917932
613.159207	2558.141081
613.507971	2557.226112
613.856682	2560.049158
614.205340	2557.062274
614.553945	2559.542522
614.902496	2555.809547
615.250994	2558.952707
615.599439	2561.110321
615.947830	2557.405073
616.296169	2557.848694
616.644454	2562.005125
616.992686	2554.161090
617.340864	2557.485731
617.688990	2561.284240
618.037063	2560.976730
618.385082	2560.414641
618.733048	2560.477656
619.080961	2559.116544
619.428821	2559.202244
619.776628	2558.264589
620.124382	2560.344065
620.472083	2560.039075
620.819731	2559.308108
621.167326	2561.977399
621.514868	2560.787687
621.862357	2556.389280
622.209793	2560.248283
622.557176	2558.340207
622.904506	2557.856256
623.251783	2556.817778
623.599007	2557.929352
623.946179	2554.937428
624.293297	2555.595298
624.640363	2558.559497
624.987376	2560.099569
625.334336	2557.095042
625.681243	2559.035886
626.028097	2560.089487
626.374899	2559.514795
626.721647	2560.124775
627.068343	2562.768860
627.414987	2560.608726
627.761577	2558.468756
628.108115	2559.529919
628.454600	2562.388253
628.801032	2560.991853
629.147412	2561.780794
629.493739	2561.748027
629.840014	2560.286092
630.186236	2562.637790
630.532405	2563.557801
630.878521	2559.900444
631.224585	2564.235836
631.570597	2561.768191
631.916556	2562.824313
632.262462	2562.897410
632.608316	2561.783315
632.954117	2561.402707
633.299866	2564.497976
633.645562	2567.525189
633.991206	2562.952862
634.336797	2561.138047
634.682336	2563.126782
635.027823	2562.151319
635.373257	2563.131823
635.718639	2562.526885
636.063968	2564.389591
636.409245	2564.482853
636.754470	2566.796742
637.099642	2564.782801
637.444762	2566.784139
637.789829	2563.033521
638.134845	2564.974365
638.479808	2565.470919
638.824719	2564.797925
639.169577	2565.196176
639.514383	2565.579303
639.859137	2565.324725
640.203839	2566.229612
640.548489	2566.169118
640.893086	2564.634087
641.237632	2564.843295
641.582125	2565.859087
641.926566	2560.323901
642.270955	2566.882442
642.615292	2567.706670
642.959576	2569.866805
643.303809	2566.214489
643.647990	2571.795046
643.992118	2568.765313
644.336195	2571.784964
644.680219	2569.763461
645.024192	2571.243040
645.368112	2571.873184
645.711981	2574.481981
646.055797	2577.171437
646.399562	2573.418298
646.743274	2577.743608
647.086935	2579.203022
647.430544	2580.584298
647.774101	2583.278795
648.117606	2580.712847
648.461059	2582.189905
648.804460	2584.125708
649.147810	2584.168558
649.491108	2581.716037
649.834354	2585.398600
650.177548	2582.661253
650.520690	2584.962540
650.863781	2586.341296
651.206820	2587.851121
651.549807	2582.247879
651.892742	2586.621080
652.235626	2587.246183
652.578458	2587.188209
652.921238	2585.428847
653.263967	2589.308015
653.606644	2586.313569
653.949269	2589.920515
654.291843	2589.423961
654.634365	2592.262131
654.976836	2593.040989
655.319255	2593.300608
655.661622	2594.911257
656.003938	2598.581217
656.346203	2595.780856
656.688416	2597.860332
657.030577	2597.772112
657.372687	2598.808069
657.714746	2599.153388
658.056753	2600.902668
658.398708	2596.587441
658.740612	2601.429469
659.082465	2600.446444
659.424266	2602.846033
659.766016	2601.275714
660.107715	2611.136211
660.449362	2611.985645
660.790958	2612.431787
661.132503	2612.358691
661.473996	2616.736933
661.815438	2618.491254
662.156829	2617.523353
662.498168	2620.830350
662.839456	2618.224073
663.180693	2624.114661
663.521879	2623.003087
663.863013	2625.044754
664.204097	2630.398460
664.545129	2628.616412
664.886110	2631.651186
665.227040	2636.601599
665.567918	2634.149078
665.908746	2637.871970
666.249522	2641.481436
666.590248	2645.443783
666.930922	2647.379586
667.271545	2649.118784
667.612118	2650.671460
667.952639	2650.552993
668.293109	2656.088180
668.633528	2656.433499
668.973896	2653.610452
669.314213	2656.834270
669.654480	2663.228974
669.994695	2659.264107
670.334859	2658.200423
670.674973	2664.902637
671.015035	2664.345590
671.355047	2670.339522
671.695008	2672.177022
672.034918	2671.914882
672.374777	2674.627023
672.714585	2677.223217
673.054342	2682.345029
673.394049	2680.941068
673.733705	2690.786442
674.073310	2694.983202
674.412864	2687.222346
674.752368	2693.145702
675.091820	2693.448171
675.431223	2693.228881
675.770574	2698.023018
676.109875	2688.664116
676.449125	2694.065712
676.788324	2692.162677
677.127473	2695.797348
677.466571	2693.450691
677.805619	2701.080478
678.144616	2704.463092
678.483562	2704.095088
678.822458	2703.409491
679.161303	2708.606920
679.500098	2709.905017
679.838842	2708.977445
680.177535	2714.983980
680.516179	2714.646223
680.854771	2718.585884
681.193314	2727.105434
681.531805	2734.261352
681.870247	2754.879672
682.208638	2763.716814
682.546978	2767.106990
682.885268	2765.241763
683.223508	2767.918616
683.561697	2766.171856
683.899836	2766.383585
684.237925	2766.794439
684.575963	2769.947680
684.913951	2766.212185
685.251889	2782.772376
685.589776	2778.860440
685.927614	2778.247940
686.265401	2792.708490
686.603137	2791.589354
686.940824	2806.740542
687.278460	2811.096099
687.616046	2821.493478
687.953582	2827.379026
688.291068	2828.551094
688.628504	2844.302179
688.965889	2841.910152
689.303224	2839.180367
689.640510	2840.576766
689.977745	2835.510407
690.314930	2826.673264
690.652065	2825.216371
690.989150	2811.499391
691.326185	2812.326140
691.663170	2809.283804
692.000105	2803.688123
692.336990	2792.617749
692.673825	2801.623771
693.010610	2792.254786
693.347345	2781.081069
693.684030	2793.459622
694.020665	2788.589867
694.357251	2777.010337
694.693786	2785.028292
695.030272	2787.833694
695.366707	2787.858900
695.703093	2777.315327
696.039429	2789.555248
696.375716	2795.539098
696.711952	2787.931997
697.048139	2788.015176
697.384276	2789.938376
697.720363	2798.243677
698.056400	2805.013947
698.392388	2799.952628
698.728326	2797.588327
699.064214	2792.262348
699.400053	2798.669654
699.735842	2800.958338
700.071581	2796.557411
700.407270	2797.406845
700.742910	2797.232926
701.078501	2790.714714
701.414042	2795.980199
701.749533	2797.928605
702.084974	2782.437139
702.420366	2796.595220
702.755709	2790.571041
703.091002	2783.084927
703.426246	2801.129737
703.761440	2789.353602
704.096584	2778.810029
704.431679	2792.383336
704.766725	2796.358285
705.101721	2798.392391
705.436668	2802.760551
705.771565	2790.397121
706.106413	2794.054478
706.441212	2813.092396
706.775961	2821.027172
707.110661	2808.555357
707.445311	2812.691624
707.779913	2833.246929
708.114465	2832.200889
708.448967	2834.620643
708.783421	2850.464990
709.117825	2859.014787
709.452180	2861.782380
709.786485	2870.468288
710.120742	2889.586864
710.454949	2883.371121
710.789107	2898.292937
711.123216	2914.626275
711.457275	2914.845565
711.791286	2933.114707
712.125247	2945.568878
712.459159	2917.358581
712.793023	2926.972061
713.126837	2949.364866
713.460602	2950.020216
713.794318	2918.064342
714.127985	2929.621187
714.461602	2924.370826
714.795171	2909.776685
715.128691	2905.030439
715.462162	2901.851991
715.795584	2899.792680
716.128957	2899.023904
716.462281	2876.351315
716.795556	2878.861809
717.128782	2881.982283
717.461960	2869.124821
717.795088	2876.202601
718.128167	2870.198586
718.461198	2855.123016
718.794180	2852.156297
719.127113	2859.239118
719.459997	2857.925897
719.792833	2844.932323
720.125619	2843.304031
720.458357	2838.341015
720.791046	2851.533714
721.123686	2842.162209
721.456278	2835.490242
721.788821	2842.207580
722.121315	2835.553257
722.453761	2827.089159
722.786158	2845.045749
723.118506	2849.832325
723.450805	2828.866166
723.783056	2838.525017
724.115259	2853.736698
724.447412	2857.671319
724.779518	2846.066583
725.111574	2854.616380
725.443582	2862.304139
725.775542	2861.371526
726.107453	2878.680328
726.439315	2883.227448
726.771129	2877.354504
727.102895	2889.599467
727.434612	2910.046387
727.766281	2908.029925
728.097901	2906.525141
728.429473	2908.849113
728.760996	2914.192736
729.092471	2907.147723
729.423897	2914.654002
729.755276	2923.982657
730.086606	2921.630958
730.417887	2925.495003
730.749120	2945.548713
731.080305	2977.323106
731.411442	2979.768065
731.742530	2967.409677
732.073570	2970.056282
732.404562	2995.249449
732.735506	2994.803307
733.066401	2984.857110
733.397249	2966.035962
733.728048	2949.874023
734.058798	2944.883281
734.389501	2926.692277
734.720156	2901.541960
735.050762	2894.403687
735.381320	2903.772671
735.711831	2881.929351
736.042293	2877.795605
736.372707	2894.431413
736.703073	2886.552089
737.033391	2876.099257
737.363661	2883.509753
737.693883	2900.415263
738.024056	2900.720252
738.354182	2894.360837
738.684260	2919.548962
739.014290	2923.775969
739.344272	2921.709096
739.674207	2936.053700
740.004093	2936.824996
740.333931	2937.253494
740.663722	2945.430246
740.993464	2944.353959
741.323159	2939.776592
741.652806	2932.235026
741.982405	2931.020108
742.311956	2926.427616
742.641460	2922.707245
742.970915	2915.236255
743.300323	2909.433887
743.629683	2894.297822
743.958996	2894.640621
744.288260	2893.508882
744.617477	2884.122253
744.946647	2877.420039
745.275768	2877.672097
745.604842	2881.616800
745.933869	2856.985722
746.262847	2857.227697
746.591778	2885.465721
746.920662	2870.952239
747.249498	2857.691484
747.578286	2883.083776
747.907027	2885.712737
748.235720	2870.102804
748.564365	2890.842111
748.892963	2901.776374
749.221514	2892.195661
749.550017	2879.461707
749.878473	2882.753580
750.206881	2875.317878
750.535242	2880.807695
750.863555	2879.292828
751.191821	2881.263919
751.520039	2867.614995
751.848210	2861.426979
752.176334	2882.476317
752.504411	2890.494272
752.832440	2869.712115
753.160421	2860.575024
753.488356	2871.257229
753.816243	2883.325751
754.144082	2859.445805
754.471875	2852.189064
754.799620	2865.374202
755.127318	2859.065198
755.454969	2865.815303
755.782572	2871.143803
756.110129	2855.957327
756.437638	2852.741071
756.765100	2867.148688
757.092515	2868.454347
757.419882	2875.756458
757.747203	2861.444623
758.074477	2860.348172
758.401703	2867.068030
758.728882	2882.405740
759.056014	2886.146277
759.383099	2885.069990
759.710138	2877.861140
760.037129	2883.310628
760.364073	2909.373393
760.690970	2900.629512
761.017820	2889.163407
761.344623	2896.899058
761.671379	2917.635844
761.998088	2939.063268
762.324751	2990.399859
762.651366	3064.401477
762.977935	3217.433263
763.304456	3377.298334
763.630931	3445.600928
763.957359	3310.981955
764.283740	3191.524253
764.610074	3138.125831
764.936362	3072.822724
765.262602	3006.912158
765.588796	2965.738534
765.914943	2933.144954
766.241044	2894.905281
766.567097	2892.760270
766.893104	2874.105481
767.219064	2863.085518
767.544978	2855.697707
767.870845	2826.552276
768.196665	2820.908705
768.522438	2832.248780
768.848165	2833.372957
769.173846	2817.916780
769.499479	2809.009061
769.825066	2801.906075
770.150607	2796.592699
770.476101	2811.391006
770.801548	2814.266984
771.126949	2786.386883
771.452303	2778.409257
771.777611	2786.941410
772.102872	2794.351906
772.428087	2783.452932
772.753256	2780.120729
773.078378	2778.021088
773.403453	2758.436206
773.728482	2755.562748
774.053465	2771.896086
774.378401	2766.030704
774.703291	2746.123187
775.028135	2750.216604
775.352932	2748.374062
775.677683	2746.392889
776.002388	2746.929772
776.327046	2744.830131
776.651658	2742.765779
776.976224	2737.835530
777.300743	2740.915675
777.625216	2732.943091
777.949643	2732.083574
778.274024	2733.719428
778.598359	2727.060064
778.922647	2733.447206
779.246889	2734.825962
779.571086	2723.374981
779.895236	2720.831718
780.219339	2728.879921
780.543397	2738.256467
780.867409	2738.750500
781.191374	2735.032649
781.515294	2733.381671
781.839167	2734.425190
782.162995	2732.464181
782.486776	2737.097001
782.810511	2735.483832
783.134201	2726.800445
783.457844	2735.017525
783.781441	2729.953686
784.104993	2718.432129
784.428498	2719.281564
784.751958	2732.247411
785.075372	2728.932853
785.398739	2717.285267
785.722061	2726.775239
786.045337	2737.948956
786.368568	2725.945969
786.691752	2719.435319
787.014891	2747.849782
787.337983	2758.587440
787.661030	2762.809407
787.984031	2794.339303
788.306987	2817.321924
788.629897	2812.560554
788.952760	2810.811273
789.275579	2812.018630
789.598351	2783.115174
789.921078	2759.704056
790.243759	2763.205137
790.566395	2755.608118
790.888984	2743.627816
791.211529	2732.824623
791.534027	2730.977041
791.856480	2726.795403
792.178888	2720.236862
792.501249	2715.548589
792.823566	2715.808209
793.145836	2711.523228
793.468062	2713.340564
793.790241	2712.816284
794.112375	2713.199412
794.434464	2720.751060
794.756507	2724.849518
795.078505	2725.519992
795.400457	2728.363202
795.722364	2749.228538
796.044226	2755.441760
796.366042	2756.477717
796.687812	2750.715678
797.009538	2768.515993
797.331218	2763.933584
797.652852	2758.199271
797.974442	2748.426995
798.295986	2748.343816
798.617484	2745.568660
798.938938	2737.800242
799.260346	2730.969479
799.581709	2728.900085
799.903026	2726.132492
800.224299	2724.993191
800.545526	2721.623180
800.866708	2711.447611
801.187845	2703.825386
801.508936	2708.954760
801.829983	2714.500029
802.150984	2708.591797
802.471940	2697.803728
802.792851	2698.217102
803.113717	2695.880527
803.434538	2705.945191
803.755314	2701.025025
804.076045	2694.957996
804.396731	2697.158460
804.717372	2694.348017
805.037967	2694.143850
805.358518	2696.908923
805.679024	2703.780016
805.999485	2702.759182
806.319901	2702.302957
806.640272	2699.086701
806.960598	2702.307999
807.280879	2705.776312
807.601115	2711.714792
807.921306	2703.767413
808.241453	2700.122658
808.561554	2704.362269
808.881611	2708.044832
809.201623	2703.568287
809.521590	2709.105995
809.841513	2703.207845
810.161390	2706.396374
810.481223	2703.681713
810.801011	2699.386650
811.120755	2697.355065
811.440453	2699.860518
811.760107	2701.173739
812.079716	2699.041331
812.399281	2692.145032
812.718801	2689.894157
813.038276	2686.486337
813.357707	2695.953624
813.677093	2701.246836
813.996434	2697.201310
814.315731	2692.384487
814.634983	2690.630166
814.954191	2694.136288
815.273354	2701.138451
815.592473	2707.404605
815.911547	2708.362424
816.230577	2710.464586
816.549562	2718.114537
816.868502	2716.140925
817.187399	2726.109807
817.506250	2735.476270
817.825058	2732.698595
818.143821	2739.718401
818.462539	2751.154259
818.781213	2766.723862
819.099843	2786.742284
819.418429	2814.680359
819.736970	2851.062366
820.055466	2892.087276
820.373919	2962.975982
820.692327	3053.835218
821.010691	3144.250833
821.329011	3360.604553
821.647286	3749.706013
821.965517	4354.100030
822.283704	4689.576215
822.601847	4708.359554
822.919945	4489.172706
823.237999	4344.773895
823.556010	4087.743104
823.873976	3804.316832
824.191897	3587.827001
824.509775	3432.163732
824.827609	3270.975358
825.145398	3198.276879
825.463144	3195.426106
825.780845	3250.896443
826.098502	3302.621202
826.416116	3446.382306
826.733685	3605.413066
827.051210	3638.765340
827.368692	3602.857201
827.686129	3480.566371
828.003522	3293.975623
828.320872	3140.464926
828.638177	3022.050743
828.955439	2938.375151
829.272656	2885.916904
829.589830	2847.402489
829.906960	2820.601194
830.224046	2789.091462
830.541088	2768.984820
830.858086	2758.847060
831.175041	2750.193919
831.491952	2752.512850
831.808819	2762.736310
832.125642	2780.997890
832.442421	2806.415387
832.759157	2851.972295
833.075849	2955.081535
833.392497	3128.295581
833.709101	3254.198398
834.025662	3223.575909
834.342179	3131.637866
834.658653	3028.818492
834.975083	2934.420366
835.291469	2883.476986
835.607811	2827.868017
835.924110	2786.651544
836.240366	2753.427819
836.556578	2726.192986
836.872746	2713.862323
837.188871	2698.065868
837.504952	2688.318797
837.820990	2682.080369
838.136984	2673.686848
838.452935	2668.002947
838.768842	2664.907678
839.084706	2679.930317
839.400526	2729.328583
839.716303	2806.070068
840.032037	2854.500433
840.347727	2846.711851
840.663373	2817.200936
840.978977	2772.127979
841.294537	2722.349106
841.610054	2692.626463
841.925527	2678.884277
842.240957	2665.787360
842.556344	2649.035605
842.871687	2639.495222
843.186987	2632.180508
843.502244	2631.467184
843.817458	2629.309570
844.132629	2619.166769
844.447756	2613.187960
844.762840	2605.951384
845.077881	2609.689400
845.392879	2609.225613
845.707833	2604.257556
846.022745	2602.286465
846.337613	2605.041456
846.652438	2602.667072
846.967221	2604.002978
847.281960	2601.235385
847.596656	2600.756475
847.911309	2600.474170
848.225919	2598.757657
848.540485	2596.226998
848.855009	2594.099631
849.169490	2595.644745
849.483928	2596.284972
849.798323	2598.813110
850.112675	2594.593664
850.426984	2593.860177
850.741251	2594.029055
851.055474	2594.845722
851.369654	2600.000302
851.683792	2596.569797
851.997887	2594.651638
852.311938	2595.110383
852.625947	2597.031062
852.939914	2597.971237
853.253837	2595.906885
853.567718	2595.617019
853.881555	2596.957966
854.195350	2597.267997
854.509103	2594.187852
854.822812	2593.784559
855.136479	2592.945207
855.450103	2594.523088
855.763685	2596.131216
856.077224	2595.551484
856.390720	2590.535536
856.704173	2594.933942
857.017584	2595.768253
857.330953	2597.726742
857.644278	2597.898141
857.957561	2600.448965
858.270802	2595.725403
858.584000	2596.305136
858.897155	2602.387288
859.210268	2599.803697
859.523339	2597.008377
859.836367	2595.586772
860.149352	2592.856987
860.462295	2595.143150
860.775195	2592.761205
861.088054	2591.460587
861.400869	2592.824219
861.713642	2587.944382
862.026373	2591.715166
862.339062	2594.800352
862.651708	2598.470312
862.964312	2598.099787
863.276873	2598.588779
863.589392	2599.100456
863.901869	2601.850405
864.214303	2605.633791
864.526696	2606.906683
864.839045	2608.416508
865.151353	2609.709564
865.463619	2609.825511
865.775842	2612.993876
866.088023	2612.421705
866.400162	2610.886674
866.712258	2613.147631
867.024313	2608.928185
867.336325	2605.031373
867.648296	2609.772579
867.960224	2612.613269
868.272110	2611.509256
868.583954	2605.512804
868.895755	2609.812908
869.207515	2611.968001
869.519233	2620.643827
869.830909	2616.195009
870.142542	2610.196036
870.454134	2611.801643
870.765684	2616.197529
871.077191	2616.623507
871.388657	2620.379166
871.700081	2618.458487
872.011463	2617.989659
872.322803	2618.849176
872.634101	2621.163066
872.945357	2626.138685
873.256571	2631.817544
873.567744	2626.831843
873.878874	2626.743623
874.189963	2629.357461
874.501010	2635.134624
874.812015	2635.847947
875.122979	2636.805766
875.433900	2631.220168
875.744780	2630.138840
876.055618	2632.440127
876.366415	2639.671662
876.677169	2637.113277
876.987882	2632.790487
877.298554	2631.951135
877.609183	2641.118473
877.919771	2646.328506
878.230317	2651.094917
878.540822	2659.478356
878.851285	2671.700633
879.161707	2691.242666
879.472087	2718.152345
879.782425	2750.647623
880.092722	2837.909996
880.402977	2968.717856
880.713191	3122.440281
881.023363	3263.310284
881.333494	3362.283257
881.643583	3486.426712
881.953631	3514.957122
882.263637	3418.318203
882.573602	3279.469703
882.883526	3207.287941
883.193408	3140.490132
883.503248	3080.737336
883.813048	3001.576097
884.122806	2918.291194
884.432522	2859.445805
884.742197	2814.539207
885.051831	2790.482821
885.361424	2763.283275
885.670975	2738.475757
885.980485	2717.494475
886.289954	2704.921837
886.599382	2692.659230
886.908768	2685.538600
887.218113	2673.369255
887.527417	2663.445744
887.836680	2655.964671
888.145901	2656.221770
888.455082	2644.584267
888.764221	2638.108904
889.073319	2632.785446
889.382376	2631.999026
889.691392	2633.445837
890.000366	2635.212762
890.309300	2631.668830
890.618193	2631.595734
890.927044	2633.382823
891.235855	2634.209572
891.544625	2632.712349
891.853353	2633.634880
892.162041	2639.338946
892.470687	2658.046668
892.779293	2663.869201
893.087858	2668.050838
893.396381	2684.124557
893.704864	2713.758980
894.013306	2766.186980
894.321707	2833.511589
894.630068	2865.434696
894.938387	2881.132849
895.246665	2881.581512
895.554903	2849.834845
895.863100	2824.104796
896.171256	2780.486212
896.479371	2730.409911
896.787446	2701.914789
897.095480	2691.232584
897.403473	2686.929959
897.711425	2675.446210
898.019336	2662.636638
898.327207	2649.461583
898.635038	2651.767911
898.942827	2647.606438
899.250576	2639.288534
899.558284	2631.237812
899.865952	2626.408386
900.173579	2625.130454
900.481165	2625.082563
900.788711	2618.208950
901.096216	2617.172992
901.403681	2613.044287
901.711105	2614.854062
902.018489	2608.678648
902.325832	2613.734926
902.633135	2615.262395
902.940397	2625.775722
903.247619	2654.948879
903.554800	2707.107177
903.861941	2796.605302
904.169041	2881.518497
904.476101	2924.738830
904.783121	2918.649116
905.090100	2884.404558
905.397039	2831.268276
905.703938	2778.953702
906.010796	2737.386868
906.317614	2692.956658
906.624391	2669.306085
906.931129	2647.727426
907.237826	2632.727473
907.544483	2619.466717
907.851099	2606.465582
908.157675	2600.101125
908.464211	2593.726586
908.770707	2587.326841
909.077163	2583.727457
909.383578	2581.095975
909.689954	2579.349215
909.996289	2579.560944
910.302584	2579.558423
910.608839	2578.071283
910.915054	2576.604307
911.221229	2579.976839
911.527363	2581.612693
911.833458	2577.554564
912.139513	2581.148907
912.445527	2582.971284
912.751502	2587.067222
913.057436	2586.875658
913.363331	2596.610126
913.669186	2602.669593
913.975000	2612.852724
914.280775	2624.795217
914.586510	2637.950108
914.892205	2662.853408
915.197859	2716.461038
915.503475	2778.036212
915.809050	2825.869200
916.114585	2829.314829
916.420081	2837.930161
916.725536	2848.330061
917.030952	2834.499655
917.336328	2801.654017
917.641665	2764.747730
917.946961	2726.276165
918.252218	2701.526620
918.557435	2684.174968
918.862612	2666.727535
919.167750	2653.277736
919.472848	2642.230048
919.777906	2631.406690
920.082925	2618.720627
920.387904	2610.707713
920.692843	2610.495984
920.997743	2605.550612
921.302603	2599.942329
921.607423	2597.134406
921.912204	2589.275247
922.216946	2588.090576
922.521647	2590.457398
922.826310	2585.242324
923.130932	2581.322827
923.435516	2577.660429
923.740059	2575.563309
924.044564	2576.306879
924.349028	2574.965932
924.653454	2566.834551
924.957840	2565.120558
925.262186	2563.139385
925.566493	2566.711043
925.870761	2560.835578
926.174989	2563.519992
926.479178	2559.713921
926.783328	2560.447409
927.087438	2556.732078
927.391509	2560.331462
927.695541	2556.749722
927.999533	2554.708055
928.303486	2555.534804
928.607400	2554.511450
928.911275	2556.076728
929.215110	2555.645710
929.518906	2553.339382
929.822663	2553.230997
930.126381	2553.810730
930.430060	2555.325597
930.733699	2551.161603
931.037299	2555.328117
931.340861	2557.757953
931.644383	2556.323745
931.947866	2553.747715
932.251309	2553.987170
932.554714	2552.225287
932.858080	2556.628735
933.161407	2553.505740
933.464694	2553.470452
933.767943	2554.667726
934.071153	2550.589432
934.374323	2551.496840
934.677455	2552.439536
934.980548	2554.919784
935.283602	2550.803682
935.586617	2553.039433
935.889593	2552.230328
936.192530	2551.885009
936.495428	2550.917108
936.798287	2553.813250
937.101108	2554.050185
937.403890	2553.382232
937.706632	2558.592264
938.009336	2562.864642
938.312002	2563.114179
938.614628	2567.613409
938.917216	2569.733214
939.219765	2569.828996
939.522275	2570.244891
939.824747	2568.747669
940.127179	2564.510579
940.429573	2563.497307
940.731929	2561.332131
941.034246	2560.545711
941.336524	2561.727862
941.638763	2562.524364
941.940964	2559.991184
942.243126	2559.076215
942.545250	2561.679971
942.847335	2560.520506
943.149381	2554.398024
943.451389	2556.187634
943.753359	2557.384908
944.055290	2554.534135
944.357182	2556.782490
944.659036	2553.669578
944.960851	2555.207129
945.262628	2554.793755
945.564367	2558.146122
945.866067	2555.512119
946.167729	2555.154197
946.469352	2554.415668
946.770937	2553.662016
947.072484	2554.496327
947.373992	2554.574465
947.675462	2554.576985
947.976893	2554.791234
948.278286	2553.563713
948.579641	2551.721172
948.880958	2553.692263
949.182236	2553.009186
949.483476	2552.033723
949.784678	2552.890719
950.085841	2551.239741
950.386967	2553.314176
950.688054	2551.645554
950.989103	2554.594629
951.290114	2554.140925
951.591087	2556.467418
951.892021	2554.244269
952.192917	2558.879610
952.493776	2556.548076
952.794596	2559.139229
953.095378	2560.669220
953.396122	2560.129816
953.696828	2559.497151
953.997496	2556.603529
954.298126	2554.466080
954.598718	2556.749722
954.899272	2554.526574
955.199788	2550.725544
955.500266	2553.828374
955.800706	2550.455842
956.101108	2545.954092
956.401472	2545.757487
956.701798	2545.777651
957.002087	2540.892773
957.302337	2548.152035
957.602550	2546.092723
957.902724	2545.812939
958.202861	2545.492826
958.502960	2544.585418
958.803022	2545.646581
959.103045	2546.211190
959.403031	2541.875798
959.702979	2544.477033
960.002889	2541.525438
960.302762	2543.438556
960.602596	2544.131714
960.902393	2542.326981
961.202153	2543.735984
961.501875	2539.037628
961.801559	2541.845551
962.101205	2540.461754
962.400814	2542.694986
962.700385	2543.189019
962.999918	2543.962836
963.299414	2540.973432
963.598873	2541.785057
963.898293	2541.028884
964.197677	2540.925541
964.497022	2542.742877
964.796331	2541.837989
965.095601	2539.914789
965.394835	2542.626930
965.694030	2545.049204
965.993189	2540.759183
966.292309	2539.753472
966.591393	2543.380583
966.890439	2543.594832
967.189447	2542.014430
967.488419	2541.951415
967.787353	2543.554502
968.086249	2542.760521
968.385108	2541.338915
968.683930	2540.416384
968.982714	2541.727084
969.281462	2540.376055
969.580172	2543.708257
969.878844	2541.263298
970.177480	2541.757331
970.476078	2542.697506
970.774639	2545.639019
971.073162	2541.280942
971.371649	2541.631302
971.670098	2540.431508
971.968510	2537.898328
972.266885	2540.534851
972.565223	2542.442928
972.863524	2543.504091
973.161788	2545.334030
973.460014	2541.449821
973.758204	2542.584080
974.056356	2542.503422
974.354471	2543.710778
974.652550	2542.057280
974.950591	2544.837476
975.248595	2542.896632
975.546563	2543.529297
975.844493	2542.279090
976.142386	2544.754297
976.440243	2541.659028
976.738062	2542.999975
977.035845	2541.701878
977.333590	2542.400078
977.631299	2538.772968
977.928971	2542.034594
978.226606	2543.075593
978.524204	2544.204811
978.821765	2538.984696
979.119290	2542.445448
979.416777	2543.070552
979.714228	2539.360262
980.011642	2542.269008
980.309020	2544.464431
980.606360	2543.894780
980.903664	2543.345294
981.200931	2540.945705
981.498162	2542.959646
981.795356	2544.328319
982.092513	2547.078269
982.389633	2546.485933
982.686717	2551.290153
982.983764	2550.218908
983.280775	2558.325083
983.577749	2553.457849
983.874686	2550.470965
984.171587	2550.236552
984.468451	2549.084648
984.765279	2544.925696
985.062070	2543.511653
985.358824	2546.508618
985.655543	2546.710265
985.952224	2542.778165
986.248869	2544.388813
986.545478	2535.367668
986.842050	2541.006199
987.138586	2536.993441
987.435086	2539.876981
987.731549	2536.547298
988.027975	2541.767413
988.324366	2540.217258
988.620719	2541.984183
988.917037	2540.265149
989.213318	2541.890922
989.509563	2538.180632
989.805772	2540.371014
990.101944	2540.066024
990.398080	2537.520241
990.694180	2539.912269
990.990244	2540.955788
991.286271	2539.395550
991.582262	2540.101312
991.878217	2544.381252
992.174136	2539.476209
992.470019	2540.376055
992.765865	2538.616692
993.061676	2539.420756
993.357450	2541.404450
993.653188	2541.245654
993.948890	2538.248688
994.244556	2541.938812
994.540186	2542.415202
994.835780	2538.001671
995.131337	2544.585418
995.426859	2540.837320
995.722345	2541.154913
996.017795	2540.860006
996.313208	2545.061807
996.608586	2539.894625
996.903928	2541.159954
997.199234	2540.852444
997.494504	2543.798998
997.789738	2539.244316
998.084936	2544.071221
998.380099	2540.058462
998.675225	2542.672300
998.970316	2539.508976
999.265371	2543.148689
999.560390	2542.198432
999.855373	2542.374872
1000.150320	2542.291693
1000.445232	2539.135931
1000.740108	2539.758513
1001.034948	2538.513348
1001.329752	2539.677855
1001.624521	2540.761703
1001.919254	2537.666435
1002.213951	2539.811446
1002.508613	2534.561084
1002.803239	2537.842875
1003.097829	2535.448327
1003.392384	2540.764224
1003.686903	2539.330015
1003.981386	2539.256919
1004.275834	2538.846065
1004.570246	2541.162475
1004.864623	2540.872608
1005.158964	2539.032587
1005.453270	2538.427649
1005.747540	2538.457896
1006.041775	2537.822710
1006.335974	2539.297248
1006.630138	2539.224151
1006.924266	2539.635005
1007.218359	2537.752134
1007.512416	2536.398584
1007.806438	2539.130890
1008.100425	2534.792977
1008.394376	2537.973945
1008.688292	2537.754655
1008.982172	2537.232895
1009.276017	2539.582073
1009.569827	2539.786240
1009.863602	2538.727598
1010.157341	2538.780530
1010.451045	2539.398071
1010.744714	2537.295910
1011.038347	2537.875643
1011.331945	2537.835313
1011.625508	2538.231044
1011.919036	2537.028729
1012.212528	2539.138452
1012.505986	2537.646270
1012.799408	2536.690971
1013.092795	2537.585776
1013.386147	2538.067206
1013.679464	2539.488812
1013.972745	2539.483771
1014.265992	2539.350180
1014.559204	2541.512835
1014.852380	2538.157947
1015.145521	2539.007382
1015.438628	2537.802546
1015.731699	2541.805222
1016.024736	2538.674665
1016.317737	2539.866898
1016.610703	2537.777340
1016.903635	2535.176105
1017.196531	2537.752134
1017.489393	2536.050745
1017.782219	2532.353058
1018.075011	2535.954963
1018.367768	2536.406146
1018.660490	2540.270191
1018.953177	2540.270191
1019.245829	2540.270191
