Dividing Wavelength (nm)	Counts (n)	Blue Motor Position (mm): 13.800000	Red Motor Position (mm): 0.000000	
326.493990	2137.925620
326.888308	2137.925620
327.282561	2137.925620
327.676750	2105.052256
328.070874	2102.456061
328.464933	2106.597369
328.858929	2112.026692
329.252859	2119.414503
329.646726	2135.543675
330.040528	2145.583133
330.434265	2161.687098
330.827938	2180.795592
331.221547	2196.249249
331.615091	2216.892774
332.008571	2236.399519
332.401986	2256.735534
332.795338	2274.840838
333.188625	2296.611061
333.581847	2311.858030
333.975006	2331.773109
334.368100	2348.446725
334.761129	2368.528161
335.154095	2383.734802
335.546996	2407.309758
335.939833	2419.640420
336.332606	2437.009716
336.725315	2448.763166
337.117960	2459.949486
337.510540	2469.179839
337.903056	2475.796353
338.295508	2486.670122
338.687896	2497.334683
339.080220	2503.000940
339.472480	2509.514111
339.864676	2513.985614
340.256807	2520.768487
340.648875	2521.247397
341.040879	2525.020700
341.432818	2526.389373
341.824694	2526.217974
342.216506	2527.753006
342.608253	2530.228212
342.999937	2527.611853
343.391557	2525.101359
343.783113	2523.982222
344.174605	2524.738396
344.566033	2522.376615
344.957397	2520.334948
345.348697	2520.587005
345.739934	2515.651716
346.131106	2519.238497
346.522215	2512.165758
346.913260	2511.873371
347.304241	2508.664677
347.695159	2510.648371
348.086012	2510.164420
348.476802	2507.606034
348.867528	2504.593945
349.258191	2503.273163
349.648789	2502.464057
350.039324	2498.768892
350.429796	2499.010867
350.820203	2496.651607
351.210548	2494.995588
351.600828	2495.197234
351.991045	2495.865187
352.381198	2493.934425
352.771288	2495.482059
353.161314	2491.814620
353.551276	2494.183962
353.941175	2490.120792
354.331010	2490.687922
354.720782	2493.029538
355.110490	2493.533653
355.500135	2492.444764
355.889717	2495.197234
356.279235	2493.581544
356.668689	2497.291833
357.058080	2496.797800
357.447408	2492.946359
357.836672	2492.291009
358.225873	2494.337717
358.615010	2491.698673
359.004084	2494.007522
359.393095	2496.470125
359.782043	2499.028511
360.170927	2498.226968
360.559748	2496.177738
360.948505	2499.814931
361.337199	2499.305774
361.725830	2499.764519
362.114398	2501.523882
362.502903	2499.784684
362.891344	2499.406598
363.279722	2500.225785
363.668037	2502.519510
364.056289	2503.459685
364.444478	2504.858605
364.832603	2502.133862
365.220665	2503.207627
365.608665	2503.358862
365.996601	2505.019922
366.384474	2504.052021
366.772284	2506.769203
367.160031	2505.340036
367.547715	2505.062772
367.935336	2505.115704
368.322893	2507.162413
368.710388	2506.960767
369.097820	2511.336488
369.485189	2504.994717
369.872495	2507.101919
370.259738	2506.222238
370.646918	2512.193484
371.034035	2507.207783
371.421090	2508.039573
371.808081	2510.683659
372.195010	2508.183246
372.581875	2507.817763
372.968678	2509.400685
373.355418	2508.712567
373.742096	2512.138032
374.128710	2510.139214
374.515262	2509.957733
374.901751	2512.387569
375.288177	2512.957219
375.674540	2511.333968
376.060841	2512.150634
376.447079	2512.803464
376.833254	2513.814215
377.219367	2508.016888
377.605417	2510.368587
377.991404	2505.967659
378.377329	2509.889677
378.763191	2509.574605
379.148991	2514.698938
379.534727	2510.534945
379.920402	2512.962260
380.306013	2513.017713
380.691563	2513.849503
381.077049	2513.751201
381.462474	2515.528208
381.847835	2515.238341
382.233134	2516.075173
382.618371	2515.064421
383.003545	2517.597601
383.388657	2514.998886
383.773706	2513.211797
384.158693	2513.418485
384.543618	2518.600791
384.928480	2516.813702
385.313280	2516.937210
385.698017	2515.838238
386.082692	2517.834535
386.467305	2516.198681
386.851856	2519.021727
387.236344	2514.575429
387.620770	2520.617252
388.005133	2515.752539
388.389435	2518.888137
388.773674	2517.332941
389.157851	2516.334792
389.541965	2518.184896
389.926018	2520.919722
390.310008	2520.589526
390.693936	2518.121881
391.077802	2517.819412
391.461606	2518.394103
391.845348	2518.124402
392.229027	2520.594567
392.612645	2522.003570
392.996200	2521.355781
393.379694	2519.762777
393.763125	2520.420647
394.146494	2522.709331
394.529801	2519.082221
394.913047	2522.495082
395.296230	2522.873169
395.679351	2518.941069
396.062410	2521.885103
396.445408	2523.659589
396.828343	2522.313601
397.211217	2517.196829
397.594028	2521.043230
397.976778	2519.712365
398.359466	2518.789834
398.742092	2515.641633
399.124656	2524.808972
399.507158	2521.141532
399.889598	2524.859383
400.271977	2524.471214
400.654294	2524.370391
401.036549	2524.705628
401.418742	2525.280320
401.800874	2525.199661
402.182944	2523.919208
402.564952	2524.451050
402.946898	2524.408200
403.328783	2523.130268
403.710606	2523.931811
404.092367	2525.653365
404.474067	2527.170752
404.855705	2526.681760
405.237282	2524.690505
405.618797	2522.941224
406.000250	2526.525485
406.381642	2524.630011
406.762972	2526.903571
407.144240	2525.146729
407.525447	2528.083201
407.906593	2526.412059
408.287677	2526.447347
408.668700	2526.071781
409.049661	2525.797038
409.430560	2527.001874
409.811399	2525.746626
410.192176	2529.729138
410.572891	2527.402645
410.953545	2528.685619
411.334138	2527.085053
411.714669	2529.033459
412.095139	2529.343490
412.475547	2529.096473
412.855894	2526.643952
413.236180	2530.722245
413.616405	2530.881042
413.996568	2527.901720
414.376670	2531.334745
414.756711	2532.937832
415.136691	2530.326515
415.516609	2528.569673
415.896466	2528.335259
416.276262	2530.369364
416.655997	2527.004394
417.035670	2526.797707
417.415283	2527.226205
417.794834	2526.727131
418.174324	2530.208048
418.553753	2530.623943
418.933121	2528.267203
419.312428	2527.937008
419.691674	2531.906916
420.070859	2529.799714
420.449983	2530.117307
420.829045	2532.085877
421.208047	2532.221988
421.586988	2531.160826
421.965867	2530.790301
422.344686	2530.535722
422.723444	2535.899510
423.102141	2531.929602
423.480777	2531.072605
423.859352	2532.905065
424.237866	2535.166022
424.616319	2533.530168
424.994712	2533.893131
425.373044	2532.731145
425.751314	2533.767102
426.129524	2534.556043
426.507673	2533.757020
426.885762	2530.623943
427.263789	2535.627288
427.641756	2533.610826
428.019662	2535.229037
428.397508	2534.087215
428.775292	2535.420601
429.153016	2534.326670
429.530679	2538.127700
429.908282	2537.610982
430.285824	2535.796167
430.663305	2534.835827
431.040726	2535.599562
431.418086	2536.159130
431.795385	2532.738707
432.172624	2536.038142
432.549802	2537.565612
432.926920	2536.237268
433.303977	2536.753986
433.680974	2537.661393
434.057910	2539.113246
434.434786	2533.888090
434.811601	2534.765251
435.188355	2533.595703
435.565050	2535.072761
435.941683	2536.179294
436.318257	2532.521937
436.694770	2532.451361
437.071222	2532.529499
437.447614	2530.669313
437.823946	2532.179139
438.200218	2537.794984
438.576429	2536.701054
438.952580	2538.583925
439.328670	2537.399253
439.704700	2538.856147
440.080670	2535.947401
440.456580	2536.900179
440.832429	2538.346990
441.208218	2537.374048
441.583947	2536.955632
441.959616	2535.186187
442.335224	2538.495704
442.710773	2536.600231
443.086261	2537.784902
443.461689	2538.974614
443.837057	2537.661393
444.212365	2540.018133
444.587612	2539.924872
444.962800	2537.540406
445.337927	2539.934954
445.712995	2541.444779
446.088002	2538.634336
446.462949	2542.745397
446.837837	2536.383461
447.212664	2540.436549
447.587431	2538.339429
447.962139	2540.053421
448.336786	2539.773637
448.711374	2537.903369
449.085901	2539.939995
449.460369	2537.535365
449.834776	2540.408822
450.209124	2540.862526
450.583412	2540.567619
450.957640	2542.528627
451.331808	2540.804553
451.705917	2540.091230
452.079965	2541.953936
452.453954	2539.950077
452.827883	2543.879657
453.201752	2540.156765
453.575562	2538.732639
453.949311	2541.999306
454.323001	2544.240099
454.696632	2541.535520
455.070202	2543.206663
455.443713	2543.128525
455.817164	2540.323123
456.190556	2537.464788
456.563888	2538.934285
456.937160	2538.717515
457.310373	2542.689944
457.683526	2542.329502
458.056619	2542.994934
458.429653	2542.213555
458.802628	2541.162475
459.175542	2541.253216
459.548398	2540.673483
459.921194	2542.216076
460.293930	2541.255736
460.666607	2542.140459
461.039224	2542.271529
461.411782	2542.054759
461.784280	2544.923176
462.156719	2540.968390
462.529099	2543.846889
462.901419	2545.903680
463.273680	2543.672969
463.645882	2542.871426
464.018024	2543.360418
464.390106	2539.803884
464.762130	2546.251520
465.134094	2543.219266
465.505999	2544.151879
465.877845	2543.960315
466.249631	2544.766900
466.621358	2544.484595
466.993026	2548.971222
467.364634	2551.587581
467.736184	2544.293031
468.107674	2542.974770
468.479105	2545.276056
468.850477	2544.845038
469.221790	2546.639688
469.593043	2544.373690
469.964238	2545.283618
470.335373	2545.770089
470.706449	2546.354863
471.077467	2545.734801
471.448425	2549.520708
471.819324	2544.303114
472.190164	2545.936447
472.560945	2546.480892
472.931667	2546.662374
473.302330	2545.646581
473.672934	2545.276056
474.043479	2547.373176
474.413965	2548.378887
474.784393	2543.171375
475.154761	2543.302445
475.525070	2542.168185
475.895321	2544.275387
476.265513	2541.495191
476.635645	2547.209339
477.005719	2547.075748
477.375734	2547.935265
477.745691	2546.342260
478.115588	2547.219421
478.485427	2545.427291
478.855207	2545.369318
479.224928	2545.825542
479.594591	2548.288146
479.964194	2546.342260
480.333739	2548.918290
480.703226	2546.649771
481.072653	2547.259750
481.442022	2549.651778
481.811333	2549.331665
482.180584	2549.124977
482.549777	2549.402241
482.918912	2550.574309
483.287988	2550.075235
483.657005	2549.639175
484.025964	2547.421067
484.394864	2549.490461
484.763706	2549.119936
485.132489	2548.512477
485.501213	2550.397869
485.869879	2548.565409
486.238487	2549.581202
486.607036	2548.502395
486.975527	2551.035575
487.343959	2549.248486
487.712333	2547.942827
488.080648	2550.420554
488.448905	2549.414844
488.817104	2548.580533
489.185244	2549.361912
489.553326	2549.112374
489.921350	2552.169834
490.289315	2550.854093
490.657222	2550.080276
491.025070	2551.416182
491.392861	2551.108671
491.760593	2549.185471
492.128267	2549.959288
492.495883	2549.896274
492.863440	2550.234031
493.230939	2549.566078
493.598380	2551.015410
493.965763	2547.537014
494.333088	2550.723023
494.700354	2546.080120
495.067563	2550.168496
495.434713	2544.577857
495.801805	2549.165307
496.168839	2547.683207
496.535815	2552.351316
496.902733	2551.859803
497.269593	2555.859959
497.636395	2550.360060
498.003139	2552.532797
498.369825	2550.239072
498.736453	2550.360060
499.103023	2550.801161
499.469535	2551.728733
499.835989	2548.890564
500.202385	2550.869217
500.568723	2551.678322
500.935003	2551.897612
501.301226	2548.872920
501.667390	2552.149670
502.033497	2550.833928
502.399546	2551.995914
502.765537	2551.176727
503.131470	2548.157076
503.497345	2553.621687
503.863163	2553.546069
504.228923	2552.517674
504.594625	2551.852242
504.960269	2552.237890
505.325856	2551.413661
505.691385	2551.020451
506.056856	2553.997253
506.422270	2550.193702
506.787625	2553.122612
507.152924	2550.841490
507.518164	2553.069680
507.883347	2552.111861
508.248472	2551.819474
508.613540	2552.986501
508.978550	2552.747046
509.343503	2554.292160
509.708398	2555.665874
510.073236	2555.849877
510.438016	2553.654454
510.802738	2554.191337
511.167403	2553.752757
511.532010	2555.267623
511.896561	2558.209137
512.261053	2557.609239
512.625488	2551.096068
512.989866	2550.886861
513.354186	2554.750905
513.718449	2549.251006
514.082655	2557.004301
514.446803	2554.423230
514.810894	2558.027655
515.174927	2556.253169
515.538904	2557.621842
515.902822	2558.292316
516.266684	2557.528581
516.630488	2558.383056
516.994235	2557.664692
517.357925	2559.633263
517.721558	2561.725341
518.085133	2559.779456
518.448651	2560.207954
518.812112	2561.110321
519.175516	2560.346586
519.538863	2558.602347
519.902152	2561.279199
520.265385	2563.860270
520.628560	2562.486556
520.991678	2559.219888
521.354739	2561.324570
521.717743	2562.509241
522.080690	2562.380691
522.443580	2562.504200
522.806413	2565.377657
523.169189	2563.794735
523.531908	2565.475960
523.894569	2562.572255
524.257174	2566.290106
524.619722	2564.999571
524.982213	2567.870508
525.344647	2566.065775
525.707025	2566.804304
526.069345	2564.997050
526.431608	2565.871690
526.793815	2566.189283
527.155964	2569.145920
527.518057	2569.115673
527.880093	2568.616599
528.242072	2566.718604
528.603995	2569.599624
528.965860	2569.055179
529.327669	2568.351938
529.689421	2572.175653
530.051117	2570.499470
530.412755	2568.382185
530.774337	2568.407391
531.135862	2568.692216
531.497331	2571.071641
531.858743	2566.700960
532.220098	2569.990313
532.581396	2564.114848
532.942638	2567.928481
533.303824	2571.041394
533.664953	2571.185067
534.026025	2568.790518
534.387040	2573.027608
534.747999	2573.352763
535.108902	2572.505849
535.469748	2574.776889
535.830537	2572.891497
536.191270	2572.175653
536.551947	2573.146075
536.912567	2573.831672
537.273131	2576.654718
537.633638	2574.562640
537.994089	2573.819069
538.354483	2572.707495
538.714821	2575.578432
539.075103	2576.611869
539.435328	2576.889132
539.795497	2578.073803
540.155609	2577.549523
540.515665	2577.889801
540.875665	2577.186560
541.235609	2575.981724
541.595496	2581.864751
541.955328	2577.577250
542.315102	2581.463979
542.674821	2580.259143
543.034483	2581.489185
543.394090	2578.620768
543.753640	2580.891808
544.113134	2581.940368
544.472571	2581.668146
544.831953	2582.298290
545.191278	2580.659915
545.550548	2581.952971
545.909761	2581.607652
546.268918	2582.426840
546.628019	2584.597056
546.987064	2583.243507
547.346053	2583.987077
547.704986	2585.295256
548.063863	2587.664598
548.422684	2585.232242
548.781449	2586.076635
549.140158	2589.650813
549.498811	2588.952613
549.857408	2586.139649
550.215949	2587.878847
550.574434	2584.239134
550.932864	2589.852459
551.291237	2586.802561
551.649555	2592.930084
552.007817	2591.715166
552.366022	2591.377408
552.724173	2592.362954
553.082267	2591.924373
553.440305	2594.145002
553.798288	2596.683223
554.156215	2597.144488
554.514086	2602.256218
554.871902	2598.465271
555.229661	2601.429469
555.587365	2600.965683
555.945014	2600.514500
556.302606	2603.045159
556.660143	2605.621188
557.017625	2608.025819
557.375050	2608.802157
557.732421	2610.654781
558.089735	2609.515480
558.446994	2611.695779
558.804197	2615.625358
559.161345	2616.920935
559.518437	2614.750718
559.875474	2622.259517
560.232455	2621.725154
560.589381	2621.730196
560.946251	2630.733696
561.303065	2625.458129
561.659825	2629.980044
562.016528	2630.471556
562.373177	2629.591875
562.729770	2635.774850
563.086307	2635.288379
563.442789	2638.373565
563.799216	2643.926396
564.155587	2642.277939
564.511904	2648.009731
564.868164	2648.904535
565.224370	2652.332520
565.580520	2658.278561
565.936615	2657.240083
566.292654	2661.840136
566.648638	2666.508245
567.004567	2668.297854
567.360441	2673.470078
567.716260	2674.080058
568.072023	2676.731705
568.427732	2680.721778
568.783385	2679.922755
569.138982	2687.784434
569.494525	2692.109744
569.850013	2689.269054
570.205445	2703.127186
570.560823	2704.677341
570.916145	2710.313351
571.271412	2717.116388
571.626625	2721.855073
571.981782	2720.894733
572.336884	2729.752040
572.691931	2730.714901
573.046923	2740.182187
573.401860	2742.342322
573.756743	2749.699886
574.111570	2756.165166
574.466342	2759.136926
574.821059	2766.587751
575.175722	2772.422887
575.530330	2775.104781
575.884882	2784.647685
576.239380	2789.555248
576.593823	2792.043058
576.948211	2800.388688
577.302544	2796.751495
577.656823	2813.871254
578.011047	2820.457521
578.365216	2829.700477
578.719330	2830.872545
579.073389	2842.454596
579.427394	2844.155986
579.781344	2856.136288
580.135239	2860.464118
580.489080	2868.499717
580.842866	2877.833414
581.196597	2887.938407
581.550273	2897.564490
581.903895	2908.385327
582.257463	2921.083993
582.610975	2927.372833
582.964434	2934.188473
583.317837	2945.694906
583.671186	2951.144394
584.024481	2965.063019
584.377721	2971.251036
584.730906	2978.437201
585.084037	2992.345744
585.437113	2996.996208
585.790135	3014.725947
586.143103	3020.568644
586.496016	3030.557690
586.848874	3045.318189
587.201679	3053.686504
587.554428	3060.602967
587.907124	3078.272211
588.259765	3086.259920
588.612352	3108.990482
588.964884	3103.813217
589.317362	3126.269037
589.669786	3136.406797
590.022155	3155.641320
590.374470	3170.971469
590.726731	3175.959691
591.078937	3178.366842
591.431090	3206.367931
591.783188	3202.455995
592.135232	3221.244376
592.487222	3229.161508
592.839157	3255.677977
593.191038	3262.412958
593.542866	3266.816406
593.894639	3274.166409
594.246358	3293.791621
594.598022	3312.358190
594.949633	3314.954384
595.301190	3327.519460
595.652692	3345.158458
596.004141	3380.459138
596.355535	3362.033720
596.706876	3375.468395
597.058162	3382.954509
597.409395	3406.960483
597.760573	3437.633384
598.111698	3438.437448
598.462768	3455.458904
598.813785	3463.681026
599.164748	3479.482523
599.515657	3485.675580
599.866511	3500.297447
600.217312	3529.057229
600.568060	3525.598998
600.918753	3559.626786
601.269392	3572.930391
601.619978	3576.524734
601.970510	3606.943056
602.320988	3615.762555
602.671412	3651.479130
603.021783	3652.247906
603.372100	3667.920853
603.722363	3689.509595
604.072572	3701.867983
604.422728	3723.363463
604.772830	3722.382959
605.122878	3747.629057
605.472872	3760.289915
605.822813	3790.166313
606.172701	3794.957930
606.522534	3838.576514
606.872314	3855.015717
607.222041	3869.171277
607.571714	3903.559507
607.921333	3913.493101
608.270899	3936.689971
608.620411	3972.802276
608.969870	3977.742607
609.319276	3995.457222
609.668627	4021.162065
610.017926	4049.057290
610.367171	4094.836008
610.716362	4103.564766
611.065500	4124.573774
611.414585	4156.607787
611.763616	4168.585568
612.112594	4185.256664
612.461518	4209.832289
612.810389	4247.507352
613.159207	4250.998351
613.507971	4255.469855
613.856682	4317.609638
614.205340	4324.309331
614.553945	4368.275754
614.902496	4362.909446
615.250994	4403.062236
615.599439	4410.833175
615.947830	4443.809883
616.296169	4456.831183
616.644454	4483.203980
616.992686	4499.781814
617.340864	4551.698137
617.688990	4539.692629
618.037063	4586.560236
618.385082	4599.084983
618.733048	4657.365763
619.080961	4650.184639
619.428821	4679.083053
619.776628	4705.833936
620.124382	4712.768043
620.472083	4731.206064
620.819731	4761.011886
621.167326	4743.866922
621.514868	4761.042133
621.862357	4744.761726
622.209793	4767.530098
622.557176	4766.058081
622.904506	4771.376498
623.251783	4762.660343
623.599007	4766.582361
623.946179	4785.315288
624.293297	4796.708296
624.640363	4774.723824
624.987376	4792.173778
625.334336	4781.536944
625.681243	4792.277122
626.028097	4805.167352
626.374899	4812.237571
626.721647	4831.688863
627.068343	4817.644208
627.414987	4823.368438
627.761577	4823.076051
628.108115	4855.500753
628.454600	4823.439014
628.801032	4875.965317
629.147412	4867.518864
629.493739	4882.864136
629.840014	4870.994739
630.186236	4921.275208
630.532405	4878.775760
630.878521	4922.747225
631.224585	4920.171195
631.570597	4893.780755
631.916556	4928.136218
632.262462	4941.807827
632.608316	4941.633908
632.954117	4949.845947
633.299866	4951.895176
633.645562	4971.412003
633.991206	4945.760092
634.336797	4936.519657
634.682336	4926.069345
635.027823	4926.437349
635.373257	4931.475983
635.718639	4915.929064
636.063968	4933.943627
636.409245	4890.400661
636.754470	4910.779525
637.099642	4897.627155
637.444762	4882.332294
637.789829	4907.248197
638.134845	4883.627871
638.479808	4895.136825
638.824719	4906.857508
639.169577	4878.926995
639.514383	4907.845574
639.859137	4876.645873
640.203839	4893.047267
640.548489	4898.209408
640.893086	4898.620262
641.237632	4895.887957
641.582125	4922.311165
641.926566	4919.052059
642.270955	4939.778763
642.615292	4954.682934
642.959576	4979.775278
643.303809	4979.498014
643.647990	5002.830995
643.992118	5002.931818
644.336195	4982.971369
644.680219	5017.208365
645.024192	5013.021687
645.368112	5092.061938
645.711981	5118.490187
646.055797	5175.984547
646.399562	5159.648688
646.743274	5257.144603
647.086935	5299.896108
647.430544	5310.215350
647.774101	5338.153425
648.117606	5352.961814
648.461059	5356.135221
648.804460	5352.301423
649.147810	5290.852278
649.491108	5291.598369
649.834354	5281.745434
650.177548	5240.544084
650.520690	5196.197053
650.863781	5190.024160
651.206820	5218.284869
651.549807	5170.587992
651.892742	5143.474146
652.235626	5159.686497
652.578458	5160.067104
652.921238	5103.598619
653.263967	5143.191841
653.606644	5107.326552
653.949269	5118.606134
654.291843	5081.944343
654.634365	5128.809429
654.976836	5107.200523
655.319255	5117.988593
655.661622	5111.409887
656.003938	5120.824242
656.346203	5090.181588
656.688416	5132.623062
657.030577	5101.743474
657.372687	5093.244089
657.714746	5088.260908
658.056753	5136.459380
658.398708	5094.012865
658.740612	5095.212659
659.082465	5141.099762
659.424266	5145.193179
659.766016	5151.479498
660.107715	5140.020955
660.449362	5157.614582
660.790958	5159.741949
661.132503	5158.411085
661.473996	5199.758628
661.815438	5194.039439
662.156829	5202.937076
662.498168	5203.214339
662.839456	5189.434345
663.180693	5225.420622
663.521879	5230.320624
663.863013	5229.955140
664.204097	5258.009161
664.545129	5299.265964
664.886110	5299.243279
665.227040	5334.538918
665.567918	5305.993384
665.908746	5336.467159
666.249522	5345.059806
666.590248	5340.772304
666.930922	5373.186924
667.271545	5388.703595
667.612118	5395.839348
667.952639	5378.180187
668.293109	5408.346451
668.633528	5383.901896
668.973896	5386.346856
669.314213	5387.271907
669.654480	5376.035176
669.994695	5376.156163
670.334859	5383.717894
670.674973	5377.343355
671.015035	5387.793667
671.355047	5390.525972
671.695008	5389.293410
672.034918	5371.931676
672.374777	5387.196290
672.714585	5373.512078
673.054342	5380.184045
673.394049	5386.412391
673.733705	5412.843160
674.073310	5411.739148
674.412864	5378.260845
674.752368	5383.985075
675.091820	5389.752155
675.431223	5337.858517
675.770574	5345.747923
676.109875	5306.041275
676.449125	5316.703315
676.788324	5296.032064
677.127473	5246.759826
677.466571	5244.788735
677.805619	5246.943828
678.144616	5234.696345
678.483562	5219.890476
678.822458	5199.226787
679.161303	5196.272671
679.500098	5193.510118
679.838842	5182.999313
680.177535	5193.923493
680.516179	5207.859763
680.854771	5223.943564
681.193314	5299.276047
681.531805	5402.415534
681.870247	5534.657602
682.208638	5624.634636
682.546978	5642.319004
682.885268	5625.708402
683.223508	5554.630653
683.561697	5508.335217
683.899836	5483.976362
684.237925	5447.954797
684.575963	5415.225106
684.913951	5382.704622
685.251889	5439.619249
685.589776	5409.435340
685.927614	5389.689141
686.265401	5458.180777
686.603137	5445.333397
686.940824	5518.258728
687.278460	5539.441657
687.616046	5543.943407
687.953582	5606.325166
688.291068	5592.252785
688.628504	5655.627650
688.965889	5623.444924
689.303224	5577.867852
689.640510	5537.367222
689.977745	5468.820133
690.314930	5380.904930
690.652065	5335.726109
690.989150	5251.954735
691.326185	5189.237740
691.663170	5146.246780
692.000105	5077.495524
692.336990	5007.796531
692.673825	4988.435980
693.010610	4921.277728
693.347345	4860.597359
693.684030	4855.886401
694.020665	4818.959949
694.357251	4733.063729
694.693786	4746.218620
695.030272	4716.806008
695.366707	4687.524466
695.703093	4655.228313
696.039429	4677.855532
696.375716	4669.046116
696.711952	4639.699039
697.048139	4630.204026
697.384276	4612.486891
697.720363	4625.208242
698.056400	4635.834995
698.392388	4586.174588
698.728326	4571.764450
699.064214	4547.279566
699.400053	4545.482394
699.735842	4517.645143
700.071581	4493.419878
700.407270	4468.995488
700.742910	4454.023261
701.078501	4404.882093
701.414042	4408.426024
701.749533	4375.154409
702.084974	4316.903876
702.420366	4376.664234
702.755709	4318.355728
703.091002	4267.213223
703.426246	4313.808608
703.761440	4271.311681
704.096584	4237.218357
704.431679	4260.145525
704.766725	4244.296137
705.101721	4232.081421
705.436668	4266.479735
705.771565	4215.420408
706.106413	4240.061568
706.441212	4272.748409
706.775961	4280.978093
707.110661	4260.412706
707.445311	4286.503198
707.779913	4316.409843
708.114465	4324.647088
708.448967	4348.968135
708.783421	4408.146240
709.117825	4448.107467
709.452180	4457.423519
709.786485	4495.925331
710.120742	4582.287858
710.454949	4563.892688
710.789107	4625.992142
711.123216	4695.814643
711.457275	4688.262995
711.791286	4762.196557
712.125247	4775.333804
712.459159	4683.166388
712.793023	4754.591976
713.126837	4722.280701
713.460602	4711.895924
713.794318	4634.925066
714.127985	4646.302951
714.461602	4564.900919
714.795171	4538.447464
715.128691	4476.088391
715.462162	4424.222480
715.795584	4375.943349
716.128957	4358.110268
716.462281	4309.458092
716.795556	4282.122435
717.128782	4246.025253
717.461960	4179.686189
717.795088	4195.621276
718.128167	4152.136283
718.461198	4095.554372
718.794180	4090.397272
719.127113	4071.364396
719.459997	4053.682548
719.792833	4013.116383
720.125619	4002.250176
720.458357	3967.377995
720.791046	3974.566680
721.123686	3947.515848
721.456278	3906.281731
721.788821	3924.029113
722.121315	3902.130340
722.453761	3870.476935
722.786158	3887.299266
723.118506	3912.366403
723.450805	3862.572406
723.783056	3883.788102
724.115259	3898.329310
724.447412	3903.793921
724.779518	3898.488107
725.111574	3903.123448
725.443582	3934.396246
725.775542	3918.695572
726.107453	3968.774394
726.439315	3968.232470
726.771129	3977.414932
727.102895	4018.051673
727.434612	4065.257038
727.766281	4073.317843
728.097901	4078.515272
728.429473	4080.120880
728.760996	4090.036829
729.092471	4081.857557
729.423897	4068.417841
729.755276	4072.745672
730.086606	4072.460847
730.417887	4109.949387
730.749120	4174.181249
731.080305	4239.875045
731.411442	4263.311369
731.742530	4234.155856
732.073570	4237.135178
732.404562	4296.277995
732.735506	4282.099750
733.066401	4243.439141
733.397249	4181.758103
733.728048	4108.676496
734.058798	4029.051471
734.389501	3957.441880
734.720156	3896.678332
735.050762	3855.151828
735.381320	3848.915920
735.711831	3799.535298
736.042293	3770.664610
736.372707	3792.076911
736.703073	3765.749485
737.033391	3755.175665
737.363661	3774.427831
737.693883	3796.918939
738.024056	3810.429231
738.354182	3802.191986
738.684260	3866.897716
739.014290	3885.958319
739.344272	3876.488511
739.674207	3922.751180
740.004093	3926.910132
740.333931	3918.975356
740.663722	3923.328392
740.993464	3920.250768
741.323159	3898.029362
741.652806	3869.035165
741.982405	3838.639528
742.311956	3811.061896
742.641460	3801.080412
742.970915	3776.691309
743.300323	3735.099269
743.629683	3702.793035
743.958996	3692.443546
744.288260	3671.384126
744.617477	3638.104949
744.946647	3623.692290
745.275768	3599.804782
745.604842	3597.132971
745.933869	3548.944581
746.262847	3540.152809
746.591778	3579.375507
746.920662	3552.468348
747.249498	3520.628420
747.578286	3564.856983
747.907027	3582.165785
748.235720	3576.431473
748.564365	3604.762757
748.892963	3606.627984
749.221514	3591.141560
749.550017	3567.334711
749.878473	3561.247517
750.206881	3529.576468
750.535242	3530.846839
750.863555	3532.492776
751.191821	3525.596477
751.520039	3509.343797
751.848210	3487.268585
752.176334	3523.675798
752.504411	3526.302239
752.832440	3488.622134
753.160421	3464.333855
753.488356	3482.207266
753.816243	3491.878720
754.144082	3447.055300
754.471875	3435.813527
754.799620	3452.328347
755.127318	3446.939354
755.454969	3445.243006
755.782572	3453.528142
756.110129	3426.399173
756.437638	3419.596135
756.765100	3429.696087
757.092515	3444.141513
757.419882	3448.146710
757.747203	3418.935744
758.074477	3420.947165
758.401703	3437.933333
758.728882	3459.448977
759.056014	3467.648414
759.383099	3469.967345
759.710138	3466.282261
760.037129	3485.002586
760.364073	3514.311854
760.690970	3495.863752
761.017820	3474.968169
761.344623	3495.100017
761.671379	3542.181873
761.998088	3589.193154
762.324751	3713.843244
762.651366	3964.093683
762.977935	4426.218777
763.304456	4855.868757
763.630931	4941.351603
763.957359	4587.195422
764.283740	4253.834000
764.610074	4065.244435
764.936362	3870.736555
765.262602	3714.796022
765.588796	3609.758541
765.914943	3521.808050
766.241044	3436.620112
766.567097	3409.723036
766.893104	3364.766026
767.219064	3335.829803
767.544978	3308.113539
767.870845	3249.981473
768.196665	3234.033783
768.522438	3243.876636
768.848165	3238.144844
769.173846	3202.934905
769.499479	3184.146524
769.825066	3168.841581
770.150607	3151.343736
770.476101	3168.690347
770.801548	3164.140705
771.126949	3119.937348
771.452303	3102.315995
771.777611	3112.216821
772.102872	3114.339147
772.428087	3090.169334
772.753256	3081.564085
773.078378	3072.588310
773.403453	3039.946839
773.728482	3028.778163
774.053465	3047.034702
774.378401	3034.479708
774.703291	3006.584483
775.028135	3006.960049
775.352932	3002.002074
775.677683	2992.900271
776.002388	2987.549086
776.327046	2988.456494
776.651658	2975.281438
776.976224	2967.129893
777.300743	2966.991261
777.625216	2959.212760
777.949643	2953.629683
778.274024	2956.616566
778.598359	2945.059721
778.922647	2947.723971
779.246889	2950.705813
779.571086	2935.284924
779.895236	2929.618667
780.219339	2938.130655
780.543397	2951.119188
780.867409	2953.042388
781.191374	2949.795885
781.515294	2941.354473
781.839167	2944.404371
782.162995	2933.802824
782.486776	2945.321861
782.810511	2942.055193
783.134201	2928.625559
783.457844	2934.052362
783.781441	2925.416865
784.104993	2907.114956
784.428498	2907.303999
784.751958	2921.215063
785.075372	2914.613672
785.398739	2897.282185
785.722061	2915.427819
786.045337	2927.506423
786.368568	2909.862385
786.691752	2904.541447
787.014891	2950.584826
787.337983	2975.145327
787.661030	3009.155472
787.984031	3071.214596
788.306987	3117.096658
788.629897	3109.096347
788.952760	3094.056064
789.275579	3078.589804
789.598351	3018.380783
789.921078	2976.443424
790.243759	2967.041672
790.566395	2950.136163
790.888984	2929.154881
791.211529	2914.220462
791.534027	2900.427865
791.856480	2894.149108
792.178888	2877.024309
792.501249	2872.388968
792.823566	2866.662217
793.145836	2864.144161
793.468062	2863.382946
793.790241	2862.253728
794.112375	2867.413349
794.434464	2879.809546
794.756507	2884.008827
795.078505	2887.996380
795.400457	2902.265366
795.722364	2937.364400
796.044226	2960.407514
796.366042	2961.246866
796.687812	2950.002572
797.009538	2972.735656
797.331218	2956.724951
797.652852	2943.118877
797.974442	2928.862494
798.295986	2923.581885
798.617484	2917.887902
798.938938	2902.061199
799.260346	2887.010834
799.581709	2884.880947
799.903026	2876.187477
800.224299	2871.088350
800.545526	2863.382946
800.866708	2846.913497
801.187845	2835.505366
801.508936	2836.367403
801.829983	2844.271932
802.150984	2831.328770
802.471940	2820.528097
802.792851	2818.977943
803.113717	2817.349650
803.434538	2825.002122
803.755314	2818.453663
804.076045	2810.949905
804.396731	2811.627940
804.717372	2814.614824
805.037967	2806.596869
805.358518	2816.404434
805.679024	2825.158397
805.999485	2824.253510
806.319901	2827.595795
806.640272	2816.031388
806.960598	2822.302584
807.280879	2831.941270
807.601115	2840.087774
807.921306	2824.820640
808.241453	2820.891061
808.561554	2826.610250
808.881611	2828.561176
809.201623	2825.952379
809.521590	2825.299550
809.841513	2820.639003
810.161390	2823.409117
810.481223	2817.775627
810.801011	2808.956129
811.120755	2801.003709
811.440453	2806.415387
811.760107	2805.656694
812.079716	2804.633339
812.399281	2795.413069
812.718801	2790.361833
813.038276	2781.978394
813.357707	2791.417955
813.677093	2797.363996
813.996434	2792.123716
814.315731	2787.455608
814.634983	2782.979063
814.954191	2786.500309
815.273354	2797.966413
815.592473	2805.515541
815.911547	2805.649132
816.230577	2816.921152
816.549562	2822.920125
816.868502	2820.089517
817.187399	2832.848677
817.506250	2847.130266
817.825058	2842.774709
818.143821	2855.473376
818.462539	2869.200438
818.781213	2895.878224
819.099843	2930.851229
819.418429	2987.047491
819.736970	3044.690565
820.055466	3116.920217
820.373919	3220.357132
820.692327	3356.435519
821.010691	3518.425436
821.329011	3951.115232
821.647286	4832.084593
821.965517	6176.247772
822.283704	6882.949486
822.601847	6851.071750
822.919945	6237.351598
823.237999	5750.988637
823.556010	5183.095094
823.873976	4646.423938
824.191897	4252.225872
824.509775	3966.750371
824.827609	3706.261349
825.145398	3584.250302
825.463144	3577.893407
825.780845	3668.084691
826.098502	3771.062861
826.416116	4048.122156
826.733685	4350.397302
827.051210	4411.095315
827.368692	4297.805465
827.686129	4035.347872
828.003522	3719.028071
828.320872	3468.644042
828.638177	3283.588325
828.955439	3149.012203
829.272656	3071.776685
829.589830	3004.184894
829.906960	2958.592698
830.224046	2912.773651
830.541088	2881.372304
830.858086	2866.374871
831.175041	2849.061028
831.491952	2849.366018
831.808819	2862.218440
832.125642	2885.095196
832.442421	2930.092535
832.759157	3007.043228
833.075849	3183.259281
833.392497	3455.176599
833.709101	3655.302845
834.025662	3598.942745
834.342179	3443.390382
834.658653	3273.788322
834.975083	3129.888586
835.291469	3035.492980
835.607811	2953.957358
835.924110	2897.965262
836.240366	2847.548682
836.556578	2806.120480
836.872746	2786.729682
837.188871	2763.363933
837.504952	2746.929772
837.820990	2738.868967
838.136984	2726.399673
838.452935	2716.808878
838.768842	2715.692262
839.084706	2736.086250
839.400526	2811.383444
839.716303	2940.522683
840.032037	3016.046729
840.347727	2999.292454
840.663373	2944.021243
840.978977	2871.763865
841.294537	2798.984727
841.610054	2757.536360
841.925527	2733.212792
842.240957	2711.331664
842.556344	2692.021524
842.871687	2676.630882
843.186987	2666.992195
843.502244	2662.929025
843.817458	2659.674961
844.132629	2646.840183
844.447756	2635.457257
844.762840	2633.861732
845.077881	2637.090591
845.392879	2633.297123
845.707833	2627.910650
846.022745	2620.721965
846.337613	2622.758591
846.652438	2623.658437
846.967221	2624.349075
847.281960	2619.670884
847.596656	2620.663992
847.911309	2619.449073
848.225919	2618.811367
848.540485	2614.566716
848.855009	2615.017899
849.169490	2613.618979
849.483928	2614.070162
849.798323	2613.187960
850.112675	2609.954060
850.426984	2610.743001
850.741251	2612.086468
851.055474	2610.417846
851.369654	2615.862292
851.683792	2611.587394
851.997887	2610.354832
852.311938	2611.234513
852.625947	2613.472786
852.939914	2615.859772
853.253837	2615.953033
853.567718	2611.007661
853.881555	2609.263422
854.195350	2613.129987
854.509103	2612.830038
854.822812	2609.870881
855.136479	2610.478340
855.450103	2613.331633
855.763685	2615.738784
856.077224	2608.918103
856.390720	2607.403236
856.704173	2611.388268
857.017584	2616.343723
857.330953	2618.884464
857.644278	2618.629886
857.957561	2617.714917
858.270802	2611.799122
858.584000	2616.525204
858.897155	2617.611573
859.210268	2620.331275
859.523339	2614.428084
859.836367	2607.546909
860.149352	2611.327775
860.462295	2609.961622
860.775195	2610.175871
861.088054	2609.477671
861.400869	2603.158585
861.713642	2604.423914
862.026373	2605.616147
862.339062	2608.280397
862.651708	2615.451438
862.964312	2614.067642
863.276873	2612.567898
863.589392	2613.616458
863.901869	2621.062243
864.214303	2624.149949
864.526696	2627.361164
864.839045	2629.102883
865.151353	2629.009622
865.463619	2632.296454
865.775842	2631.752009
866.088023	2627.633387
866.400162	2633.266876
866.712258	2632.372071
867.024313	2626.960393
867.336325	2625.962244
867.648296	2627.754374
867.960224	2635.908441
868.272110	2629.181021
868.583954	2622.579630
868.895755	2627.293109
869.207515	2629.304529
869.519233	2637.004892
869.830909	2631.454581
870.142542	2630.910137
870.454134	2630.615229
870.765684	2637.972793
871.077191	2639.031436
871.388657	2640.720222
871.700081	2639.165026
872.011463	2638.519758
872.322803	2639.810294
872.634101	2641.642753
872.945357	2651.258754
873.256571	2655.732778
873.567744	2652.755977
873.878874	2649.189361
874.189963	2652.967705
874.501010	2656.849394
874.812015	2660.771412
875.122979	2660.844508
875.433900	2653.686070
875.744780	2651.863693
876.055618	2657.033396
876.366415	2662.084632
876.677169	2661.545229
876.987882	2655.732778
877.298554	2653.328148
877.609183	2665.479849
877.919771	2673.097033
878.230317	2677.646674
878.540822	2687.522294
878.851285	2701.844212
879.161707	2725.008314
879.472087	2761.087852
879.782425	2805.941519
880.092722	2915.558889
880.402977	3095.240735
880.713191	3345.967563
881.023363	3621.486785
881.333494	3806.308088
881.643583	3971.161381
881.953631	3969.447388
882.263637	3796.934063
882.573602	3581.432297
882.883526	3458.382773
883.193408	3349.725743
883.503248	3253.815271
883.813048	3145.533807
884.122806	3032.455685
884.432522	2954.799230
884.742197	2896.226064
885.051831	2857.719210
885.361424	2825.171000
885.670975	2790.366874
885.980485	2762.572472
886.289954	2746.844072
886.599382	2730.956876
886.908768	2721.366081
887.218113	2704.558874
887.527417	2688.505319
887.836680	2683.133970
888.145901	2680.661284
888.455082	2671.998061
888.764221	2660.242090
889.073319	2653.192037
889.382376	2650.878147
889.691392	2652.526604
890.000366	2654.749753
890.309300	2651.967036
890.618193	2652.907212
890.927044	2656.441060
891.235855	2656.557007
891.544625	2653.393683
891.853353	2656.219250
892.162041	2663.654952
892.470687	2683.829649
892.779293	2690.665454
893.087858	2700.064685
893.396381	2722.792727
893.704864	2761.201278
894.013306	2828.939263
894.321707	2917.966040
894.630068	2961.607308
894.938387	2981.603045
895.246665	2975.341932
895.554903	2934.112855
895.863100	2893.602143
896.171256	2836.664831
896.479371	2779.135183
896.787446	2742.468351
897.095480	2726.568552
897.403473	2720.027654
897.711425	2706.003164
898.019336	2689.780731
898.327207	2674.485871
898.635038	2673.888494
898.942827	2674.170798
899.250576	2662.351813
899.558284	2650.537869
899.865952	2647.974442
900.173579	2644.422950
900.481165	2642.996303
900.788711	2638.335756
901.096216	2631.341155
901.403681	2625.206071
901.711105	2629.443161
902.018489	2623.580299
902.325832	2630.640435
902.633135	2629.165897
902.940397	2645.995790
903.247619	2679.753876
903.554800	2743.738722
903.861941	2867.783874
904.169041	2982.598673
904.476101	3040.105636
904.783121	3035.654297
905.090100	2977.497025
905.397039	2907.583783
905.703938	2839.815552
906.010796	2782.530400
906.317614	2734.357134
906.624391	2697.216433
906.931129	2675.181550
907.237826	2652.241779
907.544483	2636.296610
907.851099	2621.712552
908.157675	2615.043105
908.464211	2610.107815
908.770707	2597.618357
909.077163	2593.915629
909.383578	2589.464290
909.689954	2589.305494
909.996289	2587.006728
910.302584	2583.442632
910.608839	2581.960533
910.915054	2584.244176
911.221229	2586.341296
911.527363	2589.565113
911.833458	2586.353898
912.139513	2585.542273
912.445527	2588.955134
912.751502	2596.557194
913.057436	2600.340580
913.363331	2605.434666
913.669186	2613.336674
913.975000	2628.810496
914.280775	2642.000675
914.586510	2658.157573
914.892205	2695.943542
915.197859	2758.458891
915.503475	2836.821107
915.809050	2898.784449
916.114585	2911.543610
916.420081	2921.802358
916.725536	2934.120417
917.030952	2908.208886
917.336328	2864.318080
917.641665	2816.759835
917.946961	2771.323915
918.252218	2739.163874
918.557435	2716.922304
918.862612	2693.022193
919.167750	2679.464010
919.472848	2661.255362
919.777906	2649.108702
920.082925	2636.735190
920.387904	2628.208078
920.692843	2625.188427
920.997743	2620.086779
921.302603	2612.698968
921.607423	2607.002465
921.912204	2601.736979
922.216946	2601.063985
922.521647	2597.540219
922.826310	2593.124168
923.130932	2588.508992
923.435516	2584.198805
923.740059	2580.115471
924.044564	2581.942889
924.349028	2580.856520
924.653454	2572.306723
924.957840	2570.174315
925.262186	2568.520817
925.566493	2568.178018
925.870761	2562.274827
926.174989	2566.186762
926.479178	2566.113666
926.783328	2561.329611
927.087438	2560.933880
927.391509	2561.006977
927.695541	2560.157543
927.999533	2557.732748
928.303486	2556.159908
928.607400	2555.809547
928.911275	2557.468087
929.215110	2556.580844
929.518906	2555.781821
929.822663	2553.780483
930.126381	2556.235525
930.430060	2558.327604
930.733699	2555.731409
931.037299	2557.659651
931.340861	2555.658313
931.644383	2558.564538
931.947866	2557.311811
932.251309	2558.325083
932.554714	2556.999260
932.858080	2557.427758
933.161407	2554.627397
933.464694	2556.391801
933.767943	2554.060267
934.071153	2554.841646
934.374323	2552.384083
934.677455	2556.061605
934.980548	2552.479865
935.283602	2553.130174
935.586617	2553.886347
935.889593	2551.209494
936.192530	2552.898281
936.495428	2554.350133
936.798287	2554.798796
937.101108	2557.216029
937.403890	2558.037737
937.706632	2561.443037
938.009336	2563.666186
938.312002	2565.947308
938.614628	2570.081054
938.917216	2574.749162
939.219765	2573.914851
939.522275	2576.352249
939.824747	2574.489543
940.127179	2569.488718
940.429573	2565.901937
940.731929	2565.748182
941.034246	2562.473953
941.336524	2565.851526
941.638763	2564.820610
941.940964	2566.930333
942.243126	2562.486556
942.545250	2562.433623
942.847335	2563.184755
943.149381	2559.923129
943.451389	2557.488252
943.753359	2558.740978
944.055290	2558.544373
944.357182	2558.491441
944.659036	2559.340876
944.960851	2555.431461
945.262628	2556.059084
945.564367	2557.329455
945.866067	2557.032027
946.167729	2556.787531
946.469352	2556.689229
946.770937	2556.258210
947.072484	2555.970864
947.373992	2554.100596
947.675462	2555.716286
947.976893	2558.315001
948.278286	2552.845349
948.579641	2554.695452
948.880958	2555.166800
949.182236	2555.348282
949.483476	2553.909032
949.784678	2556.825340
950.085841	2552.482386
950.386967	2552.933569
950.688054	2555.549928
950.989103	2554.821481
951.290114	2554.624876
951.591087	2556.840463
951.892021	2559.144271
952.192917	2558.481359
952.493776	2559.295505
952.794596	2561.160732
953.095378	2562.332800
953.396122	2560.707028
953.696828	2558.889692
953.997496	2557.299208
954.298126	2557.147974
954.598718	2554.004814
954.899272	2556.081770
955.199788	2555.449105
955.500266	2552.595812
955.800706	2549.061963
956.101108	2546.024668
956.401472	2544.401416
956.701798	2541.676672
957.002087	2543.420912
957.302337	2547.310162
957.602550	2548.419216
957.902724	2544.524924
958.202861	2544.315717
958.502960	2544.782023
958.803022	2545.656663
959.103045	2540.161806
959.403031	2546.256561
959.702979	2541.175078
960.002889	2548.338557
960.302762	2542.871426
960.602596	2542.357228
960.902393	2541.563247
961.202153	2541.643905
961.501875	2541.021322
961.801559	2542.042156
962.101205	2541.717002
962.400814	2543.360418
962.700385	2538.944367
962.999918	2540.945705
963.299414	2539.324974
963.598873	2541.545602
963.898293	2542.233720
964.197677	2535.995292
964.497022	2541.860675
964.796331	2539.269522
965.095601	2542.684903
965.394835	2541.364121
965.694030	2539.188863
965.993189	2541.903524
966.292309	2541.880839
966.591393	2540.902855
966.890439	2538.722556
967.189447	2538.193235
967.488419	2540.000489
967.787353	2541.525438
968.086249	2540.832279
968.385108	2541.522917
968.683930	2537.784902
968.982714	2542.768082
969.281462	2540.567619
969.580172	2541.205325
969.878844	2539.806404
970.177480	2541.008720
970.476078	2539.483771
970.774639	2540.350849
971.073162	2541.974101
971.371649	2539.637526
971.670098	2537.313554
971.968510	2538.762886
972.266885	2539.082999
972.565223	2543.504091
972.863524	2539.821528
973.161788	2542.803370
973.460014	2542.344625
973.758204	2539.715664
974.056356	2539.541744
974.354471	2539.395550
974.652550	2541.318751
974.950591	2542.500901
975.248595	2543.635161
975.546563	2540.519728
975.844493	2541.429656
976.142386	2541.807742
976.440243	2539.433359
976.738062	2540.386137
977.035845	2539.796322
977.333590	2539.082999
977.631299	2541.036446
977.928971	2539.488812
978.226606	2542.125335
978.524204	2538.967052
978.821765	2539.037628
979.119290	2539.672814
979.416777	2540.504604
979.714228	2540.025695
980.011642	2540.560057
980.309020	2541.119625
980.606360	2540.227341
980.903664	2543.110881
981.200931	2540.948226
981.498162	2543.443597
981.795356	2544.310675
982.092513	2546.148176
982.389633	2547.605069
982.686717	2552.363919
982.983764	2551.401058
983.280775	2557.775597
983.577749	2557.069836
983.874686	2552.847869
984.171587	2550.385266
984.468451	2550.788558
984.765279	2546.974925
985.062070	2545.669266
985.358824	2544.529966
985.655543	2544.736653
985.952224	2541.633823
986.248869	2542.712630
986.545478	2535.614685
986.842050	2539.279604
987.138586	2536.733821
987.435086	2531.687626
987.731549	2535.443286
988.027975	2537.721887
988.324366	2539.854295
988.620719	2539.438400
988.917037	2539.377906
989.213318	2540.139121
989.509563	2538.498225
989.805772	2538.364634
990.101944	2538.394881
990.398080	2539.133410
990.694180	2537.197607
990.990244	2537.636188
991.286271	2536.411187
991.582262	2535.662576
991.878217	2539.428318
992.174136	2539.506456
992.470019	2534.876156
992.765865	2538.722556
993.061676	2540.739018
993.357450	2539.577032
993.653188	2537.142155
993.948890	2540.076106
994.244556	2537.484953
994.540186	2538.029398
994.835780	2537.580735
995.131337	2538.001671
995.426859	2540.325643
995.722345	2539.146013
996.017795	2542.866385
996.313208	2543.075593
996.608586	2543.670449
996.903928	2542.389996
997.199234	2540.759183
997.494504	2543.723381
997.789738	2541.487629
998.084936	2542.926879
998.380099	2539.917310
998.675225	2539.778678
998.970316	2538.427649
999.265371	2539.082999
999.560390	2538.682227
999.855373	2536.191897
1000.150320	2539.398071
1000.445232	2540.113915
1000.740108	2535.876825
1001.034948	2537.051414
1001.329752	2538.261291
1001.624521	2538.898997
1001.919254	2535.929757
1002.213951	2534.699716
1002.508613	2534.964376
1002.803239	2533.777184
1003.097829	2533.878008
1003.392384	2537.225334
1003.686903	2537.028729
1003.981386	2537.593338
1004.275834	2537.429500
1004.570246	2539.592155
1004.864623	2536.733821
1005.158964	2537.520241
1005.453270	2536.877494
1005.747540	2537.331198
1006.041775	2535.798687
1006.335974	2535.818852
1006.630138	2538.893956
1006.924266	2534.283820
1007.218359	2536.600231
1007.512416	2536.045704
1007.806438	2535.365148
1008.100425	2537.699202
1008.394376	2536.146527
1008.688292	2535.097967
1008.982172	2537.764737
1009.276017	2538.165509
1009.569827	2535.518903
1009.863602	2537.164840
1010.157341	2536.048224
1010.451045	2536.607792
1010.744714	2534.200641
1011.038347	2537.885725
1011.331945	2538.384799
1011.625508	2537.323636
1011.919036	2535.435724
1012.212528	2537.709284
1012.505986	2537.124511
1012.799408	2535.211393
1013.092795	2536.920344
1013.386147	2538.853626
1013.679464	2538.679707
1013.972745	2535.453368
1014.265992	2535.370189
1014.559204	2537.116949
1014.852380	2534.853471
1015.145521	2535.685261
1015.438628	2534.324150
1015.731699	2537.673996
1016.024736	2535.087884
1016.317737	2535.070240
1016.610703	2535.912113
1016.903635	2534.692154
1017.196531	2533.386495
1017.489393	2530.802904
1017.782219	2528.206709
1018.075011	2533.988913
1018.367768	2537.747093
1018.660490	2535.367668
1018.953177	2535.367668
1019.245829	2535.367668
