Dividing Wavelength (nm)	Counts (n)	Blue Motor Position (mm): 15.500000	Red Motor Position (mm): 0.000000	
326.493990	2157.344144
326.888308	2157.344144
327.282561	2157.344144
327.676750	2133.421349
328.070874	2132.181225
328.464933	2138.240692
328.858929	2147.839049
329.252859	2163.388488
329.646726	2174.247133
330.040528	2187.089473
330.434265	2206.944057
330.827938	2227.718652
331.221547	2243.573081
331.615091	2266.759868
332.008571	2285.674277
332.401986	2306.335446
332.795338	2324.740699
333.188625	2345.311127
333.581847	2368.162678
333.975006	2386.247817
334.368100	2404.143913
334.761129	2419.171593
335.154095	2436.523244
335.546996	2460.347738
335.939833	2483.022847
336.332606	2497.667399
336.725315	2510.658453
337.117960	2518.275636
337.510540	2526.701925
337.903056	2534.785415
338.295508	2541.611138
338.687896	2549.019113
339.080220	2557.508416
339.472480	2562.831875
339.864676	2566.842113
340.256807	2570.133986
340.648875	2571.888307
341.040879	2573.317475
341.432818	2573.143555
341.824694	2573.735890
342.216506	2575.800243
342.608253	2572.969635
342.999937	2575.079358
343.391557	2574.136662
343.783113	2573.705643
344.174605	2571.099367
344.566033	2570.025601
344.957397	2567.620971
345.348697	2567.747000
345.739934	2565.226423
346.131106	2562.879766
346.522215	2561.243911
346.913260	2558.340207
347.304241	2558.178890
347.695159	2553.987170
348.086012	2554.662685
348.476802	2554.067829
348.867528	2550.302087
349.258191	2548.472148
349.648789	2549.873589
350.039324	2545.283618
350.429796	2548.996428
350.820203	2544.524924
351.210548	2545.271015
351.600828	2546.067518
351.991045	2542.067362
352.381198	2545.923845
352.771288	2545.911242
353.161314	2544.131714
353.551276	2543.206663
353.941175	2544.184647
354.331010	2543.761190
354.720782	2543.809081
355.110490	2545.994421
355.500135	2544.361087
355.889717	2544.474513
356.279235	2545.765048
356.668689	2546.072559
357.058080	2544.686241
357.447408	2541.260777
357.836672	2542.778165
358.225873	2543.438556
358.615010	2541.585932
359.004084	2547.174051
359.393095	2548.096582
359.782043	2548.260419
360.170927	2545.707075
360.559748	2549.676984
360.948505	2548.154555
361.337199	2550.581871
361.725830	2551.204453
362.114398	2551.020451
362.502903	2549.424926
362.891344	2552.363919
363.279722	2552.696635
363.668037	2555.093703
364.056289	2554.271995
364.444478	2554.725699
364.832603	2554.733261
365.220665	2552.580688
365.608665	2553.238559
365.996601	2556.517829
366.384474	2555.751574
366.772284	2555.943138
367.160031	2556.069167
367.547715	2556.782490
367.935336	2556.903478
368.322893	2556.837943
368.710388	2556.288457
369.097820	2561.720300
369.485189	2557.397511
369.872495	2556.570762
370.259738	2556.928683
370.646918	2558.352809
371.034035	2555.625545
371.421090	2559.847512
371.808081	2559.759291
372.195010	2558.579661
372.581875	2558.902295
372.968678	2560.404559
373.355418	2562.083263
373.742096	2561.115362
374.128710	2561.133006
374.515262	2562.675599
374.901751	2561.329611
375.288177	2563.746844
375.674540	2560.165104
376.060841	2561.911864
376.447079	2562.799107
376.833254	2562.899930
377.219367	2556.444733
377.605417	2559.376164
377.991404	2557.634445
378.377329	2558.935063
378.763191	2556.326266
379.148991	2563.061247
379.534727	2564.014025
379.920402	2560.291133
380.306013	2563.088973
380.691563	2563.512430
381.077049	2563.399004
381.462474	2563.895558
381.847835	2565.901937
382.233134	2563.935887
382.618371	2566.151474
383.003545	2567.522668
383.388657	2563.872873
383.773706	2566.569890
384.158693	2568.286403
384.543618	2567.754561
384.928480	2567.232802
385.313280	2567.991496
385.698017	2566.166598
386.082692	2567.484860
386.467305	2567.326063
386.851856	2567.827658
387.236344	2567.747000
387.620770	2565.556618
388.005133	2569.750858
388.389435	2568.530899
388.773674	2568.475446
389.157851	2566.433779
389.541965	2569.670200
389.926018	2568.951835
390.310008	2569.455951
390.693936	2570.910324
391.077802	2573.027608
391.461606	2571.031311
391.845348	2570.280179
392.229027	2572.294120
392.612645	2570.537278
392.996200	2572.238668
393.379694	2571.701785
393.763125	2572.921744
394.146494	2573.221693
394.529801	2572.601631
394.913047	2573.428380
395.296230	2572.946950
395.679351	2570.378482
396.062410	2571.568194
396.445408	2569.811352
396.828343	2572.533575
397.211217	2572.863771
397.594028	2569.889490
397.976778	2570.746486
398.359466	2572.210941
398.742092	2568.903944
399.124656	2576.382496
399.507158	2575.538103
399.889598	2575.538103
400.271977	2573.972825
400.654294	2575.144893
401.036549	2574.648339
401.418742	2574.343349
401.800874	2575.901066
402.182944	2576.417784
402.564952	2573.645150
402.946898	2576.773186
403.328783	2575.638926
403.710606	2572.876374
404.092367	2576.886612
404.474067	2575.555747
404.855705	2576.357290
405.237282	2576.490881
405.618797	2576.049780
406.000250	2578.456931
406.381642	2576.954667
406.762972	2577.851992
407.144240	2578.789647
407.525447	2580.158320
407.906593	2575.394430
408.287677	2581.337950
408.668700	2576.437949
409.049661	2578.882908
409.430560	2577.534400
409.811399	2581.653022
410.192176	2576.926941
410.572891	2578.403999
410.953545	2579.601273
411.334138	2579.306365
411.714669	2579.863413
412.095139	2580.720409
412.475547	2582.036150
412.855894	2582.333578
413.236180	2578.572877
413.616405	2580.967426
413.996568	2579.029102
414.376670	2581.431212
414.756711	2579.840728
415.136691	2582.681418
415.516609	2579.684452
415.896466	2581.017837
416.276262	2579.444997
416.655997	2575.795202
417.035670	2579.140007
417.415283	2580.218814
417.794834	2578.895511
418.174324	2579.984401
418.553753	2581.670667
418.933121	2581.900039
419.312428	2582.028588
419.691674	2581.892477
420.070859	2583.906418
420.449983	2581.146387
420.829045	2581.093454
421.208047	2581.947930
421.586988	2582.487333
421.965867	2583.944227
422.344686	2585.272571
422.723444	2582.063877
423.102141	2584.949937
423.480777	2584.415575
423.859352	2585.464135
424.237866	2583.911459
424.616319	2585.975812
424.994712	2584.496233
425.373044	2584.904567
425.751314	2583.961871
426.129524	2585.254927
426.507673	2584.259299
426.885762	2586.933631
427.263789	2582.860379
427.641756	2584.707962
428.019662	2585.512026
428.397508	2585.617890
428.775292	2587.140318
429.153016	2585.484299
429.530679	2587.677201
429.908282	2587.014290
430.285824	2585.554876
430.663305	2586.401789
431.040726	2585.108733
431.418086	2585.358271
431.795385	2585.607808
432.172624	2585.575040
432.549802	2585.885071
432.926920	2585.786769
433.303977	2588.546800
433.680974	2584.478589
434.057910	2587.319279
434.434786	2587.697366
434.811601	2587.276430
435.188355	2587.672160
435.565050	2585.199474
435.941683	2585.592684
436.318257	2582.099165
436.694770	2583.898857
437.071222	2585.050760
437.447614	2586.074114
437.823946	2583.911459
438.200218	2589.575196
438.576429	2585.592684
438.952580	2589.549990
439.328670	2588.924887
439.704700	2588.834146
440.080670	2589.618046
440.456580	2588.035123
440.832429	2589.204671
441.208218	2588.700556
441.583947	2586.321131
441.959616	2589.741554
442.335224	2588.214084
442.710773	2591.493355
443.086261	2588.536718
443.461689	2589.756677
443.837057	2589.315576
444.212365	2590.815320
444.587612	2587.021851
444.962800	2591.072418
445.337927	2587.778024
445.712995	2590.767429
446.088002	2591.044692
446.462949	2590.369178
446.837837	2590.399424
447.212664	2591.195927
447.587431	2590.361616
447.962139	2590.472521
448.336786	2590.505289
448.711374	2591.024527
449.085901	2592.093252
449.460369	2591.495875
449.834776	2589.676019
450.209124	2589.486976
450.583412	2590.757346
450.957640	2592.947728
451.331808	2591.480752
451.705917	2591.364805
452.079965	2594.182810
452.453954	2591.924373
452.827883	2590.616194
453.201752	2593.252718
453.575562	2589.769280
453.949311	2590.018817
454.323001	2592.587285
454.696632	2594.913778
455.070202	2592.735999
455.443713	2593.668613
455.817164	2588.226687
456.190556	2588.282140
456.563888	2588.723241
456.937160	2589.713827
457.310373	2591.437902
457.683526	2592.804055
458.056619	2594.855804
458.429653	2592.277254
458.802628	2592.123499
459.175542	2594.369333
459.548398	2594.462594
459.921194	2595.122986
460.293930	2593.507296
460.666607	2594.016452
461.039224	2594.467636
461.411782	2593.419076
461.784280	2593.857656
462.156719	2595.138109
462.529099	2593.018304
462.901419	2595.672471
463.273680	2597.046186
463.645882	2593.938314
464.018024	2594.094590
464.390106	2596.080805
464.762130	2596.899992
465.134094	2597.207503
465.505999	2597.953593
465.877845	2596.428644
466.249631	2596.930239
466.621358	2598.661876
466.993026	2599.849067
467.364634	2598.646752
467.736184	2595.359920
468.107674	2594.959148
468.479105	2594.112234
468.850477	2595.969899
469.221790	2596.163984
469.593043	2597.608274
469.964238	2599.382761
470.335373	2598.709767
470.706449	2594.845722
471.077467	2597.520054
471.448425	2599.302102
471.819324	2598.238419
472.190164	2597.782194
472.560945	2599.392843
472.931667	2596.640373
473.302330	2600.360744
473.672934	2597.124324
474.043479	2598.898810
474.413965	2600.499376
474.784393	2592.380598
475.154761	2597.658686
475.525070	2594.230701
475.895321	2593.502255
476.265513	2593.840012
476.635645	2598.253542
477.005719	2598.251022
477.375734	2600.237236
477.745691	2600.708584
478.115588	2601.699171
478.485427	2599.097935
478.855207	2601.608430
479.224928	2601.182453
479.594591	2602.523399
479.964194	2601.981475
480.333739	2601.648759
480.703226	2603.584562
481.072653	2602.258739
481.442022	2605.185129
481.811333	2605.525407
482.180584	2602.757813
482.549777	2604.822166
482.918912	2602.173039
483.287988	2604.330653
483.657005	2602.538523
484.025964	2606.208483
484.394864	2604.696137
484.763706	2610.092692
485.132489	2607.113370
485.501213	2605.863164
485.869879	2605.485077
486.238487	2602.435179
486.607036	2608.761827
486.975527	2608.678648
487.343959	2606.475664
487.712333	2607.191508
488.080648	2608.056066
488.448905	2607.720829
488.817104	2607.746035
489.185244	2611.211828
489.553326	2611.834411
489.921350	2611.962960
490.289315	2609.598659
490.657222	2613.661829
491.025070	2616.646192
491.392861	2615.522015
491.760593	2613.712240
492.128267	2615.534617
492.495883	2614.370111
492.863440	2614.743156
493.230939	2612.565378
493.598380	2615.433794
493.965763	2611.599997
494.333088	2611.010182
494.700354	2612.487240
495.067563	2613.311469
495.434713	2610.679986
495.801805	2613.548403
496.168839	2613.608897
496.535815	2617.432612
496.902733	2612.976232
497.269593	2618.440843
497.636395	2616.988990
498.003139	2616.779782
498.369825	2617.306583
498.736453	2618.403034
499.103023	2618.294649
499.469535	2619.464197
499.835989	2618.027468
500.202385	2620.021244
500.568723	2614.738115
500.935003	2620.827829
501.301226	2619.323045
501.667390	2621.006790
502.033497	2620.288426
502.399546	2620.847994
502.765537	2620.888323
503.131470	2623.338324
503.497345	2622.975361
503.863163	2623.872686
504.228923	2624.459980
504.594625	2623.393776
504.960269	2625.193468
505.325856	2624.966616
505.691385	2623.986112
506.056856	2623.701287
506.422270	2624.933849
506.787625	2622.536780
507.152924	2623.353447
507.518164	2627.308232
507.883347	2623.958386
508.248472	2625.274127
508.613540	2626.272275
508.978550	2626.322687
509.343503	2627.759416
509.708398	2631.273100
510.073236	2632.051958
510.438016	2631.005919
510.802738	2627.325876
511.167403	2631.568007
511.532010	2633.100518
511.896561	2633.881897
512.261053	2636.531023
512.625488	2628.523150
512.989866	2631.235291
513.354186	2632.155302
513.718449	2632.155302
514.082655	2632.571197
514.446803	2634.539767
514.810894	2639.661580
515.174927	2639.356590
515.538904	2638.650828
515.902822	2639.250726
516.266684	2637.657721
516.630488	2640.039666
516.994235	2642.013278
517.357925	2643.233237
517.721558	2642.300624
518.085133	2644.667446
518.448651	2647.573671
518.812112	2645.884884
519.175516	2647.361942
519.538863	2647.828249
519.902152	2647.379586
520.265385	2649.542241
520.628560	2652.135915
520.991678	2652.347643
521.354739	2651.591470
521.717743	2652.057777
522.080690	2654.787562
522.443580	2658.139929
522.806413	2658.669250
523.169189	2657.449291
523.531908	2661.086484
523.894569	2660.128664
524.257174	2662.782832
524.619722	2660.763850
524.982213	2664.849705
525.344647	2667.087977
525.707025	2666.430107
526.069345	2667.700477
526.431608	2669.371620
526.793815	2672.043432
527.155964	2673.250788
527.518057	2672.635767
527.880093	2674.455624
528.242072	2677.339164
528.603995	2679.128773
528.965860	2680.827642
529.327669	2681.528362
529.689421	2684.623631
530.051117	2683.779238
530.412755	2688.165042
530.774337	2688.908612
531.135862	2692.127388
531.497331	2690.557069
531.858743	2693.722914
532.220098	2694.264838
532.581396	2694.884900
532.942638	2696.283820
533.303824	2704.049717
533.664953	2704.750438
534.026025	2707.651622
534.387040	2713.335523
534.747999	2714.910883
535.108902	2718.522870
535.469748	2718.293497
535.830537	2725.043602
536.191270	2726.986967
536.551947	2729.174828
536.912567	2732.859912
537.273131	2737.941395
537.633638	2740.018350
537.994089	2744.391551
538.354483	2746.423136
538.714821	2754.597367
539.075103	2759.966196
539.435328	2762.711104
539.795497	2764.765374
540.155609	2770.169491
540.515665	2779.437652
540.875665	2783.130298
541.235609	2785.993673
541.595496	2794.079684
541.955328	2802.332053
542.315102	2803.138637
542.674821	2808.898156
543.034483	2817.357212
543.394090	2819.902994
543.753640	2829.508913
544.113134	2840.322188
544.472571	2843.001561
544.831953	2856.179137
545.191278	2861.762215
545.550548	2867.494007
545.909761	2877.800646
546.268918	2885.553941
546.628019	2899.091960
546.987064	2904.554050
547.346053	2912.093095
547.704986	2921.822522
548.063863	2929.535488
548.422684	2941.256170
548.781449	2952.054322
549.140158	2962.923050
549.498811	2976.113229
549.857408	2979.982314
550.215949	2996.028307
550.574434	3004.474760
550.932864	3017.344826
551.291237	3034.847712
551.649555	3048.257181
552.007817	3061.303688
552.366022	3073.339442
552.724173	3088.173038
553.082267	3105.265070
553.440305	3125.931280
553.798288	3131.721045
554.156215	3151.005979
554.514086	3167.876200
554.871902	3182.208201
555.229661	3199.350644
555.587365	3213.644836
555.945014	3229.426168
556.302606	3245.711616
556.660143	3268.089298
557.017625	3288.470683
557.375050	3304.070533
557.732421	3330.024914
558.089735	3349.997965
558.446994	3366.028835
558.804197	3396.132085
559.161345	3411.482398
559.518437	3425.479162
559.875474	3451.834314
560.232455	3473.982624
560.589381	3499.629494
560.946251	3517.966691
561.303065	3551.041701
561.659825	3576.358376
562.016528	3589.944286
562.373177	3608.359621
562.729770	3643.478819
563.086307	3658.859379
563.442789	3693.986139
563.799216	3722.703072
564.155587	3746.144438
564.511904	3776.948408
564.868164	3802.817089
565.224370	3840.378726
565.580520	3860.344216
565.936615	3898.777973
566.292654	3917.987290
566.648638	3955.589256
567.004567	3991.401613
567.360441	4020.486550
567.716260	4047.519738
568.072023	4092.267540
568.427732	4123.285760
568.783385	4138.961228
569.138982	4188.840924
569.494525	4222.503229
569.850013	4249.173453
570.205445	4285.066469
570.560823	4323.296059
570.916145	4351.995348
571.271412	4395.026637
571.626625	4418.170574
571.981782	4454.910504
572.336884	4483.970235
572.691931	4533.267678
573.046923	4558.150814
573.401860	4590.404116
573.756743	4622.095330
574.111570	4668.612577
574.466342	4702.068194
574.821059	4747.050410
575.175722	4765.158235
575.530330	4807.556859
575.884882	4833.768339
576.239380	4875.430955
576.593823	4909.504113
576.948211	4944.172128
577.302544	4963.961178
577.656823	5009.079505
578.011047	5064.489347
578.365216	5095.638637
578.719330	5121.421618
579.073389	5154.582328
579.427394	5198.972208
579.781344	5241.333024
580.135239	5267.519298
580.489080	5315.052337
580.842866	5326.062217
581.196597	5394.483278
581.550273	5435.974495
581.903895	5472.419517
582.257463	5541.727820
582.610975	5548.067071
582.964434	5605.886585
583.317837	5629.257374
583.671186	5664.371532
584.024481	5723.804215
584.377721	5738.753757
584.730906	5803.953520
585.084037	5855.156519
585.437113	5870.889961
585.790135	5926.264515
586.143103	5937.700373
586.496016	5987.237271
586.848874	6036.522111
587.201679	6080.382670
587.554428	6083.581282
587.907124	6144.717876
588.259765	6166.785527
588.612352	6241.278657
588.964884	6232.789354
589.317362	6298.871319
589.669786	6342.157187
590.022155	6365.396906
590.374470	6445.929339
590.726731	6452.351769
591.078937	6451.809845
591.431090	6502.886815
591.783188	6519.885586
592.135232	6529.148706
592.487222	6608.123423
592.839157	6653.612274
593.191038	6664.750704
593.542866	6689.971596
593.894639	6662.565363
594.246358	6735.750314
594.598022	6781.327386
594.949633	6782.048271
595.301190	6823.834396
595.652692	6840.535738
596.004141	6927.354490
596.355535	6873.774586
596.706876	6898.750983
597.058162	6924.097904
597.409395	7012.018148
597.760573	7072.149031
598.111698	7058.847947
598.462768	7105.153465
598.813785	7151.070815
599.164748	7126.384285
599.515657	7205.122067
599.866511	7183.329159
600.217312	7297.022301
600.568060	7212.651030
600.918753	7335.629978
601.269392	7381.252420
601.619978	7364.510748
601.970510	7430.822086
602.320988	7487.061198
602.671412	7568.453148
603.021783	7568.238899
603.372100	7562.275214
603.722363	7617.536342
604.072572	7663.252046
604.422728	7702.298303
604.772830	7706.991617
605.122878	7755.487517
605.472872	7782.742516
605.822813	7852.963268
606.172701	7870.430866
606.522534	7938.277235
606.872314	8005.503542
607.222041	8003.655959
607.571714	8088.022190
607.921333	8047.198926
608.270899	8113.548072
608.620411	8193.636883
608.969870	8193.566307
609.319276	8215.991880
609.668627	8264.639015
610.017926	8353.554886
610.367171	8412.049915
610.716362	8445.414792
611.065500	8459.751833
611.414585	8505.926282
611.763616	8589.054909
612.112594	8593.649920
612.461518	8648.573292
612.810389	8713.006799
613.159207	8701.593627
613.507971	8735.865912
613.856682	8835.247218
614.205340	8836.573042
614.553945	8967.330490
614.902496	8914.582377
615.250994	8988.379828
615.599439	9020.091207
615.947830	9079.047501
616.296169	9080.547244
616.644454	9127.545921
616.992686	9166.549329
617.340864	9264.892158
617.688990	9205.305719
618.037063	9335.770781
618.385082	9337.814969
618.733048	9395.964678
619.080961	9417.349253
619.428821	9436.891286
619.776628	9477.187749
620.124382	9461.900450
620.472083	9505.115742
620.819731	9554.637516
621.167326	9521.065952
621.514868	9540.557574
621.862357	9497.874124
622.209793	9525.124081
622.557176	9487.973298
622.904506	9474.095001
623.251783	9451.089696
623.599007	9422.513915
623.946179	9407.246781
624.293297	9417.503008
624.640363	9336.063168
624.987376	9358.271971
625.334336	9329.834822
625.681243	9289.742526
626.028097	9282.742884
626.374899	9277.419425
626.721647	9279.118294
627.068343	9266.293599
627.414987	9240.142613
627.761577	9207.559115
628.108115	9270.442468
628.454600	9184.818470
628.801032	9217.893481
629.147412	9219.657884
629.493739	9213.409374
629.840014	9166.108228
630.186236	9223.093431
630.532405	9158.803596
630.878521	9204.491573
631.224585	9180.772944
631.570597	9133.988516
631.916556	9160.484821
632.262462	9164.510182
632.608316	9156.807299
632.954117	9150.972163
633.299866	9147.705496
633.645562	9150.478130
633.991206	9078.399712
634.336797	9014.114919
634.682336	9017.011062
635.027823	8986.106268
635.373257	8971.433990
635.718639	8935.677085
636.063968	8918.887522
636.409245	8831.274789
636.754470	8836.341149
637.099642	8801.559708
637.444762	8725.493737
637.789829	8749.161955
638.134845	8700.456847
638.479808	8688.327831
638.824719	8674.590687
639.169577	8604.566539
639.514383	8610.862940
639.859137	8571.816683
640.203839	8619.463149
640.548489	8546.605873
640.893086	8565.956342
641.237632	8521.478241
641.582125	8533.569449
641.926566	8527.298253
642.270955	8521.684929
642.615292	8532.687247
642.959576	8520.787603
643.303809	8518.264506
643.647990	8540.874081
643.992118	8532.465436
644.336195	8517.336933
644.680219	8521.732820
645.024192	8565.744613
645.368112	8635.594841
645.711981	8625.300805
646.055797	8756.577492
646.399562	8725.140857
646.743274	8880.196667
647.086935	8944.688148
647.430544	8928.090149
647.774101	8957.873286
648.117606	8991.389397
648.461059	9064.692815
648.804460	9003.349535
649.147810	8894.324500
649.491108	8877.731543
649.834354	8826.117689
650.177548	8700.950880
650.520690	8613.323023
650.863781	8616.806461
651.206820	8599.215354
651.549807	8520.757356
651.892742	8437.858102
652.235626	8407.016323
652.578458	8378.062456
652.921238	8284.967468
653.263967	8325.039599
653.606644	8271.026157
653.949269	8245.144873
654.291843	8178.158020
654.634365	8251.496727
654.976836	8177.061569
655.319255	8174.011671
655.661622	8167.435486
656.003938	8134.741083
656.346203	8109.956250
656.688416	8137.261660
657.030577	8103.659849
657.372687	8072.011485
657.714746	8112.713761
658.056753	8133.226216
658.398708	8041.409161
658.740612	8036.874643
659.082465	8075.681445
659.424266	8044.237248
659.766016	8061.772902
660.107715	8034.096967
660.449362	8056.305770
660.790958	8053.795276
661.132503	8049.631282
661.473996	8042.613996
661.815438	8061.987151
662.156829	8095.553673
662.498168	8038.893625
662.839456	8043.521404
663.180693	8077.279491
663.521879	8091.954290
663.863013	8076.177999
664.204097	8077.826456
664.545129	8157.527098
664.886110	8143.222824
665.227040	8160.854260
665.567918	8172.113677
665.908746	8185.626490
666.249522	8203.081485
666.590248	8203.172226
666.930922	8217.836942
667.271545	8204.694654
667.612118	8225.605360
667.952639	8195.005557
668.293109	8206.753966
668.633528	8187.229577
668.973896	8173.701640
669.314213	8172.592587
669.654480	8133.697564
669.994695	8133.468192
670.334859	8113.258206
670.674973	8093.133920
671.015035	8126.443344
671.355047	8111.161086
671.695008	8093.227181
672.034918	8073.667504
672.374777	8087.016479
672.714585	8058.183600
673.054342	8096.720701
673.394049	8052.484576
673.733705	8093.811955
674.073310	8050.793268
674.412864	8067.663490
674.752368	8003.562698
675.091820	8062.594610
675.431223	7982.843556
675.770574	7937.702544
676.109875	7913.515087
676.449125	7872.931278
676.788324	7863.441306
677.127473	7777.179602
677.466571	7762.444310
677.805619	7707.465486
678.144616	7710.018830
678.483562	7693.599792
678.822458	7646.210425
679.161303	7634.910679
679.500098	7608.084179
679.838842	7586.490396
680.177535	7607.814477
680.516179	7632.649722
680.854771	7653.631004
681.193314	7774.701875
681.531805	7931.219620
681.870247	8053.918784
682.208638	8205.554171
682.546978	8276.208463
682.885268	8311.529307
683.223508	8236.113646
683.561697	8186.705297
683.899836	8153.824371
684.237925	8068.356648
684.575963	8045.578195
684.913951	7966.177501
685.251889	7979.881878
685.589776	7976.161506
685.927614	7958.396480
686.265401	7980.131415
686.603137	7989.341603
686.940824	8060.373981
687.278460	8110.840972
687.616046	8122.997715
687.953582	8235.682627
688.291068	8216.352322
688.628504	8272.926672
688.965889	8274.885160
689.303224	8235.632215
689.640510	8188.008435
689.977745	8088.034792
690.314930	7963.286399
690.652065	7892.637149
690.989150	7787.778628
691.326185	7638.620968
691.663170	7523.733072
692.000105	7410.964981
692.336990	7292.351672
692.673825	7219.191927
693.010610	7130.218082
693.347345	7034.640326
693.684030	6922.177225
694.020665	6876.887499
694.357251	6759.390805
694.693786	6746.548466
695.030272	6707.083793
695.366707	6613.567869
695.703093	6561.969138
696.039429	6565.129942
696.375716	6516.838209
696.711952	6506.327403
697.048139	6477.181972
697.384276	6439.307783
697.720363	6463.790147
698.056400	6436.323420
698.392388	6406.691518
698.728326	6400.117853
699.064214	6381.095059
699.400053	6377.067177
699.735842	6319.290513
700.071581	6272.632113
700.407270	6235.730867
700.742910	6204.175765
701.078501	6162.523231
701.414042	6120.749710
701.749533	6063.336009
702.084974	6006.005487
702.420366	6042.142998
702.755709	5970.992153
703.091002	5920.409215
703.426246	5926.445997
703.761440	5910.460498
704.096584	5872.513212
704.431679	5855.743814
704.766725	5837.512481
705.101721	5831.591646
705.436668	5842.162945
705.771565	5790.118073
706.106413	5850.448082
706.441212	5847.141085
706.775961	5860.011151
707.110661	5865.243868
707.445311	5925.137817
707.779913	5896.539351
708.114465	5935.953613
708.448967	5984.510007
708.783421	6092.569660
709.117825	6136.188243
709.452180	6169.192678
709.786485	6231.461010
710.120742	6364.315578
710.454949	6364.217276
710.789107	6444.507733
711.123216	6568.066414
711.457275	6596.717812
711.791286	6695.211876
712.125247	6723.394446
712.459159	6690.037131
712.793023	6821.885990
713.126837	6643.940821
713.460602	6700.326126
713.794318	6656.014384
714.127985	6611.959741
714.461602	6470.517567
714.795171	6472.730633
715.128691	6305.142515
715.462162	6218.235543
715.795584	6141.670498
716.128957	6099.629796
716.462281	6032.285022
716.795556	5996.397047
717.128782	5911.128451
717.461960	5810.358306
717.795088	5804.664323
718.128167	5735.620679
718.461198	5650.440303
718.794180	5630.245441
719.127113	5574.081946
719.459997	5538.095669
719.792833	5471.197037
720.125619	5466.712930
720.458357	5410.589765
720.791046	5382.480291
721.123686	5356.586404
721.456278	5311.813396
721.788821	5302.172189
722.121315	5258.888843
722.453761	5268.053660
722.786158	5254.871043
723.118506	5256.927834
723.450805	5235.268516
723.783056	5258.299028
724.115259	5240.811265
724.447412	5226.948092
724.779518	5272.673878
725.111574	5271.814361
725.443582	5312.645187
725.775542	5305.675791
726.107453	5390.586466
726.439315	5360.742835
726.771129	5431.976860
727.102895	5494.782075
727.434612	5538.148601
727.766281	5566.164813
728.097901	5622.925685
728.429473	5639.652234
728.760996	5647.095497
729.092471	5675.414179
729.423897	5656.658566
729.755276	5625.622702
730.086606	5638.626359
730.417887	5728.247992
730.749120	5817.095808
731.080305	5858.370255
731.411442	5936.634168
731.742530	5959.019412
732.073570	5983.695860
732.404562	6042.866403
732.735506	6035.312234
733.066401	6019.155336
733.397249	5950.928360
733.728048	5857.906469
734.058798	5714.102514
734.389501	5590.160706
734.720156	5498.862889
735.050762	5394.697527
735.381320	5322.845961
735.711831	5267.698259
736.042293	5185.421587
736.372707	5184.519220
736.703073	5133.681704
737.033391	5167.230583
737.363661	5152.701978
737.693883	5166.209750
738.024056	5192.065828
738.354182	5216.712029
738.684260	5266.695069
739.014290	5302.729237
739.344272	5340.298436
739.674207	5390.031939
740.004093	5423.565695
740.333931	5429.453762
740.663722	5448.380774
740.993464	5461.160099
741.323159	5439.881389
741.652806	5396.986211
741.982405	5364.168299
742.311956	5312.224250
742.641460	5298.310666
742.970915	5254.205611
743.300323	5189.850241
743.629683	5154.209283
743.958996	5105.678095
744.288260	5057.731681
744.617477	5000.746478
744.946647	4982.220237
745.275768	4930.311476
745.604842	4896.813009
745.933869	4862.076938
746.262847	4857.867575
746.591778	4842.827292
746.920662	4821.425073
747.249498	4817.003982
747.578286	4834.625335
747.907027	4852.914641
748.235720	4895.950971
748.564365	4912.637191
748.892963	4891.829828
749.221514	4910.381274
749.550017	4885.513262
749.878473	4880.114187
750.206881	4844.382488
750.535242	4832.601312
750.863555	4817.765196
751.191821	4797.318276
751.520039	4804.627949
751.848210	4785.436276
752.176334	4791.541113
752.504411	4769.314666
752.832440	4744.607971
753.160421	4757.551134
753.488356	4732.930138
753.816243	4715.112180
754.144082	4684.981203
754.471875	4674.581303
754.799620	4666.500333
755.127318	4656.415505
755.454969	4651.833096
755.782572	4642.474194
756.110129	4647.492663
756.437638	4629.435250
756.765100	4628.159838
757.092515	4627.960712
757.419882	4631.287874
757.747203	4626.095485
758.074477	4639.686436
758.401703	4629.805775
758.728882	4663.616793
759.056014	4675.110624
759.383099	4694.377914
759.710138	4719.805494
760.037129	4744.245008
760.364073	4757.112553
760.690970	4753.704733
761.017820	4754.775978
761.344623	4788.529024
761.671379	4846.542622
761.998088	4941.117189
762.324751	5164.175644
762.651366	5630.502539
762.977935	6321.763199
763.304456	6871.627055
763.630931	7170.159144
763.957359	7100.331602
764.283740	6818.339538
764.610074	6494.561350
764.936362	6095.695175
765.262602	5782.178256
765.588796	5438.668992
765.914943	5186.031567
766.241044	4960.308862
766.567097	4793.103871
766.893104	4645.448475
767.219064	4543.622208
767.544978	4445.307106
767.870845	4368.404304
768.196665	4318.222138
768.522438	4269.595168
768.848165	4228.676122
769.173846	4189.561809
769.499479	4159.143487
769.825066	4123.729381
770.150607	4083.768155
770.476101	4065.894744
770.801548	4046.425807
771.126949	4017.550078
771.452303	3995.938652
771.777611	3958.790389
772.102872	3955.158238
772.428087	3933.468673
772.753256	3901.689239
773.078378	3885.003020
773.403453	3852.268288
773.728482	3827.329700
774.053465	3816.556754
774.378401	3797.133188
774.703291	3773.553191
775.028135	3750.424377
775.352932	3742.184611
775.677683	3722.466138
776.002388	3700.995864
776.327046	3704.118858
776.651658	3680.874098
776.976224	3662.433557
777.300743	3662.509175
777.625216	3646.495949
777.949643	3637.905823
778.274024	3640.920433
778.598359	3620.087865
778.922647	3623.142804
779.246889	3612.422791
779.571086	3614.008233
779.895236	3611.457410
780.219339	3612.770630
780.543397	3617.045529
780.867409	3627.374853
781.191374	3629.819812
781.515294	3620.939820
781.839167	3635.793580
782.162995	3634.210657
782.486776	3628.279740
782.810511	3619.729943
783.134201	3606.108745
783.457844	3605.135803
783.781441	3592.681632
784.104993	3587.887495
784.428498	3583.231989
784.751958	3579.509097
785.075372	3573.787387
785.398739	3563.977302
785.722061	3571.428128
786.045337	3571.876790
786.368568	3596.727158
786.691752	3592.159873
787.014891	3637.384064
787.337983	3682.925848
787.661030	3768.814506
787.984031	3862.620297
788.306987	3942.968728
788.629897	3987.116632
788.952760	3997.176255
789.275579	3981.165550
789.598351	3934.232408
789.921078	3882.497567
790.243759	3819.709996
790.566395	3775.713325
790.888984	3724.739698
791.211529	3687.828370
791.534027	3645.071823
791.856480	3602.958024
792.178888	3584.109150
792.501249	3567.763209
792.823566	3536.707180
793.145836	3530.965306
793.468062	3519.620189
793.790241	3505.066378
794.112375	3511.635002
794.434464	3533.233825
794.756507	3533.448074
795.078505	3550.688821
795.400457	3587.411106
795.722364	3641.784991
796.044226	3683.578677
796.366042	3726.955285
796.687812	3726.957806
797.009538	3752.995366
797.331218	3739.389291
797.652852	3735.056420
797.974442	3709.331412
798.295986	3700.595092
798.617484	3672.490659
798.938938	3649.465189
799.260346	3631.236377
799.581709	3598.720934
799.903026	3585.339192
800.224299	3567.922005
800.545526	3536.833209
800.866708	3518.072555
801.187845	3506.256091
801.508936	3483.303717
801.829983	3479.767348
802.150984	3446.505815
802.471940	3437.547684
802.792851	3432.171294
803.113717	3423.442536
803.434538	3414.035743
803.755314	3404.989392
804.076045	3402.224319
804.396731	3389.497926
804.717372	3393.369533
805.037967	3388.318296
805.358518	3391.222001
805.679024	3405.077612
805.999485	3400.033938
806.319901	3406.093405
806.640272	3408.089702
806.960598	3420.274171
807.280879	3422.386414
807.601115	3432.156170
807.921306	3422.724171
808.241453	3424.826333
808.561554	3430.265737
808.881611	3426.973864
809.201623	3428.803803
809.521590	3418.429108
809.841513	3416.573964
810.161390	3421.950354
810.481223	3403.338414
810.801011	3404.825555
811.120755	3398.554359
811.440453	3388.151938
811.760107	3382.992317
812.079716	3380.217162
812.399281	3365.081098
812.718801	3363.162939
813.038276	3357.085828
813.357707	3351.752287
813.677093	3358.988863
813.996434	3342.234588
814.315731	3350.381093
814.634983	3347.815146
814.954191	3350.149200
815.273354	3368.635111
815.592473	3377.452089
815.911547	3395.726272
816.230577	3409.150865
816.549562	3436.584824
816.868502	3452.968574
817.187399	3473.579331
817.506250	3504.305164
817.825058	3511.745907
818.143821	3555.288873
818.462539	3599.764453
818.781213	3656.232938
819.099843	3739.197728
819.418429	3891.697672
819.736970	4042.040004
820.055466	4228.361050
820.373919	4464.929797
820.692327	4800.100993
821.010691	5313.542512
821.329011	6384.218054
821.647286	8110.684697
821.965517	10255.884702
822.283704	11856.667817
822.601847	12921.293975
822.919945	12523.052903
823.237999	11849.312774
823.556010	10961.696652
823.873976	10016.364359
824.191897	9059.323986
824.509775	8294.207903
824.827609	7493.501273
825.145398	6951.078160
825.463144	6580.394556
825.780845	6447.996212
826.098502	6510.572054
826.416116	6888.464508
826.733685	7385.912967
827.051210	7663.456213
827.368692	7574.815084
827.686129	7134.651777
828.003522	6595.490291
828.320872	6034.593870
828.638177	5576.274847
828.955439	5211.902768
829.272656	4874.886510
829.589830	4594.444601
829.906960	4334.439530
830.224046	4126.880102
830.541088	3958.036737
830.858086	3840.250177
831.175041	3743.200404
831.491952	3701.590720
831.808819	3684.818801
832.125642	3720.547979
832.442421	3819.029440
832.759157	4035.630177
833.075849	4409.739245
833.392497	4870.611612
833.709101	5253.285600
834.025662	5362.358525
834.342179	5239.001491
834.658653	4967.608453
834.975083	4697.132905
835.291469	4460.017192
835.607811	4235.890013
835.924110	4076.934871
836.240366	3918.947630
836.556578	3759.954678
836.872746	3622.573154
837.188871	3515.105836
837.504952	3419.144952
837.820990	3344.543437
838.136984	3289.874644
838.452935	3261.074532
838.768842	3251.057759
839.084706	3281.637399
839.400526	3415.296031
839.716303	3639.629898
840.032037	3852.091847
840.347727	3915.683482
840.663373	3824.667970
840.978977	3673.637522
841.294537	3545.561967
841.610054	3439.105401
841.925527	3360.735623
842.240957	3297.025521
842.556344	3236.466140
842.871687	3180.600073
843.186987	3113.293107
843.502244	3063.277299
843.817458	3026.706249
844.132629	2992.761639
844.447756	2970.794811
844.762840	2948.505350
845.077881	2932.587906
845.392879	2918.560896
845.707833	2907.740059
846.022745	2894.348234
846.337613	2894.880076
846.652438	2881.110164
846.967221	2882.045298
847.281960	2872.411653
847.596656	2868.928216
847.911309	2861.270703
848.225919	2858.384642
848.540485	2851.422809
848.855009	2852.231914
849.169490	2847.236131
849.483928	2844.647498
849.798323	2842.293279
850.112675	2838.373782
850.426984	2838.013340
850.741251	2835.379337
851.055474	2833.746003
851.369654	2832.208451
851.683792	2832.702484
851.997887	2832.576455
852.311938	2830.494459
852.625947	2834.250118
852.939914	2831.023780
853.253837	2832.788184
853.567718	2832.566373
853.881555	2831.885817
854.195350	2832.896568
854.509103	2830.615446
854.822812	2830.733913
855.136479	2828.049499
855.450103	2830.983451
855.763685	2829.256855
856.077224	2829.637462
856.390720	2829.967658
856.704173	2831.674089
857.017584	2833.698112
857.330953	2835.195335
857.644278	2838.479646
857.957561	2841.466530
858.270802	2842.260512
858.584000	2841.970645
858.897155	2843.684638
859.210268	2838.204903
859.523339	2836.455623
859.836367	2835.764985
860.149352	2834.867660
860.462295	2835.911178
860.775195	2827.593275
861.088054	2827.373984
861.400869	2829.619818
861.713642	2824.298881
862.026373	2824.233346
862.339062	2830.854901
862.651708	2831.727021
862.964312	2837.655418
863.276873	2838.046107
863.589392	2846.994155
863.901869	2852.277284
864.214303	2857.719210
864.526696	2866.082484
864.839045	2872.610778
865.151353	2876.363918
865.463619	2881.495812
865.775842	2886.413458
866.088023	2887.157028
866.400162	2890.038047
866.712258	2891.474776
867.024313	2890.123747
867.336325	2892.296484
867.648296	2894.842267
867.960224	2895.434603
868.272110	2896.712535
868.583954	2899.674213
868.895755	2901.370561
869.207515	2898.527350
869.519233	2905.486663
869.830909	2907.316602
870.142542	2912.559402
870.454134	2909.610327
870.765684	2917.141811
871.077191	2919.707758
871.388657	2931.110848
871.700081	2933.762495
872.011463	2940.058896
872.322803	2946.758590
872.634101	2954.539611
872.945357	2958.133953
873.256571	2969.519399
873.567744	2976.282107
873.878874	2979.405102
874.189963	2987.392810
874.501010	2990.034375
874.812015	2990.979591
875.122979	2996.078718
875.433900	2999.549553
875.744780	3005.588855
876.055618	3011.534896
876.366415	3012.850637
876.677169	3017.702748
876.987882	3022.859848
877.298554	3029.002494
877.609183	3045.492108
877.919771	3061.356620
878.230317	3086.310331
878.540822	3122.576392
878.851285	3173.325688
879.161707	3240.191552
879.472087	3341.198631
879.782425	3503.982530
880.092722	3778.546454
880.402977	4193.332592
880.713191	4738.888782
881.023363	5322.362011
881.333494	5753.373103
881.643583	6036.186875
881.953631	6111.365602
882.263637	6056.752262
882.573602	5921.540954
882.883526	5756.473412
883.193408	5556.432866
883.503248	5336.394062
883.813048	5121.598059
884.122806	4909.468825
884.432522	4665.620652
884.742197	4445.544040
885.051831	4240.437134
885.361424	4049.473185
885.670975	3882.605952
885.980485	3733.614650
886.289954	3613.688120
886.599382	3509.290865
886.908768	3429.421344
887.218113	3348.750280
887.527417	3288.516053
887.836680	3230.247876
888.145901	3180.317768
888.455082	3146.035401
888.764221	3116.126236
889.073319	3083.711616
889.382376	3068.797363
889.691392	3049.151986
890.000366	3041.428938
890.309300	3032.788401
890.618193	3031.873431
890.927044	3026.902854
891.235855	3027.553163
891.544625	3027.656506
891.853353	3037.799308
892.162041	3049.169630
892.470687	3077.324474
892.779293	3109.429063
893.087858	3158.532422
893.396381	3233.363309
893.704864	3336.780060
894.013306	3492.360150
894.321707	3672.599044
894.630068	3825.557734
894.938387	3903.524219
895.246665	3911.776588
895.554903	3852.273329
895.863100	3767.786111
896.171256	3691.871375
896.479371	3621.370839
896.787446	3546.912996
897.095480	3475.129486
897.403473	3420.657298
897.711425	3364.826519
898.019336	3314.687203
898.327207	3262.183586
898.635038	3215.507542
898.942827	3164.538957
899.250576	3123.617390
899.558284	3081.657346
899.865952	3057.167421
900.173579	3027.903523
900.481165	3008.832838
900.788711	2987.002121
901.096216	2970.797332
901.403681	2957.032461
901.711105	2953.493571
902.018489	2946.337653
902.325832	2953.917028
902.633135	2961.753502
902.940397	2999.300016
903.247619	3089.650096
903.554800	3265.236005
903.861941	3533.916902
904.169041	3794.395842
904.476101	3963.960092
904.783121	3982.110767
905.090100	3918.998041
905.397039	3811.157678
905.703938	3707.377964
906.010796	3606.068416
906.317614	3521.803009
906.624391	3437.910647
906.931129	3367.931870
907.237826	3301.068526
907.544483	3237.244998
907.851099	3166.444513
908.157675	3095.749892
908.464211	3027.096938
908.770707	2967.989409
909.077163	2919.059970
909.383578	2883.300545
909.689954	2855.511185
909.996289	2836.989985
910.302584	2823.968685
910.608839	2812.321099
910.915054	2803.478915
911.221229	2799.372895
911.527363	2804.343473
911.833458	2800.053451
912.139513	2803.904893
912.445527	2809.727425
912.751502	2816.245637
913.057436	2833.206599
913.363331	2851.662264
913.669186	2882.090668
913.975000	2918.215577
914.280775	2977.479381
914.586510	3055.612225
914.892205	3163.760098
915.197859	3309.777119
915.503475	3491.603977
915.809050	3664.477745
916.114585	3792.331489
916.420081	3868.732696
916.725536	3900.285278
917.030952	3861.107951
917.336328	3825.703928
917.641665	3778.720374
917.946961	3715.385837
918.252218	3656.865603
918.557435	3587.282556
918.862612	3521.371990
919.167750	3461.851087
919.472848	3387.625138
919.777906	3318.352122
920.082925	3253.079262
920.387904	3180.189219
920.692843	3125.036475
920.997743	3074.181315
921.302603	3025.640045
921.607423	2992.282730
921.912204	2956.888788
922.216946	2931.292330
922.521647	2911.372210
922.826310	2888.676936
923.130932	2870.322095
923.435516	2850.795185
923.740059	2836.884121
924.044564	2821.586740
924.349028	2808.782209
924.653454	2793.441978
924.957840	2780.781120
925.262186	2770.850047
925.566493	2760.440064
925.870761	2749.437746
926.174989	2746.776017
926.479178	2738.211096
926.783328	2729.237842
927.087438	2723.490927
927.391509	2716.655122
927.695541	2710.489791
927.999533	2705.705736
928.303486	2702.411342
928.607400	2697.849098
928.911275	2695.951104
929.215110	2691.890454
929.518906	2688.452387
929.822663	2689.095134
930.126381	2683.973322
930.430060	2687.005576
930.733699	2687.502130
931.037299	2688.643951
931.340861	2688.318797
931.644383	2688.258303
931.947866	2688.384332
932.251309	2687.880216
932.554714	2688.238138
932.858080	2687.300484
933.161407	2686.801409
933.464694	2685.094979
933.767943	2684.323682
934.071153	2681.888805
934.374323	2679.146417
934.677455	2683.537262
934.980548	2678.034843
935.283602	2677.273629
935.586617	2677.387055
935.889593	2676.303207
936.192530	2680.250430
936.495428	2678.092816
936.798287	2682.208918
937.101108	2686.032633
937.403890	2695.000846
937.706632	2703.311188
938.009336	2712.375183
938.312002	2723.942110
938.614628	2735.927454
938.917216	2746.672673
939.219765	2750.750967
939.522275	2760.142636
939.824747	2763.439551
940.127179	2759.101638
940.429573	2760.659354
940.731929	2758.874786
941.034246	2758.267327
941.336524	2760.308994
941.638763	2761.591968
941.940964	2761.092894
942.243126	2754.874630
942.545250	2750.506471
942.847335	2745.833321
943.149381	2737.281003
943.451389	2734.173132
943.753359	2727.334807
944.055290	2721.199723
944.357182	2720.776266
944.659036	2715.752756
944.960851	2712.907025
945.262628	2710.830069
945.564367	2710.580532
945.866067	2707.543237
946.167729	2705.776312
946.469352	2705.652804
946.770937	2705.564584
947.072484	2699.374047
947.373992	2701.904706
947.675462	2700.563759
947.976893	2696.288861
948.278286	2695.565455
948.579641	2695.749457
948.880958	2694.632842
949.182236	2695.051258
949.483476	2691.335927
949.784678	2694.516895
950.085841	2693.322142
950.386967	2692.644107
950.688054	2694.763912
950.989103	2695.875486
951.290114	2697.614684
951.591087	2704.694985
951.892021	2709.675645
952.192917	2714.651264
952.493776	2718.129660
952.794596	2719.281564
953.095378	2721.615618
953.396122	2725.215002
953.696828	2721.950855
953.997496	2719.321893
954.298126	2716.239227
954.598718	2715.130173
954.899272	2710.041129
955.199788	2705.652804
955.500266	2701.783719
955.800706	2695.903213
956.101108	2687.149249
956.401472	2679.216993
956.701798	2676.908145
957.002087	2669.243071
957.302337	2665.651248
957.602550	2660.950372
957.902724	2654.792603
958.202861	2652.035092
958.502960	2647.137611
958.803022	2643.306334
959.103045	2640.178298
959.403031	2634.474232
959.702979	2632.241001
960.002889	2630.330404
960.302762	2627.467029
960.602596	2623.749178
960.902393	2624.018879
961.202153	2621.994856
961.501875	2617.195678
961.801559	2614.705348
962.101205	2614.924638
962.400814	2616.563013
962.700385	2611.295007
962.999918	2614.143259
963.299414	2610.531272
963.598873	2611.287445
963.898293	2609.593618
964.197677	2611.325254
964.497022	2607.751076
964.796331	2606.463061
965.095601	2602.435179
965.394835	2603.934922
965.694030	2604.955756
965.993189	2606.478185
966.292309	2605.883328
966.591393	2602.508276
966.890439	2605.762341
967.189447	2602.478029
967.488419	2603.665221
967.787353	2601.590786
968.086249	2604.733945
968.385108	2605.603544
968.683930	2607.645212
968.982714	2606.354676
969.281462	2606.319388
969.580172	2607.688062
969.878844	2608.986159
970.177480	2607.751076
970.476078	2610.448093
970.774639	2612.363732
971.073162	2610.826180
971.371649	2611.655450
971.670098	2613.427415
971.968510	2613.722323
972.266885	2614.155862
972.565223	2617.498147
972.863524	2617.162910
973.161788	2618.902108
973.460014	2622.488889
973.758204	2620.772376
974.056356	2621.639455
974.354471	2622.440998
974.652550	2622.234311
974.950591	2620.364043
975.248595	2620.739609
975.546563	2621.770525
975.844493	2622.191461
976.142386	2620.560648
976.440243	2620.790020
976.738062	2619.575102
977.035845	2617.752725
977.333590	2616.424381
977.631299	2616.152159
977.928971	2616.976387
978.226606	2614.402878
978.524204	2615.761469
978.821765	2611.277363
979.119290	2612.202415
979.416777	2611.506736
979.714228	2615.010337
980.011642	2613.505553
980.309020	2618.057715
980.606360	2617.225925
980.903664	2621.079887
981.200931	2627.802265
981.498162	2631.633542
981.795356	2644.208701
982.092513	2658.886020
982.389633	2674.969821
982.686717	2694.121165
982.983764	2706.446786
983.280775	2721.476986
983.577749	2726.916391
983.874686	2727.511247
984.171587	2723.861452
984.468451	2719.258878
984.765279	2713.406099
985.062070	2705.262115
985.358824	2699.978986
985.655543	2689.589167
985.952224	2679.811850
986.248869	2670.931857
986.545478	2653.252531
986.842050	2642.025881
987.138586	2629.911988
987.435086	2621.019393
987.731549	2614.700307
988.027975	2614.281891
988.324366	2606.740325
988.620719	2605.333843
988.917037	2604.696137
989.213318	2601.139603
989.509563	2598.016608
989.805772	2601.787391
990.101944	2596.645414
990.398080	2596.237081
990.694180	2595.075095
990.990244	2593.971082
991.286271	2595.876638
991.582262	2595.637183
991.878217	2593.696339
992.174136	2594.139961
992.470019	2597.351176
992.765865	2596.284972
993.061676	2598.916454
993.357450	2601.893255
993.653188	2599.390322
993.948890	2606.916765
994.244556	2606.757969
994.540186	2611.849534
994.835780	2614.475975
995.131337	2622.630042
995.426859	2630.859725
995.722345	2635.863070
996.017795	2647.989566
996.313208	2656.395690
996.608586	2662.503048
996.903928	2666.629232
997.199234	2668.023111
997.494504	2668.108811
997.789738	2664.721156
998.084936	2663.506237
998.380099	2658.334014
998.675225	2656.201606
998.970316	2648.390338
999.265371	2640.816004
999.560390	2634.156640
999.855373	2628.351751
1000.150320	2622.156173
1000.445232	2616.353805
1000.740108	2611.907507
1001.034948	2608.270315
1001.329752	2605.190170
1001.624521	2601.116918
1001.919254	2598.432503
1002.213951	2594.765064
1002.508613	2594.094590
1002.803239	2592.950248
1003.097829	2589.890268
1003.392384	2592.899837
1003.686903	2591.024527
1003.981386	2588.652665
1004.275834	2588.614856
1004.570246	2588.975298
1004.864623	2588.824064
1005.158964	2586.530339
1005.453270	2588.176276
1005.747540	2589.151739
1006.041775	2584.861717
1006.335974	2586.363981
1006.630138	2585.872468
1006.924266	2585.343147
1007.218359	2583.188054
1007.512416	2585.716192
1007.806438	2584.748291
1008.100425	2584.113106
1008.394376	2587.551172
1008.688292	2585.068404
1008.982172	2583.273753
1009.276017	2586.547983
1009.569827	2582.139494
1009.863602	2585.567478
1010.157341	2582.497416
1010.451045	2584.410534
1010.744714	2583.304000
1011.038347	2584.435739
1011.331945	2581.872313
1011.625508	2582.217632
1011.919036	2580.947261
1012.212528	2582.870461
1012.505986	2584.644947
1012.799408	2581.138825
1013.092795	2582.857858
1013.386147	2581.123701
1013.679464	2580.637230
1013.972745	2583.843404
1014.265992	2578.701427
1014.559204	2582.530183
1014.852380	2581.932807
1015.145521	2581.426171
1015.438628	2581.900039
1015.731699	2583.273753
1016.024736	2581.509350
1016.317737	2582.673856
1016.610703	2583.296439
1016.903635	2577.610017
1017.196531	2580.349884
1017.489393	2578.769483
1017.782219	2580.654874
1018.075011	2583.382138
1018.367768	2582.199988
1018.660490	2584.523960
1018.953177	2584.523960
1019.245829	2584.523960
