Dividing Wavelength (nm)	Counts (n)	Blue Motor Position (mm): 8.500000	Red Motor Position (mm): 0.000000	
326.493990	2103.817173
326.888308	2103.817173
327.282561	2103.817173
327.676750	2079.980077
328.070874	2082.379666
328.464933	2087.856880
328.858929	2099.438931
329.252859	2109.317072
329.646726	2126.837602
330.040528	2142.450055
330.434265	2160.875473
330.827938	2178.529593
331.221547	2199.894003
331.615091	2221.323948
332.008571	2241.289438
332.401986	2263.054620
332.795338	2281.991714
333.188625	2300.240691
333.581847	2319.457570
333.975006	2341.933554
334.368100	2359.015504
334.761129	2372.503111
335.154095	2390.832747
335.546996	2415.587333
335.939833	2446.718978
336.332606	2461.119034
336.725315	2473.013637
337.117960	2478.906745
337.510540	2487.723723
337.903056	2497.445589
338.295508	2505.208966
338.687896	2512.682476
339.080220	2519.147756
339.472480	2520.123219
339.864676	2523.712521
340.256807	2529.651000
340.648875	2529.930784
341.040879	2531.732997
341.432818	2531.952287
341.824694	2531.309540
342.216506	2532.849612
342.608253	2531.896834
342.999937	2532.589993
343.391557	2531.296937
343.783113	2528.562111
344.174605	2528.652852
344.566033	2524.095648
344.957397	2525.035824
345.348697	2522.006090
345.739934	2519.876203
346.131106	2516.828825
346.522215	2520.075328
346.913260	2514.005779
347.304241	2515.757580
347.695159	2514.174658
348.086012	2510.804646
348.476802	2510.610562
348.867528	2507.064110
349.258191	2507.280880
349.648789	2505.423215
350.039324	2502.264932
350.429796	2504.916579
350.820203	2500.858450
351.210548	2503.568070
351.600828	2501.990189
351.991045	2501.475991
352.381198	2500.893738
352.771288	2501.279386
353.161314	2498.443737
353.551276	2499.199910
353.941175	2499.855260
354.331010	2499.464571
354.720782	2502.811897
355.110490	2503.633605
355.500135	2502.426249
355.889717	2501.382730
356.279235	2500.682009
356.668689	2504.218379
357.058080	2504.304078
357.447408	2498.715959
357.836672	2501.909530
358.225873	2500.734942
358.615010	2499.575476
359.004084	2504.697288
359.393095	2505.904645
359.782043	2505.103101
360.170927	2505.466064
360.559748	2507.966477
360.948505	2507.648884
361.337199	2509.042763
361.725830	2509.141066
362.114398	2508.589059
362.502903	2507.316168
362.891344	2509.110819
363.279722	2509.665346
363.668037	2512.316993
364.056289	2508.102588
364.444478	2512.135511
364.832603	2513.501664
365.220665	2511.122239
365.608665	2512.997548
365.996601	2511.603669
366.384474	2512.364883
366.772284	2514.981242
367.160031	2510.774399
367.547715	2513.816736
367.935336	2512.180881
368.322893	2514.157014
368.710388	2513.612569
369.097820	2515.545852
369.485189	2514.693897
369.872495	2515.220697
370.259738	2517.461490
370.646918	2515.976870
371.034035	2515.195491
371.421090	2516.181037
371.808081	2514.036026
372.195010	2516.624658
372.581875	2516.488547
372.968678	2518.822602
373.355418	2518.580626
373.742096	2519.850997
374.128710	2517.728671
374.515262	2519.067098
374.901751	2516.329751
375.288177	2519.994670
375.674540	2517.489216
376.060841	2518.570544
376.447079	2519.556089
376.833254	2520.481141
377.219367	2516.274298
377.605417	2517.524504
377.991404	2517.680780
378.377329	2517.723630
378.763191	2517.189268
379.148991	2521.592716
379.534727	2521.343178
379.920402	2520.168590
380.306013	2522.124557
380.691563	2523.014321
381.077049	2524.141019
381.462474	2521.965761
381.847835	2519.815709
382.233134	2522.875689
382.618371	2522.618590
383.003545	2523.730165
383.388657	2521.754033
383.773706	2523.573889
384.158693	2525.547501
384.543618	2524.738396
384.928480	2523.697397
385.313280	2525.544980
385.698017	2523.377284
386.082692	2524.146060
386.467305	2522.106913
386.851856	2524.995494
387.236344	2526.210412
387.620770	2526.550690
388.005133	2523.591533
388.389435	2524.851822
388.773674	2525.111441
389.157851	2523.760412
389.541965	2528.622605
389.926018	2525.721421
390.310008	2526.341483
390.693936	2525.255114
391.077802	2525.736544
391.461606	2527.112779
391.845348	2528.882224
392.229027	2526.336441
392.612645	2526.744775
392.996200	2528.637728
393.379694	2528.262162
393.763125	2531.987575
394.146494	2528.904909
394.529801	2530.996988
394.913047	2527.972296
395.296230	2531.450692
395.679351	2529.935825
396.062410	2528.862059
396.445408	2528.927594
396.828343	2532.330373
397.211217	2524.103210
397.594028	2529.406504
397.976778	2527.160670
398.359466	2527.669827
398.742092	2526.787625
399.124656	2531.491021
399.507158	2528.627646
399.889598	2531.198634
400.271977	2532.668131
400.654294	2536.154088
401.036549	2529.560259
401.418742	2532.884900
401.800874	2531.606968
402.182944	2532.872297
402.564952	2535.377751
402.946898	2532.305168
403.328783	2533.283151
403.710606	2534.162833
404.092367	2534.109901
404.474067	2533.973789
404.855705	2532.849612
405.237282	2532.600075
405.618797	2534.858512
406.000250	2536.995961
406.381642	2537.961342
406.762972	2534.906403
407.144240	2536.227185
407.525447	2534.939170
407.906593	2535.554191
408.287677	2535.377751
408.668700	2535.980169
409.049661	2537.721887
409.430560	2534.500590
409.811399	2536.496887
410.192176	2536.819521
410.572891	2537.464788
410.953545	2534.457740
411.334138	2535.334901
411.714669	2534.830786
412.095139	2534.591331
412.475547	2536.325488
412.855894	2535.503780
413.236180	2537.074099
413.616405	2536.111239
413.996568	2537.825231
414.376670	2537.558050
414.756711	2535.844058
415.136691	2537.613503
415.516609	2537.316074
415.896466	2538.596528
416.276262	2540.250026
416.655997	2537.734490
417.035670	2534.190559
417.415283	2536.229706
417.794834	2538.583925
418.174324	2537.573173
418.553753	2539.007382
418.933121	2538.538554
419.312428	2539.140972
419.691674	2537.915972
420.070859	2540.078627
420.449983	2537.583256
420.829045	2538.762886
421.208047	2540.965870
421.586988	2538.475540
421.965867	2539.544264
422.344686	2540.300437
422.723444	2540.434028
423.102141	2539.647608
423.480777	2541.941333
423.859352	2540.534851
424.237866	2540.267670
424.616319	2541.180119
424.994712	2540.590304
425.373044	2542.289173
425.751314	2539.907227
426.129524	2543.128525
426.507673	2541.185160
426.885762	2542.884029
427.263789	2542.203473
427.641756	2544.492157
428.019662	2542.846220
428.397508	2543.214224
428.775292	2545.414688
429.153016	2541.860675
429.530679	2544.219935
429.908282	2542.062321
430.285824	2542.057280
430.663305	2540.610468
431.040726	2540.073586
431.418086	2541.737166
431.795385	2544.323278
432.172624	2544.194729
432.549802	2542.818494
432.926920	2541.517876
433.303977	2545.394523
433.680974	2543.231868
434.057910	2543.304965
434.434786	2540.779347
434.811601	2545.616334
435.188355	2541.303627
435.565050	2545.195398
435.941683	2545.127342
436.318257	2540.325643
436.694770	2542.815973
437.071222	2540.867567
437.447614	2540.330684
437.823946	2543.965356
438.200218	2543.735984
438.576429	2542.561395
438.952580	2540.933102
439.328670	2545.114739
439.704700	2545.553320
440.080670	2545.865871
440.456580	2543.340253
440.832429	2545.029040
441.208218	2542.831097
441.583947	2542.949564
441.959616	2544.401416
442.335224	2540.940664
442.710773	2542.684903
443.086261	2545.944009
443.461689	2544.724050
443.837057	2545.772610
444.212365	2546.261602
444.587612	2548.777138
444.962800	2544.734132
445.337927	2547.239586
445.712995	2544.134235
446.088002	2545.979297
446.462949	2547.405944
446.837837	2545.412167
447.212664	2545.260933
447.587431	2546.354863
447.962139	2546.465769
448.336786	2548.900646
448.711374	2547.078269
449.085901	2546.301931
449.460369	2548.036088
449.834776	2547.726057
450.209124	2545.744884
450.583412	2546.080120
450.957640	2545.941489
451.331808	2547.698331
451.705917	2546.541386
452.079965	2548.482230
452.453954	2547.335368
452.827883	2549.417364
453.201752	2547.219421
453.575562	2550.143290
453.949311	2545.444935
454.323001	2549.689587
454.696632	2549.326623
455.070202	2550.055070
455.443713	2547.226983
455.817164	2541.636343
456.190556	2544.330840
456.563888	2544.028371
456.937160	2543.496529
457.310373	2546.435522
457.683526	2549.616490
458.056619	2549.082128
458.429653	2546.596839
458.802628	2549.583722
459.175542	2549.351829
459.548398	2548.235214
459.921194	2550.160934
460.293930	2549.548434
460.666607	2548.625903
461.039224	2550.609597
461.411782	2549.742519
461.784280	2553.500699
462.156719	2551.287632
462.529099	2549.724875
462.901419	2548.373845
463.273680	2552.288301
463.645882	2548.063814
464.018024	2549.717313
464.390106	2549.954247
464.762130	2549.722354
465.134094	2552.416851
465.505999	2552.298384
465.877845	2553.205791
466.249631	2555.159238
466.621358	2556.157387
466.993026	2557.904147
467.364634	2555.928014
467.736184	2553.581357
468.107674	2555.428940
468.479105	2552.008517
468.850477	2553.891388
469.221790	2554.110678
469.593043	2552.610935
469.964238	2551.958106
470.335373	2553.815771
470.706449	2556.306101
471.077467	2554.166131
471.448425	2555.907850
471.819324	2555.156718
472.190164	2556.921122
472.560945	2556.414486
472.931667	2556.777449
473.302330	2554.617314
473.672934	2557.548745
474.043479	2555.592778
474.413965	2556.666543
474.784393	2548.391489
475.154761	2553.525905
475.525070	2551.758980
475.895321	2555.063457
476.265513	2554.498847
476.635645	2555.297870
477.005719	2556.472459
477.375734	2559.749209
477.745691	2557.057233
478.115588	2556.220401
478.485427	2557.576472
478.855207	2561.380022
479.224928	2558.990515
479.594591	2559.358520
479.964194	2560.462532
480.333739	2558.105793
480.703226	2559.098900
481.072653	2563.439334
481.442022	2558.148643
481.811333	2559.580330
482.180584	2560.412121
482.549777	2558.877089
482.918912	2562.451267
483.287988	2562.121072
483.657005	2561.165773
484.025964	2559.038406
484.394864	2560.820454
484.763706	2560.996895
485.132489	2561.301884
485.501213	2560.394477
485.869879	2558.274672
486.238487	2559.141750
486.607036	2558.672923
486.975527	2561.715259
487.343959	2561.926987
487.712333	2559.355999
488.080648	2558.446071
488.448905	2560.938921
488.817104	2560.263407
489.185244	2562.632749
489.553326	2560.969168
489.921350	2562.547049
490.289315	2564.896227
490.657222	2561.402707
491.025070	2565.228943
491.392861	2563.613253
491.760593	2564.505538
492.128267	2565.559139
492.495883	2561.949673
492.863440	2565.425548
493.230939	2562.952862
493.598380	2565.435631
493.965763	2555.749053
494.333088	2558.826678
494.700354	2557.828529
495.067563	2561.145609
495.434713	2556.845504
495.801805	2562.012687
496.168839	2563.212482
496.535815	2562.297512
496.902733	2561.107800
497.269593	2561.861453
497.636395	2563.855229
498.003139	2565.639797
498.369825	2561.944632
498.736453	2563.608212
499.103023	2562.670558
499.469535	2561.806000
499.835989	2562.047975
500.202385	2562.007646
500.568723	2561.067471
500.935003	2561.937070
501.301226	2563.477142
501.667390	2564.008984
502.033497	2564.704663
502.399546	2564.366906
502.765537	2561.410269
503.131470	2563.046124
503.497345	2564.666855
503.863163	2564.934036
504.228923	2564.727348
504.594625	2564.089642
504.960269	2561.206102
505.325856	2565.785991
505.691385	2564.157698
506.056856	2565.176011
506.422270	2566.499314
506.787625	2567.273131
507.152924	2565.816238
507.518164	2566.867318
507.883347	2567.658779
508.248472	2567.971331
508.613540	2570.305385
508.978550	2571.164902
509.343503	2568.863615
509.708398	2571.474933
510.073236	2571.921075
510.438016	2576.909297
510.802738	2574.983576
511.167403	2574.734039
511.532010	2577.514235
511.896561	2577.909966
512.261053	2578.245202
512.625488	2577.181519
512.989866	2573.914851
513.354186	2578.086406
513.718449	2575.926272
514.082655	2580.377611
514.446803	2584.788620
514.810894	2584.760894
515.174927	2587.861203
515.538904	2588.350195
515.902822	2587.692325
516.266684	2589.950762
516.630488	2594.253387
516.994235	2590.696853
517.357925	2594.707090
517.721558	2596.385795
518.085133	2597.056268
518.448651	2598.704725
518.812112	2598.230857
519.175516	2601.225302
519.538863	2606.725201
519.902152	2606.027001
520.265385	2606.838627
520.628560	2610.758124
520.991678	2610.594287
521.354739	2613.871037
521.717743	2614.327261
522.080690	2616.303393
522.443580	2617.495626
522.806413	2620.313631
523.169189	2617.883795
523.531908	2624.255814
523.894569	2624.890999
524.257174	2629.347379
524.619722	2629.173459
524.982213	2630.862246
525.344647	2631.333594
525.707025	2633.574387
526.069345	2639.016312
526.431608	2637.909779
526.793815	2640.001858
527.155964	2640.994965
527.518057	2642.572846
527.880093	2643.482774
528.242072	2645.862199
528.603995	2648.108033
528.965860	2649.075935
529.327669	2653.290339
529.689421	2651.445277
530.051117	2652.577016
530.412755	2655.715134
530.774337	2655.697490
531.135862	2656.856956
531.497331	2657.857625
531.858743	2656.798982
532.220098	2661.527585
532.581396	2660.577327
532.942638	2663.612102
533.303824	2663.453305
533.664953	2667.128307
534.026025	2667.725683
534.387040	2672.928154
534.747999	2671.251970
535.108902	2671.970335
535.469748	2673.379337
535.830537	2675.766324
536.191270	2677.540810
536.551947	2675.511745
536.912567	2678.735563
537.273131	2681.745132
537.633638	2680.845286
537.994089	2681.866120
538.354483	2682.720595
538.714821	2686.599763
539.075103	2686.617407
539.435328	2691.270392
539.795497	2690.738551
540.155609	2690.002542
540.515665	2693.133099
540.875665	2692.346679
541.235609	2694.320290
541.595496	2695.356247
541.955328	2696.871114
542.315102	2700.694829
542.674821	2698.191897
543.034483	2701.120807
543.394090	2699.212730
543.753640	2701.350179
544.113134	2705.506611
544.472571	2703.071733
544.831953	2704.967207
545.191278	2705.249512
545.550548	2707.034080
545.909761	2709.539534
546.268918	2711.382076
546.628019	2712.027343
546.987064	2714.507591
547.346053	2711.989535
547.704986	2718.396841
548.063863	2713.232179
548.422684	2716.488764
548.781449	2716.148487
549.140158	2717.683518
549.498811	2718.916080
549.857408	2719.331975
550.215949	2719.261399
550.574434	2720.224259
550.932864	2721.739126
551.291237	2723.609394
551.649555	2728.320352
552.007817	2725.187275
552.366022	2728.900085
552.724173	2729.484859
553.082267	2731.150960
553.440305	2734.654562
553.798288	2735.632546
554.156215	2736.804614
554.514086	2736.900396
554.871902	2741.326529
555.229661	2740.267887
555.587365	2741.926427
555.945014	2742.750655
556.302606	2744.356263
556.660143	2746.586973
557.017625	2747.096130
557.375050	2750.647623
557.732421	2753.279105
558.089735	2754.945207
558.446994	2753.420257
558.804197	2757.952255
559.161345	2756.162645
559.518437	2755.262799
559.875474	2758.645413
560.232455	2761.254211
560.589381	2764.125148
560.946251	2765.385436
561.303065	2770.459357
561.659825	2767.621188
562.016528	2768.977258
562.373177	2768.982299
562.729770	2770.045983
563.086307	2770.229985
563.442789	2769.902310
563.799216	2774.956067
564.155587	2770.976076
564.511904	2771.326436
564.868164	2773.063113
565.224370	2775.553443
565.580520	2774.048659
565.936615	2775.296345
566.292654	2772.301899
566.648638	2775.336674
567.004567	2774.840120
567.360441	2776.639812
567.716260	2776.463372
568.072023	2775.568567
568.427732	2772.654780
568.783385	2771.238216
569.138982	2770.653442
569.494525	2772.743000
569.850013	2769.047834
570.205445	2772.251488
570.560823	2772.064965
570.916145	2772.178391
571.271412	2772.178391
571.626625	2769.927516
571.981782	2768.808380
572.336884	2767.308636
572.691931	2768.347114
573.046923	2762.945518
573.401860	2764.699839
573.756743	2765.047679
574.111570	2764.931732
574.466342	2762.524581
574.821059	2763.038779
575.175722	2761.365116
575.530330	2758.945362
575.884882	2759.681371
576.239380	2757.548962
576.593823	2758.068201
576.948211	2759.285640
577.302544	2754.252048
577.656823	2752.744743
578.011047	2755.227511
578.365216	2753.531163
578.719330	2753.715165
579.073389	2753.465628
579.427394	2749.722571
579.781344	2753.137953
580.135239	2754.037799
580.489080	2751.655854
580.842866	2752.217942
581.196597	2755.996287
581.550273	2754.730957
581.903895	2754.022675
582.257463	2760.140116
582.610975	2758.027872
582.964434	2758.360588
583.317837	2759.104158
583.671186	2762.890065
584.024481	2761.463418
584.377721	2763.021135
584.730906	2761.450816
585.084037	2766.605395
585.437113	2765.607247
585.790135	2767.648914
586.143103	2764.120107
586.496016	2770.081271
586.848874	2766.093718
587.201679	2770.172012
587.554428	2768.679830
587.907124	2775.278701
588.259765	2774.608227
588.612352	2782.679114
588.964884	2781.978394
589.317362	2785.005607
589.669786	2785.897891
590.022155	2789.850156
590.374470	2796.544808
590.726731	2793.058850
591.078937	2794.455250
591.431090	2800.797021
591.783188	2801.714511
592.135232	2800.446661
592.487222	2805.923875
592.839157	2811.174237
593.191038	2814.219093
593.542866	2814.700524
593.894639	2814.274546
594.246358	2819.015751
594.598022	2822.645382
594.949633	2826.108655
595.301190	2828.420024
595.652692	2830.305415
596.004141	2838.850171
596.355535	2834.464367
596.706876	2838.003257
597.058162	2837.032835
597.409395	2844.715554
597.760573	2853.285515
598.111698	2850.308714
598.462768	2858.472862
598.813785	2859.723069
599.164748	2861.235415
599.515657	2871.098432
599.866511	2872.089019
600.217312	2878.539175
600.568060	2878.234186
600.918753	2891.545352
601.269392	2894.655744
601.619978	2898.270252
601.970510	2906.288207
602.320988	2913.479413
602.671412	2920.635331
603.021783	2927.350148
603.372100	2929.240580
603.722363	2934.095211
604.072572	2942.365224
604.422728	2950.582305
604.772830	2950.625155
605.122878	2955.484827
605.472872	2964.841209
605.822813	2974.616006
606.172701	2980.945175
606.522534	2992.776763
606.872314	3000.643483
607.222041	3005.548526
607.571714	3023.558048
607.921333	3025.113244
608.270899	3034.671272
608.620411	3049.512429
608.969870	3052.801782
609.319276	3066.959862
609.668627	3075.655852
610.017926	3093.095724
610.367171	3104.138372
610.716362	3111.445524
611.065500	3124.222329
611.414585	3139.640698
611.763616	3157.141063
612.112594	3166.653721
612.461518	3181.194929
612.810389	3195.605067
613.159207	3210.562171
613.507971	3223.495251
613.856682	3247.584404
614.205340	3255.695621
614.553945	3284.785599
614.902496	3287.081845
615.250994	3309.477171
615.599439	3329.344358
615.947830	3347.159796
616.296169	3368.798949
616.644454	3391.590005
616.992686	3413.239240
617.340864	3447.030095
617.688990	3461.457877
618.037063	3501.015811
618.385082	3520.078934
618.733048	3548.349725
619.080961	3568.620205
619.428821	3585.755087
619.776628	3606.033128
620.124382	3619.452680
620.472083	3636.562356
620.819731	3655.764111
621.167326	3658.602280
621.514868	3671.361441
621.862357	3670.287675
622.209793	3684.438194
622.557176	3689.217208
622.904506	3691.836087
623.251783	3692.539328
623.599007	3699.448229
623.946179	3708.315619
624.293297	3721.457907
624.640363	3722.337588
624.987376	3739.515320
625.334336	3749.350611
625.681243	3754.555603
626.028097	3769.973972
626.374899	3788.469965
626.721647	3807.152481
627.068343	3826.936490
627.414987	3840.792101
627.761577	3849.714943
628.108115	3880.108060
628.454600	3891.387642
628.801032	3912.535282
629.147412	3940.841361
629.493739	3964.686018
629.840014	3979.002895
630.186236	4011.069675
630.532405	4029.779918
630.878521	4060.553641
631.224585	4084.506684
631.570597	4100.434209
631.916556	4133.945279
632.262462	4162.447963
632.608316	4185.160882
632.954117	4203.823233
633.299866	4226.200915
633.645562	4242.977875
633.991206	4243.330756
634.336797	4237.248604
634.682336	4252.629164
635.027823	4254.386007
635.373257	4264.775825
635.718639	4270.177421
636.063968	4281.681334
636.409245	4272.713121
636.754470	4292.842449
637.099642	4299.549704
637.444762	4300.376453
637.789829	4325.683045
638.134845	4329.063139
638.479808	4347.012167
638.824719	4361.966750
639.169577	4366.544118
639.514383	4389.032705
639.859137	4396.818767
640.203839	4430.962502
640.548489	4437.362247
640.893086	4457.325216
641.237632	4465.978357
641.582125	4500.777442
641.926566	4518.176984
642.270955	4543.831416
642.615292	4566.962751
642.959576	4591.823201
643.303809	4614.228609
643.647990	4649.156244
643.992118	4672.461498
644.336195	4703.280592
644.680219	4732.864603
645.024192	4784.324702
645.368112	4850.227706
645.711981	4888.111977
646.055797	4988.897245
646.399562	5026.325292
646.743274	5140.141943
647.086935	5215.585331
647.430544	5243.352006
647.774101	5286.257267
648.117606	5331.267209
648.461059	5379.180856
648.804460	5376.204054
649.147810	5345.052244
649.491108	5348.250856
649.834354	5340.757181
650.177548	5300.581705
650.520690	5283.714005
650.863781	5310.066636
651.206820	5323.662628
651.549807	5314.722142
651.892742	5297.345285
652.235626	5310.835412
652.578458	5328.338298
652.921238	5308.453467
653.263967	5362.623186
653.606644	5366.411613
653.949269	5390.858688
654.291843	5389.444645
654.634365	5455.372855
654.976836	5445.580413
655.319255	5475.426565
655.661622	5499.669474
656.003938	5511.281772
656.346203	5528.414133
656.688416	5576.557152
657.030577	5584.310447
657.372687	5596.409216
657.714746	5647.450899
658.056753	5691.417322
658.398708	5666.846738
658.740612	5703.185896
659.082465	5760.617241
659.424266	5776.388491
659.766016	5820.962373
660.107715	5840.161607
660.449362	5893.197066
660.790958	5923.401140
661.132503	5954.966324
661.473996	5991.489484
661.815438	6036.678387
662.156829	6090.293579
662.498168	6095.112922
662.839456	6130.879908
663.180693	6180.399163
663.521879	6236.345888
663.863013	6266.224807
664.204097	6295.544158
664.545129	6387.124279
664.886110	6426.019302
665.227040	6467.623944
665.567918	6527.424632
665.908746	6570.985242
666.249522	6635.675849
666.590248	6674.356622
666.930922	6720.964610
667.271545	6756.164467
667.612118	6806.515512
667.952639	6808.602549
668.293109	6848.092428
668.633528	6875.218877
668.973896	6893.389716
669.314213	6930.974038
669.654480	6932.370438
669.994695	6968.873433
670.334859	6991.533419
670.674973	7012.139136
671.015035	7068.337919
671.355047	7103.918383
671.695008	7128.504090
672.034918	7159.328225
672.374777	7213.502985
672.714585	7228.979327
673.054342	7311.518139
673.394049	7316.531567
673.733705	7395.902013
674.073310	7382.147225
674.412864	7430.544823
674.752368	7406.387613
675.091820	7478.602142
675.431223	7455.974923
675.770574	7442.797347
676.109875	7448.801361
676.449125	7439.548323
676.788324	7459.516334
677.127473	7399.768578
677.466571	7422.325221
677.805619	7408.918273
678.144616	7440.286853
678.483562	7461.555481
678.822458	7437.282325
679.161303	7471.751214
679.500098	7487.179666
679.838842	7504.584249
680.177535	7575.578819
680.516179	7668.015936
680.854771	7751.673884
681.193314	7970.764951
681.531805	8233.976196
681.870247	8433.353831
682.208638	8608.314637
682.546978	8692.559879
682.885268	8743.788085
683.223508	8688.032923
683.561697	8661.617277
683.899836	8665.846805
684.237925	8614.553065
684.575963	8631.027556
684.913951	8597.972710
685.251889	8667.059203
685.589776	8724.031803
685.927614	8773.402343
686.265401	8851.799847
686.603137	8927.457484
686.940824	9089.966640
687.278460	9221.346671
687.616046	9303.283065
687.953582	9492.437240
688.291068	9507.170012
688.628504	9612.119273
688.965889	9637.758582
689.303224	9601.124517
689.640510	9560.402076
689.977745	9429.321993
690.314930	9285.654150
690.652065	9203.581645
690.989150	9064.281961
691.326185	8897.571003
691.663170	8770.135675
692.000105	8631.549315
692.336990	8509.523145
692.673825	8440.809698
693.010610	8356.786266
693.347345	8253.253569
693.684030	8134.257132
694.020665	8103.685055
694.357251	7984.986046
694.693786	8000.422059
695.030272	7983.128381
695.366707	7892.758137
695.703093	7846.228287
696.039429	7886.325624
696.375716	7853.996705
696.711952	7881.105509
697.048139	7873.188377
697.384276	7862.470884
697.720363	7928.681399
698.056400	7909.714057
698.392388	7881.869244
698.728326	7907.831187
699.064214	7883.177424
699.400053	7896.402891
699.735842	7827.918816
700.071581	7788.484390
700.407270	7739.980928
700.742910	7721.568114
701.078501	7677.107657
701.414042	7629.050338
701.749533	7583.037206
702.084974	7517.401383
702.420366	7585.885458
702.755709	7510.578181
703.091002	7453.834953
703.426246	7483.247566
703.761440	7482.448543
704.096584	7436.637057
704.431679	7448.728265
704.766725	7456.834440
705.101721	7460.834596
705.436668	7518.535642
705.771565	7450.190199
706.106413	7579.541166
706.441212	7604.817511
706.775961	7669.742532
707.110661	7719.130716
707.445311	7850.825819
707.779913	7833.494332
708.114465	7933.563756
708.448967	8044.212042
708.783421	8274.635623
709.117825	8385.006645
709.452180	8485.433991
709.786485	8633.825396
710.120742	8898.334738
710.454949	8932.538967
710.789107	9091.509233
711.123216	9331.805913
711.457275	9395.180779
711.791286	9575.210465
712.125247	9630.232139
712.459159	9564.097242
712.793023	9791.057549
713.126837	9485.787958
713.460602	9588.292259
713.794318	9508.838634
714.127985	9417.243389
714.461602	9182.744035
714.795171	9192.050005
715.128691	8905.520903
715.462162	8765.328935
715.795584	8664.863780
716.128957	8605.184080
716.462281	8503.098194
716.795556	8459.847615
717.128782	8320.714289
717.461960	8162.704363
717.795088	8159.571286
718.128167	8055.584885
718.461198	7931.380937
718.794180	7901.529744
719.127113	7804.963922
719.459997	7764.561594
719.792833	7665.707088
720.125619	7679.290477
720.458357	7586.099707
720.791046	7549.145529
721.123686	7513.456680
721.456278	7457.353679
721.788821	7462.377189
722.121315	7389.628297
722.453761	7434.456758
722.786158	7428.011643
723.118506	7443.341792
723.450805	7426.486694
723.783056	7499.578383
724.115259	7480.928635
724.447412	7477.430074
724.779518	7576.546720
725.111574	7605.533355
725.443582	7703.462810
725.775542	7716.015283
726.107453	7907.004437
726.439315	7886.607929
726.771129	8043.788585
727.102895	8204.450158
727.434612	8285.980739
727.766281	8345.423505
728.097901	8460.306360
728.429473	8488.229311
728.760996	8509.528186
729.092471	8563.140857
729.423897	8547.873723
729.755276	8531.119448
730.086606	8593.327287
730.417887	8817.310793
730.749120	9034.075367
731.080305	9129.774111
731.411442	9282.311865
731.742530	9330.301129
732.073570	9395.400069
732.404562	9523.241210
732.735506	9477.084406
733.066401	9385.771465
733.397249	9208.680772
733.728048	8987.490065
734.058798	8695.025004
734.389501	8446.496119
734.720156	8287.931666
735.050762	8103.188501
735.381320	7970.611196
735.711831	7896.884321
736.042293	7765.569825
736.372707	7792.111500
736.703073	7716.784059
737.033391	7809.563975
737.363661	7816.853483
737.693883	7870.362811
738.024056	7956.075029
738.354182	8036.473871
738.684260	8162.096904
739.014290	8266.395857
739.344272	8346.514915
739.674207	8470.844892
740.004093	8531.547946
740.333931	8544.539000
740.663722	8579.295235
740.993464	8595.502544
741.323159	8545.413640
741.652806	8449.999721
741.982405	8380.920790
742.311956	8256.331193
742.641460	8233.555260
742.970915	8124.263045
743.300323	7997.939291
743.629683	7927.574866
743.958996	7828.947211
744.288260	7719.735654
744.617477	7612.631300
744.946647	7589.547856
745.275768	7485.463153
745.604842	7421.826147
745.933869	7356.588575
746.262847	7354.037751
746.591778	7333.558064
746.920662	7306.600494
747.249498	7313.920249
747.578286	7384.607308
747.907027	7463.312323
748.235720	7564.803353
748.564365	7587.634738
748.892963	7548.734675
749.221514	7595.158660
749.550017	7544.679066
749.878473	7536.890484
750.206881	7450.444778
750.535242	7426.131292
750.863555	7394.765233
751.191821	7359.066302
751.520039	7383.578913
751.848210	7355.222422
752.176334	7385.920529
752.504411	7348.802513
752.832440	7275.662932
753.160421	7308.218704
753.488356	7263.382682
753.816243	7231.527631
754.144082	7167.078999
754.471875	7153.336814
754.799620	7129.086343
755.127318	7127.090046
755.454969	7115.800382
755.782572	7101.972497
756.110129	7119.939170
756.437638	7091.358348
756.765100	7091.607885
757.092515	7099.298165
757.419882	7117.723582
757.747203	7127.127855
758.074477	7168.838362
758.401703	7151.524519
758.728882	7237.030050
759.056014	7265.114318
759.383099	7331.637384
759.710138	7389.865232
760.037129	7450.659027
760.364073	7459.811241
760.690970	7462.422559
761.017820	7477.856052
761.344623	7596.910461
761.671379	7797.361862
761.998088	8152.932087
762.324751	9001.154112
762.651366	10460.343819
762.977935	12248.791449
763.304456	13354.644162
763.630931	13602.578191
763.957359	13031.181046
764.283740	12084.923702
764.610074	11145.844960
764.936362	10104.755950
765.262602	9341.437038
765.588796	8587.938293
765.914943	8073.896877
766.241044	7634.419167
766.567097	7304.069834
766.893104	7023.196907
767.219064	6840.452559
767.544978	6647.661192
767.870845	6488.484239
768.196665	6401.821763
768.522438	6298.558768
768.848165	6219.548763
769.173846	6132.230938
769.499479	6076.874027
769.825066	5997.826214
770.150607	5908.980919
770.476101	5882.507300
770.801548	5827.384803
771.126949	5760.135811
771.452303	5715.761054
771.777611	5636.753570
772.102872	5628.065142
772.428087	5570.716975
772.753256	5510.112224
773.078378	5462.669925
773.403453	5388.713677
773.728482	5329.545655
774.053465	5299.626407
774.378401	5253.628398
774.703291	5206.276840
775.028135	5155.318337
775.352932	5136.885358
775.677683	5099.517805
776.002388	5048.150968
776.327046	5050.263211
776.651658	5004.479452
776.976224	4969.234225
777.300743	4963.210046
777.625216	4927.455662
777.949643	4906.479421
778.274024	4916.108025
778.598359	4875.214185
778.922647	4878.470770
779.246889	4860.511660
779.571086	4866.871075
779.895236	4868.537177
780.219339	4867.768401
780.543397	4871.929873
780.867409	4906.970934
781.191374	4909.047889
781.515294	4891.907966
781.839167	4926.112195
782.162995	4914.499897
782.486776	4891.981063
782.810511	4871.955079
783.134201	4828.460004
783.457844	4825.513449
783.781441	4801.444460
784.104993	4783.845792
784.428498	4769.352475
784.751958	4762.720837
785.075372	4751.925206
785.398739	4728.992997
785.722061	4750.324640
786.045337	4757.750259
786.368568	4826.010003
786.691752	4844.790822
787.014891	4999.380325
787.337983	5162.920397
787.661030	5423.916055
787.984031	5676.263613
788.306987	5830.802705
788.629897	5888.057610
788.952760	5850.939594
789.275579	5757.559781
789.598351	5586.029480
789.921078	5440.211585
790.243759	5264.035861
790.566395	5151.449251
790.888984	5031.701683
791.211529	4950.034990
791.534027	4855.107543
791.856480	4765.995066
792.178888	4737.015993
792.501249	4699.146846
792.823566	4636.213081
793.145836	4632.515395
793.468062	4623.282522
793.790241	4599.866362
794.112375	4631.108913
794.434464	4693.561247
794.756507	4716.506059
795.078505	4791.820897
795.400457	4919.379734
795.722364	5063.831477
796.044226	5179.009239
796.366042	5279.978510
796.687812	5248.766206
797.009538	5274.917191
797.331218	5222.786619
797.652852	5188.836969
797.974442	5113.070947
798.295986	5075.279937
798.617484	4996.264892
798.938938	4928.410961
799.260346	4893.886619
799.581709	4804.595181
799.903026	4775.255666
800.224299	4726.916042
800.545526	4658.358870
800.866708	4619.078199
801.187845	4586.310699
801.508936	4539.019635
801.829983	4524.977501
802.150984	4452.543682
802.471940	4441.226292
802.792851	4427.836987
803.113717	4412.181684
803.434538	4399.117533
803.755314	4375.277917
804.076045	4369.868759
804.396731	4347.213813
804.717372	4356.207232
805.037967	4356.837376
805.358518	4374.393194
805.679024	4410.112290
805.999485	4420.010596
806.319901	4429.316566
806.640272	4436.064150
806.960598	4471.009428
807.280879	4464.357626
807.601115	4494.660002
807.921306	4468.022545
808.241453	4467.699911
808.561554	4479.599555
808.881611	4458.076348
809.201623	4460.407882
809.521590	4432.913429
809.841513	4424.219959
810.161390	4436.969037
810.481223	4383.973907
810.801011	4374.647773
811.120755	4363.700907
811.440453	4328.259075
811.760107	4312.404646
812.079716	4298.637255
812.399281	4266.845218
812.718801	4262.794651
813.038276	4239.476794
813.357707	4222.384762
813.677093	4238.708018
813.996434	4203.195610
814.315731	4218.477868
814.634983	4220.950554
814.954191	4224.912901
815.273354	4264.271709
815.592473	4296.628355
815.911547	4346.871015
816.230577	4385.030029
816.549562	4441.745530
816.868502	4480.199452
817.187399	4525.295094
817.506250	4584.581583
817.825058	4607.970017
818.143821	4724.987800
818.462539	4842.204710
818.781213	5011.960524
819.099843	5256.408595
819.418429	5690.703999
819.736970	6108.204798
820.055466	6597.441218
820.373919	7251.349447
820.692327	8301.182339
821.010691	10129.462645
821.329011	13964.318788
821.647286	19417.851621
821.965517	25189.042682
822.283704	28209.918837
822.601847	29283.583783
822.919945	26814.731619
823.237999	23987.864270
823.556010	20954.279367
823.873976	18146.495307
824.191897	15573.379478
824.509775	13712.316548
824.827609	12023.270390
825.145398	11104.741913
825.463144	10687.417553
825.780845	10934.552559
826.098502	11778.078749
826.416116	13330.295389
826.733685	14722.674684
827.051210	14983.065404
827.368692	14059.016863
827.686129	12440.055346
828.003522	10843.045534
828.320872	9415.410929
828.638177	8333.377668
828.955439	7495.263156
829.272656	6784.026924
829.589830	6225.580504
829.906960	5737.531277
830.224046	5381.363675
830.541088	5110.255463
830.858086	4941.543167
831.175041	4806.248680
831.491952	4776.364720
831.808819	4817.908869
832.125642	5008.978682
832.442421	5422.451600
832.759157	6215.717487
833.075849	7424.666837
833.392497	8642.299576
833.709101	9340.428807
834.025662	9123.281105
834.342179	8411.364318
834.658653	7529.593413
834.975083	6788.576566
835.291469	6179.610222
835.607811	5673.906874
835.924110	5313.373633
836.240366	4978.802335
836.556578	4661.186957
836.872746	4414.142692
837.188871	4225.482551
837.504952	4076.236671
837.820990	3960.643013
838.136984	3879.929099
838.452935	3851.502032
838.768842	3882.716857
839.084706	4097.253241
839.400526	4629.969612
839.716303	5244.027521
840.032037	5608.255927
840.347727	5482.292616
840.663373	5062.677053
840.978977	4665.897916
841.294537	4364.620918
841.610054	4133.234477
841.925527	3969.253304
842.240957	3824.567147
842.556344	3693.529915
842.871687	3581.336515
843.186987	3478.260043
843.502244	3394.796179
843.817458	3338.736028
844.132629	3284.064714
844.447756	3249.825197
844.762840	3216.485526
845.077881	3187.665250
845.392879	3162.451919
845.707833	3143.482057
846.022745	3128.560242
846.337613	3117.754528
846.652438	3100.856581
846.967221	3097.191662
847.281960	3078.420925
847.596656	3077.039649
847.911309	3066.181004
848.225919	3054.513253
848.540485	3053.285732
848.855009	3044.304917
849.169490	3037.839637
849.483928	3032.435520
849.798323	3029.768750
850.112675	3020.235928
850.426984	3021.203829
850.741251	3010.672859
851.055474	3012.013806
851.369654	3013.957171
851.683792	3012.475071
851.997887	3013.513549
852.311938	3012.094464
852.625947	3016.568488
852.939914	3010.251923
853.253837	3016.936493
853.567718	3012.308713
853.881555	3009.510873
854.195350	3014.083199
854.509103	3009.919206
854.822812	3010.851820
855.136479	3003.900069
855.450103	3010.148579
855.763685	3004.499966
856.077224	3008.593383
856.390720	3010.783764
856.704173	3020.233407
857.017584	3024.057122
857.330953	3028.851260
857.644278	3034.124307
857.957561	3036.110521
858.270802	3035.049358
858.584000	3035.412321
858.897155	3027.911084
859.210268	3023.863038
859.523339	3014.564630
859.836367	3010.884587
860.149352	3009.929289
860.462295	3009.221007
860.775195	2997.424707
861.088054	2993.689212
861.400869	2997.591065
861.713642	2992.786845
862.026373	3003.882425
862.339062	3005.558608
862.651708	3013.415247
862.964312	3026.018131
863.276873	3029.325128
863.589392	3055.297153
863.901869	3070.725604
864.214303	3087.278233
864.526696	3100.261724
864.839045	3113.582973
865.151353	3120.824591
865.463619	3124.328193
865.775842	3124.590333
866.088023	3126.700056
866.400162	3122.992287
866.712258	3123.319962
867.024313	3125.354068
867.336325	3122.989767
867.648296	3123.408182
867.960224	3124.363481
868.272110	3128.504789
868.583954	3125.248203
868.895755	3132.048720
869.207515	3126.873976
869.519233	3145.145638
869.830909	3147.908190
870.142542	3160.110303
870.454134	3162.840088
870.765684	3174.769978
871.077191	3185.762214
871.388657	3195.781507
871.700081	3209.311964
872.011463	3221.415775
872.322803	3239.833630
872.634101	3249.222779
872.945357	3263.751385
873.256571	3285.022533
873.567744	3293.179120
873.878874	3295.593833
874.189963	3309.595638
874.501010	3312.806853
874.812015	3310.588745
875.122979	3321.969150
875.433900	3321.707010
875.744780	3321.079386
876.055618	3327.229594
876.366415	3326.339830
876.677169	3331.955676
876.987882	3348.319261
877.298554	3365.186962
877.609183	3394.060171
877.919771	3429.232301
878.230317	3488.465859
878.540822	3565.708938
878.851285	3686.618493
879.161707	3857.690049
879.472087	4150.134945
879.782425	4632.205364
880.092722	5499.303990
880.402977	6792.775847
880.713191	8232.151299
881.023363	9581.456455
881.333494	10323.272326
881.643583	10661.155662
881.953631	10516.046049
882.263637	10063.163911
882.573602	9458.001118
882.883526	8854.920321
883.193408	8230.520485
883.503248	7614.186496
883.813048	7056.367699
884.122806	6536.617176
884.432522	6016.468401
884.742197	5567.810750
885.051831	5191.145817
885.361424	4853.887584
885.670975	4584.183332
885.980485	4357.739743
886.289954	4168.071370
886.599382	4014.908514
886.908768	3884.897156
887.218113	3771.309878
887.527417	3671.222809
887.836680	3581.142431
888.145901	3512.197090
888.455082	3457.515695
888.764221	3406.393353
889.073319	3364.143443
889.382376	3338.501614
889.691392	3322.095179
890.000366	3316.743994
890.309300	3317.933706
890.618193	3314.835917
890.927044	3310.802994
891.235855	3318.682318
891.544625	3329.409893
891.853353	3354.880323
892.162041	3396.240470
892.470687	3469.354844
892.779293	3560.690470
893.087858	3691.609235
893.396381	3902.798293
893.704864	4212.098288
894.013306	4624.721771
894.321707	5035.326272
894.630068	5280.306185
894.938387	5292.962001
895.246665	5163.091796
895.554903	4929.131846
895.863100	4683.761244
896.171256	4488.237572
896.479371	4312.853309
896.787446	4154.634175
897.095480	4009.758975
897.403473	3901.016245
897.711425	3793.284267
898.019336	3706.319322
898.327207	3617.118625
898.635038	3539.502500
898.942827	3463.686067
899.250576	3398.410686
899.558284	3337.198476
899.865952	3295.278761
900.173579	3248.136411
900.481165	3215.832697
900.788711	3187.279602
901.096216	3163.220695
901.403681	3146.650422
901.711105	3134.327322
902.018489	3135.106180
902.325832	3164.541477
902.633135	3213.213817
902.940397	3346.388499
903.247619	3663.051099
903.554800	4214.129873
903.861941	4900.256117
904.169041	5373.033168
904.476101	5492.316951
904.783121	5287.764572
905.090100	5005.220502
905.397039	4712.974731
905.703938	4456.609373
906.010796	4222.896439
906.317614	4042.629819
906.624391	3871.835526
906.931129	3727.235069
907.237826	3598.471397
907.544483	3470.715956
907.851099	3348.125177
908.157675	3231.321642
908.464211	3128.161990
908.770707	3057.847977
909.077163	2998.906806
909.383578	2955.207564
909.689954	2922.334199
909.996289	2902.514903
910.302584	2887.865310
910.608839	2880.129659
910.915054	2870.496014
911.221229	2866.095087
911.527363	2870.836292
911.833458	2877.747714
912.139513	2885.082593
912.445527	2895.653893
912.751502	2924.839653
913.057436	2958.529684
913.363331	3002.601972
913.669186	3072.628640
913.975000	3161.068122
914.280775	3308.766368
914.586510	3510.528468
914.892205	3791.172024
915.197859	4156.433867
915.503475	4575.686468
915.809050	4920.582049
916.114585	5121.361124
916.420081	5161.070293
916.725536	5111.230926
917.030952	4937.303556
917.336328	4786.857882
917.641665	4636.180314
917.946961	4472.373061
918.252218	4322.862520
918.557435	4159.312366
918.862612	4014.767361
919.167750	3888.972929
919.472848	3751.069645
919.777906	3628.967857
920.082925	3511.471164
920.387904	3399.640728
920.692843	3320.224911
920.997743	3247.430649
921.302603	3178.674352
921.607423	3130.959831
921.912204	3082.068200
922.216946	3042.837941
922.521647	3009.014319
922.826310	2975.999803
923.130932	2948.394444
923.435516	2921.124323
923.740059	2901.521796
924.044564	2876.716798
924.349028	2859.082842
924.653454	2836.057372
924.957840	2815.456697
925.262186	2802.851292
925.566493	2784.511574
925.870761	2765.624891
926.174989	2758.806730
926.479178	2749.092427
926.783328	2736.499625
927.087438	2726.014025
927.391509	2720.350288
927.695541	2709.811756
927.999533	2702.670962
928.303486	2694.461443
928.607400	2690.778880
928.911275	2685.586491
929.215110	2683.033147
929.518906	2681.256140
929.822663	2680.046263
930.126381	2679.547189
930.430060	2685.720082
930.733699	2686.987932
931.037299	2688.311235
931.340861	2689.309383
931.644383	2690.932635
931.947866	2686.821574
932.251309	2686.718230
932.554714	2686.153621
932.858080	2688.432223
933.161407	2681.435101
933.464694	2679.824452
933.767943	2672.955880
934.071153	2677.727332
934.374323	2669.260715
934.677455	2670.468071
934.980548	2666.662000
935.283602	2666.576300
935.586617	2664.239725
935.889593	2664.869870
936.192530	2666.840961
936.495428	2672.678617
936.798287	2676.890501
937.101108	2688.338961
937.403890	2708.818649
937.706632	2728.335476
938.009336	2751.975967
938.312002	2774.245264
938.614628	2791.138171
938.917216	2805.412198
939.219765	2811.814463
939.522275	2819.575319
939.824747	2821.997594
940.127179	2813.152889
940.429573	2810.786068
940.731929	2808.762044
941.034246	2801.885911
941.336524	2799.259469
941.638763	2795.773512
941.940964	2793.089097
942.243126	2776.871705
942.545250	2772.823659
942.847335	2759.353696
943.149381	2747.645616
943.451389	2740.565315
943.753359	2732.101218
944.055290	2723.649723
944.357182	2717.428940
944.659036	2712.828887
944.960851	2708.715305
945.262628	2706.348483
945.564367	2708.349822
945.866067	2705.458720
946.167729	2707.563402
946.469352	2705.279759
946.770937	2704.606765
947.072484	2698.663244
947.373992	2697.816331
947.675462	2696.624098
947.976893	2689.770649
948.278286	2688.419620
948.579641	2687.978519
948.880958	2686.103210
949.182236	2683.302849
949.483476	2682.776048
949.784678	2683.096161
950.085841	2683.587674
950.386967	2686.143539
950.688054	2689.480783
950.989103	2698.078471
951.290114	2702.870087
951.591087	2713.126315
951.892021	2722.918756
952.192917	2730.659448
952.493776	2739.700757
952.794596	2740.240161
953.095378	2740.749317
953.396122	2741.747466
953.696828	2736.487022
953.997496	2736.396281
954.298126	2727.947307
954.598718	2720.841801
954.899272	2712.513815
955.199788	2702.930581
955.500266	2696.162832
955.800706	2687.721420
956.101108	2670.294151
956.401472	2662.245949
956.701798	2652.985349
957.002087	2643.142497
957.302337	2638.038328
957.602550	2627.416617
957.902724	2619.912860
958.202861	2614.904473
958.502960	2608.033381
958.803022	2602.397371
959.103045	2596.882348
959.403031	2594.182810
959.702979	2588.282140
960.002889	2584.428178
960.302762	2581.844586
960.602596	2580.745615
960.902393	2577.836869
961.202153	2573.385530
961.501875	2570.139027
961.801559	2571.167422
962.101205	2568.621640
962.400814	2566.622822
962.700385	2564.878583
962.999918	2564.611402
963.299414	2562.738613
963.598873	2562.499158
963.898293	2563.209961
964.197677	2563.567883
964.497022	2557.478169
964.796331	2561.138047
965.095601	2559.610577
965.394835	2557.642007
965.694030	2557.906667
965.993189	2559.663509
966.292309	2557.024465
966.591393	2557.500854
966.890439	2554.355174
967.189447	2555.612942
967.488419	2557.198385
967.787353	2556.157387
968.086249	2556.792572
968.385108	2556.348951
968.683930	2558.178890
968.982714	2560.046637
969.281462	2561.543860
969.580172	2563.222564
969.878844	2561.054868
970.177480	2565.115517
970.476078	2565.700291
970.774639	2572.831003
971.073162	2574.955850
971.371649	2574.618092
971.670098	2573.383010
971.968510	2573.199007
972.266885	2572.147927
972.565223	2578.693865
972.863524	2578.850141
973.161788	2581.209401
973.460014	2579.024061
973.758204	2581.590008
974.056356	2581.484144
974.354471	2583.059504
974.652550	2581.721078
974.950591	2580.891808
975.248595	2579.659246
975.546563	2583.266192
975.844493	2579.918866
976.142386	2577.539441
976.440243	2575.147413
976.738062	2575.064234
977.035845	2574.272773
977.333590	2573.897207
977.631299	2570.433935
977.928971	2569.385375
978.226606	2566.640466
978.524204	2566.912689
978.821765	2564.621484
979.119290	2563.333469
979.416777	2564.661813
979.714228	2565.239026
980.011642	2568.268759
980.309020	2568.561146
980.606360	2573.788823
980.903664	2579.717219
981.200931	2589.681060
981.498162	2598.656834
981.795356	2627.673716
982.092513	2652.929897
982.389633	2686.456090
982.686717	2715.102447
982.983764	2737.066754
983.280775	2751.179465
983.577749	2748.008579
983.874686	2744.625965
984.171587	2725.537636
984.468451	2719.019424
984.765279	2705.700695
985.062070	2690.688139
985.358824	2681.475430
985.655543	2662.959272
985.952224	2647.364463
986.248869	2627.477111
986.545478	2605.071703
986.842050	2592.788931
987.138586	2578.822415
987.435086	2571.255643
987.731549	2560.817934
988.027975	2559.696277
988.324366	2555.865000
988.620719	2553.483055
988.917037	2552.469783
989.213318	2546.659853
989.509563	2547.441232
989.805772	2547.053063
990.101944	2543.839327
990.398080	2543.935109
990.694180	2542.236241
990.990244	2543.945192
991.286271	2542.503422
991.582262	2545.021478
991.878217	2544.484595
992.174136	2546.107847
992.470019	2546.584236
992.765865	2549.283774
993.061676	2548.520039
993.357450	2552.371480
993.653188	2554.723179
993.948890	2555.824671
994.244556	2561.914385
994.540186	2569.390416
994.835780	2576.982393
995.131337	2586.273240
995.426859	2601.595827
995.722345	2614.392796
996.017795	2631.968779
996.313208	2637.851806
996.608586	2645.393372
996.903928	2651.341933
997.199234	2645.453866
997.494504	2644.392703
997.789738	2639.230561
998.084936	2633.334932
998.380099	2622.146091
998.675225	2612.512446
998.970316	2606.826024
999.265371	2593.038468
999.560390	2585.186871
999.855373	2577.148752
1000.150320	2570.418811
1000.445232	2563.174673
1000.740108	2556.762325
1001.034948	2556.185113
1001.329752	2552.043805
1001.624521	2547.224462
1001.919254	2543.753628
1002.213951	2543.186498
1002.508613	2538.152906
1002.803239	2541.336395
1003.097829	2533.988913
1003.392384	2536.975797
1003.686903	2540.151723
1003.981386	2535.919675
1004.275834	2536.837165
1004.570246	2538.946888
1004.864623	2532.277441
1005.158964	2535.140817
1005.453270	2534.361958
1005.747540	2531.289375
1006.041775	2534.316588
1006.335974	2533.028573
1006.630138	2534.253573
1006.924266	2533.247863
1007.218359	2534.198121
1007.512416	2533.555374
1007.806438	2531.612009
1008.100425	2531.526309
1008.394376	2534.742565
1008.688292	2534.687113
1008.982172	2531.196114
1009.276017	2533.550333
1009.569827	2530.288706
1009.863602	2530.525640
1010.157341	2530.744930
1010.451045	2531.501103
1010.744714	2531.417924
1011.038347	2531.748120
1011.331945	2529.356092
1011.625508	2531.054961
1011.919036	2530.510517
1012.212528	2530.714683
1012.505986	2529.703932
1012.799408	2529.366175
1013.092795	2527.886596
1013.386147	2530.412214
1013.679464	2533.764582
1013.972745	2526.921215
1014.265992	2530.581093
1014.559204	2531.727955
1014.852380	2527.788294
1015.145521	2529.267872
1015.438628	2528.645290
1015.731699	2527.087573
1016.024736	2532.486649
1016.317737	2529.812317
1016.610703	2533.928419
1016.903635	2528.448685
1017.196531	2525.613036
1017.489393	2528.330218
1017.782219	2525.328211
1018.075011	2530.800383
1018.367768	2531.246525
1018.660490	2530.984385
1018.953177	2530.984385
1019.245829	2530.984385
