Dividing Wavelength (nm)	Counts (n)	Blue Motor Position (mm): 49.900000	Red Motor Position (mm): 0.000000	
326.493990	2131.273817
326.888308	2131.273817
327.282561	2131.273817
327.676750	2096.474732
328.070874	2094.412900
328.464933	2096.903230
328.858929	2103.686103
329.252859	2114.849738
329.646726	2127.513117
330.040528	2139.702627
330.434265	2156.214926
330.827938	2174.693275
331.221547	2191.104752
331.615091	2209.245344
332.008571	2227.582541
332.401986	2251.044071
332.795338	2269.219951
333.188625	2286.911881
333.581847	2307.338636
333.975006	2324.375215
334.368100	2342.480519
334.761129	2363.239991
335.154095	2377.188864
335.546996	2399.430434
335.939833	2426.743406
336.332606	2439.333688
336.725315	2454.870524
337.117960	2460.209106
337.510540	2471.851651
337.903056	2481.255923
338.295508	2486.120637
338.687896	2495.882831
339.080220	2505.844151
339.472480	2512.939575
339.864676	2515.351767
340.256807	2523.367202
340.648875	2522.434588
341.040879	2526.767460
341.432818	2526.409538
341.824694	2530.568490
342.216506	2528.047913
342.608253	2530.734848
342.999937	2530.795342
343.391557	2529.978675
343.783113	2525.489527
344.174605	2527.115300
344.566033	2527.659744
344.957397	2523.341996
345.348697	2521.970802
345.739934	2521.058353
346.131106	2520.176151
346.522215	2520.017355
346.913260	2515.903773
347.304241	2516.745646
347.695159	2512.090141
348.086012	2512.017044
348.476802	2509.471261
348.867528	2510.086282
349.258191	2505.108142
349.648789	2505.798781
350.039324	2503.308451
350.429796	2505.098060
350.820203	2504.359531
351.210548	2500.891217
351.600828	2499.827534
351.991045	2500.140085
352.381198	2497.889210
352.771288	2499.343583
353.161314	2497.528768
353.551276	2500.099756
353.941175	2502.007833
354.331010	2497.158243
354.720782	2498.053048
355.110490	2498.660507
355.500135	2497.369971
355.889717	2500.823162
356.279235	2500.364417
356.668689	2499.197390
357.058080	2499.832575
357.447408	2500.137565
357.836672	2496.941473
358.225873	2499.290651
358.615010	2497.501041
359.004084	2504.848523
359.393095	2501.720487
359.782043	2504.543533
360.170927	2502.829541
360.559748	2504.505725
360.948505	2506.323061
361.337199	2507.409429
361.725830	2505.776095
362.114398	2508.097547
362.502903	2509.690551
362.891344	2511.454955
363.279722	2510.040912
363.668037	2508.871364
364.056289	2510.877743
364.444478	2508.707526
364.832603	2511.951509
365.220665	2511.621313
365.608665	2513.305059
365.996601	2513.902435
366.384474	2516.591891
366.772284	2515.382014
367.160031	2518.363857
367.547715	2518.189937
367.935336	2520.299660
368.322893	2523.737727
368.710388	2526.472553
369.097820	2533.610826
369.485189	2537.202648
369.872495	2541.832948
370.259738	2547.123639
370.646918	2555.108827
371.034035	2561.342214
371.421090	2570.265056
371.808081	2582.913311
372.195010	2589.643251
372.581875	2603.975252
372.968678	2616.865482
373.355418	2625.821092
373.742096	2648.100471
374.128710	2659.748057
374.515262	2673.127280
374.901751	2689.843746
375.288177	2704.447968
375.674540	2723.715258
376.060841	2742.932137
376.447079	2763.270672
376.833254	2783.553755
377.219367	2794.316618
377.605417	2833.730879
377.991404	2841.814370
378.377329	2863.803883
378.763191	2882.796430
379.148991	2918.762542
379.534727	2944.154834
379.920402	2973.668269
380.306013	2986.402224
380.691563	3032.949718
381.077049	3056.930487
381.462474	3073.021850
381.847835	3116.005248
382.233134	3135.234729
382.618371	3133.881179
383.003545	3204.122097
383.388657	3211.777089
383.773706	3244.426122
384.158693	3261.329110
384.543618	3284.341978
384.928480	3322.667350
385.313280	3367.843650
385.698017	3370.102087
386.082692	3423.346754
386.467305	3429.980912
386.851856	3456.139460
387.236344	3481.698110
387.620770	3510.200793
388.005133	3537.896893
388.389435	3566.812951
388.773674	3578.536154
389.157851	3620.067700
389.541965	3634.155205
389.926018	3600.329062
390.310008	3671.086698
390.693936	3687.024306
391.077802	3729.327148
391.461606	3722.309862
391.845348	3781.810601
392.229027	3786.408133
392.612645	3795.882982
392.996200	3872.324518
393.379694	3915.113832
393.763125	3975.519458
394.146494	3946.694140
394.529801	4007.503059
394.913047	4058.436357
395.296230	4021.222559
395.679351	4076.725663
396.062410	4098.251390
396.445408	4080.365376
396.828343	4112.109522
397.211217	4138.714211
397.594028	4060.583888
397.976778	4123.071511
398.359466	4150.941530
398.742092	4177.838606
399.124656	4104.373871
399.507158	4185.705327
399.889598	4205.265003
400.271977	4267.611474
400.654294	4241.480653
401.036549	4246.433586
401.418742	4217.247826
401.800874	4319.331192
402.182944	4344.103422
402.564952	4406.318822
402.946898	4392.422881
403.328783	4386.413826
403.710606	4303.935508
404.092367	4495.280064
404.474067	4455.684321
404.855705	4465.121361
405.237282	4397.161566
405.618797	4505.004449
406.000250	4540.693298
406.381642	4623.002738
406.762972	4580.399946
407.144240	4591.898818
407.525447	4597.471814
407.906593	4654.492305
408.287677	4694.592163
408.668700	4622.405361
409.049661	4673.557949
409.430560	4717.463878
409.811399	4644.493176
410.192176	4804.244821
410.572891	4739.624791
410.953545	4847.747458
411.334138	4725.683480
411.714669	4794.817863
412.095139	4687.388354
412.475547	4829.715251
412.855894	4810.647087
413.236180	4821.747707
413.616405	4775.104431
413.996568	4861.499726
414.376670	4804.320438
414.756711	4760.268316
415.136691	4790.588335
415.516609	4870.891396
415.896466	4904.178134
416.276262	4942.606850
416.655997	4918.537861
417.035670	5100.493268
417.415283	5192.549778
417.794834	5135.720851
418.174324	5086.884673
418.553753	4998.309080
418.933121	5182.336401
419.312428	5245.189507
419.691674	5185.456875
420.070859	5312.864477
420.449983	5224.919027
420.829045	5345.354713
421.208047	5246.601030
421.586988	5323.017361
421.965867	5337.109906
422.344686	5465.913907
422.723444	5322.188091
423.102141	5137.828053
423.480777	5440.304846
423.859352	5206.808682
424.237866	5464.136901
424.616319	5453.633657
424.994712	5564.095420
425.373044	5441.202171
425.751314	5583.725673
426.129524	5384.768975
426.507673	5585.631229
426.885762	5665.475544
427.263789	5597.470379
427.641756	5479.106607
428.019662	5599.098672
428.397508	5606.310042
428.775292	5555.437238
429.153016	5655.471374
429.530679	5579.506227
429.908282	5661.798022
430.285824	5537.095000
430.663305	5809.342513
431.040726	5542.917532
431.418086	5544.845774
431.795385	5647.846629
432.172624	5658.249050
432.549802	5656.396426
432.926920	5668.812788
433.303977	5677.952400
433.680974	5713.333738
434.057910	5732.159927
434.434786	5741.528912
434.811601	5706.686977
435.188355	5940.084838
435.565050	5813.851825
435.941683	5799.771883
436.318257	6017.322877
436.694770	5995.381255
437.071222	6027.211100
437.447614	5962.281039
437.823946	5874.345672
438.200218	6029.303179
438.576429	5896.637654
438.952580	5992.167519
439.328670	6042.453029
439.704700	5949.829389
440.080670	5931.499753
440.456580	6202.313058
440.832429	6085.408701
441.208218	5930.226862
441.583947	6086.217806
441.959616	6095.241471
442.335224	6013.930180
442.710773	6151.137785
443.086261	6179.166601
443.461689	5977.384336
443.837057	6125.493436
444.212365	6276.685201
444.587612	6167.713099
444.962800	6325.309651
445.337927	6301.787627
445.712995	5916.698926
446.088002	6496.229972
446.462949	6325.171019
446.837837	6248.578248
447.212664	6429.346463
447.587431	6569.538431
447.962139	7114.542614
448.336786	8044.060807
448.711374	7781.489789
449.085901	6851.621236
449.460369	6772.142404
449.834776	6710.781479
450.209124	7100.588701
450.583412	7249.587564
450.957640	7397.802528
451.331808	7157.102556
451.705917	6716.523354
452.079965	6635.554861
452.453954	6846.025555
452.827883	6724.495938
453.201752	6817.485062
453.575562	6619.526513
453.949311	6820.222409
454.323001	6711.580502
454.696632	6784.452902
455.070202	6925.849705
455.443713	7080.338386
455.817164	7180.954775
456.190556	7261.691375
456.563888	7331.932292
456.937160	7379.309056
457.310373	7038.332971
457.683526	7060.559418
458.056619	6950.231246
458.429653	6941.623476
458.802628	6876.232149
459.175542	6983.165104
459.548398	7339.342788
459.921194	7497.629978
460.293930	7496.810790
460.666607	8028.478601
461.039224	8339.270777
461.411782	8464.445147
461.784280	8484.534145
462.156719	8368.522072
462.529099	8249.797858
462.901419	7840.516659
463.273680	7738.140907
463.645882	7749.662464
464.018024	7611.305476
464.390106	7781.620859
464.762130	8168.231988
465.134094	8637.936457
465.505999	9659.037292
465.877845	10884.619930
466.249631	11532.098168
466.621358	11154.031794
466.993026	10518.944712
467.364634	10260.946020
467.736184	9898.726513
468.107674	9566.627901
468.479105	9600.280123
468.850477	9360.923618
469.221790	9132.549267
469.593043	8807.586407
469.964238	8668.140530
470.335373	8682.013786
470.706449	8738.114266
471.077467	8720.777738
471.448425	10027.812819
471.819324	11099.912487
472.190164	11124.324275
472.560945	9874.435713
472.931667	9086.596629
473.302330	8951.299621
473.672934	8594.668233
474.043479	8956.489489
474.413965	8894.868945
474.784393	8778.851830
475.154761	8938.711860
475.525070	9023.872072
475.895321	8847.358591
476.265513	9024.434161
476.635645	9192.254172
477.005719	9196.120737
477.375734	9312.583994
477.745691	9550.332371
478.115588	9684.376652
478.485427	9926.523436
478.855207	10462.299787
479.224928	11278.656679
479.594591	11904.833522
479.964194	11717.600027
480.333739	11654.537713
480.703226	11577.322359
481.072653	11666.928869
481.442022	11898.101061
481.811333	12088.651635
482.180584	11893.725339
482.549777	11602.316400
482.918912	11427.716037
483.287988	11448.931733
483.657005	11462.656274
484.025964	11143.715073
484.394864	11276.846905
484.763706	11247.638459
485.132489	10999.782569
485.501213	10964.885181
485.869879	11042.052644
486.238487	10891.241485
486.607036	10988.750004
486.975527	10774.228743
487.343959	10969.797786
487.712333	11013.338232
488.080648	10947.543612
488.448905	10985.372431
488.817104	10928.200705
489.185244	11193.320027
489.553326	11347.218892
489.921350	11885.815769
490.289315	12949.781535
490.657222	13297.263228
491.025070	13194.136344
491.392861	13069.329978
491.760593	12690.988861
492.128267	12341.019358
492.495883	12020.091943
492.863440	11673.585713
493.230939	11338.903509
493.598380	11266.792323
493.965763	11141.486883
494.333088	11047.446678
494.700354	10965.356529
495.067563	11024.965653
495.434713	10850.014929
495.801805	10980.658952
496.168839	10902.624411
496.535815	10837.878351
496.902733	10841.709628
497.269593	10776.509865
497.636395	10880.355114
498.003139	10866.698628
498.369825	10724.275949
498.736453	10888.191587
499.103023	10811.934053
499.469535	10843.237098
499.835989	10829.734367
500.202385	10797.039964
500.568723	10647.418518
500.935003	10867.863134
501.301226	10672.561273
501.667390	10936.702611
502.033497	11029.434636
502.399546	10891.163348
502.765537	10796.981991
503.131470	10868.309277
503.497345	11042.178673
503.863163	10654.400516
504.228923	10966.584050
504.594625	11031.660305
504.960269	10776.061202
505.325856	10990.118677
505.691385	10787.449169
506.056856	10943.845926
506.422270	10968.892899
506.787625	10856.318892
507.152924	10972.235184
507.518164	10958.293873
507.883347	10879.057017
508.248472	10795.507453
508.613540	11034.516119
508.978550	10911.806873
509.343503	10890.124870
509.708398	11003.565955
510.073236	11118.549633
510.438016	11132.982456
510.802738	11079.120248
511.167403	11131.951540
511.532010	11023.009685
511.896561	11254.680951
512.261053	11331.341778
512.625488	11199.092148
512.989866	11180.465084
513.354186	11174.375371
513.718449	11069.347971
514.082655	11266.792323
514.446803	11159.801395
514.810894	11276.831781
515.174927	11144.138530
515.538904	11166.738023
515.902822	11322.459265
516.266684	11204.433250
516.630488	11147.271607
516.994235	11203.402334
517.357925	11263.076993
517.721558	11354.904131
518.085133	11374.627645
518.448651	11381.377750
518.812112	11258.386199
519.175516	11278.833119
519.538863	11403.347099
519.902152	11311.792183
520.265385	11477.031124
520.628560	11391.152548
520.991678	11366.516429
521.354739	11423.899883
521.717743	11362.342353
522.080690	11347.100425
522.443580	11476.554735
522.806413	11437.304311
523.169189	11459.407250
523.531908	11526.255471
523.894569	11341.300577
524.257174	11347.075219
524.619722	11464.705503
524.982213	11411.115517
525.344647	11465.060904
525.707025	11419.294789
526.069345	11513.337514
526.431608	11422.876529
526.793815	11531.644464
527.155964	11318.612864
527.518057	11372.056657
527.880093	11325.345325
528.242072	11394.318392
528.603995	11300.250462
528.965860	11215.344828
529.327669	11268.806264
529.689421	11223.932433
530.051117	11187.754593
530.412755	11291.317537
530.774337	11185.821310
531.135862	11159.244347
531.497331	11191.094357
531.858743	11035.826819
532.220098	11211.768129
532.581396	11075.538508
532.942638	11059.051415
533.303824	11016.461226
533.664953	11039.733713
534.026025	10944.125710
534.387040	11049.614375
534.747999	11056.407329
535.108902	11112.492687
535.469748	10863.308452
535.830537	10970.695111
536.191270	10950.674169
536.551947	10977.475463
536.912567	10973.319032
537.273131	10894.999666
537.633638	10879.213292
537.994089	10864.427588
538.354483	10815.697274
538.714821	10961.152207
539.075103	10968.081273
539.435328	10930.451580
539.795497	10758.623851
540.155609	10917.798284
540.515665	11002.129226
540.875665	10744.306974
541.235609	10807.762498
541.595496	10810.237705
541.955328	10961.593308
542.315102	10841.084525
542.674821	10791.348501
543.034483	10790.904880
543.394090	10804.034565
543.753640	10725.248892
544.113134	10952.816659
544.472571	10797.158431
544.831953	10943.460278
545.191278	10749.927861
545.550548	10784.358942
545.909761	10921.374982
546.268918	10884.355269
546.628019	10969.943979
546.987064	10840.545122
547.346053	10765.275654
547.704986	10863.263082
548.063863	10851.040804
548.422684	10837.243166
548.781449	10756.012533
549.140158	10857.080106
549.498811	10739.648948
549.857408	10599.537639
550.215949	10827.601959
550.574434	10676.689978
550.932864	10770.052147
551.291237	10834.369708
551.649555	10774.271593
552.007817	10791.527462
552.366022	10749.862326
552.724173	10743.051727
553.082267	10733.400438
553.440305	10872.942097
553.798288	10677.007570
554.156215	10825.782103
554.514086	10800.097424
554.871902	10649.175360
555.229661	10692.637668
555.587365	10661.899232
555.945014	10551.760103
556.302606	10686.610968
556.660143	10571.576879
557.017625	10726.587318
557.375050	10632.103492
557.732421	10762.034192
558.089735	10678.996306
558.446994	10678.993785
558.804197	10711.320184
559.161345	10718.529034
559.518437	10564.806609
559.875474	10649.674434
560.232455	10678.194762
560.589381	10627.437905
560.946251	10630.041661
561.303065	10732.142670
561.659825	10673.781232
562.016528	10597.657288
562.373177	10478.986006
562.729770	10596.651578
563.086307	10518.591831
563.442789	10601.475962
563.799216	10486.855247
564.155587	10529.727740
564.511904	10480.226130
564.868164	10483.790226
565.224370	10492.614766
565.580520	10414.693651
565.936615	10420.274208
566.292654	10292.002048
566.648638	10417.221789
567.004567	10379.927333
567.360441	10359.611483
567.716260	10273.914388
568.072023	10371.680005
568.427732	10317.689248
568.783385	10227.439991
569.138982	10296.685280
569.494525	10314.911572
569.850013	10186.347025
570.205445	10268.180076
570.560823	10166.852883
570.916145	10087.404299
571.271412	10154.512139
571.626625	10097.410989
571.981782	10075.108925
572.336884	10046.354183
572.691931	10053.855420
573.046923	9996.038427
573.401860	9958.086100
573.756743	9890.761490
574.111570	9936.981309
574.466342	9912.866950
574.821059	9949.808525
575.175722	9835.616308
575.530330	9849.842444
575.884882	9842.172329
576.239380	9767.265824
576.593823	9749.309234
576.948211	9761.375236
577.302544	9643.681937
577.656823	9655.747939
578.011047	9665.013580
578.365216	9627.656109
578.719330	9555.940655
579.073389	9574.950846
579.427394	9518.328606
579.781344	9490.163679
580.135239	9448.690107
580.489080	9452.123132
580.842866	9351.965488
581.196597	9360.366571
581.550273	9402.329135
581.903895	9364.573413
582.257463	9434.474053
582.610975	9312.720105
582.964434	9335.680040
583.317837	9255.865972
583.671186	9238.466429
584.024481	9237.987520
584.377721	9160.691508
584.730906	9130.434502
585.084037	9156.036002
585.437113	9092.817413
585.790135	9118.313048
586.143103	9017.137090
586.496016	8991.817895
586.848874	9048.006596
587.201679	9038.178867
587.554428	8925.398173
587.907124	8966.387795
588.259765	8937.501983
588.612352	8938.021222
588.964884	8816.617634
589.317362	8834.513731
589.669786	8834.612033
590.022155	8885.671360
590.374470	8898.717866
590.726731	8839.746448
591.078937	8686.024023
591.431090	8799.265983
591.783188	8676.753342
592.135232	8661.113162
592.487222	8664.019387
592.839157	8719.318324
593.191038	8649.969691
593.542866	8595.653779
593.894639	8501.729521
594.246358	8546.111840
594.598022	8562.699756
594.949633	8460.719735
595.301190	8438.233668
595.652692	8468.420097
596.004141	8578.339936
596.355535	8355.238632
596.706876	8331.789704
597.058162	8267.777133
597.409395	8343.729677
597.760573	8408.125377
598.111698	8316.386459
598.462768	8306.684758
598.813785	8272.167978
599.164748	8237.573060
599.515657	8227.710042
599.866511	8133.778223
600.217312	8257.553673
600.568060	8122.491079
600.918753	8221.373312
601.269392	8192.416924
601.619978	8104.559695
601.970510	8170.848347
602.320988	8165.671082
602.671412	8224.440854
603.021783	8155.646748
603.372100	8127.449054
603.722363	8131.139178
604.072572	8109.540355
604.422728	8122.634752
604.772830	8051.647744
605.122878	8055.955410
605.472872	8047.871920
605.822813	8083.376766
606.172701	8024.244032
606.522534	8098.389322
606.872314	8095.125175
607.222041	8071.028460
607.571714	8123.521995
607.921333	8083.396931
608.270899	8092.075277
608.620411	8178.233638
608.969870	8077.980211
609.319276	8077.324861
609.668627	8088.871624
610.017926	8129.170608
610.367171	8174.057042
610.716362	8151.548290
611.065500	8145.682907
611.414585	8169.986310
611.763616	8163.498345
612.112594	8141.201322
612.461518	8161.686050
612.810389	8215.918783
613.159207	8156.342427
613.507971	8109.074048
613.856682	8217.032878
614.205340	8185.261006
614.553945	8256.489989
614.902496	8157.829567
615.250994	8209.133390
615.599439	8189.488014
615.947830	8208.147845
616.296169	8177.653905
616.644454	8189.866100
616.992686	8188.749485
617.340864	8244.043381
617.688990	8153.040471
618.037063	8241.598421
618.385082	8192.671502
618.733048	8279.976725
619.080961	8215.031540
619.428821	8229.913026
619.776628	8239.478616
620.124382	8181.926283
620.472083	8167.710229
620.819731	8190.450874
621.167326	8088.498579
621.514868	8096.672810
621.862357	7986.374884
622.209793	8004.351639
622.557176	7940.301258
622.904506	7910.848317
623.251783	7842.512956
623.599007	7794.700132
623.946179	7804.338819
624.293297	7754.443998
624.640363	7671.925351
624.987376	7662.621902
625.334336	7607.791792
625.681243	7554.141312
626.028097	7540.817543
626.374899	7520.363061
626.721647	7508.002152
627.068343	7444.712986
627.414987	7415.857421
627.761577	7375.344188
628.108115	7411.937924
628.454600	7299.104298
628.801032	7352.371650
629.147412	7312.251627
629.493739	7296.031715
629.840014	7239.565750
630.186236	7298.259905
630.532405	7178.043509
630.878521	7233.654997
631.224585	7186.762184
631.570597	7113.047912
631.916556	7142.831049
632.262462	7146.911863
632.608316	7098.484019
632.954117	7082.332162
633.299866	7066.797846
633.645562	7059.021867
633.991206	6976.528425
634.336797	6922.373830
634.682336	6874.248455
635.027823	6845.334917
635.373257	6835.542475
635.718639	6764.615961
636.063968	6782.822088
636.409245	6678.596233
636.754470	6672.161200
637.099642	6630.193594
637.444762	6573.462969
637.789829	6586.643066
638.134845	6528.949581
638.479808	6511.514750
638.824719	6514.786459
639.169577	6444.550583
639.514383	6463.971628
639.859137	6391.563015
640.203839	6402.880405
640.548489	6389.556636
640.893086	6367.315065
641.237632	6334.401372
641.582125	6358.361976
641.926566	6322.015257
642.270955	6338.913204
642.615292	6337.191650
642.959576	6349.905440
643.303809	6336.818605
643.647990	6345.731365
643.992118	6335.066804
644.336195	6287.075019
644.680219	6308.567979
645.024192	6299.128418
645.368112	6398.484519
645.711981	6417.759371
646.055797	6492.610423
646.399562	6454.905113
646.743274	6573.730150
647.086935	6632.696527
647.430544	6627.052955
647.774101	6650.582541
648.117606	6650.065823
648.461059	6641.105172
648.804460	6606.795078
649.147810	6516.679412
649.491108	6486.326625
649.834354	6460.349559
650.177548	6376.109358
650.520690	6291.801101
650.863781	6272.468276
651.206820	6288.925123
651.549807	6211.283792
651.892742	6149.116283
652.235626	6156.957797
652.578458	6143.281147
652.921238	6048.895623
653.263967	6089.149237
653.606644	6032.398448
653.949269	6030.318972
654.291843	5978.311908
654.634365	6020.143403
654.976836	5981.114789
655.319255	5972.915353
655.661622	5953.459019
656.003938	5952.586900
656.346203	5914.518627
656.688416	5940.800682
657.030577	5897.257716
657.372687	5865.145566
657.714746	5854.954873
658.056753	5897.955916
658.398708	5838.934086
658.740612	5823.472868
659.082465	5875.389190
659.424266	5866.511718
659.766016	5870.287543
660.107715	5839.952399
660.449362	5857.656932
660.790958	5852.905644
661.132503	5835.793448
661.473996	5878.388677
661.815438	5859.481829
662.156829	5857.498135
662.498168	5848.033369
662.839456	5831.216080
663.180693	5861.248754
663.521879	5864.046594
663.863013	5850.178380
664.204097	5874.159149
664.545129	5913.099542
664.886110	5907.748357
665.227040	5942.723882
665.567918	5909.046454
665.908746	5939.132060
666.249522	5942.628100
666.590248	5927.179484
666.930922	5956.241736
667.271545	5967.115505
667.612118	5970.800589
667.952639	5943.311177
668.293109	5965.182223
668.633528	5925.357107
668.973896	5924.845430
669.314213	5919.007774
669.654480	5898.177726
669.994695	5895.621861
670.334859	5883.142485
670.674973	5875.500096
671.015035	5878.713831
671.355047	5877.317432
671.695008	5866.002562
672.034918	5838.384601
672.374777	5847.390622
672.714585	5833.361091
673.054342	5834.187840
673.394049	5832.093241
673.733705	5863.829825
674.073310	5847.924984
674.412864	5808.956865
674.752368	5801.841276
675.091820	5798.617458
675.431223	5737.231328
675.770574	5744.477987
676.109875	5692.206262
676.449125	5699.891502
676.788324	5665.780534
677.127473	5604.071770
677.466571	5598.271922
677.805619	5588.398822
678.144616	5572.292336
678.483562	5551.938677
678.822458	5520.534809
679.161303	5518.994737
679.500098	5506.099465
679.838842	5488.246219
680.177535	5496.919524
680.516179	5513.895610
680.854771	5523.231827
681.193314	5603.323158
681.531805	5712.373398
681.870247	5862.667839
682.208638	5964.302541
682.546978	5979.720910
682.885268	5956.143434
683.223508	5871.043716
683.561697	5816.505993
683.899836	5785.102125
684.237925	5743.018573
684.575963	5705.214960
684.913951	5664.563095
685.251889	5727.864864
685.589776	5695.087282
685.927614	5667.421430
686.265401	5738.652933
686.603137	5723.224482
686.940824	5798.456142
687.278460	5818.323329
687.616046	5832.574671
687.953582	5898.500360
688.291068	5878.434047
688.628504	5945.360406
688.965889	5908.270116
689.303224	5857.790522
689.640510	5803.938396
689.977745	5730.133383
690.314930	5630.603362
690.652065	5572.559517
690.989150	5482.464016
691.326185	5403.189351
691.663170	5350.857133
692.000105	5272.474752
692.336990	5195.634965
692.673825	5171.805430
693.010610	5103.003763
693.347345	5032.357033
693.684030	5020.278428
694.020665	4978.454495
694.357251	4889.042070
694.693786	4896.508019
695.030272	4869.227815
695.366707	4829.780786
695.703093	4796.269716
696.039429	4820.290814
696.375716	4798.507988
696.711952	4775.868166
697.048139	4760.379221
697.384276	4741.026231
697.720363	4753.452676
698.056400	4768.523205
698.392388	4715.311306
698.728326	4693.336916
699.064214	4666.865817
699.400053	4665.119057
699.735842	4627.900218
700.071581	4607.372640
700.407270	4580.878856
700.742910	4560.434457
701.078501	4508.959235
701.414042	4503.522350
701.749533	4481.560563
702.084974	4409.628339
702.420366	4467.450374
702.755709	4411.506169
703.091002	4351.997868
703.426246	4400.042585
703.761440	4359.244527
704.096584	4323.953930
704.431679	4344.912527
704.766725	4327.938962
705.101721	4313.717867
705.436668	4343.813555
705.771565	4293.097027
706.106413	4323.137263
706.441212	4352.277653
706.775961	4359.683108
707.110661	4342.704501
707.445311	4367.270044
707.779913	4388.372314
708.114465	4401.144077
708.448967	4424.938323
708.783421	4486.571470
709.117825	4529.522101
709.452180	4533.751629
709.786485	4578.948094
710.120742	4668.121064
710.454949	4652.985000
710.789107	4717.191656
711.123216	4796.572185
711.457275	4786.746976
711.791286	4858.094427
712.125247	4867.949882
712.459159	4777.514103
712.793023	4852.881873
713.126837	4809.918640
713.460602	4807.095594
713.794318	4727.543665
714.127985	4735.803596
714.461602	4645.975276
714.795171	4619.395792
715.128691	4552.323240
715.462162	4492.981297
715.795584	4445.418011
716.128957	4425.560906
716.462281	4374.148698
716.795556	4350.656922
717.128782	4308.298626
717.461960	4242.698091
717.795088	4252.349380
718.128167	4207.735169
718.461198	4151.624606
718.794180	4145.461795
719.127113	4127.270792
719.459997	4107.345631
719.792833	4063.328796
720.125619	4055.361253
720.458357	4017.671066
720.791046	4020.758773
721.123686	3995.805061
721.456278	3955.032209
721.788821	3971.541988
722.121315	3941.542081
722.453761	3917.326899
722.786158	3932.568827
723.118506	3954.202939
723.450805	3908.504879
723.783056	3926.441305
724.115259	3945.814459
724.447412	3946.593317
724.779518	3941.151392
725.111574	3948.594655
725.443582	3975.471567
725.775542	3960.895071
726.107453	4010.605889
726.439315	4009.842154
726.771129	4025.787324
727.102895	4063.036409
727.434612	4111.275211
727.766281	4122.718630
728.097901	4125.733240
728.429473	4127.238024
728.760996	4138.653717
729.092471	4131.094507
729.423897	4113.984831
729.755276	4121.917086
730.086606	4123.250472
730.417887	4157.033764
730.749120	4222.601532
731.080305	4288.290287
731.411442	4318.328002
731.742530	4287.730719
732.073570	4290.218528
732.404562	4343.687526
732.735506	4335.782997
733.066401	4298.533911
733.397249	4234.574272
733.728048	4154.969412
734.058798	4070.421700
734.389501	3997.980319
734.720156	3937.534364
735.050762	3891.493506
735.381320	3887.591653
735.711831	3837.727079
736.042293	3808.248932
736.372707	3826.122343
736.703073	3804.790701
737.033391	3791.451808
737.363661	3807.961587
737.693883	3834.399918
738.024056	3845.490456
738.354182	3837.520392
738.684260	3903.352820
739.014290	3923.028444
739.344272	3919.182043
739.674207	3960.585040
740.004093	3965.694249
740.333931	3960.519505
740.663722	3963.327427
740.993464	3958.230821
741.323159	3936.773150
741.652806	3905.918767
741.982405	3877.882390
742.311956	3845.233357
742.641460	3836.491997
742.970915	3814.421825
743.300323	3775.224333
743.629683	3739.016246
743.958996	3723.902867
744.288260	3704.396122
744.617477	3669.322294
744.946647	3655.580109
745.275768	3627.636993
745.604842	3629.109010
745.933869	3579.430959
746.262847	3569.278075
746.591778	3613.226855
746.920662	3577.948860
747.249498	3545.536761
747.578286	3590.531580
747.907027	3611.895990
748.235720	3608.833489
748.564365	3633.217550
748.892963	3636.995895
749.221514	3617.000158
749.550017	3596.845625
749.878473	3592.250613
750.206881	3559.168041
750.535242	3559.571334
750.863555	3562.593505
751.191821	3555.823236
751.520039	3537.831358
751.848210	3519.224459
752.176334	3548.926937
752.504411	3556.077814
752.832440	3516.436701
753.160421	3496.597240
753.488356	3505.963704
753.816243	3520.149511
754.144082	3476.576297
754.471875	3460.472331
754.799620	3478.950681
755.127318	3471.988847
755.454969	3471.721666
755.782572	3473.160916
756.110129	3454.601908
756.437638	3439.725463
756.765100	3455.811785
757.092515	3468.142447
757.419882	3473.007160
757.747203	3447.882050
758.074477	3445.860547
758.401703	3464.444761
758.728882	3486.121722
759.056014	3493.544821
759.383099	3496.035151
759.710138	3493.920387
760.037129	3511.133407
760.364073	3539.951163
760.690970	3526.307280
761.017820	3505.600741
761.344623	3520.653626
761.671379	3565.068712
761.998088	3617.847072
762.324751	3746.197370
762.651366	3996.281450
762.977935	4473.971106
763.304456	4916.844033
763.630931	5019.290362
763.957359	4658.396679
764.283740	4310.741065
764.610074	4115.098926
764.936362	3916.391765
765.262602	3754.807660
765.588796	3642.276504
765.914943	3554.459604
766.241044	3465.788228
766.567097	3435.921912
766.893104	3387.368039
767.219064	3358.855273
767.544978	3329.800583
767.870845	3272.618774
768.196665	3255.690580
768.522438	3262.584358
768.848165	3257.538163
769.173846	3220.707493
769.499479	3202.450954
769.825066	3185.643747
770.150607	3168.496262
770.476101	3186.049560
770.801548	3180.416071
771.126949	3133.566107
771.452303	3118.714868
771.777611	3124.915487
772.102872	3130.675006
772.428087	3107.105091
772.753256	3095.089501
773.078378	3087.794951
773.403453	3056.128943
773.728482	3038.752086
774.053465	3064.706466
774.378401	3051.052501
774.703291	3017.780886
775.028135	3017.501102
775.352932	3018.368180
775.677683	3001.545850
776.002388	3000.335973
776.327046	3002.977538
776.651658	2987.667553
776.976224	2978.084320
777.300743	2980.506594
777.625216	2971.263639
777.949643	2964.329532
778.274024	2969.103504
778.598359	2955.749488
778.922647	2961.438430
779.246889	2958.746454
779.571086	2945.470575
779.895236	2939.388423
780.219339	2948.404527
780.543397	2964.611836
780.867409	2965.017649
781.191374	2958.849797
781.515294	2953.354940
781.839167	2954.751339
782.162995	2947.703806
782.486776	2957.713017
782.810511	2953.453242
783.134201	2938.357507
783.457844	2945.752880
783.781441	2938.599482
784.104993	2919.417892
784.428498	2918.170206
784.751958	2929.399377
785.075372	2924.189344
785.398739	2911.352046
785.722061	2928.544901
786.045337	2938.284410
786.368568	2924.164138
786.691752	2915.253899
787.014891	2963.825416
787.337983	2995.335148
787.661030	3021.844056
787.984031	3087.631113
788.306987	3134.070223
788.629897	3131.650469
788.952760	3111.528703
789.275579	3095.460025
789.598351	3037.489277
789.921078	2989.174858
790.243759	2983.677480
790.566395	2967.114769
790.888984	2940.527724
791.211529	2924.307811
791.534027	2915.261461
791.856480	2904.818710
792.178888	2890.585012
792.501249	2882.781306
792.823566	2875.885008
793.145836	2876.265615
793.468062	2871.226982
793.790241	2868.056096
794.112375	2878.385420
794.434464	2887.643499
794.756507	2891.600805
795.078505	2897.801424
795.400457	2911.273908
795.722364	2948.969136
796.044226	2973.663228
796.366042	2978.298569
796.687812	2969.242136
797.009538	2986.697131
797.331218	2970.721715
797.652852	2956.324179
797.974442	2942.375307
798.295986	2936.441868
798.617484	2934.047320
798.938938	2915.755494
799.260346	2902.315778
799.581709	2897.146074
799.903026	2887.197357
800.224299	2884.520504
800.545526	2874.511293
800.866708	2859.160980
801.187845	2846.817715
801.508936	2848.612366
801.829983	2856.612677
802.150984	2842.391582
802.471940	2829.103100
802.792851	2831.101918
803.113717	2827.232832
803.434538	2834.013184
803.755314	2825.029848
804.076045	2821.601863
804.396731	2822.143787
804.717372	2825.604539
805.037967	2814.708085
805.358518	2822.536997
805.679024	2836.415294
805.999485	2830.464212
806.319901	2834.703822
806.640272	2824.477842
806.960598	2831.540498
807.280879	2841.794205
807.601115	2847.097499
807.921306	2833.287258
808.241453	2832.357165
808.561554	2838.056189
808.881611	2840.047445
809.201623	2835.462516
809.521590	2833.980417
809.841513	2828.417503
810.161390	2835.891014
810.481223	2828.798110
810.801011	2816.928714
811.120755	2811.270018
811.440453	2818.254537
811.760107	2815.595328
812.079716	2815.935606
812.399281	2805.094605
812.718801	2799.340128
813.038276	2794.082204
813.357707	2799.330046
813.677093	2805.059317
813.996434	2800.363482
814.315731	2792.952986
814.634983	2790.898716
814.954191	2792.085907
815.273354	2808.320943
815.592473	2816.752273
815.911547	2816.003662
816.230577	2826.353151
816.549562	2834.623164
816.868502	2835.901096
817.187399	2841.693382
817.506250	2859.206350
817.825058	2856.504292
818.143821	2866.334542
818.462539	2882.806512
818.781213	2909.328023
819.099843	2945.463013
819.418429	3005.482991
819.736970	3066.491035
820.055466	3143.340905
820.373919	3249.384096
820.692327	3392.875499
821.010691	3562.139802
821.329011	4015.788195
821.647286	4929.053708
821.965517	6328.835938
822.283704	7090.662669
822.601847	7076.844866
822.919945	6434.616989
823.237999	5915.748668
823.556010	5321.825128
823.873976	4758.995424
824.191897	4341.038400
824.509775	4038.743089
824.827609	3765.878034
825.145398	3638.644352
825.463144	3632.284937
825.780845	3722.839183
826.098502	3826.928928
826.416116	4110.571970
826.733685	4433.871248
827.051210	4505.579141
827.368692	4386.353332
827.686129	4116.056745
828.003522	3779.826907
828.320872	3520.976260
828.638177	3321.311279
828.955439	3179.359949
829.272656	3095.901126
829.589830	3028.667257
829.906960	2976.395533
830.224046	2932.174532
830.541088	2897.919891
830.858086	2881.914228
831.175041	2860.411186
831.491952	2865.096939
831.808819	2877.530945
832.125642	2901.264697
832.442421	2945.127777
832.759157	3026.660878
833.075849	3211.489743
833.392497	3496.440964
833.709101	3705.885783
834.025662	3653.223369
834.342179	3492.218998
834.658653	3309.774599
834.975083	3159.671722
835.291469	3061.102041
835.607811	2975.861171
835.924110	2915.732808
836.240366	2860.537215
836.556578	2819.381235
836.872746	2795.912143
837.188871	2774.363731
837.504952	2758.025352
837.820990	2748.169896
838.136984	2736.260170
838.452935	2727.753223
838.768842	2724.332800
839.084706	2743.612693
839.400526	2822.862152
839.716303	2961.337607
840.032037	3039.223434
840.347727	3025.985364
840.663373	2963.825416
840.978977	2887.983777
841.294537	2812.159782
841.610054	2764.939294
841.925527	2741.351735
842.240957	2720.325082
842.556344	2698.799356
842.871687	2682.657581
843.186987	2673.109636
843.502244	2667.750889
843.817458	2665.018584
844.132629	2652.297232
844.447756	2642.416570
844.762840	2635.840385
845.077881	2636.152937
845.392879	2639.890952
845.707833	2633.516413
846.022745	2624.583489
846.337613	2628.046761
846.652438	2627.025928
846.967221	2626.640279
847.281960	2624.288581
847.596656	2621.972171
847.911309	2621.818416
848.225919	2621.662140
848.540485	2616.038733
848.855009	2614.276850
849.169490	2615.985801
849.483928	2616.787344
849.798323	2618.254320
850.112675	2611.993207
850.426984	2613.913887
850.741251	2612.739298
851.055474	2613.094699
851.369654	2616.623507
851.683792	2618.093003
851.997887	2614.314658
852.311938	2611.841972
852.625947	2616.464710
852.939914	2619.161728
853.253837	2615.494288
853.567718	2611.642847
853.881555	2612.567898
854.195350	2616.018568
854.509103	2615.075872
854.822812	2611.421036
855.136479	2611.625203
855.450103	2614.186109
855.763685	2615.683332
856.077224	2613.313989
856.390720	2611.103443
856.704173	2612.310800
857.017584	2616.348764
857.330953	2618.728188
857.644278	2621.349588
857.957561	2620.611059
858.270802	2616.089144
858.584000	2616.948661
858.897155	2621.742798
859.210268	2621.286574
859.523339	2614.725512
859.836367	2611.229472
860.149352	2613.790378
860.462295	2614.425564
860.775195	2610.233844
861.088054	2612.709051
861.400869	2609.785182
861.713642	2608.275356
862.026373	2606.697475
862.339062	2609.651591
862.651708	2616.361367
862.964312	2616.358846
863.276873	2615.761469
863.589392	2618.329937
863.901869	2624.001235
864.214303	2627.099024
864.526696	2630.211937
864.839045	2631.142030
865.151353	2634.388533
865.463619	2636.034470
865.775842	2633.566825
866.088023	2631.436937
866.400162	2634.451547
866.712258	2631.802421
867.024313	2631.986423
867.336325	2626.836884
867.648296	2630.345527
867.960224	2636.168060
868.272110	2633.571866
868.583954	2627.966103
868.895755	2628.268572
869.207515	2635.613533
869.519233	2639.875829
869.830909	2639.767444
870.142542	2635.842906
870.454134	2635.905920
870.765684	2641.685603
871.077191	2641.710809
871.388657	2646.494864
871.700081	2643.215593
872.011463	2642.295583
872.322803	2645.869761
872.634101	2651.248672
872.945357	2657.587923
873.256571	2663.735610
873.567744	2658.966678
873.878874	2658.069353
874.189963	2660.421051
874.501010	2660.438695
874.812015	2668.890190
875.122979	2667.859274
875.433900	2660.796617
875.744780	2657.973571
876.055618	2667.395488
876.366415	2671.239367
876.677169	2670.364727
876.987882	2664.544715
877.298554	2660.768891
877.609183	2674.359842
877.919771	2680.149607
878.230317	2686.715710
878.540822	2700.478060
878.851285	2713.743856
879.161707	2738.173288
879.472087	2773.524379
879.782425	2828.730055
880.092722	2944.301027
880.402977	3139.731438
880.713191	3407.928385
881.023363	3711.521793
881.333494	3909.898758
881.643583	4080.453596
881.953631	4080.307402
882.263637	3903.123448
882.573602	3676.374868
882.883526	3541.990310
883.193408	3420.254006
883.503248	3316.902790
883.813048	3200.106817
884.122806	3080.220617
884.432522	2993.727020
884.742197	2923.115578
885.051831	2886.675598
885.361424	2849.844928
885.670975	2810.236582
885.980485	2781.418826
886.289954	2763.157246
886.599382	2749.644433
886.908768	2734.256311
887.218113	2717.809547
887.527417	2702.602906
887.836680	2693.168387
888.145901	2687.509692
888.455082	2676.822445
888.764221	2666.936743
889.073319	2662.187976
889.382376	2658.447440
889.691392	2663.309633
890.000366	2660.224446
890.309300	2659.150681
890.618193	2660.612615
890.927044	2664.882472
891.235855	2665.321053
891.544625	2663.483552
891.853353	2664.219561
892.162041	2672.242557
892.470687	2690.335258
892.779293	2704.974769
893.087858	2716.924824
893.396381	2738.392578
893.704864	2782.028806
894.013306	2854.192923
894.321707	2949.344702
894.630068	3003.350583
894.938387	3024.891433
895.246665	3016.893643
895.554903	2973.275059
895.863100	2924.348140
896.171256	2866.989892
896.479371	2803.821714
896.787446	2764.314191
897.095480	2743.605131
897.403473	2735.778740
897.711425	2720.554455
898.019336	2700.520910
898.327207	2685.798220
898.635038	2688.046574
898.942827	2682.276974
899.250576	2674.223731
899.558284	2660.723521
899.865952	2658.833088
900.173579	2654.716986
900.481165	2652.408137
900.788711	2645.348001
901.096216	2638.091260
901.403681	2633.246712
901.711105	2635.510190
902.018489	2632.785446
902.325832	2636.699902
902.633135	2638.234933
902.940397	2652.997952
903.247619	2691.890454
903.554800	2764.672113
903.861941	2894.910323
904.169041	3027.427134
904.476101	3091.878286
904.783121	3087.810074
905.090100	3027.190199
905.397039	2948.941409
905.703938	2872.968700
906.010796	2807.937816
906.317614	2754.068046
906.624391	2715.162941
906.931129	2686.836697
907.237826	2663.344921
907.544483	2645.027888
907.851099	2631.391567
908.157675	2621.762963
908.464211	2612.847682
908.770707	2604.348297
909.077163	2598.140116
909.383578	2594.124837
909.689954	2595.581731
909.996289	2591.097624
910.302584	2590.149887
910.608839	2584.869279
910.915054	2588.841708
911.221229	2587.886409
911.527363	2594.691967
911.833458	2590.543097
912.139513	2592.448653
912.445527	2592.975454
912.751502	2599.680189
913.057436	2606.899121
913.363331	2610.306941
913.669186	2620.847994
913.975000	2636.465488
914.280775	2654.049033
914.586510	2675.670542
914.892205	2714.280739
915.197859	2783.364711
915.503475	2868.766899
915.809050	2939.511931
916.114585	2959.903398
916.420081	2969.708443
916.725536	2978.933754
917.030952	2952.197995
917.336328	2904.501118
917.641665	2854.883561
917.946961	2802.442958
918.252218	2766.749068
918.557435	2738.836199
918.862612	2713.426263
919.167750	2695.467153
919.472848	2677.712209
919.777906	2659.100269
920.082925	2645.955460
920.387904	2636.387350
920.692843	2633.135806
920.997743	2629.682616
921.302603	2619.670884
921.607423	2615.219545
921.912204	2607.894749
922.216946	2602.924171
922.521647	2602.800663
922.826310	2599.443254
923.130932	2592.763726
923.435516	2586.787438
923.740059	2587.253744
924.044564	2586.046388
924.349028	2584.733167
924.653454	2573.178843
924.957840	2572.901579
925.262186	2570.156671
925.566493	2571.900910
925.870761	2566.274983
926.174989	2569.224058
926.479178	2563.272976
926.783328	2563.514951
927.087438	2562.894889
927.391509	2564.225754
927.695541	2559.988664
927.999533	2558.073025
928.303486	2557.891544
928.607400	2556.832902
928.911275	2555.859959
929.215110	2554.521532
929.518906	2554.879454
929.822663	2554.168652
930.126381	2553.417520
930.430060	2556.369115
930.733699	2554.662685
931.037299	2555.857438
931.340861	2556.041440
931.644383	2560.313818
931.947866	2556.497665
932.251309	2555.983467
932.554714	2556.684187
932.858080	2556.918601
933.161407	2557.672254
933.464694	2555.529763
933.767943	2554.264434
934.071153	2554.070349
934.374323	2552.021120
934.677455	2554.405586
934.980548	2553.755277
935.283602	2552.008517
935.586617	2553.868703
935.889593	2550.987684
936.192530	2551.370811
936.495428	2553.760318
936.798287	2555.522202
937.101108	2555.852397
937.403890	2559.761812
937.706632	2559.323232
938.009336	2564.848336
938.312002	2570.514593
938.614628	2571.734552
938.917216	2577.398289
939.219765	2578.051118
939.522275	2576.964749
939.824747	2577.098340
940.127179	2571.759758
940.429573	2566.393450
940.731929	2570.965776
941.034246	2567.439489
941.336524	2570.524675
941.638763	2568.495611
941.940964	2568.505693
942.243126	2566.070816
942.545250	2563.104097
942.847335	2562.814231
943.149381	2560.318859
943.451389	2562.229457
943.753359	2559.534960
944.055290	2555.610422
944.357182	2557.246276
944.659036	2556.341389
944.960851	2556.656461
945.262628	2555.688560
945.564367	2557.389949
945.866067	2557.447922
946.167729	2556.931204
946.469352	2556.568241
946.770937	2561.793397
947.072484	2554.564382
947.373992	2556.507747
947.675462	2557.059753
947.976893	2557.052192
948.278286	2551.030533
948.579641	2552.263096
948.880958	2553.951882
949.182236	2553.719989
949.483476	2551.806871
949.784678	2553.344423
950.085841	2554.002294
950.386967	2555.302911
950.688054	2553.011707
950.989103	2557.909188
951.290114	2558.337686
951.591087	2557.097562
951.892021	2559.227450
952.192917	2559.217367
952.493776	2559.766853
952.794596	2561.700136
953.095378	2562.801628
953.396122	2563.235167
953.696828	2559.638304
953.997496	2558.320042
954.298126	2554.337530
954.598718	2557.697459
954.899272	2554.198899
955.199788	2555.333158
955.500266	2550.385266
955.800706	2548.809905
956.101108	2545.855789
956.401472	2542.463093
956.701798	2544.068700
957.002087	2543.672969
957.302337	2545.742363
957.602550	2544.471992
957.902724	2543.524255
958.202861	2543.869574
958.502960	2543.703216
958.803022	2540.728936
959.103045	2541.056611
959.403031	2539.473688
959.702979	2538.493184
960.002889	2541.447300
960.302762	2541.512835
960.602596	2538.760365
960.902393	2539.082999
961.202153	2538.750283
961.501875	2537.996630
961.801559	2538.198276
962.101205	2539.846734
962.400814	2536.743903
962.700385	2536.738862
962.999918	2538.082330
963.299414	2539.559388
963.598873	2537.167360
963.898293	2537.598379
964.197677	2539.118287
964.497022	2537.321116
964.796331	2537.754655
965.095601	2535.123172
965.394835	2538.601569
965.694030	2534.702236
965.993189	2538.906558
966.292309	2535.476053
966.591393	2539.745911
966.890439	2535.314736
967.189447	2538.009233
967.488419	2536.638039
967.787353	2537.308513
968.086249	2536.282638
968.385108	2538.072248
968.683930	2534.881197
968.982714	2537.225334
969.281462	2536.867412
969.580172	2537.500077
969.878844	2535.168543
970.177480	2537.172402
970.476078	2534.813142
970.774639	2537.709284
971.073162	2538.354552
971.371649	2535.987730
971.670098	2535.445806
971.968510	2535.377751
972.266885	2535.183666
972.565223	2538.586445
972.863524	2540.161806
973.161788	2539.443441
973.460014	2535.823893
973.758204	2540.013092
974.056356	2538.369676
974.354471	2539.831610
974.652550	2536.524613
974.950591	2539.650129
975.248595	2539.962680
975.546563	2536.340611
975.844493	2535.962525
976.142386	2539.559388
976.440243	2535.907072
976.738062	2536.922864
977.035845	2538.447813
977.333590	2535.090405
977.631299	2537.643749
977.928971	2536.950591
978.226606	2536.743903
978.524204	2538.122659
978.821765	2534.760209
979.119290	2533.688964
979.416777	2535.846578
979.714228	2536.839685
980.011642	2534.798018
980.309020	2539.514017
980.606360	2537.283307
980.903664	2537.369007
981.200931	2538.563760
981.498162	2538.659542
981.795356	2540.398740
982.092513	2544.010727
982.389633	2543.567105
982.686717	2551.489278
982.983764	2551.630431
983.280775	2553.286450
983.577749	2550.549103
983.874686	2553.556152
984.171587	2549.981973
984.468451	2546.508618
984.765279	2542.510983
985.062070	2541.583411
985.358824	2541.449821
985.655543	2538.528472
985.952224	2537.139634
986.248869	2537.618544
986.545478	2529.368695
986.842050	2534.780374
987.138586	2533.351207
987.435086	2533.376413
987.731549	2527.369878
988.027975	2532.907585
988.324366	2534.561084
988.620719	2532.012781
988.917037	2533.706608
989.213318	2532.509334
989.509563	2532.874818
989.805772	2532.559746
990.101944	2531.362472
990.398080	2532.640404
990.694180	2530.908768
990.990244	2534.755168
991.286271	2533.391536
991.582262	2532.095960
991.878217	2533.726773
992.174136	2531.470857
992.470019	2532.698378
992.765865	2530.099663
993.061676	2531.985054
993.357450	2533.018491
993.653188	2530.858356
993.948890	2533.910775
994.244556	2534.480425
994.540186	2535.050076
994.835780	2535.039993
995.131337	2533.194931
995.426859	2535.193749
995.722345	2535.045035
996.017795	2537.656352
996.313208	2537.956301
996.608586	2537.663914
996.903928	2536.786753
997.199234	2537.240457
997.494504	2535.110570
997.789738	2538.830941
998.084936	2535.229037
998.380099	2536.738862
998.675225	2533.305837
998.970316	2533.383974
999.265371	2534.392205
999.560390	2533.739376
999.855373	2534.351876
1000.150320	2532.945394
1000.445232	2532.857174
1000.740108	2532.620240
1001.034948	2534.044366
1001.329752	2529.862728
1001.624521	2532.947915
1001.919254	2529.058664
1002.213951	2529.308202
1002.508613	2529.701412
1002.803239	2530.971782
1003.097829	2526.008766
1003.392384	2531.922040
1003.686903	2530.840712
1003.981386	2532.673172
1004.275834	2528.504138
1004.570246	2534.888759
1004.864623	2529.832482
1005.158964	2530.876000
1005.453270	2531.738038
1005.747540	2532.315250
1006.041775	2530.255938
1006.335974	2530.755013
1006.630138	2529.852646
1006.924266	2533.784746
1007.218359	2534.578728
1007.512416	2529.111597
1007.806438	2531.516227
1008.100425	2530.583613
1008.394376	2529.035979
1008.688292	2532.216947
1008.982172	2531.934643
1009.276017	2529.961031
1009.569827	2528.458767
1009.863602	2534.603934
1010.157341	2529.051103
1010.451045	2531.596885
1010.744714	2527.100176
1011.038347	2529.625794
1011.331945	2531.992616
1011.625508	2531.548994
1011.919036	2530.881042
1012.212528	2529.658562
1012.505986	2530.724766
1012.799408	2529.802235
1013.092795	2529.472039
1013.386147	2530.593696
1013.679464	2528.297450
1013.972745	2530.618902
1014.265992	2530.714683
1014.559204	2532.234591
1014.852380	2528.884745
1015.145521	2530.870959
1015.438628	2529.963552
1015.731699	2531.528830
1016.024736	2528.574714
1016.317737	2530.510517
1016.610703	2530.112266
1016.903635	2527.632018
1017.196531	2527.349713
1017.489393	2528.899868
1017.782219	2526.956503
1018.075011	2530.122348
1018.367768	2531.304498
1018.660490	2530.029087
1018.953177	2530.029087
1019.245829	2530.029087
