Dividing Wavelength (nm)	Counts (n)	Blue Motor Position (mm): 22.500000	Red Motor Position (mm): 0.000000	
326.493990	2098.554208
326.888308	2098.554208
327.282561	2098.554208
327.676750	2075.707699
328.070874	2080.955540
328.464933	2085.162383
328.858929	2095.348034
329.252859	2109.443101
329.646726	2124.687550
330.040528	2140.438635
330.434265	2158.927067
330.827938	2178.834583
331.221547	2199.876359
331.615091	2219.138608
332.008571	2239.557802
332.401986	2260.937335
332.795338	2280.040788
333.188625	2301.395116
333.581847	2319.818012
333.975006	2336.766372
334.368100	2355.451408
334.761129	2373.644933
335.154095	2388.087838
335.546996	2428.545618
335.939833	2498.194200
336.332606	2506.749038
336.725315	2522.119516
337.117960	2532.413552
337.510540	2537.449665
337.903056	2548.167158
338.295508	2554.390463
338.687896	2561.201061
339.080220	2568.946794
339.472480	2574.446693
339.864676	2574.494584
340.256807	2579.260995
340.648875	2582.812488
341.040879	2584.082859
341.432818	2582.517580
341.824694	2582.807447
342.216506	2584.614700
342.608253	2584.647468
342.999937	2582.704103
343.391557	2580.120512
343.783113	2580.246541
344.174605	2575.568350
344.566033	2576.153124
344.957397	2576.385017
345.348697	2572.405026
345.739934	2571.638770
346.131106	2571.401836
346.522215	2566.869839
346.913260	2565.894376
347.304241	2563.252811
347.695159	2564.026628
348.086012	2563.172152
348.476802	2561.526216
348.867528	2559.479507
349.258191	2558.872048
349.648789	2559.832388
350.039324	2555.547407
350.429796	2558.793910
350.820203	2555.615463
351.210548	2556.220401
351.600828	2552.595812
351.991045	2554.929866
352.381198	2551.297715
352.771288	2550.539021
353.161314	2551.297715
353.551276	2549.896274
353.941175	2552.116902
354.331010	2548.704041
354.720782	2555.509599
355.110490	2557.941955
355.500135	2553.689742
355.889717	2553.654454
356.279235	2553.480534
356.668689	2553.213353
357.058080	2551.456511
357.447408	2550.995245
357.836672	2551.514484
358.225873	2553.551110
358.615010	2554.251831
359.004084	2556.427089
359.393095	2557.006821
359.782043	2558.367933
360.170927	2554.350133
360.559748	2555.985988
360.948505	2561.059909
361.337199	2561.072512
361.725830	2560.389436
362.114398	2561.238870
362.502903	2563.300702
362.891344	2562.279868
363.279722	2561.533778
363.668037	2559.976061
364.056289	2559.908005
364.444478	2561.299364
364.832603	2561.596792
365.220665	2562.380691
365.608665	2562.841957
365.996601	2567.600806
366.384474	2563.245249
366.772284	2566.519479
367.160031	2565.327246
367.547715	2563.555280
367.935336	2566.035528
368.322893	2566.489232
368.710388	2565.014694
369.097820	2571.570715
369.485189	2567.373954
369.872495	2567.391598
370.259738	2567.951166
370.646918	2566.181721
371.034035	2571.225396
371.421090	2572.314285
371.808081	2568.268759
372.195010	2569.745817
372.581875	2568.838409
372.968678	2568.051989
373.355418	2571.323698
373.742096	2571.716908
374.128710	2572.379820
374.515262	2572.868812
374.901751	2569.534089
375.288177	2572.699933
375.674540	2570.751527
376.060841	2573.859399
376.447079	2570.857392
376.833254	2576.848803
377.219367	2571.227916
377.605417	2572.611713
377.991404	2571.958884
378.377329	2571.328739
378.763191	2569.743297
379.148991	2574.262691
379.534727	2577.650346
379.920402	2580.191088
380.306013	2576.306879
380.691563	2580.236458
381.077049	2578.880388
381.462474	2576.281673
381.847835	2577.506673
382.233134	2578.162023
382.618371	2576.153124
383.003545	2578.789647
383.388657	2579.381983
383.773706	2580.604463
384.158693	2578.041036
384.543618	2580.334761
384.928480	2578.986252
385.313280	2582.479772
385.698017	2580.188567
386.082692	2581.882395
386.467305	2579.775193
386.851856	2581.821901
387.236344	2582.774679
387.620770	2580.526325
388.005133	2582.003383
388.389435	2583.533373
388.773674	2585.932962
389.157851	2584.549165
389.541965	2584.967581
389.926018	2582.976325
390.310008	2582.358784
390.693936	2585.696028
391.077802	2584.879361
391.461606	2585.741398
391.845348	2586.968919
392.229027	2584.105544
392.612645	2586.986563
392.996200	2589.328179
393.379694	2586.863055
393.763125	2589.088724
394.146494	2588.728282
394.529801	2587.122674
394.913047	2590.404466
395.296230	2591.344641
395.679351	2590.704414
396.062410	2590.422110
396.445408	2590.038982
396.828343	2590.812799
397.211217	2586.472366
397.594028	2590.296081
397.976778	2590.873293
398.359466	2589.436564
398.742092	2585.943044
399.124656	2593.318252
399.507158	2589.829774
399.889598	2590.442274
400.271977	2593.630804
400.654294	2593.540063
401.036549	2593.472008
401.418742	2593.048551
401.800874	2594.470156
402.182944	2592.746082
402.564952	2594.611308
402.946898	2595.138109
403.328783	2594.777667
403.710606	2596.733634
404.092367	2595.601895
404.474067	2595.606936
404.855705	2597.585589
405.237282	2597.547781
405.618797	2599.165991
406.000250	2594.606267
406.381642	2600.005343
406.762972	2599.349993
407.144240	2599.654983
407.525447	2598.911413
407.906593	2599.002153
408.287677	2598.712287
408.668700	2596.985692
409.049661	2600.322936
409.430560	2601.774788
409.811399	2600.229674
410.192176	2601.873091
410.572891	2600.640528
410.953545	2603.836620
411.334138	2602.543564
411.714669	2600.287648
412.095139	2602.803183
412.475547	2602.399891
412.855894	2603.360231
413.236180	2600.978286
413.616405	2603.312340
413.996568	2604.749069
414.376670	2604.466764
414.756711	2603.743359
415.136691	2604.902824
415.516609	2603.279573
415.896466	2604.875098
416.276262	2608.318206
416.655997	2604.093719
417.035670	2603.992896
417.415283	2608.051025
417.794834	2606.037084
418.174324	2603.042638
418.553753	2607.025150
418.933121	2608.197218
419.312428	2608.305603
419.691674	2608.313165
420.070859	2607.617485
420.449983	2609.391972
420.829045	2608.058586
421.208047	2608.618154
421.586988	2611.887343
421.965867	2611.453803
422.344686	2612.182250
422.723444	2611.897425
423.102141	2612.000769
423.480777	2614.012189
423.859352	2612.857765
424.237866	2614.435646
424.616319	2616.235338
424.994712	2615.529576
425.373044	2614.493619
425.751314	2619.615432
426.129524	2612.388937
426.507673	2613.729884
426.885762	2613.835749
427.263789	2618.372787
427.641756	2618.965123
428.019662	2619.270112
428.397508	2617.084772
428.775292	2617.420009
429.153016	2617.969495
429.530679	2620.328755
429.908282	2616.131994
430.285824	2619.486882
430.663305	2619.907818
431.040726	2620.517798
431.418086	2620.520319
431.795385	2621.294136
432.172624	2621.084928
432.549802	2620.144753
432.926920	2621.026955
433.303977	2622.529218
433.680974	2623.978550
434.057910	2622.304887
434.434786	2624.666668
434.811601	2623.862604
435.188355	2624.104579
435.565050	2624.459980
435.941683	2622.753550
436.318257	2623.900412
436.694770	2623.640793
437.071222	2626.917543
437.447614	2623.890330
437.823946	2623.827316
438.200218	2628.515589
438.576429	2626.113479
438.952580	2628.253449
439.328670	2627.686319
439.704700	2628.140023
440.080670	2626.763788
440.456580	2628.979375
440.832429	2628.787811
441.208218	2632.188069
441.583947	2630.879890
441.959616	2630.516927
442.335224	2631.242853
442.710773	2629.843933
443.086261	2634.149078
443.461689	2635.278297
443.837057	2635.006074
444.212365	2637.047742
444.587612	2635.205200
444.962800	2635.860550
445.337927	2637.496404
445.712995	2636.347021
446.088002	2637.854326
446.462949	2639.573360
446.837837	2640.959677
447.212664	2644.170892
447.587431	2649.491830
447.962139	2654.192706
448.336786	2659.977430
448.711374	2657.623211
449.085901	2654.578354
449.460369	2654.011224
449.834776	2654.888385
450.209124	2660.242090
450.583412	2658.848211
450.957640	2662.356854
451.331808	2660.668068
451.705917	2659.503561
452.079965	2661.109169
452.453954	2663.120589
452.827883	2662.568583
453.201752	2668.527227
453.575562	2670.369768
453.949311	2670.392454
454.323001	2673.744821
454.696632	2673.036539
455.070202	2680.986438
455.443713	2681.757735
455.817164	2682.244206
456.190556	2684.041378
456.563888	2686.398117
456.937160	2687.126564
457.310373	2691.514888
457.683526	2691.141843
458.056619	2693.420444
458.429653	2695.885569
458.802628	2701.042669
459.175542	2700.548636
459.548398	2710.172199
459.921194	2713.683362
460.293930	2720.788869
460.666607	2729.615929
461.039224	2738.808473
461.411782	2743.287538
461.784280	2741.399626
462.156719	2741.671848
462.529099	2742.402816
462.901419	2743.718557
463.273680	2744.583115
463.645882	2746.549165
464.018024	2751.807088
464.390106	2761.755805
464.762130	2778.227776
465.134094	2805.303813
465.505999	2836.856395
465.877845	2865.906044
466.249631	2880.180071
466.621358	2878.100595
466.993026	2874.163454
467.364634	2874.168495
467.736184	2870.251518
468.107674	2871.010212
468.479105	2873.089688
468.850477	2885.450597
469.221790	2886.942779
469.593043	2880.207797
469.964238	2888.724827
470.335373	2899.253277
470.706449	2929.855601
471.077467	2968.443113
471.448425	3033.254708
471.819324	3076.785071
472.190164	3075.771799
472.560945	3056.902760
472.931667	3045.592932
473.302330	3054.293963
473.672934	3071.002868
474.043479	3100.987651
474.413965	3112.121039
474.784393	3134.395377
475.154761	3172.579597
475.525070	3200.958772
475.895321	3226.308215
476.265513	3267.370933
476.635645	3324.398986
477.005719	3358.956096
477.375734	3416.100095
477.745691	3473.879280
478.115588	3551.571022
478.485427	3661.692508
478.855207	3826.737364
479.224928	3975.733707
479.594591	4087.959874
479.964194	4108.605920
480.333739	4183.015871
480.703226	4275.780663
481.072653	4396.075197
481.442022	4517.778733
481.811333	4619.673055
482.180584	4656.067666
482.549777	4736.506837
482.918912	4818.687727
483.287988	4917.839661
483.657005	4983.263756
484.025964	5052.751021
484.394864	5163.243031
484.763706	5256.191825
485.132489	5324.784285
485.501213	5435.140184
485.869879	5575.647224
486.238487	5687.598648
486.607036	5835.667419
486.975527	5936.677018
487.343959	6096.489157
487.712333	6260.465289
488.080648	6404.425519
488.448905	6610.782631
488.817104	6759.423573
489.185244	7043.749691
489.553326	7448.708100
489.921350	8000.326277
490.289315	8591.593130
490.657222	8897.024038
491.025070	9161.475407
491.392861	9245.425742
491.760593	9275.972614
492.128267	9237.332170
492.495883	9234.557015
492.863440	9261.169266
493.230939	9283.050394
493.598380	9342.233540
493.965763	9517.645529
494.333088	9615.529614
494.700354	9766.113920
495.067563	9956.185585
495.434713	10169.673409
495.801805	10429.844838
496.168839	10605.156005
496.535815	10783.995978
496.902733	11044.674044
497.269593	11208.466173
497.636395	11448.828389
498.003139	11805.351392
498.369825	11943.252155
498.736453	12289.453396
499.103023	12449.865432
499.469535	12702.119729
499.835989	13011.490299
500.202385	13206.015823
500.568723	13495.617509
500.935003	13845.027444
501.301226	14077.618720
501.667390	14549.301842
502.033497	14934.693012
502.399546	15056.212546
502.765537	15127.418844
503.131470	15560.640482
503.497345	16001.751526
503.863163	15842.534244
504.228923	16365.750560
504.594625	16841.927870
504.960269	16884.502935
505.325856	17472.235938
505.691385	17552.360038
506.056856	17939.734902
506.422270	18457.980641
506.787625	18601.517414
507.152924	19022.942753
507.518164	19398.927130
507.883347	19357.650162
508.248472	19805.763369
508.613540	20360.660817
508.978550	20838.211841
509.343503	21053.771579
509.708398	21478.836631
510.073236	22080.702509
510.438016	22430.926590
510.802738	22480.125731
511.167403	23140.627790
511.532010	23608.676240
511.896561	24106.023875
512.261053	24921.375057
512.625488	25006.898232
512.989866	25269.189467
513.354186	25511.341292
513.718449	25843.548289
514.082655	26570.437303
514.446803	26700.569649
514.810894	27358.319238
515.174927	27626.848900
515.538904	27892.744560
515.902822	28660.461879
516.266684	28604.263096
516.630488	29223.969618
516.994235	29420.355328
517.357925	30123.772730
517.721558	30555.978575
518.085133	31076.381928
518.448651	31469.843986
518.812112	31607.071755
519.175516	31975.748980
519.538863	32509.705475
519.902152	32785.653195
520.265385	33425.400824
520.628560	33725.059611
520.991678	33852.028633
521.354739	34315.391330
521.717743	34820.061241
522.080690	35029.758118
522.443580	35705.847425
522.806413	36000.316344
523.169189	36238.730154
523.531908	36637.490464
523.894569	36756.733917
524.257174	37156.444485
524.619722	37638.310737
524.982213	37865.618885
525.344647	38021.042699
525.707025	38312.703696
526.069345	38869.703305
526.431608	39009.232361
526.793815	39509.597127
527.155964	39331.828398
527.518057	39669.966313
527.880093	39706.239936
528.242072	40361.254699
528.603995	40304.198920
528.965860	40494.036171
529.327669	40762.825453
529.689421	40871.222863
530.051117	40999.915959
530.412755	41312.144864
530.774337	41536.627445
531.135862	41538.984184
531.497331	41888.472257
531.858743	41957.778040
532.220098	42419.724172
532.581396	42312.894561
532.942638	42155.219871
533.303824	42591.272117
533.664953	42710.160169
534.026025	42585.341200
534.387040	43168.738811
534.747999	43239.778751
535.108902	43527.558059
535.469748	43173.112012
535.830537	43420.882203
536.191270	43722.368409
536.551947	43514.468703
536.912567	43917.151032
537.273131	44148.703831
537.633638	43765.780305
537.994089	44179.013768
538.354483	43906.786419
538.714821	44572.503552
539.075103	44987.385473
539.435328	44866.538933
539.795497	44828.447974
540.155609	44921.878199
540.515665	45459.076156
540.875665	45007.204769
541.235609	45425.058449
541.595496	45479.674310
541.955328	46203.909157
542.315102	45664.840932
542.674821	45520.031267
543.034483	45645.384599
543.394090	45686.406988
543.753640	45708.998919
544.113134	46761.289373
544.472571	45849.248860
544.831953	47139.549831
545.191278	46416.872701
545.550548	46192.707713
545.909761	46727.261585
546.268918	46985.038466
546.628019	47328.401537
546.987064	46950.612426
547.346053	46283.430838
547.704986	47207.134060
548.063863	46805.714541
548.422684	47031.354067
548.781449	46916.534226
549.140158	47336.573247
549.498811	47237.048267
549.857408	46704.994808
550.215949	47594.622351
550.574434	47555.747493
550.932864	47353.403139
551.291237	48100.910473
551.649555	47753.892565
552.007817	48000.732663
552.366022	47691.460396
552.724173	47896.831962
553.082267	48312.442329
553.440305	48608.746229
553.798288	47939.545659
554.156215	48280.448646
554.514086	48518.905306
554.871902	48269.469013
555.229661	48321.667641
555.587365	48164.169392
555.945014	48279.241290
556.302606	48229.391840
556.660143	48473.852514
557.017625	48556.615657
557.375050	48357.384216
557.732421	48729.953211
558.089735	48728.214013
558.446994	48651.865738
558.804197	49136.625613
559.161345	49064.446372
559.518437	48323.540429
559.875474	48648.430192
560.232455	48836.729891
560.589381	49016.633548
560.946251	48730.555629
561.303065	49409.359597
561.659825	49203.138597
562.016528	48886.228981
562.373177	48613.235376
562.729770	49088.527964
563.086307	48608.511815
563.442789	49076.167055
563.799216	49115.384711
564.155587	48904.508204
564.511904	48945.081931
564.868164	49040.692455
565.224370	49265.696795
565.580520	49007.960243
565.936615	49213.334330
566.292654	48937.174881
566.648638	49193.678871
567.004567	49173.191622
567.360441	49208.860306
567.716260	49063.135672
568.072023	49338.526345
568.427732	49310.489968
568.783385	48853.494248
569.138982	49235.316282
569.494525	49214.030009
569.850013	48969.589501
570.205445	48945.737281
570.560823	48880.091376
570.916145	48764.275907
571.271412	48790.452099
571.626625	48541.333399
571.981782	48566.571936
572.336884	48259.046428
572.691931	48585.408207
573.046923	48182.229325
573.401860	48027.954894
573.756743	47992.513062
574.111570	48091.559132
574.466342	47943.533211
574.821059	48040.719096
575.175722	47565.028257
575.530330	47570.084534
575.884882	47275.708876
576.239380	47236.831498
576.593823	47194.415229
576.948211	47112.347765
577.302544	46635.172307
577.656823	46640.596588
578.011047	46863.357615
578.365216	46594.046574
578.719330	46367.255144
579.073389	46212.915178
579.427394	46290.075079
579.781344	46252.082423
580.135239	45888.310241
580.489080	45964.645913
580.842866	45439.559328
581.196597	45888.660601
581.550273	45816.269632
581.903895	45675.137489
582.257463	46074.086842
582.610975	45447.350432
582.964434	45742.646101
583.317837	45351.596235
583.671186	45202.070571
584.024481	45408.891469
584.377721	44910.729687
584.730906	45205.178442
585.084037	45241.136993
585.437113	44952.001614
585.790135	44955.585874
586.143103	44546.639912
586.496016	44662.883879
586.848874	44670.785888
587.201679	44685.080079
587.554428	44169.155792
587.907124	44354.713103
588.259765	44091.189306
588.612352	44340.875136
588.964884	43718.814395
589.317362	44000.239329
589.669786	43938.969145
590.022155	43681.262840
590.374470	44110.199498
590.726731	43637.399761
591.078937	43137.851661
591.431090	43233.794901
591.783188	42878.038154
592.135232	42537.924107
592.487222	42824.170904
592.839157	42881.733320
593.191038	42525.328784
593.542866	42277.490537
593.894639	41682.974661
594.246358	41965.188536
594.598022	41941.215329
594.949633	41540.741026
595.301190	41479.503610
595.652692	41329.166320
596.004141	41652.248829
596.355535	40654.397795
596.706876	40590.470923
597.058162	40425.781468
597.409395	40892.887222
597.760573	40972.638276
598.111698	40554.149410
598.462768	40555.399616
598.813785	40604.266041
599.164748	40042.898272
599.515657	40416.914079
599.866511	39900.551211
600.217312	40522.312003
600.568060	39494.697997
600.918753	40237.877500
601.269392	40175.382316
601.619978	39844.753199
601.970510	40043.747706
602.320988	40222.781765
602.671412	40524.467096
603.021783	40292.954626
603.372100	39920.516701
603.722363	40029.042661
604.072572	40086.378224
604.422728	40119.140683
604.772830	39937.911202
605.122878	40018.254591
605.472872	39951.822266
605.822813	40217.463347
606.172701	40049.005630
606.522534	40312.126134
606.872314	40546.970807
607.222041	40308.123458
607.571714	40693.686028
607.921333	40135.615173
608.270899	40438.328900
608.620411	40787.075923
608.969870	40565.078631
609.319276	40558.772148
609.668627	40606.252255
610.017926	41097.152255
610.367171	41252.855853
610.716362	41322.602738
611.065500	41268.864037
611.414585	41452.420011
611.763616	41738.263516
612.112594	41676.612725
612.461518	41892.459809
612.810389	42213.036865
613.159207	42074.707603
613.507971	42152.984120
613.856682	42622.431489
614.205340	42502.671318
614.553945	43211.215573
614.902496	42644.751198
615.250994	43132.510559
615.599439	43188.787480
615.947830	43399.850509
616.296169	43463.419459
616.644454	43573.810646
616.992686	43740.756017
617.340864	44252.148307
617.688990	43972.699506
618.037063	44579.258698
618.385082	44530.480494
618.733048	44837.932905
619.080961	44858.773035
619.428821	44871.383481
619.776628	44968.468543
620.124382	44801.029138
620.472083	44947.489781
620.819731	45082.363332
621.167326	44749.266571
621.514868	44727.201440
621.862357	44295.519875
622.209793	44331.223847
622.557176	43986.918080
622.904506	43725.776229
623.251783	43377.727405
623.599007	43156.032583
623.946179	42957.917757
624.293297	42891.906368
624.640363	42301.650267
624.987376	42281.972123
625.334336	42066.969432
625.681243	41705.417878
626.028097	41663.553616
626.374899	41513.785977
626.721647	41491.975424
627.068343	41389.723180
627.414987	41149.613023
627.761577	40933.057656
628.108115	41255.809970
628.454600	40702.881092
628.801032	40887.573846
629.147412	40848.076405
629.493739	40843.151198
629.840014	40492.221355
630.186236	40839.093069
630.532405	40408.394529
630.878521	40624.095419
631.224585	40503.581596
631.570597	40212.114683
631.916556	40375.947142
632.262462	40312.521865
632.608316	40339.950783
632.954117	40235.351882
633.299866	40233.262323
633.645562	40159.727012
633.991206	39674.074854
634.336797	39220.812108
634.682336	39223.438550
635.027823	38988.117488
635.373257	38796.714959
635.718639	38564.605112
636.063968	38433.691388
636.409245	37842.391768
636.754470	37898.648525
637.099642	37655.922008
637.444762	37171.880498
637.789829	37317.227046
638.134845	36977.748184
638.479808	36905.387462
638.824719	36820.948135
639.169577	36431.070338
639.514383	36494.467888
639.859137	36182.402821
640.203839	36431.125790
640.548489	36076.606646
640.893086	36132.891129
641.237632	35885.269652
641.582125	35987.531978
641.926566	35930.355211
642.270955	35892.279376
642.615292	35904.189102
642.959576	35876.833281
643.303809	35883.336369
643.647990	36024.574377
643.992118	35996.608576
644.336195	35983.403273
644.680219	36069.702786
645.024192	36365.232868
645.368112	36874.780096
645.711981	36879.188585
646.055797	37755.205012
646.399562	37666.268976
646.743274	38628.279927
647.086935	39057.398065
647.430544	38947.034605
647.774101	39064.329652
648.117606	39318.877674
648.461059	39616.827511
648.804460	39228.661185
649.147810	38612.080179
649.491108	38348.498409
649.834354	37991.887186
650.177548	37147.226735
650.520690	36718.252269
650.863781	36733.194249
651.206820	36590.093536
651.549807	36148.135578
651.892742	35656.428993
652.235626	35467.426053
652.578458	35338.372515
652.921238	34725.136314
653.263967	35049.597579
653.606644	34719.999378
653.949269	34668.123385
654.291843	34243.597737
654.634365	34643.794776
654.976836	34257.569295
655.319255	34258.960653
655.661622	34255.704068
656.003938	34029.981363
656.346203	33899.239038
656.688416	34127.953668
657.030577	33925.609314
657.372687	33749.105915
657.714746	34024.980539
658.056753	34139.628980
658.398708	33592.527677
658.740612	33643.828979
659.082465	33927.119140
659.424266	33741.224071
659.766016	33873.017477
660.107715	33736.387084
660.449362	33863.492217
660.790958	33840.416335
661.132503	33837.071529
661.473996	33881.315216
661.815438	33998.403576
662.156829	34184.333932
662.498168	33955.526042
662.839456	33978.125534
663.180693	34130.675891
663.521879	34290.241013
663.863013	34256.641723
664.204097	34247.000516
664.545129	34702.516657
664.886110	34658.681304
665.227040	34736.879682
665.567918	34852.372517
665.908746	34894.503960
666.249522	35066.341771
666.590248	35082.342393
666.930922	35183.697312
667.271545	35142.637114
667.612118	35211.965582
667.952639	34991.798229
668.293109	35056.632509
668.633528	34943.143533
668.973896	34864.259557
669.314213	34920.307106
669.654480	34645.604551
669.994695	34675.395249
670.334859	34557.792692
670.674973	34452.626661
671.015035	34616.814521
671.355047	34554.258843
671.695008	34487.546733
672.034918	34392.717588
672.374777	34481.177236
672.714585	34315.361083
673.054342	34534.104310
673.394049	34283.856392
673.733705	34566.236624
674.073310	34217.852564
674.412864	34288.433759
674.752368	33915.988272
675.091820	34210.716811
675.431223	33782.891728
675.770574	33502.976620
676.109875	33351.308465
676.449125	33081.929368
676.788324	33008.968749
677.127473	32456.213791
677.466571	32384.712586
677.805619	32046.705741
678.144616	32046.153734
678.483562	31958.972020
678.822458	31627.715280
679.161303	31555.354558
679.500098	31462.060444
679.838842	31350.754288
680.177535	31489.396101
680.516179	31788.838119
680.854771	32029.626312
681.193314	32875.519324
681.531805	34004.024462
681.870247	34749.767392
682.208638	35460.444055
682.546978	35673.636972
682.885268	35755.926247
683.223508	35246.684009
683.561697	34927.899084
683.899836	34717.670365
684.237925	34215.420208
684.575963	34051.796957
684.913951	33583.688013
685.251889	33751.107253
685.589776	33739.487394
685.927614	33717.051738
686.265401	33859.585322
686.603137	33941.859474
686.940824	34450.499294
687.278460	34816.189635
687.616046	34933.552738
687.953582	35527.178850
688.291068	35370.716558
688.628504	35667.128842
688.965889	35588.164209
689.303224	35224.598714
689.640510	34886.914503
689.977745	34159.828884
690.314930	33346.592466
690.652065	32851.878833
690.989150	32127.374285
691.326185	31217.642620
691.663170	30522.648987
692.000105	29769.172927
692.336990	29092.897097
692.673825	28642.613674
693.010610	28109.055430
693.347345	27534.545373
693.684030	26853.402310
694.020665	26569.209782
694.357251	25893.150722
694.693786	25855.488262
695.030272	25610.016837
695.366707	25058.733897
695.703093	24765.641212
696.039429	24757.325829
696.375716	24488.985209
696.711952	24444.645741
697.048139	24274.607622
697.384276	24098.101702
697.720363	24226.570467
698.056400	24022.219734
698.392388	23793.351349
698.728326	23758.448920
699.064214	23557.674886
699.400053	23507.338965
699.735842	23128.879381
700.071581	22863.087065
700.407270	22564.224780
700.742910	22380.484805
701.078501	22110.788115
701.414042	21818.723826
701.749533	21523.201305
702.084974	21164.535812
702.420366	21373.547091
702.755709	20937.646080
703.091002	20630.337342
703.426246	20654.519757
703.761440	20546.939013
704.096584	20262.817062
704.431679	20220.574713
704.766725	20127.746906
705.101721	20055.918025
705.436668	20156.365536
705.771565	19819.460184
706.106413	20169.626292
706.441212	20164.466671
706.775961	20288.640372
707.110661	20350.311328
707.445311	20704.379289
707.779913	20525.047802
708.114465	20776.132552
708.448967	21058.510264
708.783421	21737.727607
709.117825	22000.598574
709.452180	22225.744067
709.786485	22619.720322
710.120742	23407.776177
710.454949	23418.430655
710.789107	23883.784608
711.123216	24569.154679
711.457275	24696.310223
711.791286	25228.184721
712.125247	25298.828931
712.459159	24990.895089
712.793023	25660.002398
713.126837	24561.640839
713.460602	24846.884447
713.794318	24469.453259
714.127985	24098.293266
714.461602	23191.500594
714.795171	23155.839472
715.128691	22137.100418
715.462162	21599.443716
715.795584	21179.843275
716.128957	20925.784245
716.462281	20531.535767
716.795556	20286.384456
717.128782	19779.478793
717.461960	19219.111693
717.795088	19151.398914
718.128167	18736.446418
718.461198	18282.034289
718.794180	18131.288666
719.127113	17772.764325
719.459997	17570.319148
719.792833	17200.457252
720.125619	17178.450095
720.458357	16856.131321
720.791046	16681.218406
721.123686	16507.485121
721.456278	16273.661282
721.788821	16231.849952
722.121315	15974.448637
722.453761	16044.432455
722.786158	15967.224663
723.118506	15964.522605
723.450805	15846.209245
723.783056	15987.369114
724.115259	15887.700462
724.447412	15812.050386
724.779518	16051.885801
725.111574	16067.105045
725.443582	16273.678926
725.775542	16263.939417
726.107453	16716.241822
726.439315	16596.214470
726.771129	16989.197618
727.102895	17355.409719
727.434612	17562.182726
727.766281	17680.574224
728.097901	17940.488555
728.429473	17982.715780
728.760996	17970.196074
729.092471	18055.613385
729.423897	17939.989480
729.755276	17812.077763
730.086606	17929.045135
730.417887	18448.006718
730.749120	18953.251321
731.080305	19131.370410
731.411442	19459.302509
731.742530	19524.852632
732.073570	19620.599267
732.404562	19915.259751
732.735506	19739.005889
733.066401	19437.199570
733.397249	18909.834384
733.728048	18285.719373
734.058798	17438.407276
734.389501	16762.592712
734.720156	16303.366281
735.050762	15780.487722
735.381320	15422.444811
735.711831	15177.472461
736.042293	14826.575386
736.372707	14833.448999
736.703073	14622.796824
737.033391	14810.594928
737.363661	14771.074802
737.693883	14866.342528
738.024056	15034.442323
738.354182	15207.119487
738.684260	15473.604961
739.014290	15691.145873
739.344272	15869.239756
739.674207	16150.450441
740.004093	16255.921462
740.333931	16250.731594
740.663722	16299.051054
740.993464	16292.547965
741.323159	16119.502798
741.652806	15854.552354
741.982405	15640.099149
742.311956	15303.092973
742.641460	15199.484659
742.970915	14892.866559
743.300323	14562.512185
743.629683	14348.674001
743.958996	14071.244181
744.288260	13802.235609
744.617477	13508.154858
744.946647	13436.547789
745.275768	13161.353721
745.604842	12982.246566
745.933869	12799.857620
746.262847	12755.402204
746.591778	12683.291019
746.920662	12574.870923
747.249498	12572.420923
747.578286	12688.425434
747.907027	12830.041528
748.235720	13047.471535
748.564365	13066.310327
748.892963	12971.559320
749.221514	13019.417514
749.550017	12873.150955
749.878473	12835.463289
750.206881	12603.214811
750.535242	12515.778518
750.863555	12432.564192
751.191821	12329.351608
751.520039	12350.549660
751.848210	12261.424580
752.176334	12290.091102
752.504411	12196.602903
752.832440	12028.379600
753.160421	12089.430493
753.488356	11969.819036
753.816243	11880.951055
754.144082	11735.140722
754.471875	11679.635097
754.799620	11623.113680
755.127318	11596.859351
755.454969	11558.027343
755.782572	11507.673778
756.110129	11528.380317
756.437638	11437.022007
756.765100	11428.409195
757.092515	11425.654205
757.419882	11437.057295
757.747203	11443.772112
758.074477	11512.921619
758.401703	11467.427726
758.728882	11626.029988
759.056014	11659.016778
759.383099	11773.498861
759.710138	11874.579037
760.037129	11956.182715
760.364073	11969.990435
760.690970	11962.237141
761.017820	11966.438942
761.344623	12151.955924
761.671379	12495.644150
761.998088	13154.142350
762.324751	14745.569084
762.651366	17635.045043
762.977935	21200.569979
763.304456	23295.292911
763.630931	23678.695346
763.957359	22505.996932
764.283740	20639.746655
764.610074	18786.126989
764.936362	16692.976898
765.262602	15198.922570
765.588796	13753.797683
765.914943	12742.685894
766.241044	11900.775393
766.567097	11276.877152
766.893104	10726.405837
767.219064	10378.001612
767.544978	9998.440536
767.870845	9687.154327
768.196665	9499.381429
768.522438	9300.646542
768.848165	9141.308271
769.173846	8973.417684
769.499479	8855.512657
769.825066	8702.261580
770.150607	8513.253599
770.476101	8449.203219
770.801548	8343.954009
771.126949	8200.233233
771.452303	8111.289635
771.777611	7952.195861
772.102872	7933.742717
772.428087	7812.046743
772.753256	7685.786004
773.078378	7605.293900
773.403453	7459.150850
773.728482	7350.062802
774.053465	7292.200438
774.378401	7204.426387
774.703291	7104.039370
775.028135	7009.651326
775.352932	6971.373845
775.677683	6886.944601
776.002388	6795.798018
776.327046	6804.110881
776.651658	6719.898406
776.976224	6635.834645
777.300743	6621.548015
777.625216	6561.275980
777.949643	6519.247880
778.274024	6520.112438
778.598359	6449.294309
778.922647	6454.915195
779.246889	6414.056643
779.571086	6415.105203
779.895236	6424.209527
780.219339	6420.824392
780.543397	6414.686788
780.867409	6467.727288
781.191374	6464.737884
781.515294	6431.287307
781.839167	6479.062322
782.162995	6451.807324
782.486776	6403.555920
782.810511	6367.670466
783.134201	6289.104084
783.457844	6278.583196
783.781441	6230.737604
784.104993	6186.138516
784.428498	6158.533158
784.751958	6143.470190
785.075372	6120.197703
785.398739	6080.218833
785.722061	6107.476352
786.045337	6099.924703
786.368568	6213.045675
786.691752	6236.053501
787.014891	6488.312840
787.337983	6764.903307
787.661030	7194.865839
787.984031	7608.767255
788.306987	7849.368925
788.629897	7936.333870
788.952760	7846.044284
789.275579	7669.072058
789.598351	7377.395938
789.921078	7120.602081
790.243759	6843.835173
790.566395	6644.737323
790.888984	6455.499969
791.211529	6319.918137
791.534027	6156.287324
791.856480	6023.266397
792.178888	5971.400486
792.501249	5899.445577
792.823566	5794.720647
793.145836	5786.778309
793.468062	5770.248365
793.790241	5732.127160
794.112375	5770.253406
794.434464	5872.009097
794.756507	5898.931379
795.078505	6017.300192
795.400457	6225.469599
795.722364	6462.597914
796.044226	6643.716489
796.366042	6798.419418
796.687812	6743.455718
797.009538	6769.760459
797.331218	6686.344486
797.652852	6619.753364
797.974442	6500.257854
798.295986	6429.240599
798.617484	6301.349046
798.938938	6200.377255
799.260346	6135.031299
799.581709	5993.745400
799.903026	5946.424089
800.224299	5871.784765
800.545526	5756.803608
800.866708	5700.781265
801.187845	5645.744468
801.508936	5567.772942
801.829983	5542.962903
802.150984	5437.146563
802.471940	5408.230505
802.792851	5388.479264
803.113717	5366.275502
803.434538	5344.028890
803.755314	5310.038910
804.076045	5298.590450
804.396731	5262.576447
804.717372	5280.212923
805.037967	5278.231750
805.358518	5303.555986
805.679024	5358.010530
805.999485	5367.132498
806.319901	5382.981886
806.640272	5398.206170
806.960598	5443.286688
807.280879	5434.704124
807.601115	5472.921111
807.921306	5436.256799
808.241453	5429.524338
808.561554	5439.457932
808.881611	5413.619498
809.201623	5412.500362
809.521590	5361.367938
809.841513	5345.405125
810.161390	5368.140729
810.481223	5277.515906
810.801011	5265.374287
811.120755	5242.610957
811.440453	5191.352504
811.760107	5162.925438
812.079716	5139.852077
812.399281	5086.887194
812.718801	5080.815124
813.038276	5047.571235
813.357707	5009.266028
813.677093	5035.187641
813.996434	4972.924349
814.315731	4996.201877
814.634983	4993.409078
814.954191	5002.626828
815.273354	5059.773348
815.592473	5102.247590
815.911547	5174.051264
816.230577	5227.192588
816.549562	5310.636287
816.868502	5364.006983
817.187399	5417.402884
817.506250	5495.006406
817.825058	5532.240369
818.143821	5685.115880
818.462539	5852.961097
818.781213	6083.656900
819.099843	6441.435150
819.418429	7073.089206
819.736970	7681.755601
820.055466	8383.658136
820.373919	9302.161408
820.692327	10795.439398
821.010691	13605.774282
821.329011	19921.528426
821.647286	29294.938982
821.965517	39154.465483
822.283704	44040.681986
822.601847	45192.225197
822.919945	40692.183764
823.237999	35793.344211
823.556010	30827.026294
823.873976	26315.080176
824.191897	22274.068567
824.509775	19307.669642
824.827609	16637.758619
825.145398	15147.354087
825.463144	14456.418582
825.780845	14809.498477
826.098502	16095.234683
826.416116	18464.156054
826.733685	20549.101668
827.051210	20877.689117
827.368692	19409.546320
827.686129	16927.791323
828.003522	14572.503752
828.320872	12444.718413
828.638177	10872.369926
828.955439	9668.411318
829.272656	8638.279255
829.589830	7825.562076
829.906960	7107.956347
830.224046	6595.966680
830.541088	6194.411050
830.858086	5949.393329
831.175041	5753.489049
831.491952	5704.592378
831.808819	5745.473615
832.125642	5997.299414
832.442421	6566.135652
832.759157	7686.761467
833.075849	9418.879243
833.392497	11181.001967
833.709101	12187.420442
834.025662	11869.177441
834.342179	10830.634213
834.658653	9572.200896
834.975083	8515.872478
835.291469	7645.958368
835.607811	6937.220028
835.924110	6436.073883
836.240366	5957.136541
836.556578	5516.181773
836.872746	5174.757026
837.188871	4909.574690
837.504952	4694.776165
837.820990	4531.689797
838.136984	4416.469185
838.452935	4379.562898
838.768842	4417.789967
839.084706	4719.926482
839.400526	5464.580522
839.716303	6330.807029
840.032037	6842.032961
840.347727	6660.243912
840.663373	6065.372635
840.978977	5515.178583
841.294537	5090.327781
841.610054	4779.830513
841.925527	4546.520872
842.240957	4346.636601
842.556344	4165.888551
842.871687	4005.075743
843.186987	3858.186602
843.502244	3742.489601
843.817458	3660.633865
844.132629	3587.678287
844.447756	3543.048952
844.762840	3500.957838
845.077881	3458.957465
845.392879	3424.763318
845.707833	3399.925553
846.022745	3373.973693
846.337613	3361.033051
846.652438	3337.969772
846.967221	3328.741940
847.281960	3309.499856
847.596656	3300.612302
847.911309	3289.693163
848.225919	3276.387037
848.540485	3267.698608
848.855009	3259.176538
849.169490	3245.197418
849.483928	3242.006368
849.798323	3235.926736
850.112675	3225.519274
850.426984	3225.322669
850.741251	3217.859241
851.055474	3214.824466
851.369654	3216.072152
851.683792	3212.039229
851.997887	3214.491750
852.311938	3216.120043
852.625947	3215.729353
852.939914	3209.828683
853.253837	3213.937223
853.567718	3214.431256
853.881555	3205.823486
854.195350	3211.278014
854.509103	3209.553940
854.822812	3203.784339
855.136479	3199.390974
855.450103	3204.732076
855.763685	3197.797969
856.077224	3199.302753
856.390720	3205.672251
856.704173	3218.852348
857.017584	3224.027092
857.330953	3227.560941
857.644278	3235.765419
857.957561	3238.651480
858.270802	3235.709967
858.584000	3232.788618
858.897155	3227.981878
859.210268	3221.390569
859.523339	3207.015719
859.836367	3206.062941
860.149352	3201.667055
860.462295	3198.337372
860.775195	3186.354550
861.088054	3184.454035
861.400869	3184.065866
861.713642	3182.200639
862.026373	3188.726413
862.339062	3193.805375
862.651708	3205.662169
862.964312	3217.342522
863.276873	3228.140674
863.589392	3258.725354
863.901869	3280.019188
864.214303	3305.595482
864.526696	3319.806495
864.839045	3337.137982
865.151353	3350.771783
865.463619	3351.079293
865.775842	3349.279601
866.088023	3355.797813
866.400162	3348.785568
866.712258	3352.064838
867.024313	3351.669108
867.336325	3348.604086
867.648296	3348.694827
867.960224	3345.372707
868.272110	3348.389837
868.583954	3351.989221
868.895755	3362.094214
869.207515	3357.978112
869.519233	3371.069988
869.830909	3379.576936
870.142542	3390.866600
870.454134	3396.744585
870.765684	3411.686565
871.077191	3427.200716
871.388657	3438.855864
871.700081	3458.975109
872.011463	3479.079230
872.322803	3495.760408
872.634101	3510.722553
872.945357	3537.609547
873.256571	3559.644430
873.567744	3573.303437
873.878874	3577.590938
874.189963	3595.981067
874.501010	3595.786983
874.812015	3592.578288
875.122979	3607.447172
875.433900	3607.986575
875.744780	3605.856688
876.055618	3616.049901
876.366415	3614.008233
876.677169	3623.233545
876.987882	3640.635608
877.298554	3659.766787
877.609183	3697.320863
877.919771	3748.130652
878.230317	3815.651867
878.540822	3920.396961
878.851285	4073.363213
879.161707	4294.110299
879.472087	4676.784287
879.782425	5315.702646
880.092722	6505.480489
880.402977	8404.606651
880.713191	10688.829076
881.023363	12911.993046
881.333494	14101.297020
881.643583	14485.826153
881.953631	14061.434096
882.263637	13268.034618
882.573602	12299.860858
882.883526	11399.972046
883.193408	10492.866823
883.503248	9618.919790
883.813048	8827.690529
884.122806	8091.722397
884.432522	7355.182093
884.742197	6719.719445
885.051831	6176.640982
885.361424	5702.553231
885.670975	5323.415612
885.980485	5012.688971
886.289954	4750.337242
886.599382	4539.954769
886.908768	4362.294425
887.218113	4204.065209
887.527417	4075.009150
887.836680	3955.952219
888.145901	3856.578474
888.455082	3782.549130
888.764221	3719.073441
889.073319	3658.410717
889.382376	3626.661530
889.691392	3601.995164
890.000366	3592.510233
890.309300	3593.868824
890.618193	3592.091817
890.927044	3589.137701
891.235855	3596.205399
891.544625	3610.507152
891.853353	3640.340701
892.162041	3701.681461
892.470687	3791.426602
892.779293	3913.180550
893.087858	4084.305037
893.396381	4364.293243
893.704864	4775.737096
894.013306	5329.278474
894.321707	5859.146593
894.630068	6174.475807
894.938387	6189.463157
895.246665	6011.104614
895.554903	5708.915167
895.863100	5390.662083
896.171256	5135.040295
896.479371	4904.692332
896.787446	4694.088048
897.095480	4501.337010
897.403473	4361.689487
897.711425	4225.903487
898.019336	4103.920167
898.327207	3985.848782
898.635038	3890.555851
898.942827	3783.708595
899.250576	3704.675906
899.558284	3624.098103
899.865952	3570.094742
900.173579	3508.673324
900.481165	3463.368474
900.788711	3423.240890
901.096216	3393.084707
901.403681	3365.474308
901.711105	3356.730426
902.018489	3352.203470
902.325832	3387.972977
902.633135	3450.276598
902.940397	3626.911067
903.247619	4039.680744
903.554800	4784.566677
903.861941	5704.277305
904.169041	6349.600450
904.476101	6505.591394
904.783121	6239.448718
905.090100	5849.792732
905.397039	5464.232683
905.703938	5123.155775
906.010796	4816.986337
906.317614	4576.377106
906.624391	4344.809183
906.931129	4154.931603
907.237826	3978.188749
907.544483	3815.810663
907.851099	3649.608862
908.157675	3495.026920
908.464211	3358.202443
908.770707	3264.492434
909.077163	3187.264478
909.383578	3127.857001
909.689954	3083.739343
909.996289	3055.581978
910.302584	3036.864174
910.608839	3024.871269
910.915054	3011.759228
911.221229	3007.713702
911.527363	3013.296779
911.833458	3020.510671
912.139513	3033.693288
912.445527	3044.332643
912.751502	3079.086358
913.057436	3121.434571
913.363331	3179.060000
913.669186	3267.489400
913.975000	3387.075652
914.280775	3575.151020
914.586510	3845.223275
914.892205	4211.644584
915.197859	4694.420764
915.503475	5244.511472
915.809050	5701.862593
916.114585	5954.565553
916.420081	6005.766032
916.725536	5936.813129
917.030952	5709.953645
917.336328	5512.983161
917.641665	5317.157019
917.946961	5100.137867
918.252218	4911.379423
918.557435	4695.849931
918.862612	4504.777597
919.167750	4343.354810
919.472848	4157.895801
919.777906	3999.308663
920.082925	3846.523893
920.387904	3700.307746
920.692843	3592.893361
920.997743	3499.400121
921.302603	3405.619536
921.607423	3346.310361
921.912204	3285.035136
922.216946	3232.765933
922.521647	3189.772452
922.826310	3148.540855
923.130932	3111.858899
923.435516	3072.394226
923.740059	3048.163920
924.044564	3013.223683
924.349028	2989.880620
924.653454	2966.887917
924.957840	2940.074020
925.262186	2919.629620
925.566493	2899.031466
925.870761	2873.959287
926.174989	2863.967720
926.479178	2850.830473
926.783328	2834.988647
927.087438	2823.431802
927.391509	2809.714822
927.695541	2797.371557
927.999533	2786.868313
928.303486	2778.537807
928.607400	2773.698299
928.911275	2770.706374
929.215110	2763.081629
929.518906	2760.268665
929.822663	2761.317225
930.126381	2760.525764
930.430060	2762.756474
930.733699	2762.582555
931.037299	2765.546753
931.340861	2763.734458
931.644383	2765.337545
931.947866	2766.834768
932.251309	2763.774787
932.554714	2763.822678
932.858080	2764.430137
933.161407	2758.108531
933.464694	2755.320772
933.767943	2750.992942
934.071153	2746.319792
934.374323	2744.116808
934.677455	2742.226375
934.980548	2738.760582
935.283602	2736.378637
935.586617	2736.792012
935.889593	2740.255284
936.192530	2741.903742
936.495428	2745.364494
936.798287	2753.337078
937.101108	2767.162443
937.403890	2788.141205
937.706632	2811.784216
938.009336	2840.947291
938.312002	2866.523585
938.614628	2891.285733
938.917216	2910.172416
939.219765	2919.480906
939.522275	2931.199068
939.824747	2930.891558
940.127179	2922.233376
940.429573	2917.645926
940.731929	2915.916811
941.034246	2909.973290
941.336524	2907.253588
941.638763	2899.573390
941.940964	2896.667165
942.243126	2882.330123
942.545250	2871.952908
942.847335	2856.675691
943.149381	2841.847137
943.451389	2831.963955
943.753359	2817.715134
944.055290	2809.240954
944.357182	2804.504790
944.659036	2796.481794
944.960851	2793.260496
945.262628	2788.753705
945.564367	2790.697070
945.866067	2788.625155
946.167729	2788.778911
946.469352	2784.042747
946.770937	2782.676594
947.072484	2776.423042
947.373992	2776.251643
947.675462	2773.143772
947.976893	2767.616147
948.278286	2765.425765
948.579641	2764.253697
948.880958	2760.556011
949.182236	2762.375867
949.483476	2758.186668
949.784678	2757.911926
950.085841	2753.969743
950.386967	2762.554828
950.688054	2764.755292
950.989103	2772.906838
951.290114	2780.594597
951.591087	2792.360650
951.892021	2801.709470
952.192917	2813.379741
952.493776	2823.099086
952.794596	2825.183603
953.095378	2829.448419
953.396122	2827.552945
953.696828	2825.254179
953.997496	2818.985504
954.298126	2812.837817
954.598718	2804.459420
954.899272	2792.368212
955.199788	2781.887653
955.500266	2771.371806
955.800706	2755.247676
956.101108	2742.213772
956.401472	2731.662637
956.701798	2717.406254
957.002087	2704.667259
957.302337	2693.843901
957.602550	2687.013138
957.902724	2677.767662
958.202861	2668.439007
958.502960	2661.025990
958.803022	2652.466111
959.103045	2647.787920
959.403031	2639.364152
959.702979	2637.478760
960.002889	2629.745630
960.302762	2626.052985
960.602596	2626.448716
960.902393	2617.528394
961.202153	2618.844135
961.501875	2614.861623
961.801559	2611.214349
962.101205	2613.034205
962.400814	2610.100254
962.700385	2608.298041
962.999918	2603.604727
963.299414	2602.099942
963.598873	2602.021805
963.898293	2601.895776
964.197677	2599.007195
964.497022	2597.222626
964.796331	2596.534509
965.095601	2595.221288
965.394835	2595.639704
965.694030	2595.274220
965.993189	2592.337748
966.292309	2591.510999
966.591393	2590.946390
966.890439	2590.278437
967.189447	2591.853797
967.488419	2590.001173
967.787353	2593.527460
968.086249	2592.698191
968.385108	2594.523088
968.683930	2594.497882
968.982714	2597.966196
969.281462	2594.991916
969.580172	2597.855291
969.878844	2601.033738
970.177480	2603.312340
970.476078	2606.861312
970.774639	2610.982456
971.073162	2611.090840
971.371649	2612.157044
971.670098	2611.857096
971.968510	2612.371293
972.266885	2611.373145
972.565223	2616.913373
972.863524	2618.143415
973.161788	2618.695421
973.460014	2619.678446
973.758204	2623.265227
974.056356	2621.669702
974.354471	2624.512912
974.652550	2622.864455
974.950591	2621.702469
975.248595	2621.407562
975.546563	2620.205247
975.844493	2618.455966
976.142386	2615.083434
976.440243	2616.487396
976.738062	2614.450769
977.035845	2611.960439
977.333590	2610.438011
977.631299	2605.727053
977.928971	2602.916609
978.226606	2606.243771
978.524204	2603.266970
978.821765	2603.203955
979.119290	2602.299068
979.416777	2602.873760
979.714228	2603.491301
980.011642	2603.687906
980.309020	2611.136211
980.606360	2608.424070
980.903664	2619.418827
981.200931	2630.269910
981.498162	2650.540390
981.795356	2674.937054
982.092513	2712.627241
982.389633	2753.417737
982.686717	2791.203706
982.983764	2821.561534
983.280775	2836.448061
983.577749	2837.718432
983.874686	2826.045640
984.171587	2813.667087
984.468451	2797.926084
984.765279	2780.332457
985.062070	2763.797473
985.358824	2746.178640
985.655543	2725.134343
985.952224	2705.239430
986.248869	2681.319155
986.545478	2654.865700
986.842050	2637.471198
987.138586	2618.786162
987.435086	2607.539347
987.731549	2598.082143
988.027975	2592.582244
988.324366	2590.114599
988.620719	2583.556058
988.917037	2580.987590
989.213318	2576.964749
989.509563	2574.703792
989.805772	2575.457444
990.101944	2572.536096
990.398080	2571.096846
990.694180	2567.167267
990.990244	2572.533575
991.286271	2566.582493
991.582262	2572.508369
991.878217	2574.038360
992.174136	2573.420818
992.470019	2573.987948
992.765865	2577.219328
993.061676	2576.311920
993.357450	2579.634040
993.653188	2580.906932
993.948890	2588.859352
994.244556	2594.709611
994.540186	2603.796291
994.835780	2612.535131
995.131337	2627.744292
995.426859	2644.175933
995.722345	2661.509941
996.017795	2677.830676
996.313208	2688.286029
996.608586	2698.960672
996.903928	2702.272711
997.199234	2696.924046
997.494504	2696.203161
997.789738	2685.712520
998.084936	2680.424350
998.380099	2670.790705
998.675225	2656.977943
998.970316	2646.951088
999.265371	2635.071609
999.560390	2620.817747
999.855373	2610.208638
1000.150320	2603.975252
1000.445232	2594.223140
1000.740108	2588.045206
1001.034948	2580.901891
1001.329752	2577.080696
1001.624521	2575.994327
1001.919254	2565.049982
1002.213951	2565.296999
1002.508613	2563.958572
1002.803239	2562.095866
1003.097829	2557.972202
1003.392384	2560.580999
1003.686903	2557.596636
1003.981386	2562.231977
1004.275834	2557.856256
1004.570246	2556.086811
1004.864623	2555.008004
1005.158964	2553.243600
1005.453270	2553.601522
1005.747540	2554.375339
1006.041775	2553.193188
1006.335974	2550.649926
1006.630138	2551.174206
1006.924266	2553.296532
1007.218359	2551.874927
1007.512416	2551.287632
1007.806438	2549.676984
1008.100425	2552.782334
1008.394376	2550.952396
1008.688292	2548.638506
1008.982172	2550.594474
1009.276017	2550.914587
1009.569827	2547.441232
1009.863602	2549.926521
1010.157341	2546.864020
1010.451045	2548.978784
1010.744714	2547.448794
1011.038347	2549.828218
1011.331945	2549.876109
1011.625508	2546.997610
1011.919036	2545.878474
1012.212528	2548.386448
1012.505986	2546.231355
1012.799408	2543.057949
1013.092795	2543.816642
1013.386147	2547.080789
1013.679464	2544.446787
1013.972745	2544.837476
1014.265992	2544.487116
1014.559204	2543.478885
1014.852380	2543.884698
1015.145521	2547.849565
1015.438628	2546.543907
1015.731699	2546.057435
1016.024736	2544.635830
1016.317737	2545.134904
1016.610703	2546.944678
1016.903635	2543.005017
1017.196531	2544.887887
1017.489393	2542.016950
1017.782219	2542.889070
1018.075011	2546.465769
1018.367768	2549.354350
1018.660490	2546.662374
1018.953177	2546.662374
1019.245829	2546.662374
