Dividing Wavelength (nm)	Counts (n)	Blue Motor Position (mm): 42.000000	Red Motor Position (mm): 0.000000	
326.493990	2049.849100
326.888308	2049.849100
327.282561	2049.849100
327.676750	2025.225584
328.070874	2026.407735
328.464933	2033.319157
328.858929	2042.622606
329.252859	2051.878165
329.646726	2063.833261
330.040528	2083.491241
330.434265	2099.817017
330.827938	2121.085645
331.221547	2139.828655
331.615091	2158.642242
332.008571	2180.984635
332.401986	2200.244364
332.795338	2221.666747
333.188625	2243.973853
333.581847	2262.404311
333.975006	2279.468617
334.368100	2295.607871
334.761129	2312.962043
335.154095	2326.797490
335.546996	2379.696838
335.939833	2489.684732
336.332606	2497.390136
336.725315	2512.543844
337.117960	2521.060874
337.510540	2532.181659
337.903056	2538.692309
338.295508	2549.513146
338.687896	2555.078580
339.080220	2558.841801
339.472480	2562.942780
339.864676	2568.046948
340.256807	2571.563153
340.648875	2575.081878
341.040879	2573.289748
341.432818	2574.784450
341.824694	2576.211097
342.216506	2574.459296
342.608253	2576.831159
342.999937	2575.311251
343.391557	2572.778071
343.783113	2573.062896
344.174605	2569.518965
344.566033	2568.457802
344.957397	2568.009140
345.348697	2567.084088
345.739934	2561.969837
346.131106	2561.952193
346.522215	2562.978068
346.913260	2561.017059
347.304241	2557.226112
347.695159	2556.288457
348.086012	2556.752243
348.476802	2553.528425
348.867528	2549.132539
349.258191	2543.423432
349.648789	2545.490305
350.039324	2542.944523
350.429796	2548.898125
350.820203	2547.461397
351.210548	2546.342260
351.600828	2544.509801
351.991045	2544.867723
352.381198	2545.810419
352.771288	2543.488967
353.161314	2541.598535
353.551276	2540.063503
353.941175	2542.470654
354.331010	2543.398227
354.720782	2545.467620
355.110490	2548.099102
355.500135	2545.097095
355.889717	2543.476364
356.279235	2543.428473
356.668689	2544.149358
357.058080	2546.128011
357.447408	2546.974925
357.836672	2546.160779
358.225873	2547.993238
358.615010	2547.584905
359.004084	2543.957795
359.393095	2547.864689
359.782043	2548.404092
360.170927	2549.177909
360.559748	2550.715461
360.948505	2552.530277
361.337199	2552.923487
361.725830	2552.121943
362.114398	2552.079093
362.502903	2551.983312
362.891344	2552.462221
363.279722	2550.405430
363.668037	2551.960626
364.056289	2552.840308
364.444478	2554.836605
364.832603	2556.124619
365.220665	2554.730740
365.608665	2556.495144
365.996601	2557.515978
366.384474	2555.507078
366.772284	2557.155535
367.160031	2556.656461
367.547715	2560.270968
367.935336	2557.828529
368.322893	2555.943138
368.710388	2555.534804
369.097820	2559.507234
369.485189	2554.637479
369.872495	2560.427244
370.259738	2559.519837
370.646918	2561.669889
371.034035	2562.940259
371.421090	2560.016390
371.808081	2561.490928
372.195010	2564.442523
372.581875	2565.110476
372.968678	2561.949673
373.355418	2564.918912
373.742096	2565.856567
374.128710	2566.103583
374.515262	2564.490414
374.901751	2567.787329
375.288177	2566.970662
375.674540	2566.675754
376.060841	2568.629202
376.447079	2567.638615
376.833254	2569.166084
377.219367	2570.275138
377.605417	2570.454099
377.991404	2571.008626
378.377329	2570.658266
378.763191	2569.206414
379.148991	2570.781774
379.534727	2571.989131
379.920402	2575.457444
380.306013	2572.987279
380.691563	2576.221179
381.077049	2573.193966
381.462474	2572.016857
381.847835	2573.143555
382.233134	2575.938875
382.618371	2577.002558
383.003545	2575.525500
383.388657	2575.197825
383.773706	2577.330233
384.158693	2578.053639
384.543618	2580.390213
384.928480	2580.493557
385.313280	2583.752663
385.698017	2582.741912
386.082692	2582.671336
386.467305	2584.294587
386.851856	2585.920359
387.236344	2586.628641
387.620770	2585.764083
388.005133	2583.011613
388.389435	2590.507809
388.773674	2591.619384
389.157851	2597.099118
389.541965	2599.758327
389.926018	2606.773092
390.310008	2611.904987
390.693936	2616.830194
391.077802	2621.001749
391.461606	2631.646145
391.845348	2636.236116
392.229027	2643.102167
392.612645	2654.467449
392.996200	2663.705363
393.379694	2675.226920
393.763125	2687.597912
394.146494	2703.628781
394.529801	2714.681511
394.913047	2731.849160
395.296230	2741.094636
395.679351	2757.395207
396.062410	2775.036725
396.445408	2786.462500
396.828343	2806.317085
397.211217	2827.741989
397.594028	2836.337156
397.976778	2860.824561
398.359466	2885.475803
398.742092	2905.383320
399.124656	2923.942328
399.507158	2959.956331
399.889598	2979.715133
400.271977	3016.906246
400.654294	3031.528112
401.036549	3071.922878
401.418742	3092.677308
401.800874	3141.805873
402.182944	3172.433403
402.564952	3231.719893
402.946898	3251.274529
403.328783	3273.140534
403.710606	3319.383038
404.092367	3376.413612
404.474067	3436.015173
404.855705	3447.052780
405.237282	3464.656489
405.618797	3537.785987
406.000250	3608.803242
406.381642	3683.341743
406.762972	3705.916030
407.144240	3710.437945
407.525447	3776.915641
407.906593	3815.500632
408.287677	3892.743712
408.668700	3942.615847
409.049661	3994.058301
409.430560	4046.811456
409.811399	4064.074887
410.192176	4116.160089
410.572891	4203.984550
410.953545	4305.213440
411.334138	4253.065224
411.714669	4365.493037
412.095139	4326.456863
412.475547	4433.283954
412.855894	4458.754383
413.236180	4558.072676
413.616405	4525.426164
413.996568	4626.503819
414.376670	4653.554650
414.756711	4660.556813
415.136691	4741.943721
415.516609	4834.849666
415.896466	4887.494436
416.276262	4970.965861
416.655997	5088.533131
417.035670	5176.899516
417.415283	5315.528727
417.794834	5383.967431
418.174324	5357.705540
418.553753	5376.199013
418.933121	5526.435480
419.312428	5554.933123
419.691674	5505.098796
420.070859	5720.867743
420.449983	5619.807732
420.829045	5808.803110
421.208047	5753.075675
421.586988	5909.084263
421.965867	5981.455067
422.344686	6060.182767
422.723444	6225.560339
423.102141	5882.529985
423.480777	6244.162197
423.859352	6085.000367
424.237866	6433.177740
424.616319	6427.277069
424.994712	6584.228353
425.373044	6513.556417
425.751314	6801.171888
426.129524	6550.387087
426.507673	6806.389483
426.885762	6847.127047
427.263789	6879.627366
427.641756	6974.892571
428.019662	7038.370780
428.397508	7080.275371
428.775292	7078.601708
429.153016	7221.861218
429.530679	7174.706265
429.908282	7227.114100
430.285824	7168.745101
430.663305	7417.276506
431.040726	7327.677558
431.418086	7328.458937
431.795385	7463.592107
432.172624	7642.336299
432.549802	7516.977926
432.926920	7655.440778
433.303977	7604.542768
433.680974	7659.773650
434.057910	7843.831218
434.434786	7890.353506
434.811601	7855.965275
435.188355	8183.627672
435.565050	8079.853000
435.941683	8089.537056
436.318257	8403.515241
436.694770	8346.119184
437.071222	8566.258811
437.447614	8338.897731
437.823946	8314.596849
438.200218	8459.177142
438.576429	8356.093107
438.952580	8511.151438
439.328670	8514.576902
439.704700	8601.942618
440.080670	8492.063109
440.456580	8742.953774
440.832429	8729.967762
441.208218	8474.293041
441.583947	8589.823685
441.959616	8700.542547
442.335224	8731.694357
442.710773	8809.625554
443.086261	8990.338317
443.461689	8726.068429
443.837057	8870.517651
444.212365	9077.278056
444.587612	9080.678314
444.962800	8964.464594
445.337927	9108.034135
445.712995	8663.666506
446.088002	9294.899626
446.462949	9370.297644
446.837837	9370.441317
447.212664	9428.409545
447.587431	10329.830867
447.962139	11298.801130
448.336786	12052.337683
448.711374	11656.516366
449.085901	10508.189410
449.460369	10493.670887
449.834776	10403.721579
450.209124	11332.085348
450.583412	11101.432395
450.957640	11312.850826
451.331808	10900.113916
451.705917	10418.824876
452.079965	10343.237815
452.453954	10539.580675
452.827883	10498.182720
453.201752	10450.185894
453.575562	10475.895779
453.949311	10836.673516
454.323001	10904.461911
454.696632	10820.017543
455.070202	11412.945456
455.443713	11468.403189
455.817164	11620.116714
456.190556	11932.660691
456.563888	11763.081317
456.937160	11980.307157
457.310373	11487.410860
457.683526	11528.183712
458.056619	11569.354816
458.429653	11646.734007
458.802628	11818.042497
459.175542	11882.607074
459.548398	12424.125300
459.921194	13009.317562
460.293930	13323.812465
460.666607	14156.109486
461.039224	14880.135125
461.411782	15146.151772
461.784280	14755.376649
462.156719	14667.058154
462.529099	14584.070680
462.901419	13999.760620
463.273680	13653.902178
463.645882	13882.100089
464.018024	13833.089991
464.390106	14246.600718
464.762130	15406.459312
465.134094	17081.627174
465.505999	19343.855045
465.877845	21357.695183
466.249631	22263.824943
466.621358	21629.194085
466.993026	20819.216773
467.364634	20111.088413
467.736184	19412.147556
468.107674	18860.907465
468.479105	18712.959682
468.850477	18448.778015
469.221790	18029.041463
469.593043	17393.914052
469.964238	17047.972431
470.335373	17160.145666
470.706449	18032.219911
471.077467	19168.420370
471.448425	21509.685972
471.819324	23006.903623
472.190164	22490.059325
472.560945	20812.191925
472.931667	19399.600124
473.302330	19154.622732
473.672934	18706.408703
474.043479	19150.524274
474.413965	18952.865673
474.784393	18794.482701
475.154761	19422.257590
475.525070	19563.838396
475.895321	19408.822915
476.265513	19922.667726
476.635645	20515.479692
477.005719	20569.757796
477.375734	20960.381684
477.745691	21560.316800
478.115588	22231.927042
478.485427	23489.944464
478.855207	25354.266500
479.224928	27067.313591
479.594591	28271.544422
479.964194	27733.063491
480.333739	28124.025137
480.703226	28422.342977
481.072653	28941.546535
481.442022	29413.456509
481.811333	29729.511649
482.180584	29222.366531
482.549777	29022.341108
482.918912	28818.759151
483.287988	28772.153684
483.657005	28595.128525
484.025964	28250.182532
484.394864	28459.990314
484.763706	28394.598987
485.132489	27894.435867
485.501213	27968.545870
485.869879	28165.922166
486.238487	28121.744015
486.607036	28398.566375
486.975527	28122.744684
487.343959	28450.918758
487.712333	28794.238979
488.080648	28740.144878
488.448905	29178.243832
488.817104	29110.951990
489.185244	30021.263387
489.553326	31158.958548
489.921350	33095.963941
490.289315	35485.279300
490.657222	36152.440723
491.025070	36554.019039
491.392861	36181.291247
491.760593	35392.983335
492.128267	34382.116042
492.495883	33445.212558
492.863440	32622.816364
493.230939	31731.232854
493.598380	31220.498434
493.965763	31115.342485
494.333088	30640.296914
494.700354	30463.869133
495.067563	30452.213985
495.434713	30366.915141
495.801805	30657.008339
496.168839	30515.480466
496.535815	30395.029656
496.902733	30541.152542
497.269593	30366.680728
497.636395	30532.655677
498.003139	30823.822641
498.369825	30588.113410
498.736453	31007.953306
499.103023	30850.828102
499.469535	30967.697172
499.835989	31093.627715
500.202385	30964.659876
500.568723	31035.649405
500.935003	31362.810207
501.301226	31275.341147
501.667390	31976.419453
502.033497	32171.159226
502.399546	31975.751500
502.765537	31577.412126
503.131470	32053.687739
503.497345	32501.659793
503.863163	31488.521461
504.228923	32261.468977
504.594625	32673.966432
504.960269	32153.406803
505.325856	32842.466999
505.691385	32537.615823
506.056856	32843.507997
506.422270	33350.695965
506.787625	32885.541138
507.152924	33349.728063
507.518164	33564.370312
507.883347	33121.041160
508.248472	33291.611121
508.613540	33986.025022
508.978550	34224.610231
509.343503	34086.064200
509.708398	34447.489725
510.073236	35070.596505
510.438016	35179.407290
510.802738	34862.477510
511.167403	35443.558711
511.532010	35689.196493
511.896561	36183.355599
512.261053	36937.124046
512.625488	36733.612665
512.989866	36668.145721
513.354186	36724.654535
513.718449	36683.823709
514.082655	37588.962882
514.446803	37291.804507
514.810894	37910.565812
515.174927	37946.809188
515.538904	37950.254817
515.902822	38603.913509
516.266684	38298.091911
516.630488	38667.482459
516.994235	38691.470790
517.357925	39272.577197
517.721558	39535.816168
518.085133	39916.249364
518.448651	40114.429724
518.812112	40004.530050
519.175516	40177.343324
519.538863	40624.181119
519.902152	40674.504437
520.265385	41229.916083
520.628560	41246.730852
520.991678	41205.118647
521.354739	41449.813734
521.717743	41808.675833
522.080690	41723.956722
522.443580	42405.833273
522.806413	42433.027778
523.169189	42594.377468
523.531908	42805.914366
523.894569	42669.563757
524.257174	42873.571692
524.619722	43229.600661
524.982213	43360.358110
525.344647	43399.333791
525.707025	43530.212227
526.069345	43994.497455
526.431608	43896.134461
526.793815	44278.589159
527.155964	43838.032643
527.518057	44096.953866
527.880093	43944.383345
528.242072	44571.669241
528.603995	44330.578579
528.965860	44261.383701
529.327669	44462.989526
529.689421	44531.811358
530.051117	44477.099716
530.412755	44760.576399
530.774337	44837.096073
531.135862	44770.189880
531.497331	44927.120999
531.858743	44909.179532
532.220098	45320.542727
532.581396	45044.703392
532.942638	44812.984235
533.303824	45057.394497
533.664953	45136.472556
534.026025	44801.855888
534.387040	45376.408794
534.747999	45466.804244
535.108902	45762.034378
535.469748	45098.978975
535.830537	45355.379621
536.191270	45600.974554
536.551947	45330.652761
536.912567	45619.379807
537.273131	45797.831612
537.633638	45387.897584
537.994089	45592.018944
538.354483	45339.752044
538.714821	45987.978894
539.075103	46276.388346
539.435328	46140.355330
539.795497	45886.437452
540.155609	45998.063722
540.515665	46601.688963
540.875665	45895.773669
541.235609	46189.007506
541.595496	46314.849830
541.955328	46904.259017
542.315102	46315.656414
542.674821	46198.273147
543.034483	46098.201202
543.394090	46103.564990
543.753640	46090.780623
544.113134	47172.718103
544.472571	46259.152641
544.831953	47398.612207
545.191278	46649.789132
545.550548	46351.153699
545.909761	46996.386103
546.268918	47129.772513
546.628019	47556.402843
546.987064	46993.502563
547.346053	46269.134126
547.704986	47188.534723
548.063863	46831.096751
548.422684	47041.368319
548.781449	46626.846841
549.140158	47174.033844
549.498811	46927.438242
549.857408	46308.681978
550.215949	47167.177875
550.574434	46991.080289
550.932864	46921.177129
551.291237	47636.610121
551.649555	47405.594205
552.007817	47584.227492
552.366022	47257.532996
552.724173	47307.039647
553.082267	47727.184532
553.440305	48065.698013
553.798288	47304.783731
554.156215	47726.125890
554.514086	47917.326773
554.871902	47537.551448
555.229661	47702.656798
555.587365	47402.287208
555.945014	47529.026857
556.302606	47541.297025
556.660143	47658.264398
557.017625	47858.741004
557.375050	47549.998057
557.732421	47971.698138
558.089735	48038.596770
558.446994	47902.583919
558.804197	48388.800687
559.161345	48251.308257
559.518437	47579.710618
559.875474	47843.778859
560.232455	48083.394984
560.589381	48132.866347
560.946251	47927.903114
561.303065	48597.905228
561.659825	48278.830436
562.016528	48089.658617
562.373177	47660.958894
562.729770	48290.969534
563.086307	47815.911361
563.442789	48366.372593
563.799216	48210.898367
564.155587	48090.946632
564.511904	48060.891273
564.868164	48108.661247
565.224370	48424.093805
565.580520	48173.427471
565.936615	48347.743009
566.292654	48002.116460
566.648638	48374.077997
567.004567	48303.433787
567.360441	48402.328623
567.716260	48127.893249
568.072023	48478.918873
568.427732	48418.639276
568.783385	47948.745764
569.138982	48357.333804
569.494525	48502.960136
569.850013	48086.966641
570.205445	48216.970437
570.560823	47996.805605
570.916145	47858.831744
571.271412	48105.099672
571.626625	47759.369779
571.981782	47828.763782
572.336884	47422.277904
572.691931	47763.916900
573.046923	47412.669464
573.401860	47247.102849
573.756743	47254.430166
574.111570	47408.399607
574.466342	47319.161102
574.821059	47476.354361
575.175722	46968.294273
575.530330	47072.510047
575.884882	46710.219964
576.239380	46588.375276
576.593823	46708.654686
576.948211	46606.220960
577.302544	46171.703746
577.656823	46163.053126
578.011047	46435.552697
578.365216	46238.690598
578.719330	45964.144318
579.073389	45948.143696
579.427394	45988.790519
579.781344	45925.241734
580.135239	45669.912333
580.489080	45740.334732
580.842866	45219.868364
581.196597	45712.673920
581.550273	45710.589403
581.903895	45648.923489
582.257463	46072.203972
582.610975	45503.095511
582.964434	45833.260841
583.317837	45352.319641
583.671186	45310.621737
584.024481	45581.238437
584.377721	45140.744934
584.730906	45340.566190
585.084037	45453.251102
585.437113	45163.004149
585.790135	45298.396938
586.143103	44835.366958
586.496016	45009.180901
586.848874	45117.273322
587.201679	45144.929092
587.554428	44615.093740
587.907124	44917.583136
588.259765	44689.372622
588.612352	44843.755438
588.964884	44283.917659
589.317362	44607.085868
589.669786	44609.979490
590.022155	44452.904698
590.374470	44909.905458
590.726731	44488.018855
591.078937	43815.796113
591.431090	44167.451882
591.783188	43687.551680
592.135232	43487.924508
592.487222	43749.537707
592.839157	43908.739866
593.191038	43538.099112
593.542866	43343.281201
593.894639	42747.719286
594.246358	43056.336204
594.598022	43033.426680
594.949633	42616.845891
595.301190	42586.084770
595.652692	42518.336703
596.004141	43025.842264
596.355535	41908.200812
596.706876	41945.412089
597.058162	41653.360403
597.409395	42164.339319
597.760573	42375.488047
598.111698	41973.672798
598.462768	41886.191135
598.813785	41906.040678
599.164748	41505.354647
599.515657	41783.177676
599.866511	41285.724177
600.217312	41980.362409
600.568060	40912.928329
600.918753	41740.325348
601.269392	41674.684484
601.619978	41384.135061
601.970510	41576.583630
602.320988	41723.326577
602.671412	41993.038390
603.021783	41863.594163
603.372100	41420.559918
603.722363	41531.266178
604.072572	41562.085272
604.422728	41549.903323
604.772830	41345.076201
605.122878	41507.461849
605.472872	41361.376772
605.822813	41625.203038
606.172701	41351.639784
606.522534	41682.846112
606.872314	41912.289188
607.222041	41731.909142
607.571714	42061.963566
607.921333	41552.456668
608.270899	41765.384924
608.620411	42163.752024
608.969870	41898.236972
609.319276	41909.314907
609.668627	41940.297839
610.017926	42345.767925
610.367171	42469.117398
610.716362	42506.794982
611.065500	42414.267123
611.414585	42624.954587
611.763616	42805.377483
612.112594	42701.650701
612.461518	42820.720235
612.810389	43218.172366
613.159207	43003.434335
613.507971	42972.952998
613.856682	43465.151095
614.205340	43297.336125
614.553945	43982.819622
614.902496	43310.407837
615.250994	43734.104215
615.599439	43789.171259
615.947830	43910.302624
616.296169	43907.182150
616.644454	43933.991006
616.992686	44100.976707
617.340864	44559.202468
617.688990	44076.816977
618.037063	44755.033651
618.385082	44571.656638
618.733048	44916.398465
619.080961	44790.959433
619.428821	44807.938040
619.776628	44820.825749
620.124382	44629.468591
620.472083	44744.515283
620.819731	44844.128483
621.167326	44413.140076
621.514868	44394.122323
621.862357	43862.935943
622.209793	43942.157675
622.557176	43526.164180
622.904506	43280.213846
623.251783	42916.393773
623.599007	42596.038528
623.946179	42512.226825
624.293297	42251.904161
624.640363	41709.375184
624.987376	41570.072980
625.334336	41352.196831
625.681243	40947.404780
626.028097	40860.722140
626.374899	40669.939672
626.721647	40641.033696
627.068343	40422.015726
627.414987	40124.441456
627.761577	39883.176874
628.108115	40195.060460
628.454600	39442.423752
628.801032	39672.582672
629.147412	39567.701466
629.493739	39473.804935
629.840014	39024.507057
630.186236	39466.621291
630.532405	38903.249663
630.878521	39122.716296
631.224585	38912.986652
631.570597	38565.353724
631.916556	38731.769774
632.262462	38604.042059
632.608316	38559.198475
632.954117	38395.431551
633.299866	38372.910196
633.645562	38286.928276
633.991206	37760.125179
634.336797	37344.197219
634.682336	37241.261898
635.027823	37008.143821
635.373257	36889.268372
635.718639	36554.422331
636.063968	36450.945087
636.409245	35782.397346
636.754470	35741.813537
637.099642	35517.424217
637.444762	34946.997495
637.789829	35093.165751
638.134845	34716.145416
638.479808	34637.533663
638.824719	34567.670833
639.169577	34067.167435
639.514383	34161.358874
639.859137	33775.466109
640.203839	33948.843992
640.548489	33656.741894
640.893086	33635.899244
641.237632	33351.152189
641.582125	33464.752071
641.926566	33259.400669
642.270955	33297.763850
642.615292	33226.207191
642.959576	33105.872328
643.303809	33119.541417
643.647990	33202.531412
643.992118	33148.218021
644.336195	32984.637620
644.680219	33070.528799
645.024192	33264.814868
645.368112	33810.093794
645.711981	33819.787933
646.055797	34541.650917
646.399562	34358.145355
646.743274	35221.700050
647.086935	35612.568434
647.430544	35572.138381
647.774101	35618.925329
648.117606	35906.250934
648.461059	36067.986273
648.804460	35664.557854
649.147810	35157.185884
649.491108	34798.641378
649.834354	34663.838404
650.177548	33815.306348
650.520690	33327.002542
650.863781	33328.053622
651.206820	33146.143586
651.549807	32743.373038
651.892742	32144.758704
652.235626	32061.178893
652.578458	31931.888421
652.921238	31229.144013
653.263967	31541.640099
653.606644	31246.747722
653.949269	31148.808185
654.291843	30754.045510
654.634365	31116.683432
654.976836	30654.654121
655.319255	30728.249926
655.661622	30605.883478
656.003938	30481.356895
656.346203	30281.964137
656.688416	30524.388185
657.030577	30304.949278
657.372687	30118.595465
657.714746	30280.154363
658.056753	30468.900204
658.398708	29837.319245
658.740612	29929.849623
659.082465	30133.058535
659.424266	30025.540806
659.766016	30018.284065
660.107715	29884.675844
660.449362	29984.788118
660.790958	29969.369749
661.132503	29889.154909
661.473996	29970.728340
661.815438	30040.240810
662.156829	30172.054381
662.498168	29969.336982
662.839456	29944.826892
663.180693	30074.601315
663.521879	30161.039459
663.863013	30116.747882
664.204097	30092.028584
664.545129	30512.609529
664.886110	30441.798961
665.227040	30548.726875
665.567918	30538.405113
665.908746	30616.323707
666.249522	30702.623220
666.590248	30741.510681
666.930922	30828.838589
667.271545	30821.904482
667.612118	30880.379346
667.952639	30695.928568
668.293109	30737.659239
668.633528	30601.631264
668.973896	30548.353830
669.314213	30532.975790
669.654480	30341.212818
669.994695	30333.933392
670.334859	30246.408879
670.674973	30071.372456
671.015035	30264.383113
671.355047	30211.425792
671.695008	30136.335285
672.034918	30055.157585
672.374777	30151.385650
672.714585	30005.890388
673.054342	30138.447528
673.394049	29993.968059
673.733705	30219.831916
674.073310	29941.154411
674.412864	29986.728962
674.752368	29682.190338
675.091820	29916.082232
675.431223	29507.779018
675.770574	29314.937239
676.109875	29161.681121
676.449125	28947.666496
676.788324	28853.525469
677.127473	28384.904848
677.466571	28268.784390
677.805619	27986.583118
678.144616	27914.686182
678.483562	27875.370223
678.822458	27536.317339
679.161303	27501.820723
679.500098	27403.246001
679.838842	27330.701277
680.177535	27417.318382
680.516179	27658.008272
680.854771	27784.987376
681.193314	28539.917808
681.531805	29553.393898
681.870247	30298.574739
682.208638	31020.102486
682.546978	31290.711625
682.885268	31440.219645
683.223508	31004.830311
683.561697	30742.047564
683.899836	30581.449005
684.237925	30166.733443
684.575963	30023.287410
684.913951	29646.567024
685.251889	29818.646811
685.589776	29836.346302
685.927614	29833.762711
686.265401	30023.070640
686.603137	30134.298659
686.940824	30627.479781
687.278460	30949.465839
687.616046	31112.642948
687.953582	31786.105813
688.291068	31692.325228
688.628504	32033.654193
688.965889	32029.442309
689.303224	31782.481224
689.640510	31500.282472
689.977745	30889.040048
690.314930	30141.704114
690.652065	29704.240345
690.989150	29047.839264
691.326185	28202.493217
691.663170	27567.882524
692.000105	26816.102813
692.336990	26207.219648
692.673825	25791.137933
693.010610	25291.383147
693.347345	24791.560304
693.684030	24155.883407
694.020665	23955.260608
694.357251	23272.312811
694.693786	23267.130505
695.030272	23041.750599
695.366707	22549.139127
695.703093	22263.101537
696.039429	22326.395744
696.375716	22085.451276
696.711952	22083.807860
697.048139	21944.568670
697.384276	21783.231582
697.720363	21899.646948
698.056400	21782.745111
698.392388	21630.421606
698.728326	21630.154425
699.064214	21465.033951
699.400053	21471.259776
699.735842	21088.406827
700.071581	20895.522198
700.407270	20642.665483
700.742910	20466.986313
701.078501	20208.201201
701.414042	20007.336426
701.749533	19706.041784
702.084974	19390.941942
702.420366	19618.671026
702.755709	19219.106652
703.091002	18900.977076
703.426246	18971.041553
703.761440	18905.055370
704.096584	18655.883738
704.431679	18589.486701
704.766725	18535.841262
705.101721	18467.841138
705.436668	18587.366896
705.771565	18305.067321
706.106413	18618.652296
706.441212	18706.393579
706.775961	18800.456469
707.110661	18875.410865
707.445311	19232.659794
707.779913	19108.594477
708.114465	19406.917359
708.448967	19726.216482
708.783421	20340.907055
709.117825	20703.159329
709.452180	20930.691808
709.786485	21385.045963
710.120742	22143.031335
710.454949	22252.565526
710.789107	22758.231065
711.123216	23476.439213
711.457275	23689.821173
711.791286	24249.447223
712.125247	24396.946343
712.459159	24145.637262
712.793023	24897.238013
713.126837	23877.258834
713.460602	24141.828670
713.794318	23803.668070
714.127985	23552.931160
714.461602	22656.636692
714.795171	22635.032827
715.128691	21656.980925
715.462162	21133.492386
715.795584	20706.214269
716.128957	20440.031263
716.462281	20057.087573
716.795556	19779.882085
717.128782	19309.313058
717.461960	18689.677113
717.795088	18658.613523
718.128167	18300.028688
718.461198	17856.792798
718.794180	17710.175879
719.127113	17386.251498
719.459997	17188.164399
719.792833	16808.840257
720.125619	16862.087444
720.458357	16516.206317
720.791046	16377.743465
721.123686	16225.999693
721.456278	16001.433933
721.788821	15999.772873
722.121315	15721.735595
722.453761	15830.909343
722.786158	15714.188987
723.118506	15788.926614
723.450805	15669.937739
723.783056	15853.629823
724.115259	15740.271917
724.447412	15727.807664
724.779518	15945.242712
725.111574	16005.179511
725.443582	16261.723830
725.775542	16214.674741
726.107453	16739.710914
726.439315	16645.756409
726.771129	17068.787355
727.102895	17494.278384
727.434612	17761.215042
727.766281	17921.707736
728.097901	18251.535309
728.429473	18342.545780
728.760996	18355.249487
729.092471	18481.711873
729.423897	18368.606024
729.755276	18254.565042
730.086606	18361.220734
730.417887	18935.458569
730.749120	19497.017901
731.080305	19705.595642
731.411442	20108.766962
731.742530	20230.223481
732.073570	20407.256202
732.404562	20726.068853
732.735506	20574.695606
733.066401	20383.681246
733.397249	19881.100892
733.728048	19257.810110
734.058798	18390.285507
734.389501	17628.035319
734.720156	17107.672295
735.050762	16524.637647
735.381320	16134.207843
735.711831	15865.791607
736.042293	15480.927237
736.372707	15517.783113
736.703073	15304.839733
737.033391	15498.440206
737.363661	15500.617984
737.693883	15614.968997
738.024056	15809.250025
738.354182	16026.795978
738.684260	16382.540123
739.014290	16659.007082
739.344272	16876.762243
739.674207	17232.269454
740.004093	17415.981703
740.333931	17470.630331
740.663722	17551.266107
740.993464	17602.847193
741.323159	17449.210468
741.652806	17150.562432
741.982405	16990.780540
742.311956	16641.098383
742.641460	16530.349274
742.970915	16192.309662
743.300323	15852.079668
743.629683	15637.399611
743.958996	15316.489840
744.288260	15007.167160
744.617477	14702.560480
744.946647	14665.560932
745.275768	14347.242313
745.604842	14140.701199
745.933869	13957.926605
746.262847	13931.400053
746.591778	13848.248741
746.920662	13726.686357
747.249498	13734.346390
747.578286	13889.679464
747.907027	14067.478439
748.235720	14336.537423
748.564365	14398.689809
748.892963	14317.212160
749.221514	14428.780456
749.550017	14293.233912
749.878473	14262.351803
750.206881	14041.642526
750.535242	13962.244353
750.863555	13886.231315
751.191821	13778.562351
751.520039	13804.650322
751.848210	13729.469074
752.176334	13775.588070
752.504411	13696.469681
752.832440	13511.247606
753.160421	13635.315444
753.488356	13519.615922
753.816243	13426.301643
754.144082	13267.502777
754.471875	13211.956823
754.799620	13182.019931
755.127318	13154.931291
755.454969	13148.115651
755.782572	13113.377060
756.110129	13128.520686
756.437638	13025.671065
756.765100	13034.215821
757.092515	13059.872773
757.419882	13088.602309
757.747203	13101.033794
758.074477	13201.062890
758.401703	13175.269826
758.728882	13375.917831
759.056014	13417.260334
759.383099	13578.801588
759.710138	13700.583262
760.037129	13830.783663
760.364073	13892.590730
760.690970	13917.612497
761.017820	13934.255867
761.344623	14162.526875
761.671379	14548.419640
761.998088	15232.751233
762.324751	16999.831932
762.651366	20382.156297
762.977935	24860.261149
763.304456	27851.074382
763.630931	28962.225348
763.957359	27793.821998
764.283740	25544.653236
764.610074	23292.633702
764.936362	20636.333794
765.262602	18762.123535
765.588796	16810.080381
765.914943	15523.557755
766.241044	14403.657866
766.567097	13610.170168
766.893104	12886.852812
767.219064	12415.149526
767.544978	11925.411512
767.870845	11540.282481
768.196665	11314.393419
768.522438	11074.807541
768.848165	10874.330935
769.173846	10665.649851
769.499479	10533.105313
769.825066	10367.125323
770.150607	10134.891968
770.476101	10049.235203
770.801548	9928.920504
771.126949	9774.048696
771.452303	9658.833125
771.777611	9455.856107
772.102872	9453.834604
772.428087	9304.830699
772.753256	9149.041401
773.078378	9065.302795
773.403453	8875.873877
773.728482	8761.669057
774.053465	8688.131226
774.378401	8585.775638
774.703291	8460.699570
775.028135	8336.130138
775.352932	8300.128738
775.677683	8196.013787
776.002388	8084.921880
776.327046	8094.613498
776.651658	8000.472471
776.976224	7893.655462
777.300743	7899.422542
777.625216	7809.044736
777.949643	7759.835513
778.274024	7776.073069
778.598359	7693.960235
778.922647	7708.945064
779.246889	7650.646641
779.571086	7665.112232
779.895236	7668.336050
780.219339	7677.203439
780.543397	7682.128647
780.867409	7757.453567
781.191374	7774.066690
781.515294	7733.891214
781.839167	7839.566402
782.162995	7807.056001
782.486776	7748.646672
782.810511	7704.375258
783.134201	7614.272195
783.457844	7615.391331
783.781441	7552.797845
784.104993	7492.581262
784.428498	7463.516489
784.751958	7459.859132
785.075372	7426.423679
785.398739	7364.956891
785.722061	7415.789365
786.045337	7418.718276
786.368568	7571.830721
786.691752	7598.296779
787.014891	7936.220444
787.337983	8290.202706
787.661030	8884.083396
787.984031	9510.454323
788.306987	9917.570346
788.629897	10132.643613
788.952760	10082.980686
789.275579	9864.665957
789.598351	9475.282193
789.921078	9114.690979
790.243759	8703.960449
790.566395	8407.976663
790.888984	8159.309146
791.211529	7943.666229
791.534027	7722.523412
791.856480	7515.906681
792.178888	7447.374715
792.501249	7352.285950
792.823566	7183.447626
793.145836	7190.371651
793.468062	7162.345356
793.790241	7109.652695
794.112375	7181.292532
794.434464	7328.610171
794.756507	7366.179370
795.078505	7529.893362
795.400457	7837.963315
795.722364	8188.515071
796.044226	8475.507959
796.366042	8752.292511
796.687812	8709.203249
797.009538	8784.760063
797.331218	8679.273918
797.652852	8605.393288
797.974442	8452.217829
798.295986	8361.905558
798.617484	8168.320209
798.938938	8024.947273
799.260346	7927.688292
799.581709	7722.891417
799.903026	7649.114130
800.224299	7537.119856
800.545526	7365.811366
800.866708	7266.104905
801.187845	7198.450100
801.508936	7096.303720
801.829983	7054.240332
802.150984	6902.917497
802.471940	6856.685075
802.792851	6845.465987
803.113717	6809.010883
803.434538	6775.729185
803.755314	6718.025618
804.076045	6718.731379
804.396731	6660.808521
804.717372	6690.142996
805.037967	6688.786925
805.358518	6736.259471
805.679024	6819.224260
805.999485	6827.811866
806.319901	6863.593976
806.640272	6884.338324
806.960598	6966.738504
807.280879	6969.838814
807.601115	7048.627007
807.921306	6996.534244
808.241453	7010.152921
808.561554	7029.175715
808.881611	6995.251270
809.201623	7009.734505
809.521590	6953.356761
809.841513	6931.979748
810.161390	6972.505584
810.481223	6848.110072
810.801011	6834.216652
811.120755	6806.210522
811.440453	6735.962043
811.760107	6697.278749
812.079716	6669.643143
812.399281	6603.104954
812.718801	6590.020639
813.038276	6543.972219
813.357707	6487.899465
813.677093	6528.216093
813.996434	6430.992400
814.315731	6477.769266
814.634983	6466.522452
814.954191	6480.083156
815.273354	6585.687767
815.592473	6646.789073
815.911547	6776.739936
816.230577	6860.254212
816.549562	7002.450038
816.868502	7108.717561
817.187399	7209.989301
817.506250	7362.012857
817.825058	7398.639360
818.143821	7667.078282
818.462539	7939.416536
818.781213	8310.135428
819.099843	8854.083490
819.418429	9858.412406
819.736970	10829.641106
820.055466	12015.020542
820.373919	13564.681317
820.692327	15915.794812
821.010691	20076.886705
821.329011	29060.782427
821.647286	42054.041393
821.965517	55529.075871
822.283704	60940.595728
822.601847	62981.368231
822.919945	60364.101977
823.237999	56288.520657
823.556010	50218.026209
823.873976	43506.808670
824.191897	36945.346168
824.509775	32043.456717
824.827609	27472.352658
825.145398	24825.698998
825.463144	23415.791611
825.780845	23703.959088
826.098502	25451.328876
826.416116	29205.607215
826.733685	32843.089581
827.051210	34008.967314
827.368692	32242.778899
827.686129	28314.858016
828.003522	24183.052706
828.320872	20461.693101
828.638177	17594.287314
828.955439	15421.270223
829.272656	13588.294081
829.589830	12099.303593
829.906960	10805.068002
830.224046	9859.899546
830.541088	9106.337787
830.858086	8632.277762
831.175041	8247.020182
831.491952	8127.988457
831.808819	8165.839961
832.125642	8561.782266
832.442421	9452.816291
832.759157	11236.752088
833.075849	14166.844623
833.392497	17387.378196
833.709101	19591.524412
834.025662	19462.843919
834.342179	17783.922919
834.658653	15590.579895
834.975083	13656.218588
835.291469	12024.956656
835.607811	10688.534169
835.924110	9767.664075
836.240366	8895.224346
836.556578	8084.246365
836.872746	7428.934174
837.188871	6920.669920
837.504952	6497.097050
837.820990	6186.375451
838.136984	5964.095854
838.452935	5866.438622
838.768842	5894.601028
839.084706	6314.859339
839.400526	7520.073194
839.716303	9103.383671
840.032037	10212.490449
840.347727	10160.906842
840.663373	9184.687400
840.978977	8143.968915
841.294537	7330.177970
841.610054	6717.491255
841.925527	6282.777436
842.240957	5909.258183
842.556344	5577.948511
842.871687	5291.321106
843.186987	5002.611704
843.502244	4780.785812
843.817458	4612.698619
844.132629	4469.860045
844.447756	4376.989389
844.762840	4297.482831
845.077881	4220.746387
845.392879	4159.577026
845.707833	4105.669447
846.022745	4062.509609
846.337613	4032.272768
846.652438	3989.657374
846.967221	3973.666834
847.281960	3938.744241
847.596656	3923.913166
847.911309	3900.713776
848.225919	3876.707802
848.540485	3857.248948
848.855009	3844.240250
849.169490	3824.451201
849.483928	3810.482163
849.798323	3808.392605
850.112675	3786.193884
850.426984	3788.709420
850.741251	3775.317595
851.055474	3769.409363
851.369654	3775.289868
851.683792	3777.565949
851.997887	3778.506125
852.311938	3781.215745
852.625947	3786.251858
852.939914	3776.529992
853.253837	3786.123308
853.567718	3778.813635
853.881555	3770.014301
854.195350	3786.748411
854.509103	3781.760189
854.822812	3778.755662
855.136479	3771.272069
855.450103	3780.598203
855.763685	3766.435082
856.077224	3771.332563
856.390720	3787.912918
856.704173	3807.104590
857.017584	3818.658915
857.330953	3830.218281
857.644278	3853.684852
857.957561	3859.827498
858.270802	3855.686190
858.584000	3863.131974
858.897155	3855.920604
859.210268	3837.323787
859.523339	3818.174964
859.836367	3813.562308
860.149352	3805.851864
860.462295	3801.365237
860.775195	3787.728916
861.088054	3786.692958
861.400869	3782.113070
861.713642	3784.278246
862.026373	3795.313332
862.339062	3797.775935
862.651708	3817.892660
862.964312	3852.782485
863.276873	3864.452757
863.589392	3921.349739
863.901869	3968.391267
864.214303	4009.804345
864.526696	4045.490673
864.839045	4095.919856
865.151353	4120.412302
865.463619	4131.563334
865.775842	4139.432575
866.088023	4155.128208
866.400162	4145.406343
866.712258	4153.913290
867.024313	4157.716840
867.336325	4151.765758
867.648296	4163.204136
867.960224	4163.375536
868.272110	4176.187628
868.583954	4176.900951
868.895755	4187.812529
869.207515	4185.367569
869.519233	4230.853900
869.830909	4245.558946
870.142542	4267.586268
870.454134	4283.163433
870.765684	4311.461950
871.077191	4347.430583
871.388657	4369.110065
871.700081	4406.167587
872.011463	4451.560657
872.322803	4488.063652
872.634101	4518.897869
872.945357	4557.618972
873.256571	4613.502683
873.567744	4641.765912
873.878874	4660.932379
874.189963	4699.204819
874.501010	4706.592630
874.812015	4709.534143
875.122979	4754.970063
875.433900	4750.002006
875.744780	4765.173358
876.055618	4794.086896
876.366415	4795.979849
876.677169	4815.839475
876.987882	4863.153224
877.298554	4912.677520
877.609183	4994.427391
877.919771	5106.353609
878.230317	5253.204942
878.540822	5470.950020
878.851285	5795.401202
879.161707	6260.450165
879.472087	7021.470312
879.782425	8268.855940
880.092722	10449.631367
880.402977	13769.468109
880.713191	17555.944298
881.023363	21292.661778
881.333494	23545.981930
881.643583	24787.998729
881.953631	24813.854807
882.263637	23979.987467
882.573602	22520.321371
882.883526	20951.058070
883.193408	19277.465569
883.503248	17576.086228
883.813048	16005.504665
884.122806	14554.774014
884.432522	13072.589084
884.742197	11792.882098
885.051831	10682.515031
885.361424	9660.758846
885.670975	8833.293771
885.980485	8124.532746
886.289954	7546.841721
886.599382	7065.356076
886.908768	6680.927766
887.218113	6311.791797
887.527417	6019.538464
887.836680	5747.875724
888.145901	5526.639647
888.455082	5357.859295
888.764221	5207.428744
889.073319	5065.651333
889.382376	4989.955888
889.691392	4932.156538
890.000366	4904.601591
890.309300	4888.878232
890.618193	4890.690527
890.927044	4875.408269
891.235855	4899.036157
891.544625	4929.192340
891.853353	4990.633923
892.162041	5108.758240
892.470687	5295.729595
892.779293	5549.660076
893.087858	5929.334578
893.396381	6507.317990
893.704864	7319.024417
894.013306	8470.134089
894.321707	9644.932143
894.630068	10471.227670
894.938387	10683.734990
895.246665	10456.308376
895.554903	9856.106078
895.863100	9158.410386
896.171256	8596.412473
896.479371	8083.449863
896.787446	7581.703821
897.095480	7147.032851
897.403473	6824.409087
897.711425	6501.888667
898.019336	6234.047122
898.327207	5957.350790
898.635038	5723.998299
898.942827	5477.606864
899.250576	5280.860712
899.558284	5086.728398
899.865952	4959.792144
900.173579	4808.481911
900.481165	4701.470818
900.788711	4610.006643
901.096216	4533.902864
901.403681	4473.363647
901.711105	4447.139565
902.018489	4429.054426
902.325832	4499.527236
902.633135	4623.864775
902.940397	4969.168690
903.247619	5759.588845
903.554800	7204.726336
903.861941	9132.360223
904.169041	10673.924905
904.476101	11329.791623
904.783121	10979.459157
905.090100	10245.036138
905.397039	9403.158405
905.703938	8646.219073
906.010796	7940.354191
906.317614	7379.808130
906.624391	6838.519277
906.931129	6407.369553
907.237826	6003.331154
907.544483	5625.690758
907.851099	5242.263117
908.157675	4882.271800
908.464211	4558.163417
908.770707	4320.513342
909.077163	4115.542547
909.383578	3964.612922
909.689954	3852.106971
909.996289	3776.101494
910.302584	3713.422308
910.608839	3679.260929
910.915054	3643.617451
911.221229	3635.050010
911.527363	3643.987975
911.833458	3656.089265
912.139513	3681.494160
912.445527	3714.264181
912.751502	3795.648568
913.057436	3898.755288
913.363331	4034.851318
913.669186	4244.374275
913.975000	4504.548225
914.280775	4930.583698
914.586510	5512.784035
914.892205	6318.468805
915.197859	7358.947835
915.503475	8581.420081
915.809050	9642.184715
916.114585	10300.161156
916.420081	10567.909439
916.725536	10547.606192
917.030952	10097.194220
917.336328	9686.435963
917.641665	9279.909755
917.946961	8800.410325
918.252218	8375.156230
918.557435	7858.533743
918.862612	7425.538957
919.167750	7050.141874
919.472848	6619.150947
919.777906	6241.021558
920.082925	5879.149891
920.387904	5513.119272
920.692843	5240.357561
920.997743	4989.739118
921.302603	4748.777005
921.607423	4591.571143
921.912204	4421.540586
922.216946	4301.591371
922.521647	4178.569573
922.826310	4072.614602
923.130932	3975.209427
923.435516	3877.584962
923.740059	3808.783295
924.044564	3728.898650
924.349028	3668.455216
924.653454	3604.961883
924.957840	3533.652241
925.262186	3482.542503
925.566493	3423.848349
925.870761	3366.767364
926.174989	3325.623987
926.479178	3289.985549
926.783328	3249.484919
927.087438	3218.401165
927.391509	3185.827749
927.695541	3155.323727
927.999533	3124.993625
928.303486	3102.361365
928.607400	3088.402410
928.911275	3077.906728
929.215110	3057.888306
929.518906	3048.720968
929.822663	3048.297511
930.126381	3047.168292
930.430060	3052.552244
930.733699	3054.510733
931.037299	3066.974986
931.340861	3060.431568
931.644383	3072.353897
931.947866	3069.528330
932.251309	3060.978533
932.554714	3064.328380
932.858080	3058.158007
933.161407	3048.133673
933.464694	3038.308464
933.767943	3033.249666
934.071153	3031.107176
934.374323	3020.238448
934.677455	3014.146214
934.980548	3004.588186
935.283602	2999.274810
935.586617	2996.247597
935.889593	3006.750841
936.192530	3011.290400
936.495428	3027.422092
936.798287	3047.243909
937.101108	3076.313723
937.403890	3129.243318
937.706632	3189.170034
938.009336	3272.258332
938.312002	3343.628468
938.614628	3408.004002
938.917216	3461.389821
939.219765	3493.685973
939.522275	3524.384080
939.824747	3529.478166
940.127179	3530.020090
940.429573	3521.351826
940.731929	3523.335520
941.034246	3510.495701
941.336524	3495.256293
941.638763	3478.549909
941.940964	3468.386943
942.243126	3423.964295
942.545250	3403.509813
942.847335	3364.745861
943.149381	3331.416272
943.451389	3296.523926
943.753359	3259.925149
944.055290	3238.986717
944.357182	3213.929661
944.659036	3199.685881
944.960851	3189.679191
945.262628	3171.936850
945.564367	3175.884073
945.866067	3170.928619
946.167729	3163.233298
946.469352	3160.942093
946.770937	3160.871517
947.072484	3141.831079
947.373992	3144.291162
947.675462	3139.539875
947.976893	3120.456587
948.278286	3113.653550
948.579641	3107.765482
948.880958	3098.882969
949.182236	3102.005964
949.483476	3097.773915
949.784678	3098.719131
950.085841	3095.417176
950.386967	3107.316819
950.688054	3122.253758
950.989103	3143.643374
951.290114	3163.649193
951.591087	3193.954089
951.892021	3220.601628
952.192917	3249.091709
952.493776	3274.932664
952.794596	3281.163530
953.095378	3290.295580
953.396122	3281.876853
953.696828	3274.055503
953.997496	3264.676437
954.298126	3242.825555
954.598718	3221.554407
954.899272	3193.502906
955.199788	3167.412414
955.500266	3135.156591
955.800706	3101.471601
956.101108	3061.306208
956.401472	3029.836805
956.701798	2998.569048
957.002087	2957.332410
957.302337	2931.146136
957.602550	2899.180180
957.902724	2870.647249
958.202861	2848.624968
958.502960	2823.575475
958.803022	2801.807773
959.103045	2783.203394
959.403031	2766.849891
959.702979	2751.640730
960.002889	2741.482805
960.302762	2724.053016
960.602596	2713.758980
960.902393	2705.882177
961.202153	2696.374561
961.501875	2687.033302
961.801559	2679.491736
962.101205	2677.031653
962.400814	2667.108142
962.700385	2664.653100
962.999918	2655.100113
963.299414	2650.157262
963.598873	2649.196922
963.898293	2639.386837
964.197677	2642.595531
964.497022	2639.343987
964.796331	2636.425159
965.095601	2633.970117
965.394835	2633.491207
965.694030	2629.362502
965.993189	2628.082049
966.292309	2627.845115
966.591393	2628.402163
966.890439	2628.268572
967.189447	2625.264044
967.488419	2625.543828
967.787353	2627.693881
968.086249	2627.104066
968.385108	2632.248563
968.683930	2631.865435
968.982714	2634.822072
969.281462	2640.024543
969.580172	2647.122487
969.878844	2652.183806
970.177480	2659.349806
970.476078	2666.740138
970.774639	2676.358659
971.073162	2685.969619
971.371649	2686.635051
971.670098	2695.893130
971.968510	2702.416383
972.266885	2702.103832
972.565223	2708.415357
972.863524	2707.840665
973.161788	2710.862837
973.460014	2716.425750
973.758204	2720.806513
974.056356	2719.818447
974.354471	2724.083263
974.652550	2721.991184
974.950591	2722.112172
975.248595	2721.787017
975.546563	2718.311142
975.844493	2714.593291
976.142386	2710.298227
976.440243	2704.407639
976.738062	2701.773636
977.035845	2691.570341
977.333590	2685.208405
977.631299	2681.034329
977.928971	2673.860767
978.226606	2666.982113
978.524204	2668.693585
978.821765	2663.612102
979.119290	2664.632935
979.416777	2665.449602
979.714228	2668.522186
980.011642	2668.887669
980.309020	2680.250430
980.606360	2695.265507
980.903664	2715.271326
981.200931	2752.787593
981.498162	2800.592855
981.795356	2878.158568
982.092513	2969.078298
982.389633	3070.977662
982.686717	3171.117662
982.983764	3244.148858
983.280775	3296.536529
983.577749	3304.078095
983.874686	3291.114768
984.171587	3255.965323
984.468451	3214.975701
984.765279	3172.587159
985.062070	3126.377422
985.358824	3079.560226
985.655543	3025.025024
985.952224	2972.463433
986.248869	2908.312230
986.545478	2847.823425
986.842050	2793.192441
987.138586	2748.245513
987.435086	2709.035418
987.731549	2676.530058
988.027975	2649.023002
988.324366	2632.538429
988.620719	2618.148456
988.917037	2605.790067
989.213318	2594.608788
989.509563	2589.560072
989.805772	2586.426995
990.101944	2580.879205
990.398080	2579.344174
990.694180	2575.651529
990.990244	2575.570870
991.286271	2577.058011
991.582262	2576.523648
991.878217	2578.277970
992.174136	2582.520101
992.470019	2587.263827
992.765865	2591.692480
993.061676	2592.005032
993.357450	2605.810232
993.653188	2611.055552
993.948890	2629.380147
994.244556	2647.422436
994.540186	2669.711898
994.835780	2703.175077
995.131337	2739.236971
995.426859	2782.086779
995.722345	2828.268789
996.017795	2880.893394
996.313208	2919.034764
996.608586	2945.412602
996.903928	2957.914663
997.199234	2960.107565
997.494504	2956.924077
997.789738	2941.772889
998.084936	2917.305648
998.380099	2886.529404
998.675225	2857.106710
998.970316	2827.333655
999.265371	2790.707152
999.560390	2753.758015
999.855373	2722.197871
1000.150320	2692.429858
1000.445232	2666.871208
1000.740108	2646.961171
1001.034948	2627.255300
1001.329752	2611.375666
1001.624521	2599.239088
1001.919254	2585.585122
1002.213951	2581.552199
1002.508613	2571.558112
1002.803239	2566.890003
1003.097829	2557.934394
1003.392384	2554.042623
1003.686903	2548.623382
1003.981386	2547.675646
1004.275834	2539.667773
1004.570246	2540.426466
1004.864623	2537.802546
1005.158964	2533.885569
1005.453270	2531.876669
1005.747540	2531.581762
1006.041775	2528.995650
1006.335974	2529.492204
1006.630138	2525.940711
1006.924266	2527.606812
1007.218359	2528.857018
1007.512416	2521.723786
1007.806438	2522.898374
1008.100425	2521.864938
1008.394376	2520.128260
1008.688292	2523.974661
1008.982172	2518.449556
1009.276017	2521.501975
1009.569827	2521.297808
1009.863602	2518.734381
1010.157341	2518.598270
1010.451045	2519.593898
1010.744714	2516.163393
1011.038347	2518.963754
1011.331945	2516.561644
1011.625508	2514.683814
1011.919036	2514.114164
1012.212528	2512.369925
1012.505986	2511.991838
1012.799408	2513.746160
1013.092795	2511.739780
1013.386147	2510.587877
1013.679464	2510.434122
1013.972745	2510.764317
1014.265992	2508.256343
1014.559204	2511.981756
1014.852380	2507.225427
1015.145521	2508.062259
1015.438628	2509.982938
1015.731699	2511.969153
1016.024736	2512.662312
1016.317737	2511.439832
1016.610703	2513.695748
1016.903635	2515.117353
1017.196531	2515.041736
1017.489393	2515.916376
1017.782219	2518.018538
1018.075011	2516.491068
1018.367768	2519.518281
1018.660490	2521.839732
1018.953177	2521.839732
1019.245829	2521.839732
