Dividing Wavelength (nm)	Counts (n)	Blue Motor Position (mm): 10.700000	Red Motor Position (mm): 0.000000	
326.493990	2161.402273
326.888308	2161.402273
327.282561	2161.402273
327.676750	2119.560696
328.070874	2117.634976
328.464933	2117.105654
328.858929	2119.953906
329.252859	2127.021604
329.646726	2133.965793
330.040528	2147.970119
330.434265	2158.087715
330.827938	2178.138904
331.221547	2194.936029
331.615091	2212.401106
332.008571	2232.432131
332.401986	2248.263875
332.795338	2268.501587
333.188625	2285.850718
333.581847	2303.126752
333.975006	2320.115440
334.368100	2338.984479
334.761129	2360.250587
335.154095	2377.148534
335.546996	2396.398180
335.939833	2418.876685
336.332606	2433.299427
336.725315	2448.213680
337.117960	2461.098869
337.510540	2473.038842
337.903056	2482.904380
338.295508	2489.843529
338.687896	2501.402894
339.080220	2505.723163
339.472480	2513.047960
339.864676	2521.184382
340.256807	2525.728982
340.648875	2526.853160
341.040879	2531.669982
341.432818	2533.086546
341.824694	2536.363296
342.216506	2537.258101
342.608253	2537.028729
342.999937	2538.029398
343.391557	2539.216589
343.783113	2536.181815
344.174605	2538.236085
344.566033	2535.395395
344.957397	2536.726259
345.348697	2535.007226
345.739934	2531.201155
346.131106	2531.586803
346.522215	2532.461443
346.913260	2526.999353
347.304241	2527.561442
347.695159	2523.493231
348.086012	2523.692356
348.476802	2521.771677
348.867528	2515.951664
349.258191	2511.565861
349.648789	2515.223218
350.039324	2507.553102
350.429796	2513.693228
350.820203	2509.670387
351.210548	2513.826818
351.600828	2507.084275
351.991045	2507.381703
352.381198	2504.062103
352.771288	2507.112001
353.161314	2503.668893
353.551276	2506.290293
353.941175	2504.901455
354.331010	2502.756444
354.720782	2506.464213
355.110490	2503.114366
355.500135	2502.814418
355.889717	2505.365241
356.279235	2501.763337
356.668689	2505.327433
357.058080	2502.733759
357.447408	2504.793070
357.836672	2505.259377
358.225873	2506.476816
358.615010	2506.330622
359.004084	2504.601507
359.393095	2506.217196
359.782043	2506.892711
360.170927	2507.167454
360.559748	2506.905314
360.948505	2505.070334
361.337199	2507.119563
361.725830	2509.856909
362.114398	2508.931858
362.502903	2509.367918
362.891344	2508.437825
363.279722	2510.688700
363.668037	2514.822446
364.056289	2512.236334
364.444478	2512.934534
364.832603	2514.683814
365.220665	2512.831190
365.608665	2511.578463
365.996601	2514.184740
366.384474	2513.844462
366.772284	2515.261026
367.160031	2514.204905
367.547715	2518.830163
367.935336	2516.788496
368.322893	2516.299504
368.710388	2511.356653
369.097820	2513.794051
369.485189	2514.278001
369.872495	2519.535925
370.259738	2517.590039
370.646918	2516.029802
371.034035	2518.631038
371.421090	2516.249092
371.808081	2519.077180
372.195010	2519.982067
372.581875	2519.510719
372.968678	2518.174813
373.355418	2518.825122
373.742096	2519.800585
374.128710	2516.906963
374.515262	2523.399969
374.901751	2519.639268
375.288177	2523.629342
375.674540	2520.299660
376.060841	2521.484331
376.447079	2522.981553
376.833254	2522.439629
377.219367	2523.362161
377.605417	2522.608508
377.991404	2520.682787
378.377329	2522.696728
378.763191	2521.922911
379.148991	2524.420803
379.534727	2522.036337
379.920402	2524.120854
380.306013	2521.985926
380.691563	2526.449867
381.077049	2523.243693
381.462474	2525.643283
381.847835	2523.422654
382.233134	2521.996008
382.618371	2525.948272
383.003545	2523.992305
383.388657	2523.737727
383.773706	2527.087573
384.158693	2525.673530
384.543618	2526.540608
384.928480	2528.912471
385.313280	2526.623787
385.698017	2525.928108
386.082692	2527.856349
386.467305	2527.258973
386.851856	2528.199148
387.236344	2528.345341
387.620770	2524.940042
388.005133	2522.961389
388.389435	2523.737727
388.773674	2523.294105
389.157851	2530.303829
389.541965	2527.412728
389.926018	2530.076977
390.310008	2528.660413
390.693936	2527.959693
391.077802	2528.872142
391.461606	2529.227543
391.845348	2529.305681
392.229027	2532.710980
392.612645	2533.570497
392.996200	2529.192255
393.379694	2529.519930
393.763125	2532.910106
394.146494	2529.431710
394.529801	2530.999509
394.913047	2533.593182
395.296230	2533.993954
395.679351	2533.396577
396.062410	2532.811803
396.445408	2532.075795
396.828343	2533.890610
397.211217	2530.782739
397.594028	2530.576052
397.976778	2534.198121
398.359466	2532.158974
398.742092	2534.177956
399.124656	2534.246012
399.507158	2534.626619
399.889598	2534.125024
400.271977	2534.717360
400.654294	2534.830786
401.036549	2532.718542
401.418742	2532.214427
401.800874	2533.986392
402.182944	2533.820034
402.564952	2534.487987
402.946898	2536.292720
403.328783	2534.251053
403.710606	2534.419932
404.092367	2534.397246
404.474067	2533.119314
404.855705	2536.181815
405.237282	2535.554191
405.618797	2533.993954
406.000250	2534.921526
406.381642	2535.861702
406.762972	2532.186700
407.144240	2533.762061
407.525447	2533.746938
407.906593	2532.935312
408.287677	2538.036959
408.668700	2538.036959
409.049661	2534.563604
409.430560	2535.886907
409.811399	2537.810108
410.192176	2538.440252
410.572891	2538.813297
410.953545	2538.720036
411.334138	2539.514018
411.714669	2540.108874
412.095139	2536.201979
412.475547	2538.563760
412.855894	2540.522248
413.236180	2541.555685
413.616405	2536.101156
413.996568	2541.812784
414.376670	2537.363965
414.756711	2540.524769
415.136691	2538.803215
415.516609	2539.178781
415.896466	2540.638195
416.276262	2540.360931
416.655997	2542.072403
417.035670	2539.017464
417.415283	2540.348328
417.794834	2540.038298
418.174324	2539.632485
418.553753	2540.277752
418.933121	2544.751776
419.312428	2541.711961
419.691674	2541.593493
420.070859	2542.808412
420.449983	2542.085006
420.829045	2536.907741
421.208047	2543.226827
421.586988	2543.357897
421.965867	2544.802188
422.344686	2544.880326
422.723444	2543.551982
423.102141	2544.151879
423.480777	2544.598021
423.859352	2544.204811
424.237866	2541.021323
424.616319	2543.922507
424.994712	2542.818494
425.373044	2545.467620
425.751314	2539.393030
426.129524	2539.685417
426.507673	2541.366642
426.885762	2537.303472
427.263789	2542.037115
427.641756	2542.064841
428.019662	2542.813453
428.397508	2541.485109
428.775292	2546.811088
429.153016	2545.760007
429.530679	2543.105840
429.908282	2543.557023
430.285824	2545.797816
430.663305	2543.277239
431.040726	2542.100129
431.418086	2542.838658
431.795385	2545.581046
432.172624	2543.425953
432.549802	2545.031560
432.926920	2544.824873
433.303977	2546.029709
433.680974	2544.537527
434.057910	2546.354863
434.434786	2546.647250
434.811601	2544.524924
435.188355	2546.405275
435.565050	2547.020296
435.941683	2546.803526
436.318257	2544.214893
436.694770	2545.674307
437.071222	2546.848896
437.447614	2545.487785
437.823946	2547.080789
438.200218	2545.850748
438.576429	2545.699513
438.952580	2547.360573
439.328670	2545.480223
439.704700	2546.735470
440.080670	2546.952240
440.456580	2546.589277
440.832429	2546.180943
441.208218	2546.624565
441.583947	2548.094061
441.959616	2549.568599
442.335224	2548.688918
442.710773	2548.971222
443.086261	2547.322765
443.461689	2548.514998
443.837057	2551.580019
444.212365	2546.417878
444.587612	2547.297559
444.962800	2544.456869
445.337927	2548.661191
445.712995	2543.219266
446.088002	2547.688248
446.462949	2548.323434
446.837837	2550.602035
447.212664	2549.853424
447.587431	2549.102292
447.962139	2546.869061
448.336786	2551.111192
448.711374	2550.072714
449.085901	2548.661191
449.460369	2549.069525
449.834776	2549.248486
450.209124	2549.477858
450.583412	2549.697148
450.957640	2548.701520
451.331808	2550.856614
451.705917	2551.522046
452.079965	2550.418033
452.453954	2549.712272
452.827883	2550.387786
453.201752	2548.620862
453.575562	2549.613969
453.949311	2550.067673
454.323001	2549.629093
454.696632	2548.081458
455.070202	2548.915769
455.443713	2549.374514
455.817164	2550.614638
456.190556	2550.165976
456.563888	2551.360729
456.937160	2551.179247
457.310373	2549.722354
457.683526	2550.193702
458.056619	2549.843342
458.429653	2549.966850
458.802628	2552.096738
459.175542	2552.500030
459.548398	2551.748898
459.921194	2550.844011
460.293930	2553.634289
460.666607	2551.791748
461.039224	2550.763352
461.411782	2552.424413
461.784280	2553.987170
462.156719	2550.246634
462.529099	2554.564382
462.901419	2554.352654
463.273680	2549.480379
463.645882	2544.030891
464.018024	2549.803013
464.390106	2550.501212
464.762130	2552.663867
465.134094	2554.226625
465.505999	2553.258723
465.877845	2554.274516
466.249631	2553.409958
466.621358	2555.796944
466.993026	2553.150339
467.364634	2558.773746
467.736184	2554.718137
468.107674	2556.648899
468.479105	2554.831563
468.850477	2554.183775
469.221790	2555.708724
469.593043	2554.060267
469.964238	2556.311142
470.335373	2554.818961
470.706449	2556.064126
471.077467	2556.230484
471.448425	2556.278375
471.819324	2556.472459
472.190164	2556.890875
472.560945	2553.452808
472.931667	2555.171841
473.302330	2555.635627
473.672934	2557.805844
474.043479	2554.934907
474.413965	2555.476831
474.784393	2556.769887
475.154761	2558.970351
475.525070	2554.493806
475.895321	2556.711914
476.265513	2557.226112
476.635645	2557.412634
477.005719	2555.965823
477.375734	2556.285936
477.745691	2555.527243
478.115588	2557.483210
478.485427	2557.697459
478.855207	2558.519168
479.224928	2556.474980
479.594591	2557.626883
479.964194	2558.662840
480.333739	2558.229301
480.703226	2556.169990
481.072653	2561.964796
481.442022	2560.245763
481.811333	2557.037068
482.180584	2553.722510
482.549777	2556.457336
482.918912	2555.363405
483.287988	2560.727193
483.657005	2560.956565
484.025964	2562.108469
484.394864	2559.998746
484.763706	2560.028993
485.132489	2559.776935
485.501213	2562.194169
485.869879	2558.798952
486.238487	2560.487738
486.607036	2560.734755
486.975527	2560.202913
487.343959	2563.073850
487.712333	2562.176525
488.080648	2560.596123
488.448905	2562.317677
488.817104	2559.902964
489.185244	2562.433623
489.553326	2562.509241
489.921350	2563.189797
490.289315	2564.046793
490.657222	2560.530588
491.025070	2565.286917
491.392861	2567.502504
491.760593	2561.372461
492.128267	2564.203068
492.495883	2564.956721
492.863440	2561.783315
493.230939	2565.057544
493.598380	2564.795404
493.965763	2560.679302
494.333088	2562.635270
494.700354	2563.323387
495.067563	2561.750547
495.434713	2562.625187
495.801805	2561.702656
496.168839	2562.484035
496.535815	2564.586196
496.902733	2563.174673
497.269593	2563.968655
497.636395	2564.187945
498.003139	2565.740620
498.369825	2563.346072
498.736453	2563.761967
499.103023	2561.274158
499.469535	2564.518141
499.835989	2560.739796
500.202385	2560.669220
500.568723	2560.165104
500.935003	2558.423386
501.301226	2557.732747
501.667390	2562.917574
502.033497	2567.701629
502.399546	2565.042421
502.765537	2561.072512
503.131470	2562.688202
503.497345	2563.416648
503.863163	2566.292627
504.228923	2559.582851
504.594625	2564.394632
504.960269	2562.811710
505.325856	2564.205589
505.691385	2560.800290
506.056856	2565.811197
506.422270	2564.175342
506.787625	2561.342214
507.152924	2561.939590
507.518164	2563.182235
507.883347	2562.799107
508.248472	2562.927657
508.613540	2565.254149
508.978550	2563.283058
509.343503	2566.741289
509.708398	2564.001422
510.073236	2566.277503
510.438016	2567.036197
510.802738	2565.453275
511.167403	2562.466391
511.532010	2564.901268
511.896561	2567.356310
512.261053	2565.170970
512.625488	2568.160374
512.989866	2565.591906
513.354186	2565.513768
513.718449	2568.382185
514.082655	2568.175498
514.446803	2564.434962
514.810894	2568.455282
515.174927	2569.017370
515.538904	2566.597617
515.902822	2569.980231
516.266684	2569.027453
516.630488	2569.355128
516.994235	2568.503173
517.357925	2570.844789
517.721558	2570.890159
518.085133	2569.123235
518.448651	2568.137689
518.812112	2564.883624
519.175516	2569.541650
519.538863	2568.470405
519.902152	2571.479974
520.265385	2572.382341
520.628560	2573.587176
520.991678	2572.883935
521.354739	2577.194122
521.717743	2572.773030
522.080690	2577.524317
522.443580	2575.555747
522.806413	2580.216294
523.169189	2575.853175
523.531908	2576.881570
523.894569	2576.828638
524.257174	2576.957188
524.619722	2578.605645
524.982213	2580.153279
525.344647	2581.305183
525.707025	2579.742425
526.069345	2583.137642
526.431608	2583.188054
526.793815	2585.433888
527.155964	2583.041860
527.518057	2584.539083
527.880093	2585.433888
528.242072	2584.798702
528.603995	2586.122005
528.965860	2587.248703
529.327669	2586.996646
529.689421	2586.618559
530.051117	2588.070411
530.412755	2589.212233
530.774337	2590.041502
531.135862	2592.083170
531.497331	2593.497213
531.858743	2593.502255
532.220098	2591.440423
532.581396	2591.894127
532.942638	2591.447984
533.303824	2594.129878
533.664953	2598.218254
534.026025	2599.188676
534.387040	2595.455702
534.747999	2598.135075
535.108902	2597.136927
535.469748	2600.075919
535.830537	2599.460898
536.191270	2601.011053
536.551947	2598.296392
536.912567	2597.620877
537.273131	2600.257401
537.633638	2600.421238
537.994089	2604.255036
538.354483	2602.871239
538.714821	2607.688062
539.075103	2605.273349
539.435328	2606.705037
539.795497	2607.378031
540.155609	2608.910541
540.515665	2608.000613
540.875665	2608.855089
541.235609	2610.664863
541.595496	2611.965481
541.955328	2610.780809
542.315102	2614.044957
542.674821	2612.494802
543.034483	2610.127980
543.394090	2610.932044
543.753640	2615.229628
544.113134	2614.854062
544.472571	2615.300204
544.831953	2617.120060
545.191278	2616.820112
545.550548	2618.443363
545.909761	2616.565533
546.268918	2620.545524
546.628019	2619.179372
546.987064	2621.122737
547.346053	2619.718775
547.704986	2619.093672
548.063863	2622.193982
548.422684	2621.939403
548.781449	2621.203395
549.140158	2620.240535
549.498811	2618.947479
549.857408	2621.072325
550.215949	2623.822274
550.574434	2621.662140
550.932864	2619.360853
551.291237	2623.040896
551.649555	2623.822274
552.007817	2624.497789
552.366022	2624.563324
552.724173	2623.723972
553.082267	2625.861421
553.440305	2629.115486
553.798288	2625.427882
554.156215	2626.748664
554.514086	2625.407717
554.871902	2623.597943
555.229661	2621.873868
555.587365	2620.608539
555.945014	2627.588016
556.302606	2624.623818
556.660143	2628.404683
557.017625	2629.952317
557.375050	2626.292440
557.732421	2628.397122
558.089735	2630.083387
558.446994	2628.772687
558.804197	2631.071454
559.161345	2630.186731
559.518437	2628.470218
559.875474	2631.447020
560.232455	2626.496607
560.589381	2629.614560
560.946251	2628.218161
561.303065	2629.894344
561.659825	2631.552884
562.016528	2631.154633
562.373177	2629.831330
562.729770	2626.496607
563.086307	2631.729324
563.442789	2631.794859
563.799216	2630.900054
564.155587	2630.753861
564.511904	2630.511886
564.868164	2630.741258
565.224370	2631.336114
565.580520	2629.760754
565.936615	2631.562966
566.292654	2629.344858
566.648638	2633.047586
567.004567	2629.886782
567.360441	2633.897020
567.716260	2627.572893
568.072023	2632.430045
568.427732	2630.161525
568.783385	2633.062709
569.138982	2630.993316
569.494525	2631.106742
569.850013	2632.987092
570.205445	2634.786784
570.560823	2630.418624
570.916145	2632.198152
571.271412	2632.296454
571.626625	2631.535240
571.981782	2632.049437
572.336884	2630.779067
572.691931	2630.350569
573.046923	2627.280506
573.401860	2626.466360
573.756743	2632.581279
574.111570	2634.335601
574.466342	2633.045065
574.821059	2633.334932
575.175722	2629.370064
575.530330	2637.183853
575.884882	2634.171763
576.239380	2636.689820
576.593823	2636.392392
576.948211	2634.875004
577.302544	2633.839047
577.656823	2634.446506
578.011047	2636.793163
578.365216	2636.137813
578.719330	2633.128244
579.073389	2636.165540
579.427394	2640.695016
579.781344	2634.630508
580.135239	2637.027577
580.489080	2639.391878
580.842866	2635.268214
581.196597	2640.367341
581.550273	2636.596558
581.903895	2641.350366
582.257463	2640.687455
582.610975	2641.486477
582.964434	2642.668628
583.317837	2643.974287
583.671186	2644.589308
584.024481	2645.370687
584.377721	2643.883546
584.730906	2645.907569
585.084037	2648.115595
585.437113	2647.190543
585.790135	2648.604587
586.143103	2647.805564
586.496016	2648.105512
586.848874	2650.626089
587.201679	2653.098775
587.554428	2649.771614
587.907124	2652.624907
588.259765	2653.373518
588.612352	2658.691936
588.964884	2658.046668
589.317362	2657.361071
589.669786	2663.087822
590.022155	2658.460042
590.374470	2659.984992
590.726731	2662.321566
591.078937	2662.399704
591.431090	2665.124448
591.783188	2665.963800
592.135232	2666.790549
592.487222	2669.732062
592.839157	2672.418997
593.191038	2671.756086
593.542866	2673.707012
593.894639	2673.381858
594.246358	2677.787826
594.598022	2677.704647
594.949633	2679.847138
595.301190	2678.670028
595.652692	2683.948116
596.004141	2684.613549
596.355535	2683.444001
596.706876	2683.237314
597.058162	2688.875844
597.409395	2689.793334
597.760573	2692.707121
598.111698	2688.898529
598.462768	2694.945393
598.813785	2699.036290
599.164748	2695.013449
599.515657	2699.590817
599.866511	2701.841692
600.217312	2706.731611
600.568060	2702.973431
600.918753	2711.737477
601.269392	2714.300904
601.619978	2712.160934
601.970510	2718.248127
602.320988	2719.994887
602.671412	2724.186606
603.021783	2725.484703
603.372100	2726.319014
603.722363	2731.516444
604.072572	2736.131620
604.422728	2742.044894
604.772830	2741.225706
605.122878	2739.305027
605.472872	2745.888774
605.822813	2751.328179
606.172701	2753.604260
606.522534	2760.498037
606.872314	2764.977103
607.222041	2765.075405
607.571714	2769.325098
607.921333	2772.632095
608.270899	2782.298507
608.620411	2789.093983
608.969870	2786.787655
609.319276	2796.910292
609.668627	2808.555357
610.017926	2817.120277
610.367171	2825.715445
610.716362	2835.948987
611.065500	2834.567711
611.414585	2844.188753
611.763616	2848.998014
612.112594	2850.447346
612.461518	2853.802233
612.810389	2866.629449
613.159207	2870.889224
613.507971	2875.821993
613.856682	2891.477297
614.205340	2896.959552
614.553945	2912.019999
614.902496	2908.017323
615.250994	2925.275713
615.599439	2933.893565
615.947830	2943.103753
616.296169	2949.737912
616.644454	2962.348358
616.992686	2967.306333
617.340864	2987.203767
617.688990	2997.636435
618.037063	3019.963705
618.385082	3028.211033
618.733048	3044.226779
619.080961	3055.491237
619.428821	3075.877663
619.776628	3090.045826
620.124382	3093.428440
620.472083	3105.726335
620.819731	3123.811475
621.167326	3118.281329
621.514868	3125.575878
621.862357	3129.843215
622.209793	3135.106180
622.557176	3140.361583
622.904506	3137.644401
623.251783	3145.100267
623.599007	3152.863644
623.946179	3163.361847
624.293297	3166.966272
624.640363	3170.648835
624.987376	3175.700071
625.334336	3175.437931
625.681243	3186.646937
626.028097	3195.882331
626.374899	3217.929817
626.721647	3218.043243
627.068343	3222.484499
627.414987	3236.375399
627.761577	3256.683687
628.108115	3276.664300
628.454600	3271.875204
628.801032	3289.186527
629.147412	3303.546253
629.493739	3318.841114
629.840014	3332.658917
630.186236	3351.908563
630.532405	3357.617669
630.878521	3387.960374
631.224585	3397.919174
631.570597	3414.290321
631.916556	3425.411106
632.262462	3440.627829
632.608316	3466.718321
632.954117	3482.981083
633.299866	3501.754340
633.645562	3515.143645
633.991206	3508.955628
634.336797	3505.769619
634.682336	3529.150491
635.027823	3528.066643
635.373257	3542.640618
635.718639	3539.033673
636.063968	3551.150086
636.409245	3550.633368
636.754470	3564.970409
637.099642	3571.357551
637.444762	3561.799524
637.789829	3585.986980
638.134845	3593.581478
638.479808	3607.636215
638.824719	3624.231693
639.169577	3624.161117
639.514383	3646.513593
639.859137	3650.284377
640.203839	3674.945701
640.548489	3669.365144
640.893086	3702.694733
641.237632	3689.222249
641.582125	3735.895772
641.926566	3731.696491
642.270955	3752.647526
642.615292	3762.288733
642.959576	3783.834624
643.303809	3815.606496
643.647990	3819.561282
643.992118	3859.071325
644.336195	3840.320753
644.680219	3882.905900
645.024192	3908.472112
645.368112	3952.123463
645.711981	3990.781551
646.055797	4031.922408
646.399562	4058.711099
646.743274	4112.164974
647.086935	4191.900905
647.430544	4219.032395
647.774101	4243.592896
648.117606	4309.334583
648.461059	4306.665293
648.804460	4345.646015
649.147810	4324.299249
649.491108	4309.879028
649.834354	4343.400181
650.177548	4316.001509
650.520690	4307.633194
650.863781	4313.226354
651.206820	4338.396835
651.549807	4331.251000
651.892742	4326.426616
652.235626	4331.089683
652.578458	4357.550699
652.921238	4327.739836
653.263967	4381.357548
653.606644	4373.576528
653.949269	4384.425091
654.291843	4393.463879
654.634365	4425.349178
654.976836	4431.655661
655.319255	4456.884115
655.661622	4479.080316
656.003938	4482.485615
656.346203	4484.923013
656.688416	4519.850648
657.030577	4537.600550
657.372687	4549.013723
657.714746	4559.138880
658.056753	4609.270634
658.398708	4611.150985
658.740612	4629.440291
659.082465	4674.268752
659.424266	4674.099873
659.766016	4706.902661
660.107715	4718.207448
660.449362	4741.913474
660.790958	4778.482004
661.132503	4782.456954
661.473996	4816.709074
661.815438	4847.520606
662.156829	4866.130026
662.498168	4889.082399
662.839456	4909.310029
663.180693	4933.038740
663.521879	4985.136545
663.863013	5002.941900
664.204097	5029.113050
664.545129	5080.600875
664.886110	5090.292493
665.227040	5140.890554
665.567918	5172.223846
665.908746	5207.527047
666.249522	5219.814859
666.590248	5252.663018
666.930922	5309.686029
667.271545	5327.425850
667.612118	5375.175659
667.952639	5381.018356
668.293109	5400.814967
668.633528	5420.319192
668.973896	5426.091313
669.314213	5502.842880
669.654480	5434.938538
669.994695	5464.562878
670.334859	5508.836812
670.674973	5516.955590
671.015035	5558.104008
671.355047	5566.802519
671.695008	5576.554632
672.034918	5603.489517
672.374777	5637.978571
672.714585	5639.871524
673.054342	5682.796949
673.394049	5698.724474
673.733705	5736.913735
674.073310	5749.589717
674.412864	5789.467764
674.752368	5771.165855
675.091820	5775.541577
675.431223	5821.973124
675.770574	5785.908710
676.109875	5783.972907
676.449125	5794.750893
676.788324	5795.673425
677.127473	5765.623107
677.466571	5781.570797
677.805619	5788.948525
678.144616	5775.914622
678.483562	5800.586029
678.822458	5767.621924
679.161303	5782.382423
679.500098	5812.198327
679.838842	5808.543490
680.177535	5837.646072
680.516179	5873.241659
680.854771	5878.055961
681.193314	5995.867726
681.531805	6045.414707
681.870247	6249.919195
682.208638	6405.897536
682.546978	6561.233130
682.885268	6628.572863
683.223508	6518.894999
683.561697	6490.513303
683.899836	6473.113761
684.237925	6412.453557
684.575963	6421.396563
684.913951	6426.641884
685.251889	6389.475977
685.589776	6496.103943
685.927614	6486.286296
686.265401	6463.654036
686.603137	6525.748448
686.940824	6608.108299
687.278460	6676.400810
687.616046	6732.690334
687.953582	6819.541853
688.291068	6788.145547
688.628504	6906.915132
688.965889	6925.806856
689.303224	6966.741025
689.640510	6943.289577
689.977745	6828.386558
690.314930	6759.378203
690.652065	6757.495332
690.989150	6645.049874
691.326185	6563.400826
691.663170	6496.184601
692.000105	6405.438791
692.336990	6403.104737
692.673825	6294.883767
693.010610	6262.890084
693.347345	6178.803637
693.684030	6097.157110
694.020665	6100.010403
694.357251	6025.960894
694.693786	6044.787083
695.030272	5952.002126
695.366707	5922.496253
695.703093	5903.884313
696.039429	5921.724956
696.375716	5924.890801
696.711952	5846.853739
697.048139	5894.835441
697.384276	5895.417695
697.720363	5903.327265
698.056400	5889.632971
698.392388	5891.435183
698.728326	5877.675354
699.064214	5856.094174
699.400053	5911.872021
699.735842	5823.387168
700.071581	5826.694165
700.407270	5805.503675
700.742910	5771.208705
701.078501	5756.838896
701.414042	5706.223191
701.749533	5682.116393
702.084974	5617.264469
702.420366	5685.020098
702.755709	5654.934492
703.091002	5599.827118
703.426246	5619.535509
703.761440	5610.295074
704.096584	5599.607828
704.431679	5575.465742
704.766725	5585.636270
705.101721	5565.769083
705.436668	5606.922542
705.771565	5559.969235
706.106413	5614.330518
706.441212	5664.129556
706.775961	5644.131299
707.110661	5663.418753
707.445311	5775.120640
707.779913	5717.343976
708.114465	5809.458460
708.448967	5845.631259
708.783421	5914.846302
709.117825	6039.433378
709.452180	6071.822791
709.786485	6120.182580
710.120742	6292.126255
710.454949	6295.171112
710.789107	6342.709193
711.123216	6459.779909
711.457275	6577.770635
711.791286	6684.015473
712.125247	6664.307082
712.459159	6700.003493
712.793023	6852.127872
713.126837	6608.133505
713.460602	6718.643159
713.794318	6619.473580
714.127985	6679.317118
714.461602	6527.359097
714.795171	6506.758422
715.128691	6391.200052
715.462162	6242.080201
715.795584	6248.253093
716.128957	6174.647206
716.462281	6063.663684
716.795556	6144.571682
717.128782	6026.417118
717.461960	5855.890007
717.795088	5916.126755
718.128167	5875.812647
718.461198	5787.663031
718.794180	5758.013485
719.127113	5779.526609
719.459997	5691.097209
719.792833	5537.127767
720.125619	5591.783957
720.458357	5503.825905
720.791046	5505.068549
721.123686	5538.735895
721.456278	5432.969967
721.788821	5449.358758
722.121315	5379.647162
722.453761	5435.225883
722.786158	5414.607564
723.118506	5421.186270
723.450805	5419.295837
723.783056	5472.263241
724.115259	5396.978649
724.447412	5401.903857
724.779518	5440.945072
725.111574	5450.223316
725.443582	5516.363255
725.775542	5497.731150
726.107453	5633.456656
726.439315	5590.921920
726.771129	5612.404797
727.102895	5731.723868
727.434612	5820.359955
727.766281	5831.397561
728.097901	5893.691099
728.429473	5887.528289
728.760996	5877.030086
729.092471	5876.473038
729.423897	5873.866762
729.755276	5899.715278
730.086606	5861.019381
730.417887	5927.308034
730.749120	6048.104162
731.080305	6208.352361
731.411442	6303.776362
731.742530	6300.529859
732.073570	6410.081694
732.404562	6487.072716
732.735506	6350.906109
733.066401	6471.518236
733.397249	6438.014727
733.728048	6303.539428
734.058798	6086.676551
734.389501	5955.412467
734.720156	5837.903170
735.050762	5664.789947
735.381320	5594.052477
735.711831	5579.261731
736.042293	5501.113764
736.372707	5532.013517
736.703073	5426.368576
737.033391	5455.617351
737.363661	5470.571934
737.693883	5481.649869
738.024056	5551.442124
738.354182	5593.349236
738.684260	5610.829437
739.014290	5679.772257
739.344272	5764.193939
739.674207	5774.061998
740.004093	5826.550492
740.333931	5845.938770
740.663722	5858.090471
740.993464	5929.773158
741.323159	5954.983968
741.652806	5744.866156
741.982405	5746.693574
742.311956	5844.423903
742.641460	5743.431947
742.970915	5581.273152
743.300323	5603.686122
743.629683	5565.058280
743.958996	5475.907995
744.288260	5413.564045
744.617477	5385.938522
744.946647	5413.059930
745.275768	5281.871463
745.604842	5253.078913
745.933869	5243.349486
746.262847	5212.117017
746.591778	5210.360175
746.920662	5185.890414
747.249498	5180.249363
747.578286	5217.319488
747.907027	5285.833810
748.235720	5330.531200
748.564365	5299.200429
748.892963	5315.206093
749.221514	5465.316531
749.550017	5346.665413
749.878473	5233.441098
750.206881	5291.290859
750.535242	5248.957769
750.863555	5206.768353
751.191821	5227.817691
751.520039	5233.589812
751.848210	5162.133977
752.176334	5173.544628
752.504411	5233.511674
752.832440	5173.232077
753.160421	5094.958081
753.488356	5144.885669
753.816243	5195.433318
754.144082	5068.527312
754.471875	5031.008524
754.799620	5080.668931
755.127318	5095.288277
755.454969	5054.588521
755.782572	5024.318913
756.110129	5071.378084
756.437638	5079.511986
756.765100	5017.231051
757.092515	5012.880535
757.419882	5053.761772
757.747203	5044.748189
758.074477	5100.326910
758.401703	5101.622487
758.728882	5049.630546
759.056014	5081.956945
759.383099	5211.771698
759.710138	5215.645825
760.037129	5194.523390
760.364073	5202.934555
760.690970	5280.298623
761.017820	5287.938492
761.344623	5228.730140
761.671379	5313.973531
761.998088	5417.115538
762.324751	5615.081650
762.651366	6087.074802
762.977935	7105.839062
763.304456	8416.130729
763.630931	9195.195685
763.957359	8964.270510
764.283740	8259.925536
764.610074	7622.743854
764.936362	6796.158461
765.262602	6287.480832
765.588796	5821.852137
765.914943	5526.795922
766.241044	5403.214557
766.567097	5245.280248
766.893104	5022.572153
767.219064	4866.389645
767.544978	4821.268798
767.870845	4768.543370
768.196665	4666.165097
768.522438	4604.388277
768.848165	4590.237758
769.173846	4535.906723
769.499479	4507.141899
769.825066	4454.610555
770.150607	4406.303698
770.476101	4384.651943
770.801548	4392.032192
771.126949	4334.908357
771.452303	4288.938075
771.777611	4247.202362
772.102872	4261.592336
772.428087	4233.235846
772.753256	4209.040828
773.078378	4172.673944
773.403453	4109.808235
773.728482	4100.101493
774.053465	4063.076739
774.378401	4049.309347
774.703291	4062.227304
775.028135	4000.851256
775.352932	3955.748053
775.677683	3942.086526
776.002388	3966.092500
776.327046	3978.871825
776.651658	3903.574631
776.976224	3848.144624
777.300743	3857.087631
777.625216	3881.275087
777.949643	3882.442114
778.274024	3840.887883
778.598359	3791.444246
778.922647	3810.101556
779.246889	3809.536947
779.571086	3810.968635
779.895236	3797.934732
780.219339	3781.155251
780.543397	3768.433899
780.867409	3816.254285
781.191374	3832.136440
781.515294	3781.530817
781.839167	3778.223820
782.162995	3792.311324
782.486776	3783.615334
782.810511	3791.139256
783.134201	3804.810865
783.457844	3759.672374
783.781441	3708.134138
784.104993	3714.992627
784.428498	3732.026686
784.751958	3732.871079
785.075372	3714.516238
785.398739	3680.059952
785.722061	3689.935572
786.045337	3728.361767
786.368568	3767.324845
786.691752	3685.506918
787.014891	3727.351016
787.337983	3831.992767
787.661030	3964.355823
787.984031	4108.777319
788.306987	4270.789921
788.629897	4347.435624
788.952760	4311.134275
789.275579	4256.226028
789.598351	4215.475861
789.921078	4098.034620
790.243759	3916.222886
790.566395	3886.212897
790.888984	3889.136766
791.211529	3790.120943
791.534027	3732.409814
791.856480	3734.809403
792.178888	3673.214065
792.501249	3623.231024
792.823566	3630.951552
793.145836	3660.858197
793.468062	3618.452011
793.790241	3572.143971
794.112375	3601.145729
794.434464	3656.111950
794.756507	3680.750590
795.078505	3667.870442
795.400457	3688.481199
795.722364	3809.541988
796.044226	3899.952562
796.366042	3967.700628
796.687812	3968.494610
797.009538	3975.297647
797.331218	3929.617232
797.652852	3906.672420
797.974442	3892.796644
798.295986	3901.941297
798.617484	3831.455884
798.938938	3742.202255
799.260346	3779.940333
799.581709	3778.614509
799.903026	3716.303327
800.224299	3677.239426
800.545526	3674.683561
800.866708	3637.855412
801.187845	3577.283428
801.508936	3610.618057
801.829983	3623.147845
802.150984	3545.040208
802.471940	3529.780635
802.792851	3541.375289
803.113717	3538.030483
803.434538	3544.485681
803.755314	3495.989781
804.076045	3463.872590
804.396731	3480.329436
804.717372	3505.071419
805.037967	3497.711335
805.358518	3486.043584
805.679024	3506.987058
805.999485	3512.010568
806.319901	3520.152031
806.640272	3539.041235
806.960598	3553.496743
807.280879	3523.718647
807.601115	3532.938918
807.921306	3551.485323
808.241453	3594.317487
808.561554	3573.999116
808.881611	3510.354549
809.201623	3539.091646
809.521590	3555.951785
809.841513	3530.259545
810.161390	3557.806930
810.481223	3544.465516
810.801011	3489.748832
811.120755	3476.800629
811.440453	3511.236751
811.760107	3519.947864
812.079716	3482.885301
812.399281	3445.605969
812.718801	3467.875266
813.038276	3445.671504
813.357707	3445.356432
813.677093	3463.718834
813.996434	3416.483223
814.315731	3420.017072
814.634983	3417.027668
814.954191	3431.538629
815.273354	3463.592806
815.592473	3469.085143
815.911547	3468.878455
816.230577	3495.460460
816.549562	3550.101526
816.868502	3594.728341
817.187399	3617.111064
817.506250	3615.704582
817.825058	3584.023450
818.143821	3665.180986
818.462539	3767.952469
818.781213	3815.631702
819.099843	3865.834033
819.418429	4077.890169
819.736970	4304.724448
820.055466	4529.794323
820.373919	4880.404053
820.692327	5275.801914
821.010691	5654.385006
821.329011	6857.307657
821.647286	9262.868135
821.965517	13251.325714
822.283704	16840.014752
822.601847	19078.637420
822.919945	17633.270557
823.237999	15470.965917
823.556010	13210.837687
823.873976	11309.014507
824.191897	9348.237554
824.509775	8041.358749
824.827609	6965.243802
825.145398	6430.947029
825.463144	6321.914433
825.780845	6436.265447
826.098502	6578.771304
826.416116	7316.526526
826.733685	8528.861011
827.051210	9623.431622
827.368692	9791.148290
827.686129	8670.204883
828.003522	7218.811320
828.320872	6249.639411
828.638177	5589.336477
828.955439	5060.348039
829.272656	4582.638219
829.589830	4297.742450
829.906960	4132.690032
830.224046	3957.772076
830.541088	3834.909074
830.858086	3788.989204
831.175041	3724.349009
831.491952	3701.651214
831.808819	3710.153120
832.125642	3773.001185
832.442421	3904.315681
832.759157	4156.844721
833.075849	4655.049353
833.392497	5456.935613
833.709101	6189.097674
834.025662	6551.498662
834.342179	6263.744559
834.658653	5639.432943
834.975083	5024.533162
835.291469	4474.888596
835.607811	4070.290630
835.924110	3937.310032
836.240366	3751.145262
836.556578	3546.618089
836.872746	3439.503652
837.188871	3407.507448
837.504952	3346.564940
837.820990	3267.766664
838.136984	3217.292111
838.452935	3239.909248
838.768842	3236.448496
839.084706	3257.855755
839.400526	3397.208371
839.716303	3696.768856
840.032037	4174.612268
840.347727	4460.438129
840.663373	4235.816916
840.978977	3875.918861
841.294537	3576.948191
841.610054	3355.207998
841.925527	3246.815628
842.240957	3179.246523
842.556344	3130.160808
842.871687	3077.248857
843.186987	3025.519057
843.502244	2994.064778
843.817458	2957.385342
844.132629	2923.513829
844.447756	2935.438679
844.762840	2926.651948
845.077881	2893.816392
845.392879	2875.680841
845.707833	2871.796632
846.022745	2868.938298
846.337613	2871.521889
846.652438	2858.735002
846.967221	2856.794158
847.281960	2845.494412
847.596656	2837.335304
847.911309	2838.300685
848.225919	2831.422031
848.540485	2827.280723
848.855009	2828.977071
849.169490	2817.889053
849.483928	2809.026705
849.798323	2807.511838
850.112675	2802.465643
850.426984	2816.764876
850.741251	2813.871254
851.055474	2806.604431
851.369654	2802.500931
851.683792	2804.885397
851.997887	2811.123825
852.311938	2813.931748
852.625947	2803.534368
852.939914	2808.688948
853.253837	2817.778148
853.567718	2798.425158
853.881555	2792.053140
854.195350	2810.725574
854.509103	2807.731128
854.822812	2797.600930
855.136479	2798.538584
855.450103	2796.259983
855.763685	2790.331586
856.077224	2784.524177
856.390720	2800.028245
856.704173	2811.138948
857.017584	2804.129224
857.330953	2798.974644
857.644278	2807.668114
857.957561	2814.637509
858.270802	2822.161431
858.584000	2817.972232
858.897155	2808.187353
859.210268	2807.017805
859.523339	2804.726601
859.836367	2803.395736
860.149352	2797.361475
860.462295	2795.806279
860.775195	2800.633184
861.088054	2803.138637
861.400869	2788.917542
861.713642	2780.032509
862.026373	2796.048254
862.339062	2798.185704
862.651708	2803.501600
862.964312	2812.379072
863.276873	2801.049079
863.589392	2810.803712
863.901869	2818.892243
864.214303	2840.226406
864.526696	2856.032944
864.839045	2853.799713
865.151353	2852.468848
865.463619	2849.305524
865.775842	2848.975329
866.088023	2867.030221
866.400162	2876.580687
866.712258	2849.731502
867.024313	2836.201045
867.336325	2844.453414
867.648296	2865.109542
867.960224	2859.130733
868.272110	2846.979032
868.583954	2850.588498
868.895755	2866.281610
869.207515	2854.192923
869.519233	2852.665453
869.830909	2864.875128
870.142542	2874.753269
870.454134	2875.582539
870.765684	2877.777961
871.077191	2875.451469
871.388657	2882.259547
871.700081	2897.788821
872.011463	2906.963721
872.322803	2906.484812
872.634101	2909.965728
872.945357	2922.016607
873.256571	2949.989969
873.567744	2940.943619
873.878874	2931.146136
874.189963	2955.386525
874.501010	2960.475569
874.812015	2948.850669
875.122979	2950.022737
875.433900	2946.642643
875.744780	2948.850669
876.055618	2956.651854
876.366415	2954.116154
876.677169	2965.766260
876.987882	2964.256435
877.298554	2954.252265
877.609183	2970.719194
877.919771	2995.748523
878.230317	3019.084024
878.540822	3070.372723
878.851285	3108.067951
879.161707	3143.918117
879.472087	3230.540263
879.782425	3426.255500
880.092722	3830.737520
880.402977	4330.179755
880.713191	4900.026744
881.023363	5949.637825
881.333494	7142.480689
881.643583	7699.777726
881.953631	7448.889582
882.263637	6904.273567
882.573602	6385.105297
882.883526	5833.315720
883.193408	5275.423827
883.503248	4822.753417
883.813048	4540.221950
884.122806	4270.749592
884.432522	3974.241526
884.742197	3748.223913
885.051831	3557.116292
885.361424	3422.429264
885.670975	3357.657999
885.980485	3282.577574
886.289954	3210.126111
886.599382	3167.568690
886.908768	3126.652165
887.218113	3083.938468
887.527417	3034.099101
887.836680	2986.392141
888.145901	2982.515494
888.455082	2973.585090
888.764221	2928.807041
889.073319	2896.473080
889.382376	2897.498955
889.691392	2896.924263
890.000366	2896.478121
890.309300	2885.669888
890.618193	2897.375447
890.927044	2917.197264
891.235855	2914.220462
891.544625	2898.968451
891.853353	2911.253743
892.162041	2927.894592
892.470687	2961.776187
892.779293	3012.177643
893.087858	3057.308573
893.396381	3119.710496
893.704864	3230.318452
894.013306	3443.881894
894.321707	3730.988208
894.630068	3935.714507
894.938387	3942.126855
895.246665	3897.492479
895.554903	3785.508287
895.863100	3598.279833
896.171256	3438.500462
896.479371	3310.503046
896.787446	3197.427444
897.095480	3099.162753
897.403473	3030.103986
897.711425	2997.681805
898.019336	2989.371463
898.327207	2963.250725
898.635038	2931.798966
898.942827	2913.461769
899.250576	2907.137641
899.558284	2874.627240
899.865952	2855.589322
900.173579	2837.448730
900.481165	2831.041424
900.788711	2820.896102
901.096216	2797.474901
901.403681	2781.827159
901.711105	2791.486010
902.018489	2789.093983
902.325832	2788.584826
902.633135	2795.097997
902.940397	2826.282575
903.247619	2896.962072
903.554800	3065.177814
903.861941	3377.091647
904.169041	3781.102319
904.476101	4086.429884
904.783121	4068.503541
905.090100	3841.351669
905.397039	3583.146290
905.703938	3337.410204
906.010796	3160.813544
906.317614	3054.813202
906.624391	2964.279120
906.931129	2899.545663
907.237826	2841.945440
907.544483	2795.128244
907.851099	2765.816455
908.157675	2745.031777
908.464211	2728.826988
908.770707	2715.596480
909.077163	2705.831765
909.383578	2690.859538
909.689954	2677.634071
909.996289	2676.467044
910.302584	2679.040553
910.608839	2677.908814
910.915054	2674.082578
911.221229	2666.341887
911.527363	2668.325581
911.833458	2673.573422
912.139513	2676.862775
912.445527	2679.867302
912.751502	2689.558921
913.057436	2697.395394
913.363331	2709.640357
913.669186	2727.763305
913.975000	2758.882348
914.280775	2812.787406
914.586510	2876.686551
914.892205	2952.656740
915.197859	3067.658062
915.503475	3239.334556
915.809050	3437.482149
916.114585	3577.991710
916.420081	3609.503962
916.725536	3561.086200
917.030952	3448.923048
917.336328	3331.897703
917.641665	3205.014381
917.946961	3111.067438
918.252218	3048.088303
918.557435	2973.146510
918.862612	2918.434867
919.167750	2870.959801
919.472848	2834.590396
919.777906	2806.864050
920.082925	2785.741615
920.387904	2756.651637
920.692843	2741.389544
920.997743	2732.703636
921.302603	2720.950186
921.607423	2710.726726
921.912204	2698.010415
922.216946	2689.826102
922.521647	2678.276818
922.826310	2674.001920
923.130932	2666.031856
923.435516	2658.089518
923.740059	2649.993425
924.044564	2644.191057
924.349028	2638.469347
924.653454	2632.740076
924.957840	2624.850670
925.262186	2623.602984
925.566493	2618.289608
925.870761	2611.758793
926.174989	2610.919441
926.479178	2604.779316
926.783328	2603.304778
927.087438	2597.270517
927.391509	2596.108531
927.695541	2593.305650
927.999533	2591.631987
928.303486	2590.167531
928.607400	2590.069229
928.911275	2588.451018
929.215110	2590.109558
929.518906	2585.600246
929.822663	2585.970771
930.126381	2585.232242
930.430060	2584.521439
930.733699	2586.800041
931.037299	2587.679722
931.340861	2591.493355
931.644383	2588.897161
931.947866	2591.077460
932.251309	2589.139136
932.554714	2586.812643
932.858080	2585.028075
933.161407	2582.855338
933.464694	2581.801737
933.767943	2578.189750
934.071153	2580.092785
934.374323	2580.997673
934.677455	2582.605801
934.980548	2578.870306
935.283602	2577.456262
935.586617	2578.146900
935.889593	2577.579770
936.192530	2578.225038
936.495428	2579.145048
936.798287	2578.950964
937.101108	2585.794330
937.403890	2585.978332
937.706632	2590.333889
938.009336	2594.218098
938.312002	2607.970366
938.614628	2614.710389
938.917216	2622.408231
939.219765	2623.126595
939.522275	2623.169445
939.824747	2619.764146
940.127179	2617.956892
940.429573	2612.152003
940.731929	2613.843310
941.034246	2606.954574
941.336524	2606.029522
941.638763	2602.961980
941.940964	2600.138934
942.243126	2601.217741
942.545250	2600.398553
942.847335	2596.514344
943.149381	2592.483942
943.451389	2589.519743
943.753359	2583.886254
944.055290	2587.566296
944.357182	2585.219639
944.659036	2585.133939
944.960851	2582.368866
945.262628	2581.718557
945.564367	2581.166551
945.866067	2581.375759
946.167729	2581.947930
946.469352	2581.874833
946.770937	2582.383990
947.072484	2579.767631
947.373992	2582.197467
947.675462	2578.865264
947.976893	2575.376786
948.278286	2570.360838
948.579641	2571.805128
948.880958	2567.134499
949.182236	2570.612896
949.483476	2573.872002
949.784678	2573.158678
950.085841	2572.102557
950.386967	2574.930644
950.688054	2577.962898
950.989103	2575.162537
951.290114	2575.059193
951.591087	2578.388875
951.892021	2579.248392
952.192917	2583.409865
952.493776	2584.438260
952.794596	2586.744588
953.095378	2583.997159
953.396122	2582.976325
953.696828	2580.559092
953.997496	2581.085893
954.298126	2579.059349
954.598718	2578.772003
954.899272	2576.498443
955.199788	2573.718246
955.500266	2570.983420
955.800706	2570.055848
956.101108	2564.782801
956.401472	2565.770867
956.701798	2565.506207
957.002087	2564.198027
957.302337	2557.578992
957.602550	2560.502862
957.902724	2558.952707
958.202861	2554.375339
958.502960	2554.617314
958.803022	2555.353323
959.103045	2554.685370
959.403031	2554.166131
959.702979	2553.341903
960.002889	2552.931048
960.302762	2552.361398
960.602596	2550.750749
960.902393	2550.959957
961.202153	2549.177909
961.501875	2552.961295
961.801559	2551.108671
962.101205	2551.751418
962.400814	2550.591953
962.700385	2550.503733
962.999918	2547.768907
963.299414	2547.176571
963.598873	2546.775800
963.898293	2545.631458
964.197677	2548.835111
964.497022	2549.157745
964.796331	2549.838301
965.095601	2549.808054
965.394835	2547.809236
965.694030	2546.803526
965.993189	2547.292518
966.292309	2548.867878
966.591393	2551.569937
966.890439	2547.083310
967.189447	2550.723023
967.488419	2548.358722
967.787353	2546.858979
968.086249	2547.690769
968.385108	2548.966181
968.683930	2549.268650
968.982714	2546.695141
969.281462	2547.784030
969.580172	2550.476007
969.878844	2548.204967
970.177480	2552.686552
970.476078	2548.313352
970.774639	2549.261088
971.073162	2548.855276
971.371649	2549.319062
971.670098	2549.850903
971.968510	2549.349309
972.266885	2547.153886
972.565223	2550.672612
972.863524	2548.489792
973.161788	2549.213198
973.460014	2547.126160
973.758204	2548.736808
974.056356	2546.115408
974.354471	2549.777807
974.652550	2551.416182
974.950591	2550.100441
975.248595	2546.947199
975.546563	2549.041798
975.844493	2549.883671
976.142386	2548.754453
976.440243	2549.979453
976.738062	2549.374514
977.035845	2546.851417
977.333590	2550.186140
977.631299	2547.194215
977.928971	2543.304965
978.226606	2545.021478
978.524204	2546.150697
978.821765	2540.824717
979.119290	2548.580533
979.416777	2549.193033
979.714228	2546.455686
980.011642	2547.952909
980.309020	2547.506767
980.606360	2547.186654
980.903664	2551.469114
981.200931	2544.807229
981.498162	2545.835624
981.795356	2549.808054
982.092513	2550.924669
982.389633	2552.189999
982.686717	2559.169476
982.983764	2558.672923
983.280775	2562.262224
983.577749	2565.239026
983.874686	2563.850188
984.171587	2560.898592
984.468451	2560.092007
984.765279	2555.413817
985.062070	2554.403065
985.358824	2555.653272
985.655543	2549.472817
985.952224	2552.419371
986.248869	2551.701007
986.545478	2551.259906
986.842050	2547.816798
987.138586	2547.305121
987.435086	2546.037271
987.731549	2545.654143
988.027975	2545.807898
988.324366	2545.235727
988.620719	2545.875954
988.917037	2545.402085
989.213318	2547.552137
989.509563	2544.804708
989.805772	2547.249668
990.101944	2542.999975
990.398080	2544.300593
990.694180	2544.535007
990.990244	2542.889070
991.286271	2545.719678
991.582262	2543.521735
991.878217	2545.286139
992.174136	2547.363094
992.470019	2544.958464
992.765865	2543.090716
993.061676	2537.764737
993.357450	2542.238761
993.653188	2540.721374
993.948890	2545.197918
994.244556	2545.434853
994.540186	2543.967877
994.835780	2544.517363
995.131337	2546.881664
995.426859	2549.182951
995.722345	2548.290666
996.017795	2548.023485
996.313208	2551.340564
996.608586	2550.788558
996.903928	2548.751932
997.199234	2549.137580
997.494504	2549.251006
997.789738	2549.021634
998.084936	2550.239072
998.380099	2546.813608
998.675225	2548.363763
998.970316	2549.180430
999.265371	2548.578012
999.560390	2544.184647
999.855373	2546.390151
1000.150320	2548.504915
1000.445232	2546.117929
1000.740108	2546.579195
1001.034948	2546.836293
1001.329752	2546.100285
1001.624521	2543.277239
1001.919254	2542.195911
1002.213951	2546.052394
1002.508613	2541.792619
1002.803239	2547.678166
1003.097829	2545.281098
1003.392384	2544.474513
1003.686903	2543.539379
1003.981386	2545.555840
1004.275834	2545.765048
1004.570246	2544.076262
1004.864623	2544.046015
1005.158964	2544.887887
1005.453270	2542.652136
1005.747540	2542.510983
1006.041775	2544.638350
1006.335974	2542.967208
1006.630138	2543.284801
1006.924266	2544.393854
1007.218359	2542.942002
1007.512416	2540.202135
1007.806438	2541.480067
1008.100425	2542.541230
1008.394376	2540.703730
1008.688292	2543.471323
1008.982172	2545.633978
1009.276017	2545.392003
1009.569827	2543.186498
1009.863602	2543.020140
1010.157341	2541.966539
1010.451045	2546.375028
1010.744714	2542.510983
1011.038347	2543.370500
1011.331945	2540.204656
1011.625508	2544.683721
1011.919036	2544.671118
1012.212528	2543.622558
1012.505986	2542.982331
1012.799408	2542.805891
1013.092795	2545.094575
1013.386147	2543.567105
1013.679464	2544.708927
1013.972745	2541.853113
1014.265992	2543.478885
1014.559204	2542.821014
1014.852380	2545.351674
1015.145521	2544.083823
1015.438628	2544.464431
1015.731699	2541.961498
1016.024736	2541.228010
1016.317737	2544.671118
1016.610703	2543.551982
1016.903635	2545.739842
1017.196531	2544.739173
1017.489393	2544.887887
1017.782219	2543.433515
1018.075011	2543.599873
1018.367768	2543.176416
1018.660490	2545.621375
1018.953177	2545.621375
1019.245829	2545.621375
