Dividing Wavelength (nm)	Counts (n)	Blue Motor Position (mm): 34.000000	Red Motor Position (mm): 0.000000	
326.493990	2155.189051
326.888308	2155.189051
327.282561	2155.189051
327.676750	2131.152830
328.070874	2130.421862
328.464933	2135.659621
328.858929	2145.827628
329.252859	2156.383805
329.646726	2173.548933
330.040528	2186.953362
330.434265	2205.618234
330.827938	2224.449464
331.221547	2242.890005
331.615091	2262.104363
332.008571	2281.986673
332.401986	2303.797225
332.795338	2325.143991
333.188625	2343.148472
333.581847	2364.129755
333.975006	2381.955275
334.368100	2402.989489
334.761129	2419.406007
335.154095	2436.724891
335.546996	2458.328755
335.939833	2491.597850
336.332606	2502.675786
336.725315	2516.395286
337.117960	2524.408200
337.510540	2529.847605
337.903056	2542.057280
338.295508	2548.262940
338.687896	2553.909032
339.080220	2560.747358
339.472480	2570.262535
339.864676	2571.648853
340.256807	2572.873853
340.648875	2576.153124
341.040879	2579.981880
341.432818	2579.855851
341.824694	2581.189236
342.216506	2578.267888
342.608253	2580.569174
342.999937	2581.199319
343.391557	2582.089082
343.783113	2578.628330
344.174605	2575.437280
344.566033	2572.412587
344.957397	2570.567525
345.348697	2569.206414
345.739934	2569.498801
346.131106	2571.457289
346.522215	2569.004768
346.913260	2564.364385
347.304241	2564.409756
347.695159	2560.182748
348.086012	2559.091338
348.476802	2558.027655
348.867528	2557.757953
349.258191	2556.109496
349.648789	2554.861810
350.039324	2553.858621
350.429796	2555.386090
350.820203	2551.509443
351.210548	2548.850234
351.600828	2548.646068
351.991045	2549.528270
352.381198	2549.271171
352.771288	2548.565409
353.161314	2548.381407
353.551276	2548.767055
353.941175	2547.955430
354.331010	2548.076417
354.720782	2548.951057
355.110490	2549.916438
355.500135	2548.663712
355.889717	2548.867878
356.279235	2549.578681
356.668689	2551.222097
357.058080	2550.067673
357.447408	2548.772097
357.836672	2548.537683
358.225873	2547.466438
358.615010	2547.675646
359.004084	2555.257541
359.393095	2552.739485
359.782043	2555.509599
360.170927	2555.345761
360.559748	2555.023127
360.948505	2555.620504
361.337199	2554.861810
361.725830	2555.484393
362.114398	2554.352654
362.502903	2559.645865
362.891344	2557.415155
363.279722	2556.467418
363.668037	2558.365412
364.056289	2558.791390
364.444478	2559.577810
364.832603	2559.035886
365.220665	2559.124106
365.608665	2561.223747
365.996601	2562.736093
366.384474	2561.866494
366.772284	2562.383212
367.160031	2563.439334
367.547715	2564.303892
367.935336	2560.608726
368.322893	2563.295661
368.710388	2564.795404
369.097820	2567.313460
369.485189	2564.092163
369.872495	2565.392781
370.259738	2562.249621
370.646918	2561.468242
371.034035	2565.639797
371.421090	2564.283727
371.808081	2565.627194
372.195010	2562.105948
372.581875	2566.249777
372.968678	2568.694737
373.355418	2566.466547
373.742096	2567.691547
374.128710	2567.094170
374.515262	2569.672720
374.901751	2567.076526
375.288177	2569.551733
375.674540	2568.349417
376.060841	2569.730694
376.447079	2570.096177
376.833254	2569.957546
377.219367	2566.075857
377.605417	2565.241546
377.991404	2562.695763
378.377329	2566.126269
378.763191	2568.293965
379.148991	2571.258163
379.534727	2570.413770
379.920402	2570.204562
380.306013	2569.708008
380.691563	2570.257494
381.077049	2572.213462
381.462474	2573.824111
381.847835	2568.845971
382.233134	2571.679100
382.618371	2572.367217
383.003545	2573.146075
383.388657	2572.828483
383.773706	2572.679769
384.158693	2575.664132
384.543618	2572.170612
384.928480	2577.199163
385.313280	2574.643298
385.698017	2575.691858
386.082692	2573.357804
386.467305	2573.642629
386.851856	2575.706982
387.236344	2578.043556
387.620770	2576.561457
388.005133	2576.637074
388.389435	2577.052970
388.773674	2574.630695
389.157851	2576.332085
389.541965	2577.509194
389.926018	2577.675552
390.310008	2578.787127
390.693936	2581.892477
391.077802	2575.127249
391.461606	2577.975501
391.845348	2580.057497
392.229027	2576.805953
392.612645	2578.658577
392.996200	2577.932651
393.379694	2581.446335
393.763125	2578.451890
394.146494	2580.065059
394.529801	2581.423650
394.913047	2583.493044
395.296230	2582.215111
395.679351	2581.516911
396.062410	2582.774679
396.445408	2583.598908
396.828343	2584.062694
397.211217	2579.815522
397.594028	2579.868454
397.976778	2579.954154
398.359466	2583.223342
398.742092	2579.991962
399.124656	2582.126891
399.507158	2584.556727
399.889598	2587.180648
400.271977	2584.735688
400.654294	2588.229208
401.036549	2585.408682
401.418742	2585.358271
401.800874	2585.983374
402.182944	2586.747108
402.564952	2588.098138
402.946898	2588.942531
403.328783	2586.510174
403.710606	2589.638210
404.092367	2585.741398
404.474067	2589.834815
404.855705	2589.476893
405.237282	2592.216760
405.618797	2587.624269
406.000250	2592.569641
406.381642	2589.338262
406.762972	2591.914291
407.144240	2592.219281
407.525447	2592.791452
407.906593	2591.251379
408.287677	2590.371698
408.668700	2592.284816
409.049661	2597.411669
409.430560	2594.956627
409.811399	2595.591813
410.192176	2593.928232
410.572891	2598.692122
410.953545	2597.467122
411.334138	2598.840837
411.714669	2599.143306
412.095139	2603.869387
412.475547	2604.260077
412.855894	2606.142948
413.236180	2608.711416
413.616405	2611.668052
413.996568	2613.039246
414.376670	2615.121243
414.756711	2616.696603
415.136691	2622.564507
415.516609	2627.588016
415.896466	2631.452061
416.276262	2638.970942
416.655997	2639.061682
417.035670	2645.075779
417.415283	2656.899805
417.794834	2661.837616
418.174324	2668.323060
418.553753	2680.633558
418.933121	2690.080680
419.312428	2696.235929
419.691674	2702.106352
420.070859	2715.193188
420.449983	2719.989846
420.829045	2736.625653
421.208047	2745.520769
421.586988	2760.361926
421.965867	2775.808022
422.344686	2790.732358
422.723444	2810.007209
423.102141	2804.593010
423.480777	2834.653411
423.859352	2841.456448
424.237866	2878.367776
424.616319	2887.973695
424.994712	2917.139290
425.373044	2931.922474
425.751314	2966.918164
426.129524	2965.115952
426.507673	3007.822086
426.885762	3020.004035
427.263789	3042.979093
427.641756	3062.672361
428.019662	3095.311311
428.397508	3113.993827
428.775292	3148.881133
429.153016	3174.628826
429.530679	3196.545242
429.908282	3221.420816
430.285824	3235.566294
430.663305	3285.932462
431.040726	3290.073770
431.418086	3306.795277
431.795385	3363.828371
432.172624	3403.960997
432.549802	3411.568098
432.926920	3444.953139
433.303977	3466.826706
433.680974	3510.979652
434.057910	3546.018192
434.434786	3573.406780
434.811601	3592.033844
435.188355	3676.258922
435.565050	3684.763348
435.941683	3706.394939
436.318257	3785.611631
436.694770	3813.118687
437.071222	3874.691340
437.447614	3855.721478
437.823946	3881.091085
438.200218	3917.427722
438.576429	3926.030451
438.952580	3969.149960
439.328670	3995.242972
439.704700	4045.951939
440.080670	4039.153943
440.456580	4109.233543
440.832429	4157.038805
441.208218	4101.933953
441.583947	4165.119775
441.959616	4194.300494
442.335224	4235.925301
442.710773	4268.390332
443.086261	4333.932894
443.461689	4312.507990
443.837057	4339.493286
444.212365	4423.902366
444.587612	4442.950366
444.962800	4426.155762
445.337927	4476.708453
445.712995	4394.557810
446.088002	4579.280810
446.462949	4616.156851
446.837837	4643.699195
447.212664	4644.117610
447.587431	4871.211509
447.962139	5158.494264
448.336786	5483.729345
448.711374	5480.122400
449.085901	5158.814377
449.460369	5108.722952
449.834776	5063.148400
450.209124	5301.426099
450.583412	5316.055527
450.957640	5442.311225
451.331808	5315.022091
451.705917	5180.156102
452.079965	5180.786246
452.453954	5227.394234
452.827883	5195.934913
453.201752	5206.009659
453.575562	5245.295371
453.949311	5380.531885
454.323001	5386.946753
454.696632	5387.823914
455.070202	5545.831319
455.443713	5580.075877
455.817164	5671.179610
456.190556	5741.695270
456.563888	5720.280448
456.937160	5799.212315
457.310373	5649.129603
457.683526	5707.362492
458.056619	5701.469383
458.429653	5686.328277
458.802628	5739.767028
459.175542	5770.863386
459.548398	5909.643831
459.921194	6097.991421
460.293930	6159.564074
460.666607	6408.660088
461.039224	6622.019363
461.411782	6748.590133
461.784280	6663.921434
462.156719	6672.178844
462.529099	6632.943543
462.901419	6491.231668
463.273680	6361.684096
463.645882	6352.138671
464.018024	6355.601944
464.390106	6427.340084
464.762130	6688.739034
465.134094	7078.009373
465.505999	7712.274747
465.877845	8414.041171
466.249631	8768.739276
466.621358	8687.188530
466.993026	8491.319538
467.364634	8278.716437
467.736184	7993.860997
468.107674	7838.041453
468.479105	7758.338290
468.850477	7696.569032
469.221790	7518.523040
469.593043	7301.579504
469.964238	7198.976900
470.335373	7172.266347
470.706449	7329.678896
471.077467	7527.103083
471.448425	8188.436933
471.819324	8766.634594
472.190164	8800.642218
472.560945	8313.049215
472.931667	7843.291814
473.302330	7647.294273
473.672934	7527.471088
474.043479	7608.656350
474.413965	7506.673808
474.784393	7463.892055
475.154761	7610.380424
475.525070	7627.207796
475.895321	7584.655416
476.265513	7681.332144
476.635645	7843.742998
477.005719	7836.629930
477.375734	7926.029752
477.745691	8027.997171
478.115588	8233.101556
478.485427	8473.171385
478.855207	8943.001882
479.224928	9381.821721
479.594591	9755.656047
479.964194	9765.677860
480.333739	9851.853865
480.703226	9848.816570
481.072653	9958.128950
481.442022	10072.318646
481.811333	10213.952384
482.180584	10054.485564
482.549777	10000.492286
482.918912	9929.278426
483.287988	9927.403117
483.657005	9828.677160
484.025964	9746.206404
484.394864	9813.253750
484.763706	9770.111555
485.132489	9681.432618
485.501213	9663.155915
485.869879	9730.031862
486.238487	9668.015587
486.607036	9746.188760
486.975527	9698.121358
487.343959	9752.180171
487.712333	9794.014186
488.080648	9840.221402
488.448905	9937.308984
488.817104	9946.468761
489.185244	10115.317168
489.553326	10336.210447
489.921350	10800.712445
490.289315	11428.552868
490.657222	11716.725387
491.025070	11899.749518
491.392861	11812.512351
491.760593	11653.184163
492.128267	11400.682849
492.495883	11161.777527
492.863440	10929.526528
493.230939	10704.628052
493.598380	10520.961174
493.965763	10498.815385
494.333088	10366.792607
494.700354	10299.168048
495.067563	10275.010839
495.434713	10278.234657
495.801805	10313.464761
496.168839	10275.978741
496.535815	10246.228371
496.902733	10294.656216
497.269593	10251.796326
497.636395	10259.821843
498.003139	10368.216733
498.369825	10293.753849
498.736453	10383.476305
499.103023	10327.655609
499.469535	10331.320528
499.835989	10394.418130
500.202385	10360.370177
500.568723	10378.457837
500.935003	10441.328587
501.301226	10410.126365
501.667390	10576.431510
502.033497	10683.979486
502.399546	10594.728378
502.765537	10513.898517
503.131470	10609.040214
503.497345	10697.777124
503.863163	10472.049378
504.228923	10606.310429
504.594625	10723.613038
504.960269	10632.862186
505.325856	10787.192070
505.691385	10675.533033
506.056856	10734.769111
506.422270	10836.918012
506.787625	10770.783114
507.152924	10828.211939
507.518164	10890.949098
507.883347	10751.291493
508.248472	10823.067441
508.613540	10926.869840
508.978550	11007.815648
509.343503	10985.561474
509.708398	11043.229753
510.073236	11165.132415
510.438016	11187.600838
510.802738	11095.541807
511.167403	11226.435366
511.532010	11290.422732
511.896561	11387.217927
512.261053	11574.395969
512.625488	11492.620892
512.989866	11489.404636
513.354186	11458.265429
513.718449	11470.265896
514.082655	11619.305088
514.446803	11566.130998
514.810894	11680.880262
515.174927	11678.417658
515.538904	11661.867550
515.902822	11821.820841
516.266684	11689.707322
516.630488	11790.243054
516.994235	11778.877772
517.357925	11894.358004
517.721558	11947.479163
518.085133	12017.291582
518.448651	12052.113352
518.812112	12009.036692
519.175516	12020.144875
519.538863	12110.633586
519.902152	12111.619132
520.265385	12221.707850
520.628560	12247.752971
520.991678	12202.135570
521.354739	12250.938980
521.717743	12329.948984
522.080690	12302.820015
522.443580	12430.885487
522.806413	12454.382305
523.169189	12444.662961
523.531908	12492.226247
523.894569	12452.471708
524.257174	12467.890077
524.619722	12573.981160
524.982213	12555.555743
525.344647	12543.903115
525.707025	12558.535064
526.069345	12660.557936
526.431608	12639.732929
526.793815	12719.279817
527.155964	12608.802930
527.518057	12646.805668
527.880093	12604.245727
528.242072	12724.434396
528.603995	12638.641520
528.965860	12667.751663
529.327669	12685.788911
529.689421	12633.726395
530.051117	12650.934373
530.412755	12690.446937
530.774337	12691.797966
531.135862	12646.067139
531.497331	12699.820963
531.858743	12663.136486
532.220098	12758.421856
532.581396	12684.382429
532.942638	12604.838062
533.303824	12670.413392
533.664953	12656.492245
534.026025	12605.052312
534.387040	12720.275444
534.747999	12685.854446
535.108902	12732.928741
535.469748	12603.408895
535.830537	12643.133188
536.191270	12676.145184
536.551947	12602.952671
536.912567	12661.672031
537.273131	12704.761293
537.633638	12578.959299
537.994089	12635.994914
538.354483	12549.443343
538.714821	12682.784383
539.075103	12762.555602
539.435328	12693.895086
539.795497	12672.833146
540.155609	12664.081703
540.515665	12769.265378
540.875665	12626.434366
541.235609	12730.914800
541.595496	12691.314016
541.955328	12868.883619
542.315102	12723.665620
542.674821	12654.684992
543.034483	12678.948065
543.394090	12668.724605
543.753640	12644.441367
544.113134	12884.367523
544.472571	12641.139411
544.831953	12922.481166
545.191278	12741.286974
545.550548	12665.160509
545.909761	12782.775670
546.268918	12828.622443
546.628019	12895.944532
546.987064	12775.909618
547.346053	12626.822534
547.704986	12823.929129
548.063863	12707.296994
548.422684	12755.878593
548.781449	12726.246691
549.140158	12817.363026
549.498811	12772.736212
549.857408	12640.809216
550.215949	12838.130060
550.574434	12809.259372
550.932864	12752.974889
551.291237	12951.064509
551.649555	12838.170389
552.007817	12887.949262
552.366022	12810.408755
552.724173	12862.806508
553.082267	12944.788272
553.440305	13038.399978
553.798288	12861.762989
554.156215	12932.518104
554.514086	12982.559117
554.871902	12919.090990
555.229661	12940.468003
555.587365	12902.346798
555.945014	12916.517481
556.302606	12902.366962
556.660143	12951.550980
557.017625	12984.139519
557.375050	12949.771453
557.732421	13041.777552
558.089735	13040.081203
558.446994	13021.320549
558.804197	13133.234165
559.161345	13135.011171
559.518437	12944.695011
559.875474	13044.940876
560.232455	13068.336871
560.589381	13111.789096
560.946251	13053.528481
561.303065	13220.678019
561.659825	13168.018126
562.016528	13087.107607
562.373177	13027.097712
562.729770	13165.472343
563.086307	13046.964899
563.442789	13153.270231
563.799216	13190.514275
564.155587	13138.950833
564.511904	13151.183193
564.868164	13168.229855
565.224370	13230.833424
565.580520	13170.266481
565.936615	13238.604362
566.292654	13175.171523
566.648638	13242.274322
567.004567	13241.079569
567.360441	13249.301691
567.716260	13220.136095
568.072023	13305.500474
568.427732	13280.173717
568.783385	13180.280733
569.138982	13297.966469
569.494525	13286.323925
569.850013	13239.950350
570.205445	13238.886667
570.560823	13241.412285
570.916145	13192.472763
571.271412	13208.536400
571.626625	13159.143175
571.981782	13172.126667
572.336884	13122.723359
572.691931	13197.108104
573.046923	13091.208586
573.401860	13063.063824
573.756743	13064.377044
574.111570	13097.731839
574.466342	13068.480543
574.821059	13111.239610
575.175722	12986.939880
575.530330	13010.166996
575.884882	12948.082666
576.239380	12936.271243
576.593823	12918.339858
576.948211	12918.140733
577.302544	12799.560192
577.656823	12816.243890
578.011047	12875.633724
578.365216	12815.071822
578.719330	12747.233015
579.073389	12712.028117
579.427394	12735.867733
579.781344	12725.384654
580.135239	12656.585507
580.489080	12675.356243
580.842866	12562.850292
581.196597	12658.788491
581.550273	12642.949186
581.903895	12605.304369
582.257463	12709.043754
582.610975	12557.988099
582.964434	12619.689302
583.317837	12545.251624
583.671186	12499.722443
584.024481	12548.999722
584.377721	12432.430601
584.730906	12511.178465
585.084037	12524.146833
585.437113	12441.333279
585.790135	12475.514822
586.143103	12374.308618
586.496016	12388.446534
586.848874	12406.541755
587.201679	12404.643761
587.554428	12282.821758
587.907124	12330.511073
588.259765	12266.410281
588.612352	12336.295797
588.964884	12193.028725
589.317362	12242.600912
589.669786	12237.247206
590.022155	12198.599200
590.374470	12299.535703
590.726731	12181.794514
591.078937	12069.631362
591.431090	12093.904517
591.783188	12035.449818
592.135232	11949.500665
592.487222	12012.068946
592.839157	12027.492357
593.191038	11953.836058
593.542866	11904.949468
593.894639	11751.232085
594.246358	11811.055457
594.598022	11823.900317
594.949633	11726.583363
595.301190	11710.350848
595.652692	11664.917448
596.004141	11759.519742
596.355535	11540.968078
596.706876	11515.764830
597.058162	11493.699699
597.409395	11578.945611
597.760573	11606.193047
598.111698	11495.776655
598.462768	11493.805563
598.813785	11507.230156
599.164748	11371.938190
599.515657	11456.022115
599.866511	11331.828249
600.217312	11458.131838
600.568060	11223.723226
600.918753	11391.364276
601.269392	11390.003165
601.619978	11291.645212
601.970510	11340.030207
602.320988	11367.834691
602.671412	11444.006525
603.021783	11365.183044
603.372100	11296.323403
603.722363	11319.666466
604.072572	11319.326188
604.422728	11329.161479
604.772830	11274.540577
605.122878	11278.197934
605.472872	11251.739438
605.822813	11311.245218
606.172701	11260.717733
606.522534	11306.693056
606.872314	11351.118224
607.222041	11292.199739
607.571714	11364.212622
607.921333	11237.185627
608.270899	11296.426746
608.620411	11354.044614
608.969870	11303.015534
609.319276	11280.834458
609.668627	11298.082765
610.017926	11370.390556
610.367171	11402.996739
610.716362	11399.064639
611.065500	11379.247863
611.414585	11386.912937
611.763616	11449.022473
612.112594	11410.712225
612.461518	11433.379773
612.810389	11483.251908
613.159207	11432.343816
613.507971	11420.406363
613.856682	11528.823939
614.205340	11474.850825
614.553945	11617.936415
614.902496	11495.166675
615.250994	11558.246633
615.599439	11548.852443
615.947830	11588.420459
616.296169	11545.411855
616.644454	11566.370453
616.992686	11575.436968
617.340864	11670.709734
617.688990	11560.278218
618.037063	11696.086903
618.385082	11664.652788
618.733048	11709.662730
619.080961	11690.443331
619.428821	11668.663026
619.776628	11681.903616
620.124382	11626.294648
620.472083	11644.425158
620.819731	11669.343582
621.167326	11589.267373
621.514868	11575.104252
621.862357	11467.899074
622.209793	11466.122067
622.557176	11381.304654
622.904506	11325.007568
623.251783	11248.417318
623.599007	11193.562002
623.946179	11143.480659
624.293297	11121.349994
624.640363	10973.979423
624.987376	10967.241921
625.334336	10904.482076
625.681243	10822.187760
626.028097	10790.879674
626.374899	10749.398540
626.721647	10728.313914
627.068343	10684.229023
627.414987	10630.263471
627.761577	10560.551875
628.108115	10608.311767
628.454600	10483.187808
628.801032	10495.873872
629.147412	10478.870060
629.493739	10453.145052
629.840014	10370.112207
630.186236	10417.390668
630.532405	10317.170009
630.878521	10348.200831
631.224585	10311.075254
631.570597	10236.093132
631.916556	10236.093132
632.262462	10214.159071
632.608316	10195.264827
632.954117	10172.844295
633.299866	10150.128856
633.645562	10135.428851
633.991206	10032.538901
634.336797	9931.615001
634.682336	9923.430688
635.027823	9868.116627
635.373257	9832.218571
635.718639	9773.569787
636.063968	9740.482173
636.409245	9616.182443
636.754470	9607.002502
637.099642	9550.191219
637.444762	9446.114077
637.789829	9456.410634
638.134845	9376.672183
638.479808	9358.047640
638.824719	9340.857305
639.169577	9246.247450
639.514383	9257.401003
639.859137	9181.156072
640.203839	9211.559271
640.548489	9140.763827
640.893086	9142.830700
641.237632	9070.661541
641.582125	9078.992048
641.926566	9059.356754
642.270955	9049.221514
642.615292	9040.608703
642.959576	9024.361064
643.303809	9005.938167
643.647990	9029.450109
643.992118	9005.434052
644.336195	8985.012338
644.680219	8973.760482
645.024192	9007.891614
645.368112	9088.219880
645.711981	9066.084174
646.055797	9200.940080
646.399562	9160.966251
646.743274	9324.813833
647.086935	9394.386797
647.430544	9367.822437
647.774101	9388.851610
648.117606	9418.886805
648.461059	9487.267536
648.804460	9409.326257
649.147810	9299.761819
649.491108	9266.651521
649.834354	9191.540849
650.177548	9052.147904
650.520690	8963.741189
650.863781	8952.882543
651.206820	8931.606354
651.549807	8836.762085
651.892742	8741.708609
652.235626	8701.691930
652.578458	8671.528186
652.921238	8560.216988
653.263967	8603.631405
653.606644	8528.924026
653.949269	8509.470213
654.291843	8436.000437
654.634365	8501.621136
654.976836	8422.822861
655.319255	8411.255933
655.661622	8403.432062
656.003938	8361.847584
656.346203	8324.545566
656.688416	8358.890948
657.030577	8321.533477
657.372687	8288.355123
657.714746	8319.106161
658.056753	8337.098039
658.398708	8234.255980
658.740612	8230.306236
659.082465	8269.869212
659.424266	8225.655772
659.766016	8236.607679
660.107715	8213.138587
660.449362	8229.582831
660.790958	8229.955876
661.132503	8217.579843
661.473996	8221.111172
661.815438	8242.047084
662.156829	8268.152699
662.498168	8220.337355
662.839456	8217.431129
663.180693	8236.668172
663.521879	8256.182479
663.863013	8235.801094
664.204097	8232.670538
664.545129	8309.979152
664.886110	8295.148078
665.227040	8294.845608
665.567918	8304.421280
665.908746	8321.288981
666.249522	8342.308072
666.590248	8340.704985
666.930922	8353.368363
667.271545	8346.184719
667.612118	8362.697019
667.952639	8319.809402
668.293109	8325.301739
668.633528	8302.225858
668.973896	8285.733723
669.314213	8298.956669
669.654480	8245.462465
669.994695	8244.577743
670.334859	8232.027790
670.674973	8202.600055
671.015035	8233.381340
671.355047	8216.415337
671.695008	8206.343112
672.034918	8185.112292
672.374777	8194.251904
672.714585	8166.243253
673.054342	8190.803755
673.394049	8155.031727
673.733705	8199.638377
674.073310	8145.907239
674.412864	8155.682036
674.752368	8088.717869
675.091820	8145.992938
675.431223	8081.040192
675.770574	8028.503807
676.109875	7998.176225
676.449125	7965.413766
676.788324	7951.427085
677.127473	7864.275617
677.466571	7850.014193
677.805619	7790.979761
678.144616	7788.565048
678.483562	7768.972604
678.822458	7721.923515
679.161303	7705.199487
679.500098	7679.058584
679.838842	7670.869229
680.177535	7679.822319
680.516179	7713.691311
680.854771	7735.237202
681.193314	7847.788524
681.531805	8005.856423
681.870247	8128.437120
682.208638	8277.262064
682.546978	8349.345523
682.885268	8380.013382
683.223508	8302.011609
683.561697	8254.702900
683.899836	8220.092859
684.237925	8138.572360
684.575963	8110.351981
684.913951	8025.413579
685.251889	8049.263278
685.589776	8036.977986
685.927614	8024.039865
686.265401	8045.139614
686.603137	8051.635141
686.940824	8119.746171
687.278460	8170.881115
687.616046	8183.299997
687.953582	8294.089435
688.291068	8277.955223
688.628504	8329.125455
688.965889	8335.169798
689.303224	8296.070609
689.640510	8251.857169
689.977745	8144.220973
690.314930	8024.622118
690.652065	7953.602343
690.989150	7838.853078
691.326185	7683.036054
691.663170	7571.480361
692.000105	7455.465767
692.336990	7339.713313
692.673825	7271.481295
693.010610	7181.511823
693.347345	7082.238901
693.684030	6970.877292
694.020665	6923.049344
694.357251	6805.401417
694.693786	6798.777340
695.030272	6754.707573
695.366707	6663.225755
695.703093	6604.365242
696.039429	6602.515139
696.375716	6559.246915
696.711952	6543.021962
697.048139	6516.097159
697.384276	6483.674978
697.720363	6504.235324
698.056400	6477.776828
698.392388	6446.793897
698.728326	6447.204751
699.064214	6415.591675
699.400053	6414.447333
699.735842	6351.707653
700.071581	6302.687473
700.407270	6264.044508
700.742910	6233.535445
701.078501	6191.540113
701.414042	6147.044368
701.749533	6093.043528
702.084974	6034.528335
702.420366	6073.015024
702.755709	6003.016082
703.091002	5947.160098
703.426246	5959.657118
703.761440	5938.726247
704.096584	5896.433487
704.431679	5888.125666
704.766725	5866.027768
705.101721	5856.626016
705.436668	5871.726792
705.771565	5814.522299
706.106413	5875.873141
706.441212	5869.680084
706.775961	5888.639863
707.110661	5896.856944
707.445311	5955.520851
707.779913	5923.275111
708.114465	5964.816739
708.448967	6004.599005
708.783421	6120.530420
709.117825	6161.862840
709.452180	6198.360794
709.786485	6262.645588
710.120742	6390.622840
710.454949	6394.905300
710.789107	6464.359797
711.123216	6592.584066
711.457275	6626.392564
711.791286	6728.954839
712.125247	6752.005515
712.459159	6721.655248
712.793023	6852.223653
713.126837	6683.208888
713.460602	6741.661067
713.794318	6688.492018
714.127985	6640.492671
714.461602	6498.387586
714.795171	6500.094016
715.128691	6333.274674
715.462162	6250.027580
715.795584	6173.112175
716.128957	6132.946782
716.462281	6065.140742
716.795556	6025.812180
717.128782	5939.371515
717.461960	5844.973389
717.795088	5830.356563
718.128167	5764.224186
718.461198	5679.648748
718.794180	5654.226209
719.127113	5597.470379
719.459997	5566.986522
719.792833	5499.324155
720.125619	5493.035315
720.458357	5432.261685
720.791046	5403.388476
721.123686	5376.314960
721.456278	5329.485161
721.788821	5318.359334
722.121315	5282.645280
722.453761	5291.552999
722.786158	5271.753867
723.118506	5274.965082
723.450805	5257.159727
723.783056	5276.210247
724.115259	5261.454790
724.447412	5245.749075
724.779518	5289.455879
725.111574	5296.115243
725.443582	5329.928783
725.775542	5322.213297
726.107453	5406.100617
726.439315	5379.342172
726.771129	5453.366476
727.102895	5517.545405
727.434612	5557.365479
727.766281	5586.263894
728.097901	5643.836391
728.429473	5658.722919
728.760996	5664.777344
729.092471	5692.481005
729.423897	5677.241597
729.755276	5650.505838
730.086606	5663.449000
730.417887	5749.080560
730.749120	5846.521023
731.080305	5885.174070
731.411442	5960.836748
731.742530	5984.709132
732.073570	6004.722513
732.404562	6065.317182
732.735506	6065.806174
733.066401	6039.670312
733.397249	5971.571885
733.728048	5882.935798
734.058798	5736.518005
734.389501	5610.234580
734.720156	5524.499677
735.050762	5418.703502
735.381320	5343.320608
735.711831	5286.854643
736.042293	5206.541501
736.372707	5208.124423
736.703073	5157.370086
737.033391	5185.194735
737.363661	5169.365512
737.693883	5181.769271
738.024056	5211.575093
738.354182	5235.671808
738.684260	5287.366321
739.014290	5324.738915
739.344272	5356.843503
739.674207	5415.265435
740.004093	5446.049241
740.333931	5450.457730
740.663722	5476.175176
740.993464	5489.662783
741.323159	5464.386438
741.652806	5426.119039
741.982405	5391.740890
742.311956	5336.147046
742.641460	5326.105067
742.970915	5273.278816
743.300323	5214.695567
743.629683	5178.739538
743.958996	5126.866064
744.288260	5075.920164
744.617477	5018.088047
744.946647	4999.886961
745.275768	4947.277479
745.604842	4917.539713
745.933869	4885.099888
746.262847	4871.645048
746.591778	4860.869582
746.920662	4833.670036
747.249498	4829.778265
747.578286	4847.145040
747.907027	4869.147156
748.235720	4915.263632
748.564365	4927.798461
748.892963	4912.748096
749.221514	4928.784006
749.550017	4906.693670
749.878473	4903.230397
750.206881	4862.641547
750.535242	4852.317264
750.863555	4833.964944
751.191821	4814.778312
751.520039	4819.557326
751.848210	4801.023524
752.176334	4805.114420
752.504411	4790.752173
752.832440	4756.492491
753.160421	4770.141415
753.488356	4747.894803
753.816243	4730.727154
754.144082	4698.763718
754.471875	4682.274104
754.799620	4675.889482
755.127318	4671.468391
755.454969	4664.415816
755.782572	4658.631092
756.110129	4656.690248
756.437638	4639.832630
756.765100	4643.368999
757.092515	4639.227691
757.419882	4646.096263
757.747203	4642.839678
758.074477	4655.903828
758.401703	4643.535357
758.728882	4677.679092
759.056014	4688.073951
759.383099	4712.848702
759.710138	4739.350048
760.037129	4757.425105
760.364073	4774.252476
760.690970	4768.888689
761.017820	4771.270634
761.344623	4802.838339
761.671379	4863.508626
761.998088	4953.972132
762.324751	5181.895300
762.651366	5645.479807
762.977935	6340.710376
763.304456	6900.268370
763.630931	7204.199536
763.957359	7138.493136
764.283740	6849.582089
764.610074	6525.488829
764.936362	6125.012005
765.262602	5808.941742
765.588796	5458.132887
765.914943	5204.920770
766.241044	4981.398529
766.567097	4812.681192
766.893104	4659.016741
767.219064	4560.762132
767.544978	4464.650013
767.870845	4382.469123
768.196665	4335.697298
768.522438	4281.590593
768.848165	4238.680292
769.173846	4202.184858
769.499479	4173.931712
769.825066	4139.369561
770.150607	4094.094958
770.476101	4081.555088
770.801548	4057.176068
771.126949	4025.860420
771.452303	4008.702853
771.777611	3971.123572
772.102872	3968.161894
772.428087	3943.034263
772.753256	3914.871857
773.078378	3898.006677
773.403453	3865.206409
773.728482	3841.306299
774.053465	3828.910101
774.378401	3806.537461
774.703291	3784.812608
775.028135	3760.736057
775.352932	3753.181888
775.677683	3735.953745
776.002388	3709.316288
776.327046	3715.020354
776.651658	3692.246941
776.976224	3674.164322
777.300743	3671.031245
777.625216	3658.619924
777.949643	3648.456958
778.274024	3650.891836
778.598359	3632.552118
778.922647	3635.332314
779.246889	3622.696662
779.571086	3618.799850
779.895236	3622.041312
780.219339	3623.523411
780.543397	3622.353864
780.867409	3636.269969
781.191374	3634.402221
781.515294	3629.736633
781.839167	3646.521155
782.162995	3642.483191
782.486776	3635.170997
782.810511	3625.870068
783.134201	3615.495374
783.457844	3613.998151
783.781441	3608.785598
784.104993	3596.696911
784.428498	3593.384873
784.751958	3591.496961
785.075372	3584.943461
785.398739	3575.095567
785.722061	3582.057400
786.045337	3578.132862
786.368568	3605.629836
786.691752	3602.998353
787.014891	3648.784633
787.337983	3690.094368
787.661030	3777.870939
787.984031	3877.607647
788.306987	3955.838793
788.629897	4003.238242
788.952760	4010.860467
789.275579	3995.583250
789.598351	3941.980662
789.921078	3891.077611
790.243759	3828.380780
790.566395	3785.513328
790.888984	3737.148498
791.211529	3699.975030
791.534027	3650.722957
791.856480	3615.392030
792.178888	3595.877724
792.501249	3573.981472
792.823566	3542.436452
793.145836	3540.805638
793.468062	3530.073022
793.790241	3514.828573
794.112375	3521.997093
794.434464	3544.097512
794.756507	3539.953683
795.078505	3561.010583
795.400457	3599.706480
795.722364	3649.011485
796.044226	3695.750543
796.366042	3743.051690
796.687812	3736.440216
797.009538	3764.113630
797.331218	3753.106271
797.652852	3744.438007
797.974442	3720.752146
798.295986	3710.533727
798.617484	3684.927186
798.938938	3661.185872
799.260346	3646.264056
799.581709	3609.940022
799.903026	3595.935697
800.224299	3578.989858
800.545526	3545.040208
800.866708	3529.032024
801.187845	3513.689272
801.508936	3495.788135
801.829983	3487.944099
802.150984	3458.972588
802.471940	3448.391206
802.792851	3440.458951
803.113717	3433.045934
803.434538	3423.810540
803.755314	3415.038932
804.076045	3408.732449
804.396731	3402.136099
804.717372	3399.983526
805.037967	3396.545459
805.358518	3397.883886
805.679024	3414.222265
805.999485	3409.261770
806.319901	3417.357863
806.640272	3417.332657
806.960598	3431.919236
807.280879	3430.727003
807.601115	3442.372068
807.921306	3433.063578
808.241453	3432.524174
808.561554	3438.147582
808.881611	3439.395267
809.201623	3438.954166
809.521590	3424.793565
809.841513	3430.144750
810.161390	3438.117335
810.481223	3418.406423
810.801011	3417.723347
811.120755	3410.002820
811.440453	3395.370871
811.760107	3390.238976
812.079716	3382.021895
812.399281	3378.044425
812.718801	3373.456975
813.038276	3366.928681
813.357707	3359.656816
813.677093	3367.384905
813.996434	3352.843697
814.315731	3361.441385
814.634983	3358.270499
814.954191	3359.263606
815.273354	3379.955022
815.592473	3386.329561
815.911547	3410.401071
816.230577	3420.874068
816.549562	3446.984724
816.868502	3462.077939
817.187399	3485.297493
817.506250	3513.089375
817.825058	3521.382073
818.143821	3565.386305
818.462539	3613.708285
818.781213	3668.165349
819.099843	3752.244234
819.418429	3904.187131
819.736970	4058.007858
820.055466	4242.660283
820.373919	4482.631809
820.692327	4819.320392
821.010691	5333.349205
821.329011	6413.048413
821.647286	8158.421903
821.965517	10322.077572
822.283704	11943.710900
822.601847	13037.139690
822.919945	12634.805202
823.237999	11953.306737
823.556010	11053.652339
823.873976	10095.510474
824.191897	9128.271848
824.509775	8355.515895
824.827609	7545.019344
825.145398	7003.382652
825.463144	6624.164374
825.780845	6497.321382
826.098502	6554.132665
826.416116	6941.978877
826.733685	7445.905218
827.051210	7733.485401
827.368692	7634.678786
827.686129	7186.389139
828.003522	6638.957640
828.320872	6063.683848
828.638177	5600.260657
828.955439	5235.518053
829.272656	4898.032968
829.589830	4619.436121
829.906960	4356.184547
830.224046	4143.205879
830.541088	3972.590548
830.858086	3860.258517
831.175041	3760.587343
831.491952	3715.713512
831.808819	3700.312787
832.125642	3734.998446
832.442421	3839.602389
832.759157	4054.196746
833.075849	4432.679015
833.392497	4898.474069
833.709101	5284.117297
834.025662	5395.330192
834.342179	5266.498464
834.658653	4999.647506
834.975083	4724.874374
835.291469	4479.534020
835.607811	4255.590842
835.924110	4098.621914
836.240366	3936.571503
836.556578	3776.850106
836.872746	3638.346924
837.188871	3524.931045
837.504952	3427.712393
837.820990	3355.797813
838.136984	3299.399904
838.452935	3271.068620
838.768842	3253.480034
839.084706	3287.028913
839.400526	3423.550921
839.716303	3649.649191
840.032037	3864.271275
840.347727	3927.641099
840.663373	3839.735979
840.978977	3685.020447
841.294537	3554.769635
841.610054	3452.245168
841.925527	3374.293806
842.240957	3307.385092
842.556344	3243.722881
842.871687	3184.239786
843.186987	3120.917852
843.502244	3072.268197
843.817458	3030.134233
844.132629	2998.997547
844.447756	2978.028867
844.762840	2954.501802
845.077881	2937.661828
845.392879	2924.645568
845.707833	2914.107036
846.022745	2901.078174
846.337613	2897.577093
846.652438	2886.438663
846.967221	2884.346585
847.281960	2875.297713
847.596656	2873.044318
847.911309	2868.504759
848.225919	2862.566279
848.540485	2858.780373
848.855009	2853.570340
849.169490	2851.574043
849.483928	2848.821573
849.798323	2845.663291
850.112675	2842.399143
850.426984	2839.414780
850.741251	2839.366889
851.055474	2839.369410
851.369654	2839.162723
851.683792	2838.033504
851.997887	2838.255315
852.311938	2835.994357
852.625947	2839.555933
852.939914	2833.597289
853.253837	2841.216993
853.567718	2834.381188
853.881555	2834.711384
854.195350	2836.337156
854.509103	2836.017043
854.822812	2835.071826
855.136479	2833.025118
855.450103	2836.947136
855.763685	2833.811538
856.077224	2832.016887
856.390720	2835.449913
856.704173	2837.335304
857.017584	2837.484018
857.330953	2841.395954
857.644278	2842.227744
857.957561	2846.477437
858.270802	2847.193281
858.584000	2843.661952
858.897155	2844.748321
859.210268	2843.888804
859.523339	2840.251612
859.836367	2838.875377
860.149352	2837.983093
860.462295	2838.595593
860.775195	2833.476301
861.088054	2832.069819
861.400869	2830.902792
861.713642	2829.340034
862.026373	2833.390602
862.339062	2834.194666
862.651708	2838.683813
862.964312	2840.927127
863.276873	2842.036180
863.589392	2851.185875
863.901869	2856.300125
864.214303	2867.158771
864.526696	2872.250336
864.839045	2880.182592
865.151353	2889.513767
865.463619	2887.625855
865.775842	2889.554097
866.088023	2891.835219
866.400162	2894.381001
866.712258	2897.559449
867.024313	2901.136148
867.336325	2900.581621
867.648296	2903.049265
867.960224	2901.128586
868.272110	2903.472722
868.583954	2902.381313
868.895755	2906.658732
869.207515	2905.433731
869.519233	2911.460431
869.830909	2914.643919
870.142542	2917.797161
870.454134	2920.728592
870.765684	2923.861669
871.077191	2929.800148
871.388657	2937.371961
871.700081	2943.406223
872.011463	2946.093158
872.322803	2952.679425
872.634101	2959.883234
872.945357	2968.092753
873.256571	2978.202787
873.567744	2982.704537
873.878874	2984.715958
874.189963	2993.134685
874.501010	2996.330776
874.812015	2997.961589
875.122979	3004.550378
875.433900	3005.538444
875.744780	3009.200842
876.055618	3015.093951
876.366415	3019.283150
876.677169	3020.866072
876.987882	3028.107689
877.298554	3037.988351
877.609183	3053.343706
877.919771	3071.852302
878.230317	3091.787545
878.540822	3130.546456
878.851285	3181.905732
879.161707	3249.600866
879.472087	3353.514170
879.782425	3518.281763
880.092722	3796.256027
880.402977	4221.174885
880.713191	4763.751753
881.023363	5357.062793
881.333494	5798.899763
881.643583	6082.603299
881.953631	6163.181102
882.263637	6111.811744
882.573602	5967.906966
882.883526	5798.957736
883.193408	5597.392241
883.503248	5380.095825
883.813048	5161.493750
884.122806	4940.313125
884.432522	4703.479717
884.742197	4477.646107
885.051831	4271.278913
885.361424	4068.954724
885.670975	3903.294847
885.980485	3754.384203
886.289954	3631.377529
886.599382	3526.760984
886.908768	3441.562963
887.218113	3361.580016
887.527417	3297.249852
887.836680	3243.070051
888.145901	3193.707073
888.455082	3158.539983
888.764221	3122.377266
889.073319	3092.997422
889.382376	3077.029567
889.691392	3059.597257
890.000366	3049.706513
890.309300	3043.493291
890.618193	3036.816283
890.927044	3032.294368
891.235855	3034.772095
891.544625	3034.497352
891.853353	3044.330123
892.162041	3056.633058
892.470687	3080.954105
892.779293	3121.250568
893.087858	3166.106755
893.396381	3239.924371
893.704864	3350.655836
894.013306	3505.820031
894.321707	3693.993701
894.630068	3850.703009
894.938387	3925.760749
895.246665	3936.074950
895.554903	3876.332236
895.863100	3790.471303
896.171256	3712.648491
896.479371	3638.576297
896.787446	3563.710121
897.095480	3492.367712
897.403473	3433.439144
897.711425	3377.598283
898.019336	3328.749502
898.327207	3273.785802
898.635038	3227.807958
898.942827	3176.836851
899.250576	3135.816982
899.558284	3091.772421
899.865952	3066.024728
900.173579	3036.944832
900.481165	3016.820546
900.788711	2997.591065
901.096216	2981.678663
901.403681	2967.303812
901.711105	2961.509006
902.018489	2952.306380
902.325832	2961.284675
902.633135	2970.283134
902.940397	3010.065400
903.247619	3100.728031
903.554800	3276.170267
903.861941	3556.032444
904.169041	3816.302176
904.476101	3984.903566
904.783121	4003.863346
905.090100	3936.505968
905.397039	3835.221626
905.703938	3728.515523
906.010796	3627.647075
906.317614	3540.997202
906.624391	3453.500416
906.931129	3386.561454
907.237826	3315.929848
907.544483	3250.460383
907.851099	3178.195442
908.157675	3106.164916
908.464211	3030.013246
908.770707	2973.506952
909.077163	2926.112544
909.383578	2891.835219
909.689954	2862.722555
909.996289	2841.920234
910.302584	2827.205106
910.608839	2818.559527
910.915054	2814.297231
911.221229	2807.400933
911.527363	2806.082671
911.833458	2807.602579
912.139513	2812.268167
912.445527	2814.088023
912.751502	2825.357523
913.057436	2840.672548
913.363331	2859.478573
913.669186	2890.181720
913.975000	2925.154725
914.280775	2985.857779
914.586510	3067.617733
914.892205	3176.201666
915.197859	3324.623318
915.503475	3504.269876
915.809050	3684.163451
916.114585	3815.341836
916.420081	3890.611304
916.725536	3922.975512
917.030952	3885.945716
917.336328	3847.204449
917.641665	3799.878096
917.946961	3739.233016
918.252218	3679.008871
918.557435	3605.100515
918.862612	3537.980072
919.167750	3479.873212
919.472848	3407.028539
919.777906	3337.881552
920.082925	3265.987137
920.387904	3194.715303
920.692843	3140.117087
920.997743	3085.239086
921.302603	3037.857281
921.607423	3000.940911
921.912204	2968.054944
922.216946	2942.367745
922.521647	2920.017789
922.826310	2896.407545
923.130932	2874.034904
923.435516	2853.587984
923.740059	2844.387879
924.044564	2826.844663
924.349028	2813.651964
924.653454	2800.154274
924.957840	2786.555762
925.262186	2779.084772
925.566493	2767.442227
925.870761	2754.567120
926.174989	2751.834815
926.479178	2742.407857
926.783328	2732.678430
927.087438	2726.518140
927.391509	2721.633262
927.695541	2716.090513
927.999533	2710.358721
928.303486	2706.313195
928.607400	2701.254397
928.911275	2699.890765
929.215110	2694.206864
929.518906	2689.866431
929.822663	2690.952800
930.126381	2689.321986
930.430060	2690.988088
930.733699	2690.297450
931.037299	2690.347861
931.340861	2690.153777
931.644383	2691.295598
931.947866	2689.092614
932.251309	2691.245187
932.554714	2691.121678
932.858080	2691.741740
933.161407	2690.544466
933.464694	2689.006914
933.767943	2688.719568
934.071153	2688.144877
934.374323	2685.682273
934.677455	2682.450894
934.980548	2681.278825
935.283602	2682.201357
935.586617	2678.246571
935.889593	2683.227231
936.192530	2681.767817
936.495428	2682.977694
936.798287	2686.723272
937.101108	2688.938859
937.403890	2697.128213
937.706632	2704.571477
938.009336	2719.684856
938.312002	2731.050137
938.614628	2740.638412
938.917216	2751.076121
939.219765	2757.871596
939.522275	2765.201434
939.824747	2769.080602
940.127179	2765.191352
940.429573	2764.586413
940.731929	2765.839140
941.034246	2765.443409
941.336524	2767.646394
941.638763	2768.707557
941.940964	2766.527257
942.243126	2758.226998
942.545250	2755.104003
942.847335	2748.416912
943.149381	2740.328381
943.451389	2734.899058
943.753359	2730.397308
944.055290	2725.393963
944.357182	2720.047819
944.659036	2720.791389
944.960851	2718.008672
945.262628	2710.353680
945.564367	2710.850234
945.866067	2711.694627
946.167729	2709.123639
946.469352	2709.300079
946.770937	2707.260932
947.072484	2704.382433
947.373992	2704.301775
947.675462	2705.259594
947.976893	2700.546115
948.278286	2701.836651
948.579641	2698.393543
948.880958	2698.355734
949.182236	2700.926722
949.483476	2697.528985
949.784678	2694.363140
950.085841	2695.051258
950.386967	2697.639890
950.688054	2696.919005
950.989103	2703.827907
951.290114	2707.419729
951.591087	2707.659183
951.892021	2714.348795
952.192917	2717.630586
952.493776	2720.864486
952.794596	2724.526884
953.095378	2723.082594
953.396122	2726.208109
953.696828	2724.973026
953.997496	2725.840105
954.298126	2722.686863
954.598718	2718.618652
954.899272	2714.656305
955.199788	2711.722353
955.500266	2704.954604
955.800706	2695.820034
956.101108	2689.362316
956.401472	2685.341995
956.701798	2679.295131
957.002087	2671.236847
957.302337	2669.578307
957.602550	2664.290137
957.902724	2657.293015
958.202861	2653.156749
958.502960	2651.304125
958.803022	2645.221972
959.103045	2641.491519
959.403031	2638.292907
959.702979	2633.289561
960.002889	2631.250415
960.302762	2627.956021
960.602596	2626.516771
960.902393	2623.449229
961.202153	2621.463014
961.501875	2617.031840
961.801559	2619.333127
962.101205	2616.764659
962.400814	2614.511263
962.700385	2614.102930
962.999918	2611.910028
963.299414	2612.320882
963.598873	2613.104781
963.898293	2610.697630
964.197677	2611.037908
964.497022	2609.659153
964.796331	2609.192846
965.095601	2609.568412
965.394835	2607.463730
965.694030	2605.500201
965.993189	2607.531786
966.292309	2605.369131
966.591393	2606.183277
966.890439	2606.793257
967.189447	2604.373503
967.488419	2606.228647
967.787353	2610.042280
968.086249	2605.774944
968.385108	2606.435335
968.683930	2608.071189
968.982714	2606.281580
969.281462	2608.240068
969.580172	2608.822321
969.878844	2609.041611
970.177480	2613.172837
970.476078	2611.950357
970.774639	2615.282560
971.073162	2612.600666
971.371649	2614.430605
971.670098	2613.659308
971.968510	2613.205604
972.266885	2615.469082
972.565223	2621.541152
972.863524	2620.525360
973.161788	2622.980402
973.460014	2624.119702
973.758204	2621.624331
974.056356	2624.117182
974.354471	2625.228756
974.652550	2624.071812
974.950591	2626.068108
975.248595	2623.834877
975.546563	2623.287912
975.844493	2624.923767
976.142386	2623.189610
976.440243	2622.148611
976.738062	2619.194495
977.035845	2620.379166
977.333590	2616.903291
977.631299	2616.759618
977.928971	2617.982098
978.226606	2616.469752
978.524204	2614.710389
978.821765	2613.747528
979.119290	2613.422374
979.416777	2613.510594
979.714228	2615.874895
980.011642	2613.750049
980.309020	2619.958230
980.606360	2618.443363
980.903664	2622.080556
981.200931	2625.329579
981.498162	2631.779736
981.795356	2646.023516
982.092513	2659.347286
982.389633	2679.514422
982.686717	2697.324818
982.983764	2712.821325
983.280775	2726.359344
983.577749	2731.234139
983.874686	2734.399984
984.171587	2728.675754
984.468451	2723.964796
984.765279	2719.052191
985.062070	2710.146993
985.358824	2700.979655
985.655543	2694.353058
985.952224	2682.191274
986.248869	2674.100222
986.545478	2656.088180
986.842050	2643.727270
987.138586	2635.820221
987.435086	2626.539456
987.731549	2615.706017
988.027975	2614.002107
988.324366	2609.268463
988.620719	2604.421394
988.917037	2603.171188
989.213318	2602.956939
989.509563	2599.927205
989.805772	2598.067019
990.101944	2598.036772
990.398080	2598.051896
990.694180	2595.722883
990.990244	2597.051227
991.286271	2592.804055
991.582262	2594.573500
991.878217	2595.496031
992.174136	2597.346134
992.470019	2597.835126
992.765865	2597.212544
993.061676	2598.041814
993.357450	2602.016763
993.653188	2599.085332
993.948890	2604.323091
994.244556	2606.727722
994.540186	2613.717282
994.835780	2617.190637
995.131337	2624.890999
995.426859	2630.985754
995.722345	2637.531692
996.017795	2649.043167
996.313208	2660.920126
996.608586	2660.932728
996.903928	2668.539830
997.199234	2668.328101
997.494504	2670.594100
997.789738	2668.539830
998.084936	2666.548574
998.380099	2660.516833
998.675225	2657.998777
998.970316	2649.978301
999.265371	2642.928247
999.560390	2635.111938
999.855373	2629.720424
1000.150320	2622.380504
1000.445232	2614.241562
1000.740108	2614.551592
1001.034948	2605.543051
1001.329752	2604.650766
1001.624521	2602.006681
1001.919254	2597.517534
1002.213951	2593.688777
1002.508613	2592.504106
1002.803239	2591.873962
1003.097829	2590.245669
1003.392384	2591.831112
1003.686903	2591.730289
1003.981386	2593.192224
1004.275834	2588.617377
1004.570246	2592.373036
1004.864623	2586.232911
1005.158964	2587.810792
1005.453270	2587.105030
1005.747540	2586.898343
1006.041775	2585.567478
1006.335974	2583.427509
1006.630138	2586.177458
1006.924266	2586.046388
1007.218359	2584.534042
1007.512416	2582.270564
1007.806438	2586.532859
1008.100425	2585.756522
1008.394376	2583.994638
1008.688292	2582.746953
1008.982172	2584.755853
1009.276017	2585.519587
1009.569827	2582.809967
1009.863602	2584.874320
1010.157341	2582.157138
1010.451045	2584.299628
1010.744714	2582.777200
1011.038347	2582.419278
1011.331945	2582.686459
1011.625508	2581.746284
1011.919036	2580.133115
1012.212528	2586.484968
1012.505986	2580.475913
1012.799408	2583.644278
1013.092795	2580.480954
1013.386147	2580.002045
1013.679464	2579.394586
1013.972745	2582.401634
1014.265992	2581.925245
1014.559204	2581.804257
1014.852380	2584.191243
1015.145521	2580.294432
1015.438628	2579.429874
1015.731699	2581.597570
1016.024736	2581.390882
1016.317737	2582.283167
1016.610703	2581.756366
1016.903635	2576.253947
1017.196531	2579.397106
1017.489393	2577.042887
1017.782219	2578.056159
1018.075011	2579.087075
1018.367768	2585.564958
1018.660490	2585.590164
1018.953177	2585.590164
1019.245829	2585.590164
