Dividing Wavelength (nm)	Counts (n)	Blue Motor Position (mm): 0.200000	Red Motor Position (mm): 0.000000	
326.493990	2144.229583
326.888308	2144.229583
327.282561	2144.229583
327.676750	2111.709099
328.070874	2110.675663
328.464933	2112.278750
328.858929	2119.197733
329.252859	2127.697119
329.646726	2139.614406
330.040528	2154.367343
330.434265	2171.240085
330.827938	2186.469411
331.221547	2205.774509
331.615091	2225.893754
332.008571	2244.241034
332.401986	2262.910947
332.795338	2280.607918
333.188625	2303.439303
333.581847	2319.833136
333.975006	2338.044304
334.368100	2357.107427
334.761129	2375.449666
335.154095	2392.947511
335.546996	2408.554923
335.939833	2421.833322
336.332606	2437.932247
336.725315	2451.054370
337.117960	2457.847325
337.510540	2468.564818
337.903056	2480.421612
338.295508	2486.521408
338.687896	2497.279231
339.080220	2506.872546
339.472480	2509.060407
339.864676	2516.929648
340.256807	2521.335617
340.648875	2520.949968
341.040879	2523.596574
341.432818	2526.769981
341.824694	2531.007070
342.216506	2526.835516
342.608253	2529.819879
342.999937	2529.020856
343.391557	2525.923067
343.783113	2526.858201
344.174605	2524.400638
344.566033	2525.708818
344.957397	2523.583971
345.348697	2520.821419
345.739934	2519.533404
346.131106	2517.695904
346.522215	2516.405368
346.913260	2515.893691
347.304241	2509.914883
347.695159	2512.148114
348.086012	2508.573936
348.476802	2506.703668
348.867528	2505.584532
349.258191	2502.471619
349.648789	2504.266270
350.039324	2499.066320
350.429796	2500.316526
350.820203	2500.268635
351.210548	2498.042965
351.600828	2500.220744
351.991045	2495.174549
352.381198	2495.514827
352.771288	2493.962151
353.161314	2495.766884
353.551276	2493.437871
353.941175	2494.851915
354.331010	2495.310660
354.720782	2495.814775
355.110490	2495.809734
355.500135	2496.273520
355.889717	2496.628922
356.279235	2496.649086
356.668689	2496.611278
357.058080	2493.919302
357.447408	2493.954590
357.836672	2492.480052
358.225873	2495.267810
358.615010	2491.060967
359.004084	2498.514313
359.393095	2498.259735
359.782043	2500.099756
360.170927	2497.342245
360.559748	2498.317708
360.948505	2499.048676
361.337199	2500.485404
361.725830	2499.799807
362.114398	2499.882987
362.502903	2502.365755
362.891344	2500.636639
363.279722	2502.627895
363.668037	2505.317350
364.056289	2505.897083
364.444478	2502.658142
364.832603	2504.241064
365.220665	2507.883298
365.608665	2506.872546
365.996601	2506.171826
366.384474	2504.447751
366.772284	2506.650736
367.160031	2503.063955
367.547715	2510.182064
367.935336	2508.636950
368.322893	2509.078051
368.710388	2509.125942
369.097820	2509.468741
369.485189	2509.105778
369.872495	2508.641991
370.259738	2508.725170
370.646918	2508.006806
371.034035	2510.696262
371.421090	2510.560150
371.808081	2511.152486
372.195010	2508.641991
372.581875	2510.608041
372.968678	2510.509739
373.355418	2508.092506
373.742096	2512.541324
374.128710	2511.770027
374.515262	2511.039060
374.901751	2513.375635
375.288177	2513.221880
375.674540	2512.503515
376.060841	2512.019564
376.447079	2512.087620
376.833254	2513.418485
377.219367	2508.450427
377.605417	2513.055522
377.991404	2511.076869
378.377329	2513.428567
378.763191	2506.927999
379.148991	2514.068793
379.534727	2513.940244
379.920402	2514.991325
380.306013	2513.378155
380.691563	2515.034174
381.077049	2513.037877
381.462474	2515.976870
381.847835	2516.060049
382.233134	2513.592404
382.618371	2514.638444
383.003545	2517.912673
383.388657	2517.141377
383.773706	2519.654392
384.158693	2517.544669
384.543618	2521.731347
384.928480	2516.201202
385.313280	2518.038702
385.698017	2516.700276
386.082692	2518.721778
386.467305	2516.531397
386.851856	2519.551048
387.236344	2520.433250
387.620770	2519.001563
388.005133	2518.542817
388.389435	2519.198168
388.773674	2518.479803
389.157851	2519.140194
389.541965	2517.857221
389.926018	2520.125740
390.310008	2522.127078
390.693936	2519.735050
391.077802	2521.723786
391.461606	2521.965761
391.845348	2520.425688
392.229027	2522.638755
392.612645	2522.028775
392.996200	2522.918539
393.379694	2520.818898
393.763125	2523.742768
394.146494	2520.360153
394.529801	2525.255114
394.913047	2523.102541
395.296230	2525.257634
395.679351	2521.517098
396.062410	2522.154804
396.445408	2523.621780
396.828343	2525.401307
397.211217	2518.820081
397.594028	2519.702283
397.976778	2519.457787
398.359466	2525.343334
398.742092	2519.697242
399.124656	2525.726462
399.507158	2525.441637
399.889598	2525.199661
400.271977	2523.919208
400.654294	2526.623787
401.036549	2526.099507
401.418742	2526.220495
401.800874	2525.708818
402.182944	2526.132275
402.564952	2521.935514
402.946898	2526.228057
403.328783	2528.355423
403.710606	2528.146216
404.092367	2525.993643
404.474067	2528.804086
404.855705	2524.884589
405.237282	2529.003212
405.618797	2525.640762
406.000250	2526.502799
406.381642	2528.350382
406.762972	2528.063037
407.144240	2529.676206
407.525447	2528.988088
407.906593	2530.359282
408.287677	2531.004550
408.668700	2530.923891
409.049661	2530.021525
409.430560	2528.307533
409.811399	2531.145702
410.192176	2528.040351
410.572891	2529.098994
410.953545	2528.652852
411.334138	2531.581762
411.714669	2529.323325
412.095139	2528.310053
412.475547	2530.908768
412.855894	2530.336597
413.236180	2530.220650
413.616405	2533.084026
413.996568	2530.762574
414.376670	2530.170239
414.756711	2530.359282
415.136691	2533.691485
415.516609	2530.555887
415.896466	2531.952287
416.276262	2531.377595
416.655997	2529.824920
417.035670	2526.147398
417.415283	2530.281144
417.794834	2528.587317
418.174324	2531.556556
418.553753	2533.668800
418.933121	2531.672503
419.312428	2532.290044
419.691674	2532.834489
420.070859	2533.686444
420.449983	2533.386495
420.829045	2531.342307
421.208047	2532.095960
421.586988	2533.991433
421.965867	2533.555374
422.344686	2534.109901
422.723444	2532.710980
423.102141	2535.108049
423.480777	2536.900179
423.859352	2535.385313
424.237866	2532.484128
424.616319	2531.763243
424.994712	2533.749458
425.373044	2536.267514
425.751314	2534.830786
426.129524	2536.307844
426.507673	2533.719211
426.885762	2533.043697
427.263789	2534.939170
427.641756	2534.563604
428.019662	2535.541588
428.397508	2535.859181
428.775292	2539.307330
429.153016	2534.818183
429.530679	2535.642411
429.908282	2537.096784
430.285824	2538.145344
430.663305	2535.012267
431.040726	2535.413039
431.418086	2535.357586
431.795385	2536.544778
432.172624	2536.746424
432.549802	2539.307330
432.926920	2537.938657
433.303977	2539.151054
433.680974	2539.539223
434.057910	2534.906403
434.434786	2535.370189
434.811601	2538.092412
435.188355	2538.132741
435.565050	2538.667104
435.941683	2539.468647
436.318257	2537.447144
436.694770	2533.757020
437.071222	2535.095446
437.447614	2533.373892
437.823946	2533.809952
438.200218	2539.065355
438.576429	2539.027546
438.952580	2539.405633
439.328670	2541.079296
439.704700	2539.778678
440.080670	2538.619213
440.456580	2540.315561
440.832429	2538.304141
441.208218	2537.391692
441.583947	2540.010571
441.959616	2539.526620
442.335224	2538.959491
442.710773	2540.192053
443.086261	2539.209028
443.461689	2537.187525
443.837057	2538.901517
444.212365	2538.276414
444.587612	2539.536703
444.962800	2542.168185
445.337927	2541.016281
445.712995	2541.200283
446.088002	2542.624409
446.462949	2540.365972
446.837837	2542.715150
447.212664	2539.027546
447.587431	2541.545602
447.962139	2542.677342
448.336786	2541.911086
448.711374	2543.264636
449.085901	2542.720191
449.460369	2540.537372
449.834776	2539.801363
450.209124	2542.730274
450.583412	2540.222300
450.957640	2541.895963
451.331808	2537.842875
451.705917	2541.606096
452.079965	2540.343287
452.453954	2543.831766
452.827883	2542.208514
453.201752	2542.531148
453.575562	2543.486447
453.949311	2539.934954
454.323001	2544.172044
454.696632	2540.907897
455.070202	2542.221117
455.443713	2543.612476
455.817164	2540.534851
456.190556	2538.410005
456.563888	2539.793802
456.937160	2537.938657
457.310373	2539.387989
457.683526	2542.962167
458.056619	2542.707588
458.429653	2544.406457
458.802628	2546.501057
459.175542	2543.037784
459.548398	2544.429142
459.921194	2543.521735
460.293930	2542.793288
460.666607	2543.509132
461.039224	2544.983669
461.411782	2541.593493
461.784280	2543.415871
462.156719	2543.650284
462.529099	2545.331509
462.901419	2544.776982
463.273680	2544.701365
463.645882	2544.537527
464.018024	2543.085675
464.390106	2546.765717
464.762130	2544.645912
465.134094	2544.068700
465.505999	2545.767569
465.877845	2543.919986
466.249631	2545.308824
466.621358	2545.457538
466.993026	2547.113557
467.364634	2548.774617
467.736184	2545.336550
468.107674	2545.142466
468.479105	2545.245809
468.850477	2542.715150
469.221790	2546.977446
469.593043	2547.965512
469.964238	2547.282436
470.335373	2542.311858
470.706449	2545.573484
471.077467	2544.487116
471.448425	2544.908052
471.819324	2545.598690
472.190164	2547.383259
472.560945	2545.134904
472.931667	2543.683052
473.302330	2545.495347
473.672934	2544.567774
474.043479	2547.098433
474.413965	2545.218083
474.784393	2541.424615
475.154761	2544.363607
475.525070	2542.160623
475.895321	2541.895963
476.265513	2542.379913
476.635645	2545.102137
477.005719	2547.456355
477.375734	2549.392158
477.745691	2546.133052
478.115588	2549.034237
478.485427	2546.990049
478.855207	2548.290666
479.224928	2544.751776
479.594591	2547.148845
479.964194	2543.448638
480.333739	2546.768238
480.703226	2545.868392
481.072653	2547.027857
481.442022	2546.269164
481.811333	2545.563402
482.180584	2545.260933
482.549777	2545.888557
482.918912	2546.848896
483.287988	2549.752601
483.657005	2546.995090
484.025964	2548.467107
484.394864	2549.157745
484.763706	2552.903322
485.132489	2546.180943
485.501213	2548.293187
485.869879	2547.715975
486.238487	2546.876623
486.607036	2546.228834
486.975527	2548.293187
487.343959	2546.163299
487.712333	2547.463917
488.080648	2547.917621
488.448905	2549.593805
488.817104	2547.456355
489.185244	2549.251006
489.553326	2549.452652
489.921350	2548.446942
490.289315	2547.912580
490.657222	2547.726057
491.025070	2549.205636
491.392861	2548.862837
491.760593	2549.198074
492.128267	2548.262940
492.495883	2551.282591
492.863440	2549.598846
493.230939	2548.325954
493.598380	2548.991387
493.965763	2544.532486
494.333088	2543.821683
494.700354	2545.089534
495.067563	2545.886036
495.434713	2545.255892
495.801805	2547.254709
496.168839	2549.082128
496.535815	2546.480892
496.902733	2547.670604
497.269593	2549.303938
497.636395	2546.564071
498.003139	2549.127498
498.369825	2548.083979
498.736453	2549.026675
499.103023	2546.369987
499.469535	2546.828732
499.835989	2551.247303
500.202385	2551.307797
500.568723	2552.003476
500.935003	2551.794268
501.301226	2550.619679
501.667390	2549.606408
502.033497	2549.114895
502.399546	2550.488609
502.765537	2549.210677
503.131470	2550.231511
503.497345	2550.402910
503.863163	2549.934082
504.228923	2549.513146
504.594625	2547.940306
504.960269	2551.022972
505.325856	2552.472303
505.691385	2550.065152
506.056856	2550.576830
506.422270	2549.704710
506.787625	2547.640357
507.152924	2547.632796
507.518164	2550.108002
507.883347	2548.114226
508.248472	2550.347457
508.613540	2548.638506
508.978550	2550.780996
509.343503	2552.333672
509.708398	2551.123795
510.073236	2550.362581
510.438016	2549.876109
510.802738	2552.666388
511.167403	2550.080276
511.532010	2550.566747
511.896561	2553.508261
512.261053	2551.587581
512.625488	2551.254865
512.989866	2546.261602
513.354186	2545.500388
513.718449	2544.887888
514.082655	2549.319062
514.446803	2549.301418
514.810894	2552.099258
515.174927	2550.657488
515.538904	2552.855431
515.902822	2549.568599
516.266684	2551.481717
516.630488	2550.191181
516.994235	2550.551624
517.357925	2548.106664
517.721558	2552.931048
518.085133	2551.242262
518.448651	2549.112374
518.812112	2550.637323
519.175516	2551.413661
519.538863	2551.030533
519.902152	2551.156562
520.265385	2551.363250
520.628560	2551.295194
520.991678	2550.775955
521.354739	2549.535831
521.717743	2550.344937
522.080690	2549.742519
522.443580	2551.564896
522.806413	2550.896943
523.169189	2550.276881
523.531908	2550.007179
523.894569	2551.146480
524.257174	2550.992725
524.619722	2549.878630
524.982213	2552.220246
525.344647	2550.614638
525.707025	2552.313507
526.069345	2551.670760
526.431608	2548.764535
526.793815	2553.162942
527.155964	2551.655637
527.518057	2552.656306
527.880093	2550.491130
528.242072	2551.937941
528.603995	2551.456511
528.965860	2552.918446
529.327669	2550.715461
529.689421	2552.157231
530.051117	2550.939793
530.412755	2551.244783
530.774337	2551.043136
531.135862	2553.016748
531.497331	2552.971378
531.858743	2548.406613
532.220098	2549.049360
532.581396	2548.835111
532.942638	2548.686397
533.303824	2551.554813
533.664953	2551.398538
534.026025	2551.821995
534.387040	2552.936090
534.747999	2551.854762
535.108902	2551.771583
535.469748	2552.512633
535.830537	2552.195040
536.191270	2552.860472
536.551947	2552.699155
536.912567	2552.374001
537.273131	2554.324927
537.633638	2554.645041
537.994089	2551.390976
538.354483	2550.687735
538.714821	2550.062632
539.075103	2551.418702
539.435328	2549.692107
539.795497	2554.750905
540.155609	2551.519525
540.515665	2552.232849
540.875665	2551.869886
541.235609	2553.193188
541.595496	2555.575134
541.955328	2556.333827
542.315102	2553.490617
542.674821	2553.024310
543.034483	2554.125802
543.394090	2552.154711
543.753640	2554.859290
544.113134	2554.755946
544.472571	2552.648744
544.831953	2550.246634
545.191278	2551.103630
545.550548	2552.310987
545.909761	2551.297715
546.268918	2551.275029
546.628019	2554.075390
546.987064	2552.898281
547.346053	2552.953734
547.704986	2553.445246
548.063863	2554.105637
548.422684	2552.124464
548.781449	2551.753939
549.140158	2551.600184
549.498811	2552.366439
549.857408	2551.461552
550.215949	2548.676315
550.574434	2549.644216
550.932864	2549.477858
551.291237	2550.259237
551.649555	2555.486913
552.007817	2554.392983
552.366022	2553.873744
552.724173	2552.467262
553.082267	2555.186965
553.440305	2552.038764
553.798288	2556.774928
554.156215	2549.780327
554.514086	2552.038764
554.871902	2550.755791
555.229661	2552.220246
555.587365	2553.127653
555.945014	2552.530277
556.302606	2551.915256
556.660143	2552.515153
557.017625	2552.966337
557.375050	2554.014897
557.732421	2550.854093
558.089735	2555.764177
558.446994	2553.762839
558.804197	2553.069680
559.161345	2553.127653
559.518437	2554.549259
559.875474	2553.717468
560.232455	2553.606563
560.589381	2552.724361
560.946251	2554.390463
561.303065	2554.861810
561.659825	2552.772252
562.016528	2553.392314
562.373177	2552.119423
562.729770	2553.112530
563.086307	2552.885678
563.442789	2554.120761
563.799216	2553.450287
564.155587	2550.735626
564.511904	2553.256203
564.868164	2553.185627
565.224370	2552.358878
565.580520	2552.394166
565.936615	2553.223435
566.292654	2552.003476
566.648638	2553.735113
567.004567	2554.130843
567.360441	2552.749567
567.716260	2552.752088
568.072023	2548.767055
568.427732	2549.321582
568.783385	2553.588919
569.138982	2549.442570
569.494525	2550.947354
569.850013	2550.072714
570.205445	2552.573127
570.560823	2550.700338
570.916145	2554.093034
571.271412	2554.130843
571.626625	2555.073539
571.981782	2552.847869
572.336884	2552.031202
572.691931	2555.761656
573.046923	2552.361398
573.401860	2554.927345
573.756743	2553.210833
574.111570	2553.528425
574.466342	2549.598846
574.821059	2553.329300
575.175722	2553.046995
575.530330	2553.651933
575.884882	2554.191337
576.239380	2553.198230
576.593823	2557.765515
576.948211	2552.981460
577.302544	2556.245607
577.656823	2552.928528
578.011047	2554.140925
578.365216	2551.680842
578.719330	2552.031203
579.073389	2552.346275
579.427394	2550.836449
579.781344	2553.687222
580.135239	2553.840977
580.489080	2553.326779
580.842866	2552.691594
581.196597	2554.582026
581.550273	2554.176213
581.903895	2555.706204
582.257463	2551.867365
582.610975	2552.999104
582.964434	2551.915256
583.317837	2553.374670
583.671186	2554.766028
584.024481	2551.514484
584.377721	2553.152859
584.730906	2550.672612
585.084037	2551.577499
585.437113	2554.944989
585.790135	2554.408107
586.143103	2554.708055
586.496016	2554.992880
586.848874	2550.324772
587.201679	2550.680173
587.554428	2547.292518
587.907124	2552.121943
588.259765	2550.954916
588.612352	2552.742005
588.964884	2552.653785
589.317362	2555.166800
589.669786	2555.002963
590.022155	2552.646223
590.374470	2553.614125
590.726731	2554.201419
591.078937	2552.431974
591.431090	2555.514640
591.783188	2556.149825
592.135232	2553.294012
592.487222	2552.663867
592.839157	2553.588919
593.191038	2552.868034
593.542866	2553.727551
593.894639	2551.338044
594.246358	2551.980791
594.598022	2550.571788
594.949633	2553.566234
595.301190	2553.205791
595.652692	2553.185627
596.004141	2551.446429
596.355535	2555.053374
596.706876	2554.476162
597.058162	2554.481203
597.409395	2554.133364
597.760573	2552.842828
598.111698	2551.529608
598.462768	2551.892571
598.813785	2550.201264
599.164748	2552.154711
599.515657	2553.498178
599.866511	2554.458518
600.217312	2554.955072
600.568060	2550.607077
600.918753	2556.159907
601.269392	2551.892571
601.619978	2553.689742
601.970510	2552.956254
602.320988	2554.881975
602.671412	2553.576316
603.021783	2553.848538
603.372100	2551.905174
603.722363	2555.343241
604.072572	2553.251162
604.422728	2555.063457
604.772830	2551.343085
605.122878	2549.253527
605.472872	2550.813764
605.822813	2550.392827
606.172701	2553.195709
606.522534	2553.853580
606.872314	2554.529094
607.222041	2552.953734
607.571714	2553.351985
607.921333	2555.474311
608.270899	2553.351985
608.620411	2556.326266
608.969870	2555.887685
609.319276	2554.531615
609.668627	2558.020093
610.017926	2558.824157
610.367171	2563.136864
610.716362	2561.329611
611.065500	2558.846842
611.414585	2555.973385
611.763616	2557.788200
612.112594	2555.897768
612.461518	2555.383570
612.810389	2556.374157
613.159207	2555.854918
613.507971	2555.378529
613.856682	2557.316852
614.205340	2554.927345
614.553945	2555.141594
614.902496	2556.207798
615.250994	2555.847356
615.599439	2554.687891
615.947830	2553.238559
616.296169	2552.154711
616.644454	2555.945658
616.992686	2553.813250
617.340864	2553.601522
617.688990	2551.859803
618.037063	2554.564382
618.385082	2553.543549
618.733048	2554.173693
619.080961	2555.658313
619.428821	2554.324928
619.776628	2555.814588
620.124382	2553.046995
620.472083	2553.009186
620.819731	2554.849208
621.167326	2554.962633
621.514868	2554.841646
621.862357	2553.566234
622.209793	2555.128992
622.557176	2555.728889
622.904506	2550.241593
623.251783	2552.648744
623.599007	2550.213867
623.946179	2549.646737
624.293297	2551.758980
624.640363	2554.367777
624.987376	2555.083621
625.334336	2552.237890
625.681243	2554.009855
626.028097	2553.372149
626.374899	2553.541028
626.721647	2551.852242
627.068343	2553.752757
627.414987	2552.721841
627.761577	2551.650595
628.108115	2552.825184
628.454600	2554.637479
628.801032	2553.914073
629.147412	2554.395504
629.493739	2553.251162
629.840014	2554.851728
630.186236	2553.021789
630.532405	2551.022972
630.878521	2552.724361
631.224585	2554.019938
631.570597	2555.234856
631.916556	2556.366595
632.262462	2552.885678
632.608316	2553.467931
632.954117	2552.089176
633.299866	2555.280226
633.645562	2551.895091
633.991206	2553.110009
634.336797	2550.889381
634.682336	2554.087993
635.027823	2550.589432
635.373257	2552.084135
635.718639	2553.334341
636.063968	2554.282078
636.409245	2552.018600
636.754470	2552.666388
637.099642	2551.922818
637.444762	2549.881150
637.789829	2552.565565
638.134845	2554.287119
638.479808	2549.911397
638.824719	2551.232180
639.169577	2551.320400
639.514383	2555.106306
639.859137	2553.662016
640.203839	2553.619166
640.548489	2552.197561
640.893086	2548.388969
641.237632	2545.480223
641.582125	2550.085317
641.926566	2546.357384
642.270955	2554.171172
642.615292	2552.744526
642.959576	2553.178065
643.303809	2552.615976
643.647990	2553.009186
643.992118	2550.985163
644.336195	2554.854249
644.680219	2552.754608
645.024192	2553.137736
645.368112	2551.635472
645.711981	2552.431974
646.055797	2554.100596
646.399562	2552.928528
646.743274	2551.426264
647.086935	2552.646223
647.430544	2551.418702
647.774101	2551.776624
648.117606	2552.048847
648.461059	2553.364588
648.804460	2552.747046
649.147810	2553.883827
649.491108	2552.452139
649.834354	2555.043292
650.177548	2554.697973
650.520690	2552.356357
650.863781	2553.785524
651.206820	2558.836760
651.549807	2553.314176
651.892742	2551.852242
652.235626	2553.493137
652.578458	2552.008517
652.921238	2552.540359
653.263967	2555.149156
653.606644	2554.045143
653.949269	2552.046326
654.291843	2552.928528
654.634365	2554.783673
654.976836	2554.435833
655.319255	2552.792417
655.661622	2550.871737
656.003938	2552.558003
656.346203	2551.930379
656.688416	2552.729402
657.030577	2554.977757
657.372687	2553.225956
657.714746	2550.609597
658.056753	2552.588250
658.398708	2547.005172
658.740612	2551.181768
659.082465	2548.494833
659.424266	2551.325441
659.766016	2549.029195
660.107715	2549.760163
660.449362	2553.472973
660.790958	2550.559186
661.132503	2552.189999
661.473996	2551.353167
661.815438	2552.379042
662.156829	2553.493137
662.498168	2551.711089
662.839456	2551.872406
663.180693	2552.210163
663.521879	2552.016079
663.863013	2552.023641
664.204097	2553.014227
664.545129	2551.590102
664.886110	2551.897612
665.227040	2551.456511
665.567918	2550.697817
665.908746	2553.173024
666.249522	2555.670916
666.590248	2549.669422
666.930922	2553.344423
667.271545	2554.398024
667.612118	2554.065308
667.952639	2550.405430
668.293109	2551.406099
668.633528	2553.011707
668.973896	2553.266285
669.314213	2554.382901
669.654480	2551.738816
669.994695	2550.793599
670.334859	2551.607746
670.674973	2550.236552
671.015035	2551.693445
671.355047	2552.043805
671.695008	2554.057746
672.034918	2553.467931
672.374777	2551.212015
672.714585	2551.333003
673.054342	2553.309135
673.394049	2554.075390
673.733705	2552.810061
674.073310	2552.074052
674.412864	2555.713765
674.752368	2550.286963
675.091820	2550.964998
675.431223	2551.514484
675.770574	2553.800647
676.109875	2547.874771
676.449125	2551.930379
676.788324	2547.342929
677.127473	2550.150852
677.466571	2548.638506
677.805619	2552.237890
678.144616	2551.615307
678.483562	2551.204453
678.822458	2551.239741
679.161303	2552.754608
679.500098	2552.008517
679.838842	2551.695966
680.177535	2552.152190
680.516179	2551.436346
680.854771	2553.611604
681.193314	2552.522715
681.531805	2552.255534
681.870247	2553.546069
682.208638	2551.038095
682.546978	2552.784855
682.885268	2552.789896
683.223508	2553.994732
683.561697	2550.032385
683.899836	2551.733774
684.237925	2552.270657
684.575963	2551.890050
684.913951	2550.627241
685.251889	2553.213353
685.589776	2550.675132
685.927614	2552.850390
686.265401	2552.497509
686.603137	2548.756973
686.940824	2553.311656
687.278460	2552.242931
687.616046	2550.765873
687.953582	2552.298384
688.291068	2550.506253
688.628504	2552.641182
688.965889	2552.212684
689.303224	2555.658313
689.640510	2549.187992
689.977745	2549.976932
690.314930	2552.114382
690.652065	2552.646223
690.989150	2552.971378
691.326185	2554.229146
691.663170	2550.491130
692.000105	2550.801161
692.336990	2551.708569
692.673825	2555.033210
693.010610	2552.588250
693.347345	2547.133722
693.684030	2547.138763
694.020665	2550.286963
694.357251	2547.216901
694.693786	2552.545400
695.030272	2550.423074
695.366707	2553.067160
695.703093	2551.950544
696.039429	2552.285781
696.375716	2551.766542
696.711952	2551.932900
697.048139	2550.959957
697.384276	2552.777293
697.720363	2551.333003
698.056400	2550.496171
698.392388	2552.285781
698.728326	2551.396017
699.064214	2551.557334
699.400053	2550.110523
699.735842	2551.373332
700.071581	2551.680842
700.407270	2552.237890
700.742910	2551.658157
701.078501	2548.908208
701.414042	2554.017417
701.749533	2550.962478
702.084974	2552.973898
702.420366	2551.978270
702.755709	2552.172355
703.091002	2549.739998
703.426246	2552.237890
703.761440	2552.739485
704.096584	2553.351985
704.431679	2552.956254
704.766725	2551.814433
705.101721	2552.764690
705.436668	2550.178578
705.771565	2552.706717
706.106413	2550.730585
706.441212	2550.075235
706.775961	2551.164124
707.110661	2549.757642
707.445311	2551.068342
707.779913	2549.941644
708.114465	2554.657644
708.448967	2548.978784
708.783421	2552.774773
709.117825	2549.855945
709.452180	2551.501881
709.786485	2551.310317
710.120742	2553.057077
710.454949	2550.594474
710.789107	2550.044988
711.123216	2548.275543
711.457275	2547.852086
711.791286	2546.858979
712.125247	2549.702189
712.459159	2552.147149
712.793023	2552.492468
713.126837	2550.581871
713.460602	2550.957437
713.794318	2551.728733
714.127985	2550.405430
714.461602	2550.970040
714.795171	2550.299566
715.128691	2553.755277
715.462162	2551.711089
715.795584	2551.461552
716.128957	2549.619010
716.462281	2550.322251
716.795556	2551.330482
717.128782	2548.819987
717.461960	2552.815102
717.795088	2551.544731
718.128167	2551.459032
718.461198	2550.453321
718.794180	2551.166645
719.127113	2547.930224
719.459997	2549.286294
719.792833	2551.917777
720.125619	2550.211346
720.458357	2550.881819
720.791046	2550.410472
721.123686	2550.876778
721.456278	2551.726213
721.788821	2552.409289
722.121315	2553.694783
722.453761	2546.309493
722.786158	2553.021789
723.118506	2550.397869
723.450805	2550.286963
723.783056	2552.999104
724.115259	2550.365101
724.447412	2550.786037
724.779518	2549.480379
725.111574	2551.975750
725.443582	2551.244782
725.775542	2551.285112
726.107453	2551.650595
726.439315	2551.166645
726.771129	2556.951369
727.102895	2551.005328
727.434612	2552.338713
727.766281	2549.046839
728.097901	2549.301418
728.429473	2548.404092
728.760996	2549.445091
729.092471	2547.151366
729.423897	2552.502550
729.755276	2549.445091
730.086606	2552.439536
730.417887	2548.918290
730.749120	2549.860986
731.080305	2551.713610
731.411442	2550.256716
731.742530	2549.891233
732.073570	2550.092879
732.404562	2548.784699
732.735506	2550.934752
733.066401	2553.263765
733.397249	2549.147662
733.728048	2550.418033
734.058798	2551.504402
734.389501	2550.602035
734.720156	2549.964329
735.050762	2551.927859
735.381320	2549.397200
735.711831	2550.216387
736.042293	2548.404092
736.372707	2549.308979
736.703073	2552.724361
737.033391	2547.995759
737.363661	2549.936603
737.693883	2549.845862
738.024056	2552.736964
738.354182	2547.305121
738.684260	2550.423074
739.014290	2551.091027
739.344272	2550.811243
739.674207	2547.713454
740.004093	2553.117571
740.333931	2549.593805
740.663722	2548.267981
740.993464	2550.317210
741.323159	2550.657488
741.652806	2550.806202
741.982405	2551.479196
742.311956	2551.892571
742.641460	2551.206974
742.970915	2549.906356
743.300323	2550.188661
743.629683	2549.273691
743.958996	2551.491799
744.288260	2549.114895
744.617477	2549.929041
744.946647	2545.858310
745.275768	2547.383259
745.604842	2547.587425
745.933869	2547.660522
746.262847	2545.160110
746.591778	2547.741181
746.920662	2550.090358
747.249498	2551.569937
747.578286	2551.552293
747.907027	2550.178578
748.235720	2549.601366
748.564365	2552.568085
748.892963	2548.900646
749.221514	2548.451983
749.550017	2552.104299
749.878473	2550.594474
750.206881	2549.180430
750.535242	2551.706048
750.863555	2551.890050
751.191821	2550.251675
751.520039	2551.832077
751.848210	2551.832077
752.176334	2548.225131
752.504411	2549.490461
752.832440	2552.474824
753.160421	2549.808054
753.488356	2550.990204
753.816243	2549.394679
754.144082	2548.207487
754.471875	2549.404761
754.799620	2551.141439
755.127318	2548.537683
755.454969	2550.065152
755.782572	2550.327293
756.110129	2549.782848
756.437638	2549.225800
756.765100	2547.315203
757.092515	2548.177240
757.419882	2550.095399
757.747203	2551.701007
758.074477	2547.587425
758.401703	2552.661347
758.728882	2549.911397
759.056014	2548.038609
759.383099	2549.417364
759.710138	2550.987684
760.037129	2549.530790
760.364073	2551.479196
760.690970	2549.369473
761.017820	2550.455842
761.344623	2549.858465
761.671379	2550.614638
761.998088	2546.541386
762.324751	2547.574823
762.651366	2546.367466
762.977935	2546.682538
763.304456	2544.204811
763.630931	2548.799823
763.957359	2547.151366
764.283740	2547.383259
764.610074	2549.233362
764.936362	2549.790410
765.262602	2548.630944
765.588796	2548.509957
765.914943	2551.912735
766.241044	2548.320913
766.567097	2547.650440
766.893104	2548.794782
767.219064	2548.257899
767.544978	2550.254196
767.870845	2547.597508
768.196665	2552.459701
768.522438	2547.116077
768.848165	2550.531459
769.173846	2550.654968
769.499479	2550.017262
769.825066	2548.270502
770.150607	2549.271171
770.476101	2549.077086
770.801548	2552.116902
771.126949	2548.812426
771.452303	2550.155893
771.777611	2549.654298
772.102872	2548.371325
772.428087	2550.176058
772.753256	2550.251675
773.078378	2547.819318
773.403453	2549.465255
773.728482	2548.678835
774.053465	2550.488609
774.378401	2549.344268
774.703291	2549.364432
775.028135	2548.693959
775.352932	2546.712785
775.677683	2548.623382
776.002388	2550.375183
776.327046	2549.215718
776.651658	2548.608259
776.976224	2548.784699
777.300743	2547.282436
777.625216	2551.305276
777.949643	2550.400389
778.274024	2549.114895
778.598359	2542.894111
778.922647	2546.097764
779.246889	2545.815460
779.571086	2546.004503
779.895236	2545.321427
780.219339	2548.714123
780.543397	2550.919628
780.867409	2548.267981
781.191374	2548.285625
781.515294	2549.866027
781.839167	2546.175902
782.162995	2547.597508
782.486776	2545.162630
782.810511	2550.208825
783.134201	2550.816284
783.457844	2546.732950
783.781441	2549.936603
784.104993	2547.721016
784.428498	2547.347971
784.751958	2546.100285
785.075372	2548.890564
785.398739	2549.621531
785.722061	2549.374514
786.045337	2548.467107
786.368568	2551.063301
786.691752	2548.484751
787.014891	2547.269833
787.337983	2549.820657
787.661030	2548.867878
787.984031	2550.145811
788.306987	2546.372507
788.629897	2547.814277
788.952760	2547.416026
789.275579	2548.739329
789.598351	2549.578681
789.921078	2549.709751
790.243759	2551.910215
790.566395	2547.302600
790.888984	2548.666232
791.211529	2547.426108
791.534027	2553.278888
791.856480	2550.682694
792.178888	2549.992056
792.501249	2549.387117
792.823566	2547.726057
793.145836	2546.317055
793.468062	2549.523228
793.790241	2547.645399
794.112375	2550.246634
794.434464	2546.601880
794.756507	2550.445760
795.078505	2547.095913
795.400457	2545.737322
795.722364	2543.841848
796.044226	2546.254040
796.366042	2547.605069
796.687812	2548.197405
797.009538	2549.185471
797.331218	2549.855945
797.652852	2547.131201
797.974442	2548.242775
798.295986	2548.981304
798.617484	2551.380894
798.938938	2546.564071
799.260346	2548.908208
799.581709	2548.676315
799.903026	2548.008362
800.224299	2547.037940
800.545526	2548.177240
800.866708	2549.427447
801.187845	2548.502395
801.508936	2547.368135
801.829983	2548.436860
802.150984	2547.743701
802.471940	2548.048691
802.792851	2546.987528
803.113717	2551.378373
803.434538	2548.265461
803.755314	2547.884853
804.076045	2548.850234
804.396731	2547.277394
804.717372	2548.315872
805.037967	2547.400903
805.358518	2550.448280
805.679024	2549.503064
805.999485	2550.057591
806.319901	2549.112374
806.640272	2547.867209
806.960598	2547.892415
807.280879	2547.562220
807.601115	2550.077755
807.921306	2545.770089
808.241453	2548.391489
808.561554	2546.092723
808.881611	2550.357539
809.201623	2550.473486
809.521590	2546.997610
809.841513	2548.341078
810.161390	2549.387117
810.481223	2548.187323
810.801011	2546.881664
811.120755	2547.761345
811.440453	2550.944834
811.760107	2548.139432
812.079716	2546.128011
812.399281	2545.046684
812.718801	2543.214224
813.038276	2542.253885
813.357707	2547.012734
813.677093	2548.179761
813.996434	2546.490974
814.315731	2546.485933
814.634983	2547.514329
814.954191	2545.923845
815.273354	2547.947868
815.592473	2549.440049
815.911547	2546.508618
816.230577	2549.598846
816.549562	2548.583053
816.868502	2547.723537
817.187399	2547.993238
817.506250	2546.347302
817.825058	2547.121119
818.143821	2548.083979
818.462539	2546.957281
818.781213	2549.671943
819.099843	2545.737322
819.418429	2547.884853
819.736970	2550.012220
820.055466	2550.070194
820.373919	2544.169523
820.692327	2548.812426
821.010691	2546.596839
821.329011	2545.321427
821.647286	2548.832590
821.965517	2545.780172
822.283704	2545.641540
822.601847	2547.184133
822.919945	2547.143804
823.237999	2545.271015
823.556010	2550.239072
823.873976	2550.153373
824.191897	2545.891077
824.509775	2547.781510
824.827609	2547.746222
825.145398	2548.958619
825.463144	2546.992569
825.780845	2546.362425
826.098502	2551.285112
826.416116	2549.523228
826.733685	2545.230686
827.051210	2547.761345
827.368692	2546.609442
827.686129	2549.175389
828.003522	2547.133722
828.320872	2544.469472
828.638177	2545.883515
828.955439	2542.405119
829.272656	2545.094575
829.589830	2544.028371
829.906960	2549.818136
830.224046	2547.151366
830.541088	2547.980635
830.858086	2547.113557
831.175041	2549.130018
831.491952	2548.169679
831.808819	2549.797971
832.125642	2550.105482
832.442421	2548.507436
832.759157	2549.354350
833.075849	2545.487785
833.392497	2549.896274
833.709101	2549.918959
834.025662	2547.093392
834.342179	2545.828063
834.658653	2546.213711
834.975083	2547.746222
835.291469	2551.199412
835.607811	2549.755122
835.924110	2546.644730
836.240366	2548.635985
836.556578	2548.026006
836.872746	2547.398382
837.188871	2545.565923
837.504952	2546.523742
837.820990	2547.408464
838.136984	2545.996941
838.452935	2545.790254
838.768842	2546.627086
839.084706	2545.492826
839.400526	2546.866540
839.716303	2547.864689
840.032037	2548.146993
840.347727	2546.299411
840.663373	2546.372507
840.978977	2546.395193
841.294537	2547.743701
841.610054	2549.518187
841.925527	2546.879143
842.240957	2547.620193
842.556344	2546.732950
842.871687	2546.949719
843.186987	2546.007024
843.502244	2547.834442
843.817458	2548.199926
844.132629	2547.834442
844.447756	2547.486602
844.762840	2543.473844
845.077881	2544.434184
845.392879	2545.417209
845.707833	2545.888557
846.022745	2542.964687
846.337613	2546.748073
846.652438	2547.630275
846.967221	2544.711447
847.281960	2547.176571
847.596656	2547.844524
847.911309	2544.726571
848.225919	2546.259081
848.540485	2548.983825
848.855009	2546.201108
849.169490	2547.257230
849.483928	2552.000956
849.798323	2545.374359
850.112675	2544.144317
850.426984	2545.820501
850.741251	2548.726726
851.055474	2547.751263
851.369654	2547.249668
851.683792	2548.572971
851.997887	2547.423588
852.311938	2547.171530
852.625947	2548.484751
852.939914	2544.398896
853.253837	2547.511808
853.567718	2545.472661
853.881555	2546.168341
854.195350	2546.095244
854.509103	2547.221942
854.822812	2549.180430
855.136479	2547.431150
855.450103	2547.809236
855.763685	2544.192208
856.077224	2548.217570
856.390720	2548.724206
856.704173	2548.378887
857.017584	2545.321427
857.330953	2546.609442
857.644278	2544.431663
857.957561	2549.041798
858.270802	2546.737991
858.584000	2545.644061
858.897155	2548.081458
859.210268	2547.095913
859.523339	2545.810419
859.836367	2549.472817
860.149352	2547.322765
860.462295	2551.275029
860.775195	2546.306972
861.088054	2543.100798
861.400869	2544.638350
861.713642	2542.024512
862.026373	2547.249668
862.339062	2548.104144
862.651708	2546.410316
862.964312	2546.392672
863.276873	2547.771427
863.589392	2546.531304
863.901869	2545.548279
864.214303	2545.306303
864.526696	2547.668084
864.839045	2549.180430
865.151353	2545.124822
865.463619	2545.195398
865.775842	2545.523073
866.088023	2546.891746
866.400162	2545.323947
866.712258	2547.542055
867.024313	2545.223124
867.336325	2545.288659
867.648296	2545.394523
867.960224	2546.581715
868.272110	2547.181613
868.583954	2546.919472
868.895755	2545.606252
869.207515	2544.560212
869.519233	2548.555327
869.830909	2545.087013
870.142542	2545.555840
870.454134	2545.157589
870.765684	2547.161448
871.077191	2545.475182
871.388657	2546.460727
871.700081	2548.764535
872.011463	2546.851417
872.322803	2545.109698
872.634101	2545.548279
872.945357	2546.748073
873.256571	2546.203629
873.567744	2545.376879
873.878874	2544.794626
874.189963	2548.061294
874.501010	2546.448125
874.812015	2548.431819
875.122979	2548.210008
875.433900	2543.612476
875.744780	2549.540872
876.055618	2545.122301
876.366415	2546.949719
876.677169	2546.760676
876.987882	2544.973587
877.298554	2544.587939
877.609183	2543.335212
877.919771	2540.096271
878.230317	2541.323792
878.540822	2548.247817
878.851285	2544.905532
879.161707	2545.444935
879.472087	2544.789585
879.782425	2546.657332
880.092722	2543.937630
880.402977	2546.937117
880.713191	2545.361756
881.023363	2546.218752
881.333494	2547.584905
881.643583	2545.240768
881.953631	2546.516180
882.263637	2545.306303
882.573602	2545.233207
882.883526	2545.346633
883.193408	2547.446273
883.503248	2545.044163
883.813048	2546.979966
884.122806	2543.975439
884.432522	2546.097764
884.742197	2544.867723
885.051831	2544.968546
885.361424	2544.610624
885.670975	2547.320244
885.980485	2544.857641
886.289954	2545.147507
886.599382	2544.424101
886.908768	2546.276725
887.218113	2543.367980
887.527417	2546.634647
887.836680	2543.597352
888.145901	2547.715975
888.455082	2544.421581
888.764221	2547.037940
889.073319	2543.922507
889.382376	2544.172044
889.691392	2545.268495
890.000366	2545.608773
890.309300	2543.541899
890.618193	2547.229503
890.927044	2548.245296
891.235855	2545.258412
891.544625	2546.513660
891.853353	2544.255223
892.162041	2545.480223
892.470687	2546.647250
892.779293	2547.703372
893.087858	2542.931920
893.396381	2542.815973
893.704864	2544.514842
894.013306	2540.403781
894.321707	2544.358566
894.630068	2544.419060
894.938387	2546.611962
895.246665	2547.809236
895.554903	2544.857641
895.863100	2545.936448
896.171256	2546.783361
896.479371	2547.017775
896.787446	2546.889226
897.095480	2546.982487
897.403473	2546.009544
897.711425	2543.216745
898.019336	2545.512991
898.327207	2544.320758
898.635038	2544.232537
898.942827	2544.960984
899.250576	2545.255892
899.558284	2542.616848
899.865952	2547.408464
900.173579	2545.379400
900.481165	2546.561551
900.788711	2543.718340
901.096216	2544.834955
901.403681	2548.762014
901.711105	2546.773279
902.018489	2545.472661
902.325832	2544.381252
902.633135	2545.460058
902.940397	2547.121119
903.247619	2545.462579
903.554800	2544.572815
903.861941	2544.913093
904.169041	2545.797816
904.476101	2543.672969
904.783121	2545.593649
905.090100	2544.300593
905.397039	2545.447456
905.703938	2544.040974
906.010796	2545.492826
906.317614	2545.074410
906.624391	2544.565254
906.931129	2546.889226
907.237826	2544.494678
907.544483	2545.460058
907.851099	2544.935778
908.157675	2543.617517
908.464211	2546.312013
908.770707	2540.093750
909.077163	2544.325799
909.383578	2542.296734
909.689954	2538.568801
909.996289	2543.557023
910.302584	2543.488967
910.608839	2546.448125
910.915054	2544.252702
911.221229	2544.101467
911.527363	2544.855120
911.833458	2547.158927
912.139513	2545.586087
912.445527	2545.651622
912.751502	2545.734801
913.057436	2545.560882
913.363331	2544.829914
913.669186	2545.767569
913.975000	2544.945861
914.280775	2546.284287
914.586510	2545.220604
914.892205	2542.102650
915.197859	2547.179092
915.503475	2546.652291
915.809050	2544.318237
916.114585	2546.299411
916.420081	2546.531304
916.725536	2542.689944
917.030952	2546.133052
917.336328	2544.083823
917.641665	2544.255223
917.946961	2544.540048
918.252218	2544.038453
918.557435	2546.284287
918.862612	2546.304452
919.167750	2545.132383
919.472848	2546.561551
919.777906	2544.668597
920.082925	2545.137425
920.387904	2543.380583
920.692843	2545.621375
920.997743	2545.442414
921.302603	2543.138607
921.607423	2544.255223
921.912204	2545.654143
922.216946	2544.895449
922.521647	2545.064328
922.826310	2545.271015
923.130932	2544.325799
923.435516	2545.248330
923.740059	2544.779503
924.044564	2544.953422
924.349028	2544.328319
924.653454	2539.602238
924.957840	2543.342774
925.262186	2540.214738
925.566493	2543.287321
925.870761	2537.696682
926.174989	2540.711292
926.479178	2546.309493
926.783328	2544.598021
927.087438	2546.982487
927.391509	2546.090203
927.695541	2544.489636
927.999533	2543.695655
928.303486	2543.645243
928.607400	2541.870757
928.911275	2544.519883
929.215110	2547.544576
929.518906	2543.423432
929.822663	2547.703372
930.126381	2545.356715
930.430060	2547.791592
930.733699	2544.091385
931.037299	2545.427291
931.340861	2542.475695
931.644383	2542.987373
931.947866	2546.715306
932.251309	2545.722198
932.554714	2544.270346
932.858080	2546.375028
933.161407	2544.918134
933.464694	2547.567261
933.767943	2543.620037
934.071153	2544.983669
934.374323	2542.422763
934.677455	2545.278577
934.980548	2546.165820
935.283602	2544.161961
935.586617	2543.975439
935.889593	2543.642723
936.192530	2546.180943
936.495428	2545.381921
936.798287	2544.265305
937.101108	2544.262784
937.403890	2547.030378
937.706632	2544.285470
938.009336	2546.001982
938.312002	2547.804195
938.614628	2543.768751
938.917216	2544.300593
939.219765	2542.074924
939.522275	2546.163299
939.824747	2547.443753
940.127179	2541.114584
940.429573	2541.888401
940.731929	2539.173740
941.034246	2540.275232
941.336524	2543.983000
941.638763	2545.830583
941.940964	2545.560882
942.243126	2544.010727
942.545250	2544.217414
942.847335	2545.633978
943.149381	2544.280428
943.451389	2543.436035
943.753359	2543.481406
944.055290	2542.289173
944.357182	2543.614996
944.659036	2542.626930
944.960851	2545.200439
945.262628	2543.980480
945.564367	2544.212373
945.866067	2541.338915
946.167729	2545.616334
946.469352	2542.669780
946.770937	2544.897970
947.072484	2544.507280
947.373992	2545.472661
947.675462	2543.239430
947.976893	2545.487785
948.278286	2543.123484
948.579641	2544.595501
948.880958	2543.400747
949.182236	2542.027033
949.483476	2543.919986
949.784678	2544.267826
950.085841	2543.257074
950.386967	2543.478885
950.688054	2543.957795
950.989103	2544.187167
951.290114	2543.814122
951.591087	2544.842517
951.892021	2543.385624
952.192917	2543.491488
952.493776	2543.287321
952.794596	2545.558361
953.095378	2544.109029
953.396122	2542.863864
953.696828	2545.328988
953.997496	2542.974770
954.298126	2544.149358
954.598718	2546.344781
954.899272	2543.912424
955.199788	2546.175902
955.500266	2544.678680
955.800706	2542.110212
956.101108	2541.437218
956.401472	2539.032587
956.701798	2541.371683
957.002087	2539.866898
957.302337	2540.048380
957.602550	2545.230686
957.902724	2543.889739
958.202861	2544.383772
958.502960	2542.122815
958.803022	2544.275387
959.103045	2543.541899
959.403031	2541.149872
959.702979	2544.106509
960.002889	2541.739687
960.302762	2546.480892
960.602596	2543.337733
960.902393	2544.139276
961.202153	2543.189019
961.501875	2542.485778
961.801559	2542.657177
962.101205	2545.104657
962.400814	2542.609286
962.700385	2543.468803
962.999918	2545.182795
963.299414	2542.674821
963.598873	2546.294369
963.898293	2541.243133
964.197677	2544.096426
964.497022	2543.831766
964.796331	2543.312527
965.095601	2543.914945
965.394835	2543.632640
965.694030	2544.194729
965.993189	2545.359235
966.292309	2542.846220
966.591393	2541.011240
966.890439	2543.884698
967.189447	2542.286652
967.488419	2544.053577
967.787353	2541.774975
968.086249	2540.872608
968.385108	2545.258412
968.683930	2543.660367
968.982714	2543.678011
969.281462	2542.758000
969.580172	2543.340253
969.878844	2542.712630
970.177480	2542.458051
970.476078	2543.098278
970.774639	2545.576005
971.073162	2543.466282
971.371649	2541.535520
971.670098	2540.192053
971.968510	2542.165664
972.266885	2539.919830
972.565223	2543.335212
972.863524	2540.590304
973.161788	2543.214224
973.460014	2543.743546
973.758204	2542.495860
974.056356	2544.837476
974.354471	2544.535007
974.652550	2545.482744
974.950591	2543.922507
975.248595	2544.391334
975.546563	2545.326468
975.844493	2543.020140
976.142386	2544.025850
976.440243	2544.207332
976.738062	2542.700027
977.035845	2541.190201
977.333590	2544.416540
977.631299	2544.063659
977.928971	2546.347302
978.226606	2542.435366
978.524204	2544.754297
978.821765	2544.005686
979.119290	2542.407640
979.416777	2541.706919
979.714228	2543.239430
980.011642	2541.321271
980.309020	2546.548948
980.606360	2544.900490
980.903664	2543.453679
981.200931	2543.698175
981.498162	2541.424615
981.795356	2542.533669
982.092513	2545.187836
982.389633	2544.658515
982.686717	2542.841179
982.983764	2543.554502
983.280775	2544.943340
983.577749	2542.931920
983.874686	2543.824204
984.171587	2541.364121
984.468451	2540.736497
984.765279	2540.151723
985.062070	2544.335881
985.358824	2540.572660
985.655543	2544.595501
985.952224	2542.301776
986.248869	2541.785057
986.545478	2542.538710
986.842050	2542.644574
987.138586	2539.050231
987.435086	2540.121477
987.731549	2538.152906
988.027975	2542.684903
988.324366	2544.424101
988.620719	2542.427804
988.917037	2544.217414
989.213318	2542.067362
989.509563	2545.056766
989.805772	2543.506611
990.101944	2541.422094
990.398080	2542.947043
990.694180	2542.828576
990.990244	2541.782537
991.286271	2539.544264
991.582262	2543.456200
991.878217	2543.103319
992.174136	2542.765562
992.470019	2546.581715
992.765865	2545.049204
993.061676	2542.445448
993.357450	2541.033925
993.653188	2543.940151
993.948890	2542.947043
994.244556	2542.077444
994.540186	2544.381252
994.835780	2542.654656
995.131337	2543.862013
995.426859	2545.076931
995.722345	2539.766075
996.017795	2540.098791
996.313208	2543.393185
996.608586	2542.969728
996.903928	2543.975439
997.199234	2540.789429
997.494504	2542.528627
997.789738	2541.044008
998.084936	2541.656508
998.380099	2541.916127
998.675225	2544.819832
998.970316	2541.225489
999.265371	2543.720860
999.560390	2544.847558
999.855373	2544.071221
1000.150320	2542.773123
1000.445232	2544.156920
1000.740108	2542.873947
1001.034948	2544.812270
1001.329752	2540.882691
1001.624521	2544.461910
1001.919254	2537.701723
1002.213951	2539.929913
1002.508613	2538.662062
1002.803239	2540.232382
1003.097829	2537.598379
1003.392384	2541.613658
1003.686903	2541.893442
1003.981386	2541.742208
1004.275834	2541.832948
1004.570246	2544.431663
1004.864623	2540.572660
1005.158964	2542.158103
1005.453270	2543.698175
1005.747540	2543.141128
1006.041775	2541.958977
1006.335974	2541.596014
1006.630138	2543.761190
1006.924266	2540.297917
1007.218359	2542.513504
1007.512416	2542.669780
1007.806438	2541.510314
1008.100425	2541.336395
1008.394376	2542.286652
1008.688292	2543.136087
1008.982172	2541.636343
1009.276017	2539.788760
1009.569827	2541.590973
1009.863602	2543.088196
1010.157341	2541.071734
1010.451045	2544.386293
1010.744714	2543.849410
1011.038347	2541.384286
1011.331945	2542.758000
1011.625508	2542.120294
1011.919036	2539.821528
1012.212528	2541.021323
1012.505986	2542.105171
1012.799408	2542.596683
1013.092795	2541.417053
1013.386147	2542.967208
1013.679464	2540.126518
1013.972745	2540.481919
1014.265992	2544.681200
1014.559204	2541.832948
1014.852380	2543.821683
1015.145521	2540.113915
1015.438628	2544.650953
1015.731699	2541.898483
1016.024736	2542.352187
1016.317737	2542.384955
1016.610703	2544.091385
1016.903635	2540.542413
1017.196531	2538.765406
1017.489393	2539.945036
1017.782219	2537.535365
1018.075011	2538.563760
1018.367768	2542.687424
1018.660490	2542.700027
1018.953177	2542.700027
1019.245829	2542.700027
