Dividing Wavelength (nm)	Counts (n)	Blue Motor Position (mm): 45.000000	Red Motor Position (mm): 0.000000	
326.493990	2048.513195
326.888308	2048.513195
327.282561	2048.513195
327.676750	2022.440347
328.070874	2024.048475
328.464933	2031.937881
328.858929	2040.225538
329.252859	2050.121323
329.646726	2064.113045
330.040528	2080.269943
330.434265	2096.540267
330.827938	2121.408279
331.221547	2139.256484
331.615091	2159.080822
332.008571	2183.064111
332.401986	2200.720753
332.795338	2221.099617
333.188625	2240.780282
333.581847	2260.445823
333.975006	2277.996600
334.368100	2295.078550
334.761129	2311.018678
335.154095	2328.899651
335.546996	2379.538041
335.939833	2487.990905
336.332606	2494.791421
336.725315	2510.968484
337.117960	2519.825791
337.510540	2529.696370
337.903056	2537.404295
338.295508	2544.716488
338.687896	2552.434495
339.080220	2555.426420
339.472480	2559.209806
339.864676	2566.395970
340.256807	2566.577452
340.648875	2571.348904
341.040879	2569.715570
341.432818	2569.534089
341.824694	2571.457289
342.216506	2574.353432
342.608253	2571.066599
342.999937	2570.459140
343.391557	2569.319840
343.783113	2569.433266
344.174605	2568.009140
344.566033	2566.963100
344.957397	2565.798594
345.348697	2561.957234
345.739934	2559.741647
346.131106	2563.325908
346.522215	2558.113355
346.913260	2556.482541
347.304241	2554.471121
347.695159	2552.023641
348.086012	2554.398024
348.476802	2551.950544
348.867528	2547.259750
349.258191	2543.373021
349.648789	2545.684390
350.039324	2538.243647
350.429796	2545.109698
350.820203	2542.269008
351.210548	2545.056766
351.600828	2544.013247
351.991045	2539.846734
352.381198	2539.582073
352.771288	2542.768082
353.161314	2539.342618
353.551276	2539.430838
353.941175	2538.394881
354.331010	2542.170706
354.720782	2542.019471
355.110490	2542.785726
355.500135	2541.575849
355.889717	2541.817825
356.279235	2543.161292
356.668689	2541.878319
357.058080	2544.255223
357.447408	2542.324461
357.836672	2543.478885
358.225873	2545.278577
358.615010	2547.232024
359.004084	2545.160110
359.393095	2546.601880
359.782043	2545.538196
360.170927	2546.299411
360.559748	2547.700851
360.948505	2547.048022
361.337199	2550.329813
361.725830	2551.806871
362.114398	2550.395348
362.502903	2549.001469
362.891344	2552.361398
363.279722	2548.411654
363.668037	2553.183106
364.056289	2551.257385
364.444478	2550.808723
364.832603	2555.197047
365.220665	2553.167983
365.608665	2553.523384
365.996601	2553.767880
366.384474	2555.403734
366.772284	2554.539177
367.160031	2556.825340
367.547715	2559.991184
367.935336	2556.301060
368.322893	2556.142263
368.710388	2554.196378
369.097820	2556.721996
369.485189	2556.779969
369.872495	2561.105279
370.259738	2561.458160
370.646918	2561.253993
371.034035	2565.702812
371.421090	2559.726524
371.808081	2558.408262
372.195010	2560.712069
372.581875	2558.294836
372.968678	2561.362378
373.355418	2563.283058
373.742096	2565.241546
374.128710	2564.427400
374.515262	2565.808676
374.901751	2566.716084
375.288177	2568.924109
375.674540	2566.751372
376.060841	2566.184242
376.447079	2566.479149
376.833254	2569.604665
377.219367	2569.433266
377.605417	2569.816393
377.991404	2569.095508
378.377329	2571.631209
378.763191	2571.530386
379.148991	2570.708678
379.534727	2572.778071
379.920402	2573.879563
380.306013	2574.439131
380.691563	2579.079513
381.077049	2577.950295
381.462474	2580.980028
381.847835	2582.845255
382.233134	2589.176945
382.618371	2586.837849
383.003545	2593.265320
383.388657	2594.543253
383.773706	2603.574480
384.158693	2604.098760
384.543618	2614.334823
384.928480	2617.230966
385.313280	2623.098869
385.698017	2630.673202
386.082692	2640.042187
386.467305	2646.394041
386.851856	2657.313180
387.236344	2667.214006
387.620770	2672.723987
388.005133	2683.272602
388.389435	2698.650642
388.773674	2705.662887
389.157851	2725.968654
389.541965	2736.305540
389.926018	2749.916656
390.310008	2767.356527
390.693936	2780.861778
391.077802	2800.900365
391.461606	2818.246975
391.845348	2833.075529
392.229027	2854.059332
392.612645	2881.826008
392.996200	2902.761920
393.379694	2931.183945
393.763125	2958.582616
394.146494	2983.339723
394.529801	3011.529855
394.913047	3046.586039
395.296230	3060.718914
395.679351	3085.523911
396.062410	3127.063019
396.445408	3128.794655
396.828343	3165.698422
397.211217	3197.472815
397.594028	3198.786035
397.976778	3243.097777
398.359466	3278.184208
398.742092	3302.222950
399.124656	3325.994511
399.507158	3382.006772
399.889598	3402.259607
400.271977	3461.979636
400.654294	3469.987509
401.036549	3526.024975
401.418742	3543.999209
401.800874	3609.325002
402.182944	3648.353615
402.564952	3726.839339
402.946898	3738.272676
403.328783	3747.926485
403.710606	3805.861946
404.092367	3874.403994
404.474067	3943.881177
404.855705	3940.342287
405.237282	3931.701749
405.618797	4027.145915
406.000250	4098.911781
406.381642	4182.854554
406.762972	4197.105896
407.144240	4171.486752
407.525447	4239.761619
407.906593	4264.427985
408.287677	4346.477805
408.668700	4376.447465
409.049661	4421.724588
409.430560	4462.706648
409.811399	4457.297490
410.192176	4506.060571
410.572891	4579.046397
410.953545	4681.742262
411.334138	4593.494343
411.714669	4704.747568
412.095139	4629.475579
412.475547	4730.860745
412.855894	4742.838526
413.236180	4835.184903
413.616405	4776.286582
413.996568	4866.503071
414.376670	4880.910689
414.756711	4873.104462
415.136691	4939.355306
415.516609	5022.494015
415.896466	5058.437442
416.276262	5134.730264
416.655997	5249.149333
417.035670	5329.084389
417.415283	5459.259584
417.794834	5517.472308
418.174324	5473.014373
418.553753	5477.049816
418.933121	5630.106809
419.312428	5640.423530
419.691674	5581.358851
420.070859	5787.184122
420.449983	5682.081105
420.829045	5863.310586
421.208047	5799.141738
421.586988	5951.863494
421.965867	6012.614439
422.344686	6089.476912
422.723444	6250.635039
423.102141	5897.310648
423.480777	6254.914978
423.859352	6095.458241
424.237866	6431.509118
424.616319	6422.268683
424.994712	6573.140335
425.373044	6502.087793
425.751314	6787.742255
426.129524	6531.936464
426.507673	6781.748323
426.885762	6821.512944
427.263789	6856.987544
427.641756	6949.757377
428.019662	7006.072107
428.397508	7051.273613
428.775292	7043.038888
429.153016	7185.181783
429.530679	7140.184443
429.908282	7186.467277
430.285824	7129.290510
430.663305	7377.587502
431.040726	7286.390508
431.418086	7284.978985
431.795385	7421.201044
432.172624	7594.664627
432.549802	7474.233982
432.926920	7610.950075
433.303977	7560.810759
433.680974	7610.385466
434.057910	7794.470760
434.434786	7839.752924
434.811601	7803.728839
435.188355	8135.887945
435.565050	8028.619753
435.941683	8040.910086
436.318257	8355.694856
436.694770	8295.173283
437.071222	8500.796908
437.447614	8278.736601
437.823946	8254.022345
438.200218	8396.003922
438.576429	8295.495917
438.952580	8443.292466
439.328670	8454.597253
439.704700	8540.120428
440.080670	8438.495808
440.456580	8680.819032
440.832429	8667.039038
441.208218	8411.356756
441.583947	8527.139457
441.959616	8634.180797
442.335224	8660.896392
442.710773	8741.501922
443.086261	8924.601670
443.461689	8655.081421
443.837057	8806.270666
444.212365	9006.031428
444.587612	9011.352366
444.962800	8900.724245
445.337927	9029.394656
445.712995	8591.008356
446.088002	9229.379750
446.462949	9292.507599
446.837837	9299.040934
447.212664	9358.206436
447.587431	10258.243962
447.962139	11214.704601
448.336786	11964.450207
448.711374	11562.244268
449.085901	10414.602910
449.460369	10402.720910
449.834776	10313.711777
450.209124	11239.781821
450.583412	11004.992601
450.957640	11218.636701
451.331808	10805.854422
451.705917	10327.219549
452.079965	10249.779864
452.453954	10444.317991
452.827883	10395.779241
453.201752	10361.922852
453.575562	10384.466892
453.949311	10733.259286
454.323001	10806.371140
454.696632	10729.153266
455.070202	11310.607512
455.443713	11363.537107
455.817164	11518.847495
456.190556	11832.802995
456.563888	11655.523258
456.937160	11867.864220
457.310373	11374.945238
457.683526	11415.783625
458.056619	11454.272835
458.429653	11531.888960
458.802628	11705.191227
459.175542	11759.618044
459.548398	12308.198926
459.921194	12884.357440
460.293930	13209.408520
460.666607	14036.810580
461.039224	14762.187248
461.411782	15018.865158
461.784280	14624.435199
462.156719	14525.096742
462.529099	14427.857925
462.901419	13856.803579
463.273680	13510.650230
463.645882	13732.251791
464.018024	13696.142006
464.390106	14106.128966
464.762130	15281.564726
465.134094	16959.658977
465.505999	19235.117356
465.877845	21224.843135
466.249631	22099.006938
466.621358	21442.973862
466.993026	20605.867581
467.364634	19895.379961
467.736184	19192.411221
468.107674	18651.946597
468.479105	18509.186161
468.850477	18243.512312
469.221790	17823.069999
469.593043	17191.922579
469.964238	16855.856578
470.335373	16972.450905
470.706449	17831.566864
471.077467	18965.536613
471.448425	21313.388482
471.819324	22801.353095
472.190164	22277.418414
472.560945	20601.938001
472.931667	19202.430515
473.302330	18964.286407
473.672934	18510.035596
474.043479	18952.379202
474.413965	18760.127238
474.784393	18610.924208
475.154761	19235.876050
475.525070	19376.584736
475.895321	19216.404593
476.265513	19736.434900
476.635645	20317.843776
477.005719	20374.269411
477.375734	20754.919377
477.745691	21352.865758
478.115588	22016.379906
478.485427	23294.269557
478.855207	25164.877911
479.224928	26883.528245
479.594591	28042.799545
479.964194	27506.733328
480.333739	27869.852680
480.703226	28152.820207
481.072653	28667.819443
481.442022	29158.220369
481.811333	29455.189701
482.180584	28955.248392
482.549777	28752.732639
482.918912	28561.937568
483.287988	28500.317024
483.657005	28327.357557
484.025964	27985.988262
484.394864	28166.511981
484.763706	28108.969731
485.132489	27619.884546
485.501213	27686.097582
485.869879	27887.121153
486.238487	27838.048041
486.607036	28110.542571
486.975527	27842.456530
487.343959	28162.622731
487.712333	28484.021495
488.080648	28455.299521
488.448905	28891.520645
488.817104	28810.811772
489.185244	29701.316476
489.553326	30870.871730
489.921350	32803.818993
490.289315	35185.113876
490.657222	35846.523343
491.025070	36230.636581
491.392861	35835.543710
491.760593	35028.238210
492.128267	34022.492729
492.495883	33074.476022
492.863440	32234.161047
493.230939	31354.414165
493.598380	30864.396368
493.965763	30755.981313
494.333088	30300.921396
494.700354	30118.792070
495.067563	30105.826222
495.434713	30012.801810
495.801805	30316.269189
496.168839	30164.898463
496.535815	30053.199096
496.902733	30181.239363
497.269593	30014.520843
497.636395	30166.478864
498.003139	30474.132922
498.369825	30253.678223
498.736453	30646.679015
499.103023	30500.288949
499.469535	30595.634812
499.835989	30747.837329
500.202385	30608.421699
500.568723	30688.747444
500.935003	31015.036127
501.301226	30921.724369
501.667390	31605.314913
502.033497	31796.661989
502.399546	31605.214090
502.765537	31206.468903
503.131470	31692.042924
503.497345	32103.597683
503.863163	31104.579622
504.228923	31879.783055
504.594625	32276.453807
504.960269	31775.262291
505.325856	32445.627368
505.691385	32139.246202
506.056856	32461.111272
506.422270	32957.027220
506.787625	32510.043232
507.152924	32965.725731
507.518164	33168.211237
507.883347	32744.635847
508.248472	32896.493045
508.613540	33572.685695
508.978550	33827.798327
509.343503	33696.458625
509.708398	34065.597115
510.073236	34660.201212
510.438016	34775.205054
510.802738	34465.128722
511.167403	35037.395466
511.532010	35297.226617
511.896561	35779.884331
512.261053	36516.538060
512.625488	36322.320046
512.989866	36256.752279
513.354186	36310.649775
513.718449	36296.748793
514.082655	37164.797677
514.446803	36877.925776
514.810894	37483.171748
515.174927	37511.755090
515.538904	37517.895216
515.902822	38186.238790
516.266684	37878.698158
516.630488	38240.158971
516.994235	38265.982282
517.357925	38844.525262
517.721558	39119.023651
518.085133	39484.724074
518.448651	39686.856699
518.812112	39586.169733
519.175516	39742.959700
519.538863	40196.093896
519.902152	40246.447461
520.265385	40804.810703
520.628560	40832.448828
520.991678	40793.339557
521.354739	41026.293797
521.717743	41382.345452
522.080690	41303.537094
522.443580	41993.567712
522.806413	42005.144721
523.169189	42150.650065
523.531908	42377.118861
523.894569	42254.712084
524.257174	42434.222531
524.619722	42783.927373
524.982213	42924.051286
525.344647	42960.327429
525.707025	43081.494082
526.069345	43546.790061
526.431608	43446.629896
526.793815	43822.243749
527.155964	43396.356989
527.518057	43663.273483
527.880093	43516.225546
528.242072	44129.123989
528.603995	43887.176331
528.965860	43811.490967
529.327669	44042.484198
529.689421	44105.793529
530.051117	44043.802460
530.412755	44327.276623
530.774337	44396.262293
531.135862	44342.269015
531.497331	44475.610055
531.858743	44482.627341
532.220098	44899.936577
532.581396	44640.206248
532.942638	44399.508796
533.303824	44635.122245
533.664953	44701.264704
534.026025	44375.255805
534.387040	44954.824660
534.747999	45022.471903
535.108902	45343.434607
535.469748	44669.951577
535.830537	44928.416575
536.191270	45168.269634
536.551947	44920.728816
536.912567	45198.340117
537.273131	45369.968720
537.633638	44972.761085
537.994089	45172.877249
538.354483	44920.544814
538.714821	45561.794706
539.075103	45854.582401
539.435328	45717.641978
539.795497	45468.213247
540.155609	45591.892915
540.515665	46160.482137
540.875665	45483.094733
541.235609	45781.417615
541.595496	45881.204735
541.955328	46452.448124
542.315102	45898.291726
542.674821	45775.562315
543.034483	45668.765470
543.394090	45691.357401
543.753640	45675.664289
544.113134	46726.691934
544.472571	45850.625095
544.831953	46974.993967
545.191278	46232.096769
545.550548	45925.130829
545.909761	46564.623879
546.268918	46701.375260
546.628019	47114.376830
546.987064	46540.824592
547.346053	45843.491863
547.704986	46736.675939
548.063863	46396.466110
548.422684	46597.300638
548.781449	46187.555654
549.140158	46730.989518
549.498811	46482.788308
549.857408	45872.327263
550.215949	46706.986064
550.574434	46559.073569
550.932864	46490.095461
551.291237	47208.379225
551.649555	46949.745348
552.007817	47129.344015
552.366022	46808.774522
552.724173	46873.392032
553.082267	47279.608209
553.440305	47614.814692
553.798288	46855.962242
554.156215	47246.543281
554.514086	47444.932849
554.871902	47087.320957
555.229661	47241.711335
555.587365	46933.291022
555.945014	47046.900985
556.302606	47077.737723
556.660143	47190.132769
557.017625	47391.859581
557.375050	47093.443438
557.732421	47498.709358
558.089735	47553.342863
558.446994	47414.937984
558.804197	47909.039116
559.161345	47759.135365
559.518437	47109.640666
559.875474	47350.781739
560.232455	47594.423225
560.589381	47652.958583
560.946251	47434.079245
561.303065	48099.851830
561.659825	47776.570196
562.016528	47599.698793
562.373177	47164.228800
562.729770	47795.572825
563.086307	47308.126016
563.442789	47858.592290
563.799216	47704.196871
564.155587	47583.869570
564.511904	47561.194460
564.868164	47614.124054
565.224370	47927.472095
565.580520	47655.935384
565.936615	47851.494345
566.292654	47513.777367
566.648638	47863.769555
567.004567	47812.518664
567.360441	47907.894774
567.716260	47609.977705
568.072023	47981.205754
568.427732	47922.960263
568.783385	47454.601782
569.138982	47859.552629
569.494525	48003.709465
569.850013	47584.900486
570.205445	47717.001402
570.560823	47476.944176
570.916145	47353.990434
571.271412	47596.820294
571.626625	47256.698685
571.981782	47331.189295
572.336884	46924.209383
572.691931	47236.224039
573.046923	46914.653876
573.401860	46740.794562
573.756743	46766.978315
574.111570	46905.736075
574.466342	46804.091290
574.821059	46956.031667
575.175722	46464.360370
575.530330	46555.937971
575.884882	46195.122426
576.239380	46105.704959
576.593823	46197.746346
576.948211	46132.032385
577.302544	45656.097051
577.656823	45668.231108
578.011047	45926.890191
578.365216	45746.137100
578.719330	45485.706051
579.073389	45441.590913
579.427394	45497.691394
579.781344	45435.959945
580.135239	45190.521287
580.489080	45261.467966
580.842866	44750.620120
581.196597	45238.303864
581.550273	45231.616773
581.903895	45159.034240
582.257463	45611.341687
582.610975	45040.304985
582.964434	45372.000305
583.317837	44880.714657
583.671186	44853.552920
584.024481	45110.157733
584.377721	44659.160987
584.730906	44869.389705
585.084037	44981.472199
585.437113	44695.739599
585.790135	44817.231407
586.143103	44375.911155
586.496016	44543.771496
586.848874	44651.417774
587.201679	44673.860991
587.554428	44182.966033
587.907124	44455.924349
588.259765	44209.386720
588.612352	44384.677722
588.964884	43835.481819
589.317362	44152.308256
589.669786	44139.723015
590.022155	44010.001524
590.374470	44434.292758
590.726731	44009.663766
591.078937	43357.898027
591.431090	43690.437740
591.783188	43238.223555
592.135232	43015.838094
592.487222	43297.106752
592.839157	43434.682362
593.191038	43064.817945
593.542866	42891.863518
593.894639	42287.464460
594.246358	42584.670726
594.598022	42582.016559
594.949633	42156.686847
595.301190	42138.148004
595.652692	42078.674991
596.004141	42553.551684
596.355535	41464.014665
596.706876	41480.784063
597.058162	41207.583771
597.409395	41683.904754
597.760573	41918.383943
598.111698	41523.104549
598.462768	41438.569441
598.813785	41455.772378
599.164748	41063.870557
599.515657	41328.551299
599.866511	40836.630466
600.217312	41522.124045
600.568060	40464.247993
600.918753	41294.319344
601.269392	41214.361603
601.619978	40940.992433
601.970510	41133.539304
602.320988	41266.570312
602.671412	41529.680735
603.021783	41408.705645
603.372100	40956.423404
603.722363	41090.545823
604.072572	41123.978755
604.422728	41114.607250
604.772830	40893.119115
605.122878	41048.169884
605.472872	40918.236664
605.822813	41169.349140
606.172701	40921.498291
606.522534	41238.201219
606.872314	41455.590897
607.222041	41278.575820
607.571714	41623.610034
607.921333	41111.514502
608.270899	41334.152021
608.620411	41723.268604
608.969870	41460.067441
609.319276	41456.400002
609.668627	41503.786848
610.017926	41898.781416
610.367171	42029.967363
610.716362	42076.197264
611.065500	41972.757828
611.414585	42181.728779
611.763616	42372.987635
612.112594	42258.377002
612.461518	42390.866087
612.810389	42783.511478
613.159207	42587.367744
613.507971	42555.001015
613.856682	43046.737847
614.205340	42887.432344
614.553945	43566.463164
614.902496	42887.029052
615.250994	43309.099657
615.599439	43379.146490
615.947830	43485.202285
616.296169	43486.026513
616.644454	43527.452195
616.992686	43678.160010
617.340864	44149.961598
617.688990	43669.663145
618.037063	44343.405795
618.385082	44170.385833
618.733048	44506.928223
619.080961	44377.869643
619.428821	44399.128189
619.776628	44416.409264
620.124382	44222.040016
620.472083	44329.298126
620.819731	44425.717755
621.167326	43982.312986
621.514868	43957.870952
621.862357	43440.968680
622.209793	43500.348432
622.557176	43069.622165
622.904506	42844.055736
623.251783	42476.094355
623.599007	42149.697287
623.946179	42072.650813
624.293297	41808.552324
624.640363	41272.967537
624.987376	41113.241098
625.334336	40908.973544
625.681243	40496.188743
626.028097	40436.216657
626.374899	40241.514692
626.721647	40223.953833
627.068343	39988.398358
627.414987	39724.055373
627.761577	39457.552255
628.108115	39784.176174
628.454600	39042.080519
628.801032	39253.604814
629.147412	39169.684726
629.493739	39077.668545
629.840014	38635.277048
630.186236	39068.183614
630.532405	38516.179788
630.878521	38741.562215
631.224585	38525.747898
631.570597	38183.677884
631.916556	38347.112091
632.262462	38241.630988
632.608316	38169.698764
632.954117	38029.763895
633.299866	37991.423399
633.645562	37895.999398
633.991206	37366.756382
634.336797	36955.415873
634.682336	36861.574794
635.027823	36603.319003
635.373257	36485.799624
635.718639	36157.993554
636.063968	36055.418676
636.409245	35396.131535
636.754470	35354.569742
637.099642	35134.162934
637.444762	34566.536573
637.789829	34712.344386
638.134845	34322.630427
638.479808	34254.108543
638.824719	34196.684759
639.169577	33683.152499
639.514383	33783.791574
639.859137	33408.933895
640.203839	33558.366298
640.548489	33278.529327
640.893086	33271.610343
641.237632	32990.873527
641.582125	33098.557614
641.926566	32897.637387
642.270955	32933.732048
642.615292	32857.313197
642.959576	32735.586976
643.303809	32756.926180
643.647990	32844.632174
643.992118	32786.603453
644.336195	32643.699344
644.680219	32741.502770
645.024192	32927.987653
645.368112	33456.219918
645.711981	33486.809639
646.055797	34212.478694
646.399562	34022.671690
646.743274	34901.105351
647.086935	35293.241585
647.430544	35258.051811
647.774101	35295.081606
648.117606	35577.108958
648.461059	35697.335436
648.804460	35290.436183
649.147810	34788.808608
649.491108	34432.804844
649.834354	34284.484015
650.177548	33458.773262
650.520690	32965.952583
650.863781	32936.572738
651.206820	32776.616927
651.549807	32367.192055
651.892742	31786.826698
652.235626	31696.887472
652.578458	31570.624213
652.921238	30890.196993
653.263967	31180.365808
653.606644	30898.618240
653.949269	30812.956434
654.291843	30413.850804
654.634365	30769.922624
654.976836	30310.486986
655.319255	30387.394829
655.661622	30266.276067
656.003938	30126.310951
656.346203	29940.075604
656.688416	30197.660922
657.030577	29965.089809
657.372687	29781.720359
657.714746	29961.394644
658.056753	30138.928959
658.398708	29526.267449
658.740612	29591.510062
659.082465	29794.502204
659.424266	29699.872185
659.766016	29709.132785
660.107715	29564.184488
660.449362	29666.439253
660.790958	29658.549847
661.132503	29565.510312
661.473996	29645.261365
661.815438	29714.035307
662.156829	29835.872433
662.498168	29654.584979
662.839456	29626.936771
663.180693	29755.839075
663.521879	29845.458187
663.863013	29809.923094
664.204097	29787.658838
664.545129	30200.609997
664.886110	30126.860436
665.227040	30246.502141
665.567918	30228.795088
665.908746	30291.938060
666.249522	30401.358825
666.590248	30418.342472
666.930922	30518.774860
667.271545	30498.736273
667.612118	30564.785471
667.952639	30380.070032
668.293109	30406.112633
668.633528	30276.116399
668.973896	30235.933362
669.314213	30208.098631
669.654480	30019.783808
669.994695	30004.657826
670.334859	29936.279615
670.674973	29753.570556
671.015035	29951.405597
671.355047	29895.668080
671.695008	29814.119855
672.034918	29725.040146
672.374777	29834.642392
672.714585	29690.291472
673.054342	29823.415742
673.394049	29692.285248
673.733705	29911.078887
674.073310	29634.911877
674.412864	29688.514465
674.752368	29381.036848
675.091820	29598.360991
675.431223	29193.899135
675.770574	29003.550207
676.109875	28840.105917
676.449125	28620.213307
676.788324	28526.798206
677.127473	28057.852431
677.466571	27943.698022
677.805619	27680.275049
678.144616	27613.550337
678.483562	27565.253562
678.822458	27246.483760
679.161303	27188.480244
679.500098	27116.686652
679.838842	27039.425928
680.177535	27129.304660
680.516179	27381.614410
680.854771	27504.207710
681.193314	28288.293655
681.531805	29319.784308
681.870247	30060.082792
682.208638	30788.282506
682.546978	31053.424513
682.885268	31190.967355
683.223508	30734.957181
683.561697	30472.958333
683.899836	30299.540120
684.237925	29888.915454
684.575963	29761.880898
684.913951	29383.920388
685.251889	29569.218080
685.589776	29598.928120
685.927614	29611.939338
686.265401	29794.797112
686.603137	29913.707849
686.940824	30407.120864
687.278460	30749.674829
687.616046	30925.162436
687.953582	31592.351586
688.291068	31514.937107
688.628504	31831.607268
688.965889	31825.714159
689.303224	31557.517213
689.640510	31250.052198
689.977745	30613.493099
690.314930	29863.495436
690.652065	29439.622618
690.989150	28751.739531
691.326185	27900.518019
691.663170	27265.372964
692.000105	26540.215586
692.336990	25926.215650
692.673825	25517.904874
693.010610	25024.819534
693.347345	24529.863926
693.684030	23895.686772
694.020665	23710.058885
694.357251	23036.107027
694.693786	23035.373539
695.030272	22809.615546
695.366707	22322.420795
695.703093	22035.100231
696.039429	22110.057148
696.375716	21876.694574
696.711952	21886.469372
697.048139	21746.642887
697.384276	21592.507088
697.720363	21706.842978
698.056400	21601.697112
698.392388	21436.448088
698.728326	21434.136719
699.064214	21278.654932
699.400053	21280.298348
699.735842	20896.530429
700.071581	20696.399142
700.407270	20441.858682
700.742910	20270.325860
701.078501	20019.692294
701.414042	19811.374173
701.749533	19513.099182
702.084974	19203.494198
702.420366	19426.351007
702.755709	19026.045583
703.091002	18722.666424
703.426246	18785.514489
703.761440	18717.156443
704.096584	18478.104927
704.431679	18414.107479
704.766725	18357.157564
705.101721	18300.144635
705.436668	18422.173325
705.771565	18152.317839
706.106413	18456.415363
706.441212	18542.326707
706.775961	18650.207399
707.110661	18724.103152
707.445311	19102.416543
707.779913	18978.235280
708.114465	19269.929044
708.448967	19588.287992
708.783421	20214.111954
709.117825	20591.061712
709.452180	20830.375367
709.786485	21272.887852
710.120742	22047.675389
710.454949	22169.021004
710.789107	22678.568232
711.123216	23392.246902
711.457275	23607.713379
711.791286	24158.439272
712.125247	24315.032634
712.459159	24032.685169
712.793023	24770.450473
713.126837	23760.311627
713.460602	24002.849100
713.794318	23651.347086
714.127985	23370.970712
714.461602	22476.002067
714.795171	22448.184980
715.128691	21466.488324
715.462162	20941.487439
715.795584	20509.415184
716.128957	20244.963815
716.462281	19869.821311
716.795556	19579.571837
717.128782	19114.812740
717.461960	18514.557511
717.795088	18473.124267
718.128167	18132.924520
718.461198	17679.790325
718.794180	17554.389102
719.127113	17222.779482
719.459997	17028.238834
719.792833	16671.163825
720.125619	16699.159873
720.458357	16374.270110
720.791046	16243.961324
721.123686	16091.108499
721.456278	15879.430449
721.788821	15871.268821
722.121315	15605.506752
722.453761	15704.615836
722.786158	15599.459888
723.118506	15674.850343
723.450805	15560.950513
723.783056	15741.696043
724.115259	15627.851666
724.447412	15629.996677
724.779518	15847.542630
725.111574	15894.667336
725.443582	16169.206054
725.775542	16124.843900
726.107453	16637.814072
726.439315	16571.719503
726.771129	16986.311557
727.102895	17407.386535
727.434612	17684.150923
727.766281	17848.255604
728.097901	18166.624634
728.429473	18259.258356
728.760996	18265.607690
729.092471	18388.652173
729.423897	18272.138504
729.755276	18137.176734
730.086606	18266.701620
730.417887	18846.502368
730.749120	19402.672707
731.080305	19622.141860
731.411442	20015.482930
731.742530	20126.335383
732.073570	20296.817124
732.404562	20611.712799
732.735506	20448.046698
733.066401	20240.194884
733.397249	19739.323482
733.728048	19111.420044
734.058798	18242.347806
734.389501	17481.244480
734.720156	16969.189278
735.050762	16397.071249
735.381320	16011.758217
735.711831	15740.566825
736.042293	15376.572832
736.372707	15406.471915
736.703073	15211.585949
737.033391	15406.802111
737.363661	15409.209262
737.693883	15540.899324
738.024056	15741.259983
738.354182	15962.980012
738.684260	16325.260012
739.014290	16611.469002
739.344272	16837.577354
739.674207	17188.043411
740.004093	17362.283332
740.333931	17415.457423
740.663722	17488.294534
740.993464	17523.938012
741.323159	17361.998507
741.652806	17052.448975
741.982405	16890.262453
742.311956	16532.854728
742.641460	16412.207313
742.970915	16086.248826
743.300323	15741.247381
743.629683	15518.239337
743.958996	15201.485997
744.288260	14888.984870
744.617477	14586.210650
744.946647	14554.572368
745.275768	14238.287855
745.604842	14031.169529
745.933869	13862.893293
746.262847	13833.319364
746.591778	13747.854162
746.920662	13633.180515
747.249498	13644.760045
747.578286	13802.570846
747.907027	13980.087517
748.235720	14247.908897
748.564365	14319.490761
748.892963	14249.267488
749.221514	14347.670811
749.550017	14202.215879
749.878473	14189.653323
750.206881	13959.459115
750.535242	13881.210325
750.863555	13802.099498
751.191821	13703.827245
751.520039	13731.150299
751.848210	13651.127023
752.176334	13704.343963
752.504411	13629.530720
752.832440	13439.428808
753.160421	13556.532291
753.488356	13450.073204
753.816243	13358.823279
754.144082	13193.332280
754.471875	13140.599290
754.799620	13103.945061
755.127318	13082.333634
755.454969	13077.267275
755.782572	13041.555741
756.110129	13056.268348
756.437638	12961.913072
756.765100	12967.629740
757.092515	12996.349194
757.419882	13027.412784
757.747203	13057.359758
758.074477	13137.509063
758.401703	13129.710398
758.728882	13325.549143
759.056014	13367.627654
759.383099	13538.938664
759.710138	13662.817458
760.037129	13789.844453
760.364073	13847.021220
760.690970	13873.247823
761.017820	13890.448240
761.344623	14111.102064
761.671379	14495.981557
761.998088	15195.532394
762.324751	16972.221533
762.651366	20409.131511
762.977935	24901.374279
763.304456	27891.239776
763.630931	28922.957281
763.957359	27698.440847
764.283740	25408.968060
764.610074	23140.509323
764.936362	20488.199488
765.262602	18620.673799
765.588796	16683.509611
765.914943	15395.376336
766.241044	14290.683088
766.567097	13507.491947
766.893104	12787.980661
767.219064	12316.098414
767.544978	11844.279182
767.870845	11463.379679
768.196665	11239.870041
768.522438	11005.095945
768.848165	10801.040120
769.173846	10597.871537
769.499479	10468.618873
769.825066	10299.432709
770.150607	10068.930991
770.476101	9983.082661
770.801548	9862.299136
771.126949	9705.050424
771.452303	9593.570347
771.777611	9393.905367
772.102872	9384.732988
772.428087	9245.766020
772.753256	9088.199716
773.078378	9002.081684
773.403453	8812.030184
773.728482	8699.342752
774.053465	8626.377091
774.378401	8529.168522
774.703291	8400.543481
775.028135	8280.707693
775.352932	8245.948937
775.677683	8137.281824
776.002388	8032.425824
776.327046	8041.746918
776.651658	7951.132177
776.976224	7848.902619
777.300743	7845.343564
777.625216	7762.431707
777.949643	7714.538225
778.274024	7726.682364
778.598359	7639.064590
778.922647	7656.832137
779.246889	7609.604087
779.571086	7621.730582
779.895236	7629.700647
780.219339	7640.541648
780.543397	7642.394272
780.867409	7724.623053
781.191374	7737.624189
781.515294	7701.524486
781.839167	7795.942777
782.162995	7767.790453
782.486776	7703.999693
782.810511	7656.708628
783.134201	7570.956081
783.457844	7568.707726
783.781441	7510.794951
784.104993	7444.937317
784.428498	7425.004595
784.751958	7404.119094
785.075372	7382.248048
785.398739	7322.238153
785.722061	7375.429888
786.045337	7373.887295
786.368568	7533.966614
786.691752	7558.824544
787.014891	7900.158550
787.337983	8260.197758
787.661030	8865.267290
787.984031	9494.945214
788.306987	9890.567406
788.629897	10105.217216
788.952760	10044.864522
789.275579	9822.103495
789.598351	9421.251106
789.921078	9061.350530
790.243759	8649.256368
790.566395	8359.440433
790.888984	8104.005168
791.211529	7894.830051
791.534027	7673.866195
791.856480	7477.049467
792.178888	7398.924185
792.501249	7299.406767
792.823566	7145.175186
793.145836	7143.025134
793.468062	7117.806762
793.790241	7072.973260
794.112375	7139.040102
794.434464	7295.772095
794.756507	7339.690628
795.078505	7501.960329
795.400457	7817.962537
795.722364	8170.281217
796.044226	8459.207388
796.366042	8736.112928
796.687812	8683.445473
797.009538	8755.082790
797.331218	8649.538672
797.652852	8563.889469
797.974442	8407.162516
798.295986	8322.206471
798.617484	8129.462995
798.938938	7984.716344
799.260346	7882.895119
799.581709	7680.649068
799.903026	7604.515042
800.224299	7496.901531
800.545526	7325.706467
800.866708	7227.948411
801.187845	7160.664131
801.508936	7053.579941
801.829983	7013.611153
802.150984	6862.878132
802.471940	6816.116389
802.792851	6803.369832
803.113717	6769.445387
803.434538	6741.484627
803.755314	6679.483476
804.076045	6683.763415
804.396731	6634.947402
804.717372	6665.947978
805.037967	6668.226579
805.358518	6705.480706
805.679024	6797.567463
805.999485	6801.113915
806.319901	6848.528488
806.640272	6871.611931
806.960598	6955.191741
807.280879	6953.008922
807.601115	7033.296858
807.921306	6973.203784
808.241453	6988.155846
808.561554	7008.741398
808.881611	6970.446273
809.201623	6978.565051
809.521590	6922.588079
809.841513	6906.239617
810.161390	6945.822757
810.481223	6812.290153
810.801011	6793.973121
811.120755	6772.782631
811.440453	6688.842378
811.760107	6657.468757
812.079716	6632.328523
812.399281	6560.418984
812.718801	6552.022942
813.038276	6507.033164
813.357707	6445.337003
813.677093	6487.390308
813.996434	6391.129476
814.315731	6435.131187
814.634983	6428.479385
814.954191	6439.726199
815.273354	6544.562034
815.592473	6612.063084
815.911547	6730.993986
816.230577	6815.622356
816.549562	6965.568957
816.868502	7064.796508
817.187399	7161.004409
817.506250	7317.605332
817.825058	7351.837288
818.143821	7617.906867
818.462539	7891.886017
818.781213	8253.185513
819.099843	8813.245102
819.418429	9817.410181
819.736970	10793.604418
820.055466	11979.240952
820.373919	13510.536804
820.692327	15855.326172
821.010691	20005.846765
821.329011	28973.852770
821.647286	41984.150836
821.965517	55440.926255
822.283704	60829.362669
822.601847	62810.699968
822.919945	60112.669388
823.237999	55924.188906
823.556010	49758.199882
823.873976	43021.577448
824.191897	36488.020252
824.509775	31643.713382
824.827609	27101.245597
825.145398	24515.526884
825.463144	23151.748576
825.780845	23460.748621
826.098502	25250.050726
826.416116	29050.889162
826.733685	32720.607187
827.051210	33935.666416
827.368692	32151.957471
827.686129	28175.724690
828.003522	24023.391802
828.320872	20289.509971
828.638177	17429.194567
828.955439	15273.781184
829.272656	13452.651755
829.589830	11978.391518
829.906960	10699.042454
830.224046	9749.899049
830.541088	9001.272579
830.858086	8540.644708
831.175041	8164.098242
831.491952	8044.438894
831.808819	8094.948735
832.125642	8498.886310
832.442421	9383.825580
832.759157	11186.706033
833.075849	14125.986071
833.392497	17375.811268
833.709101	19570.752338
834.025662	19413.100334
834.342179	17702.417544
834.658653	15494.435009
834.975083	13559.226788
835.291469	11925.809763
835.607811	10601.869172
835.924110	9691.439308
836.240366	8820.995877
836.556578	8015.343875
836.872746	7367.779937
837.188871	6861.907710
837.504952	6443.698628
837.820990	6133.745804
838.136984	5910.959572
838.452935	5821.027908
838.768842	5849.147464
839.084706	6273.574809
839.400526	7485.319480
839.716303	9076.610103
840.032037	10187.725781
840.347727	10108.619995
840.663373	9132.491293
840.978977	8080.825942
841.294537	7259.513596
841.610054	6663.392113
841.925527	6230.493108
842.240957	5865.392582
842.556344	5531.653074
842.871687	5252.703347
843.186987	4969.899657
843.502244	4742.868773
843.817458	4576.329215
844.132629	4440.661682
844.447756	4350.087271
844.762840	4270.986526
845.077881	4193.735885
845.392879	4130.834888
845.707833	4084.015171
846.022745	4038.896844
846.337613	4009.980786
846.652438	3969.838078
846.967221	3949.534831
847.281960	3919.154317
847.596656	3901.565731
847.911309	3877.111094
848.225919	3854.413299
848.540485	3841.518027
848.855009	3826.702076
849.169490	3806.242553
849.483928	3795.691418
849.798323	3789.392496
850.112675	3765.714197
850.426984	3776.313223
850.741251	3762.185389
851.055474	3755.662136
851.369654	3757.983587
851.683792	3752.665170
851.997887	3761.063732
852.311938	3766.253600
852.625947	3769.961369
852.939914	3756.032661
853.253837	3767.276954
853.567718	3765.101697
853.881555	3756.030140
854.195350	3770.036986
854.509103	3766.084722
854.822812	3766.581275
855.136479	3753.801950
855.450103	3765.159670
855.763685	3753.237341
856.077224	3755.490737
856.390720	3775.065537
856.704173	3796.689567
857.017584	3807.948984
857.330953	3816.617248
857.644278	3836.701205
857.957561	3844.167153
858.270802	3842.886700
858.584000	3845.903831
858.897155	3836.476873
859.210268	3823.964729
859.523339	3799.094197
859.836367	3798.327942
860.149352	3793.695121
860.462295	3787.670942
860.775195	3771.425824
861.088054	3768.204527
861.400869	3768.000360
861.713642	3769.386677
862.026373	3777.011422
862.339062	3784.926034
862.651708	3803.979075
862.964312	3840.325794
863.276873	3850.403061
863.589392	3910.586876
863.901869	3954.633958
864.214303	4002.093901
864.526696	4033.709497
864.839045	4079.470571
865.151353	4104.966207
865.463619	4115.388792
865.775842	4120.172847
866.088023	4138.890651
866.400162	4129.730875
866.712258	4139.414931
867.024313	4141.028101
867.336325	4141.509531
867.648296	4143.992299
867.960224	4146.039008
868.272110	4152.791633
868.583954	4153.731808
868.895755	4169.659334
869.207515	4166.985002
869.519233	4211.752968
869.830909	4226.440370
870.142542	4245.838730
870.454134	4262.605608
870.765684	4290.682314
871.077191	4325.433508
871.388657	4351.949978
871.700081	4385.413157
872.011463	4432.033748
872.322803	4467.563800
872.634101	4501.599150
872.945357	4538.397052
873.256571	4595.520887
873.567744	4624.552892
873.878874	4641.138288
874.189963	4682.795863
874.501010	4688.313406
874.812015	4689.745094
875.122979	4727.639447
875.433900	4732.186568
875.744780	4738.697218
876.055618	4766.700828
876.366415	4771.747023
876.677169	4787.798057
876.987882	4834.038040
877.298554	4885.934199
877.609183	4965.796158
877.919771	5073.397066
878.230317	5219.030960
878.540822	5435.525832
878.851285	5752.415283
879.161707	6221.842488
879.472087	6977.161090
879.782425	8210.854944
880.092722	10397.084900
880.402977	13705.006875
880.713191	17460.946274
881.023363	21188.506498
881.333494	23409.676692
881.643583	24631.733042
881.953631	24627.652228
882.263637	23780.695532
882.573602	22293.744191
882.883526	20737.126624
883.193408	19059.738134
883.503248	17355.074482
883.813048	15816.088351
884.122806	14381.091141
884.432522	12908.781831
884.742197	11646.325673
885.051831	10553.159023
885.361424	9552.880674
885.670975	8731.303667
885.980485	8040.690796
886.289954	7464.920451
886.599382	6996.723287
886.908768	6619.652541
887.218113	6254.899855
887.527417	5964.630216
887.836680	5698.343867
888.145901	5478.655424
888.455082	5316.549560
888.764221	5166.003062
889.073319	5029.297052
889.382376	4959.071259
889.691392	4899.956168
890.000366	4878.498497
890.309300	4855.828428
890.618193	4864.834449
890.927044	4844.188404
891.235855	4870.294019
891.544625	4895.930807
891.853353	4959.318275
892.162041	5077.823199
892.470687	5268.756901
892.779293	5513.764540
893.087858	5890.341253
893.396381	6461.705630
893.704864	7269.270749
894.013306	8425.267820
894.321707	9613.624057
894.630068	10442.944277
894.938387	10650.070165
895.246665	10409.125696
895.554903	9806.722935
895.863100	9103.280327
896.171256	8537.289820
896.479371	8026.489866
896.787446	7528.043259
897.095480	7097.228772
897.403473	6778.325379
897.711425	6456.699764
898.019336	6191.683786
898.327207	5917.878556
898.635038	5686.865160
898.942827	5441.194610
899.250576	5244.617336
899.558284	5053.101381
899.865952	4928.978091
900.173579	4778.429072
900.481165	4669.116692
900.788711	4581.075461
901.096216	4504.212988
901.403681	4441.493473
901.711105	4411.972476
902.018489	4402.598450
902.325832	4470.301146
902.633135	4592.085341
902.940397	4936.812044
903.247619	5729.674638
903.554800	7174.764238
903.861941	9100.129606
904.169041	10613.912489
904.476101	11254.423853
904.783121	10899.672815
905.090100	10153.874433
905.397039	9313.541813
905.703938	8560.622801
906.010796	7867.249898
906.317614	7305.312479
906.624391	6776.853362
906.931129	6348.186407
907.237826	5955.684689
907.544483	5572.176389
907.851099	5195.839131
908.157675	4844.775698
908.464211	4521.468858
908.770707	4284.688382
909.077163	4084.340326
909.383578	3938.676185
909.689954	3823.803412
909.996289	3753.943103
910.302584	3689.383566
910.608839	3655.491888
910.915054	3625.723875
911.221229	3613.710805
911.527363	3624.617342
911.833458	3637.068992
912.139513	3665.349865
912.445527	3693.819781
912.751502	3775.312554
913.057436	3879.001527
913.363331	4014.046476
913.669186	4218.893763
913.975000	4476.453875
914.280775	4896.928955
914.586510	5474.884641
914.892205	6272.047340
915.197859	7317.607853
915.503475	8543.034215
915.809050	9603.435886
916.114585	10257.386965
916.420081	10522.811277
916.725536	10483.144958
917.030952	10038.316063
917.336328	9630.365729
917.641665	9219.400786
917.946961	8733.521775
918.252218	8313.046694
918.557435	7796.661141
918.862612	7369.045266
919.167750	6987.702142
919.472848	6566.954840
919.777906	6192.409712
920.082925	5830.651471
920.387904	5462.841324
920.692843	5196.083627
920.997743	4952.429538
921.302603	4718.043611
921.607423	4557.777768
921.912204	4391.059249
922.216946	4274.427114
922.521647	4151.402795
922.826310	4046.670303
923.130932	3947.117597
923.435516	3851.993545
923.740059	3784.537865
924.044564	3706.291596
924.349028	3646.677431
924.653454	3580.482040
924.957840	3514.163140
925.262186	3466.599854
925.566493	3404.107190
925.870761	3345.072758
926.174989	3312.595124
926.479178	3275.172119
926.783328	3232.337435
927.087438	3205.826007
927.391509	3172.975327
927.695541	3140.550626
927.999533	3117.341154
928.303486	3095.157556
928.607400	3075.731470
928.911275	3065.883576
929.215110	3047.127963
929.518906	3040.403064
929.822663	3041.421377
930.126381	3035.666900
930.430060	3044.103271
930.733699	3047.019578
931.037299	3056.260013
931.340861	3055.191288
931.644383	3065.344172
931.947866	3064.000705
932.251309	3052.882440
932.554714	3055.710527
932.858080	3047.228786
933.161407	3040.040101
933.464694	3030.585417
933.767943	3028.445447
934.071153	3025.919829
934.374323	3010.519104
934.677455	3004.787312
934.980548	2998.001919
935.283602	2992.383553
935.586617	2985.923314
935.889593	2999.277331
936.192530	3003.867301
936.495428	3016.286184
936.798287	3038.366438
937.101108	3072.386664
937.403890	3123.466156
937.706632	3188.050898
938.009336	3265.213319
938.312002	3342.123683
938.614628	3409.259249
938.917216	3458.660037
939.219765	3491.054491
939.522275	3522.349974
939.824747	3528.417003
940.127179	3525.394831
940.429573	3520.767052
940.731929	3510.165505
941.034246	3500.494052
941.336524	3487.087103
941.638763	3469.165801
941.940964	3458.380253
942.243126	3412.225968
942.545250	3394.173597
942.847335	3352.276567
943.149381	3317.280877
943.451389	3286.741567
943.753359	3248.514497
944.055290	3225.204202
944.357182	3198.186138
944.659036	3186.057122
944.960851	3178.318951
945.262628	3159.974192
945.564367	3164.329749
945.866067	3157.365395
946.167729	3155.437153
946.469352	3155.442194
946.770937	3148.377017
947.072484	3134.478556
947.373992	3137.339411
947.675462	3129.273565
947.976893	3112.826800
948.278286	3104.307250
948.579641	3096.019593
948.880958	3090.978440
949.182236	3092.788214
949.483476	3088.591453
949.784678	3086.451483
950.085841	3089.743357
950.386967	3096.569079
950.688054	3113.537603
950.989103	3135.882518
951.290114	3156.883964
951.591087	3183.163499
951.892021	3215.585680
952.192917	3240.393198
952.493776	3268.782456
952.794596	3274.385699
953.095378	3280.162861
953.396122	3274.668003
953.696828	3267.108793
953.997496	3256.247627
954.298126	3233.645614
954.598718	3213.387737
954.899272	3186.147862
955.199788	3156.470590
955.500266	3126.609315
955.800706	3093.408276
956.101108	3050.818088
956.401472	3019.898170
956.701798	2989.726865
957.002087	2948.659105
957.302337	2920.441246
957.602550	2890.408572
957.902724	2862.944366
958.202861	2837.385716
958.502960	2817.488282
958.803022	2795.297122
959.103045	2773.471447
959.403031	2757.249014
959.702979	2743.915162
960.002889	2733.583317
960.302762	2720.864486
960.602596	2708.067517
960.902393	2699.006043
961.202153	2690.904909
961.501875	2682.445852
961.801559	2676.046108
962.101205	2670.768020
962.400814	2664.262411
962.700385	2655.962151
962.999918	2652.055257
963.299414	2645.229534
963.598873	2644.937147
963.898293	2635.923564
964.197677	2638.905407
964.497022	2638.797022
964.796331	2634.060858
965.095601	2630.625312
965.394835	2624.379322
965.694030	2625.627007
965.993189	2624.820423
966.292309	2623.781945
966.591393	2623.439147
966.890439	2620.782459
967.189447	2621.152983
967.488419	2623.668519
967.787353	2622.756070
968.086249	2624.896040
968.385108	2627.981226
968.683930	2626.867131
968.982714	2633.282000
969.281462	2637.360293
969.580172	2643.031591
969.878844	2648.433187
970.177480	2658.099600
970.476078	2662.303922
970.774639	2671.809018
971.073162	2679.630368
971.371649	2684.603466
971.670098	2690.350382
971.968510	2697.198789
972.266885	2698.680888
972.565223	2703.301106
972.863524	2706.582897
973.161788	2709.191694
973.460014	2714.464741
973.758204	2714.527756
974.056356	2717.355843
974.354471	2719.800802
974.652550	2721.761811
974.950591	2717.451625
975.248595	2715.878785
975.546563	2714.210163
975.844493	2712.470965
976.142386	2704.082485
976.440243	2698.496886
976.738062	2697.476053
977.035845	2689.304342
977.333590	2681.384690
977.631299	2678.899401
977.928971	2673.316323
978.226606	2666.498162
978.524204	2662.082112
978.821765	2656.604898
979.119290	2658.003818
979.416777	2658.964158
979.714228	2664.416166
980.011642	2669.051507
980.309020	2673.127280
980.606360	2688.293591
980.903664	2710.570450
981.200931	2749.551172
981.498162	2796.650672
981.795356	2871.461395
982.092513	2960.588995
982.389633	3060.514747
982.686717	3159.477638
982.983764	3234.610995
983.280775	3282.459107
983.577749	3290.182154
983.874686	3276.248405
984.171587	3245.404105
984.468451	3206.746017
984.765279	3163.752537
985.062070	3115.670011
985.358824	3071.247363
985.655543	3014.393230
985.952224	2960.515899
986.248869	2898.650859
986.545478	2837.128617
986.842050	2786.671708
987.138586	2737.409553
987.435086	2698.111238
987.731549	2668.050838
988.027975	2641.310037
988.324366	2627.547687
988.620719	2613.591253
988.917037	2600.862339
989.213318	2593.305650
989.509563	2584.549165
989.805772	2582.313414
990.101944	2574.610531
990.398080	2576.773186
990.694180	2571.984089
990.990244	2572.112639
991.286271	2573.340160
991.582262	2574.043401
991.878217	2577.756211
992.174136	2581.761407
992.470019	2582.474731
992.765865	2589.189547
993.061676	2588.403127
993.357450	2600.469129
993.653188	2606.689913
993.948890	2623.756739
994.244556	2642.449338
994.540186	2666.357010
994.835780	2695.078984
995.131337	2736.005592
995.426859	2775.031684
995.722345	2822.952892
996.017795	2874.778475
996.313208	2912.347674
996.608586	2939.801798
996.903928	2953.937193
997.199234	2950.461317
997.494504	2951.028447
997.789738	2936.436827
998.084936	2909.580080
998.380099	2880.129659
998.675225	2853.436750
998.970316	2821.833756
999.265371	2783.745318
999.560390	2750.577047
999.855373	2719.216029
1000.150320	2690.184024
1000.445232	2662.429951
1000.740108	2642.968577
1001.034948	2623.492079
1001.329752	2609.487753
1001.624521	2595.687595
1001.919254	2585.201995
1002.213951	2578.550192
1002.508613	2567.802452
1002.803239	2563.003274
1003.097829	2556.293498
1003.392384	2552.182437
1003.686903	2546.178423
1003.981386	2543.907383
1004.275834	2538.808256
1004.570246	2537.376568
1004.864623	2533.946063
1005.158964	2529.603109
1005.453270	2530.145033
1005.747540	2531.357431
1006.041775	2527.221164
1006.335974	2525.310567
1006.630138	2525.212264
1006.924266	2524.889630
1007.218359	2521.312932
1007.512416	2518.084073
1007.806438	2519.316635
1008.100425	2520.687828
1008.394376	2517.489216
1008.688292	2521.726306
1008.982172	2518.593229
1009.276017	2521.512057
1009.569827	2516.811181
1009.863602	2515.356808
1010.157341	2515.019051
1010.451045	2517.108609
1010.744714	2513.080727
1011.038347	2514.426715
1011.331945	2512.566530
1011.625508	2512.264060
1011.919036	2510.391272
1012.212528	2510.290449
1012.505986	2510.981087
1012.799408	2511.240706
1013.092795	2511.124760
1013.386147	2511.414626
1013.679464	2510.454286
1013.972745	2508.599142
1014.265992	2507.669049
1014.559204	2507.858092
1014.852380	2507.248112
1015.145521	2506.728873
1015.438628	2506.807011
1015.731699	2509.249450
1016.024736	2507.848010
1016.317737	2507.338853
1016.610703	2511.901097
1016.903635	2511.790192
1017.196531	2514.086437
1017.489393	2513.179030
1017.782219	2515.167765
1018.075011	2519.039371
1018.367768	2516.148269
1018.660490	2520.806296
1018.953177	2520.806296
1019.245829	2520.806296
