Dividing Wavelength (nm)	Counts (n)	Blue Motor Position (mm): 5.100000	Red Motor Position (mm): 0.000000	
326.493990	2140.998203
326.888308	2140.998203
327.282561	2140.998203
327.676750	2111.152052
328.070874	2107.509818
328.464933	2111.953595
328.858929	2118.436519
329.252859	2129.070833
329.646726	2141.177164
330.040528	2153.152425
330.434265	2169.001813
330.827938	2185.602332
331.221547	2203.213603
331.615091	2222.775801
332.008571	2243.772207
332.401986	2264.140989
332.795338	2278.956940
333.188625	2299.487039
333.581847	2318.192240
333.975006	2337.842658
334.368100	2356.986440
334.761129	2373.037473
335.154095	2394.089332
335.546996	2407.768503
335.939833	2423.393559
336.332606	2434.537030
336.725315	2448.891715
337.117960	2459.004270
337.510540	2468.869808
337.903056	2479.325161
338.295508	2484.754484
338.687896	2495.056082
339.080220	2502.116218
339.472480	2506.721312
339.864676	2513.844462
340.256807	2517.431243
340.648875	2519.987108
341.040879	2522.598426
341.432818	2524.632531
341.824694	2527.352234
342.216506	2525.779394
342.608253	2527.291740
342.999937	2526.979188
343.391557	2528.494055
343.783113	2524.904754
344.174605	2523.563807
344.566033	2519.891326
344.957397	2520.765966
345.348697	2519.157838
345.739934	2517.900070
346.131106	2516.491068
346.522215	2515.747498
346.913260	2511.744822
347.304241	2510.209790
347.695159	2510.933196
348.086012	2507.845489
348.476802	2507.706857
348.867528	2504.752741
349.258191	2503.358862
349.648789	2502.088491
350.039324	2499.789725
350.429796	2501.032370
350.820203	2497.664879
351.210548	2497.939622
351.600828	2492.417038
351.991045	2495.540032
352.381198	2495.051041
352.771288	2492.958962
353.161314	2494.693119
353.551276	2491.711276
353.941175	2494.030207
354.331010	2494.216730
354.720782	2493.410145
355.110490	2492.429641
355.500135	2495.154384
355.889717	2492.890906
356.279235	2494.579693
356.668689	2492.958962
357.058080	2492.565752
357.447408	2492.275885
357.836672	2490.294712
358.225873	2496.886021
358.615010	2492.923674
359.004084	2498.322749
359.393095	2496.754951
359.782043	2498.748727
360.170927	2497.206134
360.559748	2496.104642
360.948505	2498.879797
361.337199	2501.352483
361.725830	2496.228150
362.114398	2499.567914
362.502903	2499.583038
362.891344	2501.019767
363.279722	2501.667555
363.668037	2504.523369
364.056289	2500.785353
364.444478	2502.741321
364.832603	2501.886845
365.220665	2502.910199
365.608665	2504.573780
365.996601	2504.651918
366.384474	2507.124604
366.772284	2505.549243
367.160031	2504.588904
367.547715	2506.428925
367.935336	2505.161075
368.322893	2504.346928
368.710388	2507.326250
369.097820	2510.998731
369.485189	2504.883811
369.872495	2509.191477
370.259738	2508.122752
370.646918	2506.459172
371.034035	2510.403875
371.421090	2509.695593
371.808081	2508.979749
372.195010	2507.369100
372.581875	2507.487567
372.968678	2510.146776
373.355418	2510.282887
373.742096	2507.346415
374.128710	2512.750532
374.515262	2509.564522
374.901751	2509.562002
375.288177	2509.987979
375.674540	2509.902280
376.060841	2511.185253
376.447079	2510.509739
376.833254	2512.561488
377.219367	2507.232989
377.605417	2511.523011
377.991404	2509.090654
378.377329	2509.748525
378.763191	2508.324399
379.148991	2511.898577
379.534727	2511.853206
379.920402	2511.638957
380.306013	2516.296983
380.691563	2514.547703
381.077049	2514.396468
381.462474	2512.518639
381.847835	2513.534431
382.233134	2512.707682
382.618371	2514.000738
383.003545	2514.061232
383.388657	2514.968639
383.773706	2515.082065
384.158693	2517.189268
384.543618	2515.208094
384.928480	2514.303207
385.313280	2515.931500
385.698017	2513.725995
386.082692	2518.121881
386.467305	2514.872858
386.851856	2519.215812
387.236344	2516.007117
387.620770	2520.027437
388.005133	2516.975019
388.389435	2517.811850
388.773674	2519.571213
389.157851	2517.544669
389.541965	2518.978877
389.926018	2518.835204
390.310008	2517.809330
390.693936	2521.998528
391.077802	2517.280008
391.461606	2520.967613
391.845348	2518.966274
392.229027	2519.873682
392.612645	2519.631707
392.996200	2520.040040
393.379694	2519.359484
393.763125	2518.900739
394.146494	2517.653054
394.529801	2521.733868
394.913047	2520.924763
395.296230	2521.297808
395.679351	2521.875020
396.062410	2521.532222
396.445408	2522.081707
396.828343	2523.883920
397.211217	2519.288908
397.594028	2520.652540
397.976778	2519.137674
398.359466	2523.067253
398.742092	2516.128105
399.124656	2523.021883
399.507158	2522.767304
399.889598	2526.835516
400.271977	2524.713190
400.654294	2524.128416
401.036549	2527.942049
401.418742	2524.443488
401.800874	2523.914167
402.182944	2524.871986
402.564952	2525.277799
402.946898	2522.800072
403.328783	2524.879548
403.710606	2524.917357
404.092367	2524.488858
404.474067	2524.093128
404.855705	2524.022552
405.237282	2527.319466
405.618797	2526.102028
406.000250	2524.173786
406.381642	2526.961544
406.762972	2526.205371
407.144240	2527.379960
407.525447	2525.600433
407.906593	2526.875845
408.287677	2528.748633
408.668700	2528.882224
409.049661	2524.700587
409.430560	2529.078829
409.811399	2527.793335
410.192176	2526.291071
410.572891	2528.541946
410.953545	2528.216792
411.334138	2529.318284
411.714669	2527.198479
412.095139	2527.697553
412.475547	2527.992460
412.855894	2530.129910
413.236180	2527.304343
413.616405	2528.121010
413.996568	2528.453726
414.376670	2529.908099
414.756711	2531.576721
415.136691	2530.485311
415.516609	2530.245856
415.896466	2531.541433
416.276262	2531.864067
416.655997	2529.023376
417.035670	2525.073632
417.415283	2530.626463
417.794834	2528.857018
418.174324	2528.375588
418.553753	2529.552697
418.933121	2532.708460
419.312428	2531.707791
419.691674	2534.235929
420.070859	2530.636546
420.449983	2533.008408
420.829045	2530.583613
421.208047	2533.958666
421.586988	2533.099149
421.965867	2534.487987
422.344686	2532.158974
422.723444	2532.481608
423.102141	2532.607637
423.480777	2533.184849
423.859352	2533.799870
424.237866	2534.344314
424.616319	2531.221319
424.994712	2534.659386
425.373044	2530.694519
425.751314	2532.461443
426.129524	2532.927750
426.507673	2533.431865
426.885762	2535.176105
427.263789	2532.892462
427.641756	2536.295241
428.019662	2534.520755
428.397508	2533.799870
428.775292	2535.281969
429.153016	2533.651156
429.530679	2535.503780
429.908282	2534.223327
430.285824	2536.212062
430.663305	2535.418080
431.040726	2533.968748
431.418086	2535.599562
431.795385	2537.421939
432.172624	2537.311033
432.549802	2534.835827
432.926920	2535.138296
433.303977	2536.035621
433.680974	2535.806249
434.057910	2536.668286
434.434786	2535.244160
434.811601	2538.911600
435.188355	2535.279448
435.565050	2536.360776
435.941683	2536.078471
436.318257	2534.470343
436.694770	2534.450178
437.071222	2533.769623
437.447614	2535.697864
437.823946	2533.688964
438.200218	2534.127545
438.576429	2536.844727
438.952580	2535.856660
439.328670	2537.079140
439.704700	2536.438914
440.080670	2536.600231
440.456580	2538.326826
440.832429	2537.371527
441.208218	2538.795653
441.583947	2539.713143
441.959616	2538.102494
442.335224	2538.162988
442.710773	2540.202135
443.086261	2538.921682
443.461689	2536.499408
443.837057	2539.892104
444.212365	2538.896476
444.587612	2538.525951
444.962800	2540.565098
445.337927	2537.994110
445.712995	2538.969573
446.088002	2538.684748
446.462949	2537.989068
446.837837	2539.766075
447.212664	2537.973945
447.587431	2540.073586
447.962139	2537.921013
448.336786	2540.764224
448.711374	2538.445293
449.085901	2539.803884
449.460369	2539.897145
449.834776	2540.187012
450.209124	2539.924872
450.583412	2542.538710
450.957640	2539.975283
451.331808	2539.529141
451.705917	2541.265818
452.079965	2540.154244
452.453954	2539.682896
452.827883	2542.596683
453.201752	2539.130890
453.575562	2539.924872
453.949311	2540.726415
454.323001	2542.132897
454.696632	2540.111394
455.070202	2540.323123
455.443713	2540.368493
455.817164	2537.426980
456.190556	2538.941847
456.563888	2541.469985
456.937160	2537.293389
457.310373	2542.584080
457.683526	2540.413863
458.056619	2539.856816
458.429653	2541.734646
458.802628	2537.908410
459.175542	2541.023843
459.548398	2545.144986
459.921194	2541.066693
460.293930	2542.483257
460.666607	2541.621220
461.039224	2544.169523
461.411782	2545.586087
461.784280	2541.901004
462.156719	2544.754297
462.529099	2540.698689
462.901419	2542.052238
463.273680	2541.885880
463.645882	2538.604089
464.018024	2541.056611
464.390106	2541.371683
464.762130	2544.832435
465.134094	2542.367311
465.505999	2541.898483
465.877845	2544.020809
466.249631	2543.975439
466.621358	2544.988711
466.993026	2546.493495
467.364634	2547.186654
467.736184	2545.739843
468.107674	2543.743546
468.479105	2543.078113
468.850477	2542.752959
469.221790	2545.603731
469.593043	2539.342618
469.964238	2542.936961
470.335373	2541.659028
470.706449	2545.054246
471.077467	2543.327650
471.448425	2543.468803
471.819324	2544.227496
472.190164	2542.921837
472.560945	2544.396375
472.931667	2544.202291
473.302330	2545.490305
473.672934	2543.748587
474.043479	2542.349667
474.413965	2545.021478
474.784393	2540.595345
475.154761	2541.984183
475.525070	2540.988555
475.895321	2542.803370
476.265513	2537.800025
476.635645	2543.161292
477.005719	2546.662374
477.375734	2546.140614
477.745691	2545.878474
478.115588	2545.427291
478.485427	2546.743032
478.855207	2546.009544
479.224928	2545.336550
479.594591	2546.337219
479.964194	2546.266643
480.333739	2546.133052
480.703226	2543.524255
481.072653	2547.612631
481.442022	2546.400234
481.811333	2549.561037
482.180584	2546.420398
482.549777	2546.579195
482.918912	2545.230686
483.287988	2544.882846
483.657005	2545.777651
484.025964	2546.170861
484.394864	2547.330327
484.763706	2547.330327
485.132489	2545.785213
485.501213	2549.132539
485.869879	2546.004503
486.238487	2546.937117
486.607036	2546.571633
486.975527	2546.075079
487.343959	2546.075079
487.712333	2546.581715
488.080648	2545.293700
488.448905	2545.223124
488.817104	2544.154400
489.185244	2547.713454
489.553326	2545.223124
489.921350	2547.479041
490.289315	2546.828732
490.657222	2548.129349
491.025070	2545.908721
491.392861	2547.703372
491.760593	2546.256561
492.128267	2548.199926
492.495883	2544.756818
492.863440	2543.287321
493.230939	2544.156920
493.598380	2546.687579
493.965763	2542.354708
494.333088	2546.672456
494.700354	2545.873433
495.067563	2546.488454
495.434713	2543.317568
495.801805	2549.755122
496.168839	2547.446273
496.535815	2548.444422
496.902733	2547.836962
497.269593	2546.705223
497.636395	2549.729916
498.003139	2547.993238
498.369825	2547.640357
498.736453	2548.981304
499.103023	2544.605583
499.469535	2546.662374
499.835989	2545.805377
500.202385	2548.830070
500.568723	2546.566592
500.935003	2545.465100
501.301226	2550.460883
501.667390	2549.855945
502.033497	2548.041129
502.399546	2546.982487
502.765537	2547.438711
503.131470	2546.226314
503.497345	2546.632127
503.863163	2547.839483
504.228923	2548.197405
504.594625	2548.525080
504.960269	2548.578012
505.325856	2549.961809
505.691385	2547.355532
506.056856	2547.849565
506.422270	2546.274205
506.787625	2548.129349
507.152924	2548.509957
507.518164	2548.278063
507.883347	2549.281253
508.248472	2548.152035
508.613540	2549.346788
508.978550	2548.462066
509.343503	2548.063814
509.708398	2546.047353
510.073236	2546.271684
510.438016	2550.803682
510.802738	2547.524411
511.167403	2549.649257
511.532010	2547.201777
511.896561	2548.764535
512.261053	2552.290822
512.625488	2543.521735
512.989866	2547.897456
513.354186	2545.772610
513.718449	2545.858310
514.082655	2547.196736
514.446803	2549.566078
514.810894	2546.546427
515.174927	2549.235883
515.538904	2552.126984
515.902822	2550.453321
516.266684	2549.054401
516.630488	2548.283105
516.994235	2551.965668
517.357925	2549.490461
517.721558	2550.695297
518.085133	2549.813095
518.448651	2549.248486
518.812112	2550.092879
519.175516	2548.671273
519.538863	2549.530790
519.902152	2551.166645
520.265385	2551.136398
520.628560	2549.271171
520.991678	2549.719833
521.354739	2548.424257
521.717743	2549.566078
522.080690	2551.282591
522.443580	2547.776469
522.806413	2550.216387
523.169189	2548.492313
523.531908	2548.267981
523.894569	2549.654298
524.257174	2551.060780
524.619722	2548.477189
524.982213	2548.625903
525.344647	2548.068856
525.707025	2550.463404
526.069345	2549.654298
526.431608	2548.086500
526.793815	2549.505584
527.155964	2549.268650
527.518057	2549.387117
527.880093	2549.457693
528.242072	2550.944834
528.603995	2549.026675
528.965860	2547.784030
529.327669	2549.487940
529.689421	2547.105995
530.051117	2550.087838
530.412755	2549.984494
530.774337	2551.040616
531.135862	2551.844680
531.497331	2545.775131
531.858743	2546.329658
532.220098	2547.756304
532.581396	2546.470810
532.942638	2546.226314
533.303824	2549.203115
533.664953	2550.113043
534.026025	2551.101110
534.387040	2552.328631
534.747999	2550.702858
535.108902	2551.496840
535.469748	2548.162117
535.830537	2548.956099
536.191270	2549.127498
536.551947	2550.927190
536.912567	2548.162117
537.273131	2552.270657
537.633638	2550.037426
537.994089	2550.163455
538.354483	2547.428629
538.714821	2550.604556
539.075103	2550.670091
539.435328	2550.934752
539.795497	2551.073383
540.155609	2550.849052
540.515665	2550.289484
540.875665	2552.157231
541.235609	2546.982487
541.595496	2551.668239
541.955328	2550.833928
542.315102	2552.255534
542.674821	2552.104299
543.034483	2551.557334
543.394090	2551.411141
543.753640	2550.700338
544.113134	2551.035575
544.472571	2549.908877
544.831953	2552.051367
545.191278	2552.222766
545.550548	2552.731923
545.909761	2553.057077
546.268918	2551.688404
546.628019	2552.157231
546.987064	2553.488096
547.346053	2551.295194
547.704986	2550.032385
548.063863	2549.339226
548.422684	2552.285781
548.781449	2553.243600
549.140158	2549.830739
549.498811	2553.246121
549.857408	2550.957437
550.215949	2548.817467
550.574434	2545.255892
550.932864	2549.409802
551.291237	2548.598177
551.649555	2550.644885
552.007817	2551.930379
552.366022	2549.412323
552.724173	2551.695966
553.082267	2549.243444
553.440305	2550.566747
553.798288	2550.987684
554.156215	2548.691438
554.514086	2554.524053
554.871902	2549.480379
555.229661	2551.448949
555.587365	2551.406099
555.945014	2549.548434
556.302606	2548.825029
556.660143	2549.124977
557.017625	2551.426264
557.375050	2552.404248
557.732421	2552.207643
558.089735	2550.183620
558.446994	2550.239072
558.804197	2550.385266
559.161345	2552.379042
559.518437	2552.905843
559.875474	2549.251006
560.232455	2550.982642
560.589381	2551.663198
560.946251	2554.589588
561.303065	2550.223949
561.659825	2550.357539
562.016528	2550.922149
562.373177	2550.491130
562.729770	2551.958106
563.086307	2552.840308
563.442789	2549.682025
563.799216	2550.367622
564.155587	2551.794268
564.511904	2553.150339
564.868164	2550.957437
565.224370	2551.322920
565.580520	2550.942313
565.936615	2552.414330
566.292654	2551.411141
566.648638	2551.431305
567.004567	2552.560524
567.360441	2552.689073
567.716260	2549.941644
568.072023	2551.832077
568.427732	2546.763197
568.783385	2551.267468
569.138982	2545.200439
569.494525	2550.380225
569.850013	2545.669266
570.205445	2552.341233
570.560823	2549.470296
570.916145	2551.567416
571.271412	2551.456511
571.626625	2550.478527
571.981782	2551.456511
572.336884	2551.237221
572.691931	2551.035575
573.046923	2552.253013
573.401860	2550.919628
573.756743	2550.980122
574.111570	2553.054557
574.466342	2551.786707
574.821059	2550.854093
575.175722	2550.770914
575.530330	2552.061449
575.884882	2551.748898
576.239380	2551.995914
576.593823	2552.114382
576.948211	2551.340564
577.302544	2555.504557
577.656823	2550.952396
578.011047	2552.999104
578.365216	2553.049516
578.719330	2550.234031
579.073389	2556.875751
579.427394	2549.412323
579.781344	2552.356357
580.135239	2552.742005
580.489080	2552.424412
580.842866	2549.135060
581.196597	2555.885165
581.550273	2550.526418
581.903895	2552.104299
582.257463	2551.156562
582.610975	2551.806871
582.964434	2551.428785
583.317837	2552.973898
583.671186	2553.412479
584.024481	2550.874258
584.377721	2555.257541
584.730906	2551.615307
585.084037	2552.472303
585.437113	2549.460214
585.790135	2553.863662
586.143103	2550.975081
586.496016	2552.389124
586.848874	2548.283105
587.201679	2549.475338
587.554428	2548.051212
587.907124	2551.524567
588.259765	2547.983156
588.612352	2552.704197
588.964884	2551.063301
589.317362	2552.913404
589.669786	2553.223435
590.022155	2553.193188
590.374470	2551.842159
590.726731	2552.638662
591.078937	2550.407951
591.431090	2552.958775
591.783188	2550.355019
592.135232	2551.549772
592.487222	2550.619679
592.839157	2555.204609
593.191038	2551.811912
593.542866	2552.850390
593.894639	2552.537838
594.246358	2551.625390
594.598022	2553.314176
594.949633	2550.866696
595.301190	2552.061449
595.652692	2552.966337
596.004141	2553.747715
596.355535	2552.598332
596.706876	2551.985832
597.058162	2552.850390
597.409395	2553.324258
597.760573	2553.457849
598.111698	2552.051367
598.462768	2552.447098
598.813785	2551.370811
599.164748	2550.206305
599.515657	2553.218394
599.866511	2551.940462
600.217312	2549.734957
600.568060	2549.613969
600.918753	2549.901315
601.269392	2552.026161
601.619978	2551.297715
601.970510	2550.425595
602.320988	2551.171686
602.671412	2554.652603
603.021783	2553.538507
603.372100	2552.305945
603.722363	2551.007848
604.072572	2551.653116
604.422728	2554.153528
604.772830	2549.054401
605.122878	2547.663043
605.472872	2549.271171
605.822813	2547.680687
606.172701	2550.526418
606.522534	2555.280226
606.872314	2552.633620
607.222041	2551.635472
607.571714	2555.305432
607.921333	2550.917108
608.270899	2549.240924
608.620411	2554.077911
608.969870	2554.481203
609.319276	2551.932900
609.668627	2557.049671
610.017926	2557.142933
610.367171	2560.081925
610.716362	2558.640155
611.065500	2559.121585
611.414585	2558.244425
611.763616	2554.680329
612.112594	2552.989022
612.461518	2554.758467
612.810389	2554.748384
613.159207	2554.304763
613.507971	2552.878116
613.856682	2553.566234
614.205340	2553.677139
614.553945	2554.234187
614.902496	2553.268806
615.250994	2554.670247
615.599439	2551.340564
615.947830	2552.835267
616.296169	2551.834597
616.644454	2552.583209
616.992686	2551.655637
617.340864	2551.320400
617.688990	2553.510781
618.037063	2554.496327
618.385082	2551.073383
618.733048	2553.861141
619.080961	2549.908877
619.428821	2553.382232
619.776628	2554.289639
620.124382	2552.646223
620.472083	2551.108671
620.819731	2552.084135
621.167326	2551.741336
621.514868	2551.789227
621.862357	2551.713610
622.209793	2551.222097
622.557176	2553.883827
622.904506	2550.879299
623.251783	2547.073228
623.599007	2548.867878
623.946179	2546.758156
624.293297	2547.862168
624.640363	2552.920966
624.987376	2551.378373
625.334336	2550.465924
625.681243	2548.840152
626.028097	2550.647406
626.374899	2554.521532
626.721647	2551.862324
627.068343	2552.230328
627.414987	2553.510781
627.761577	2552.482386
628.108115	2549.402241
628.454600	2551.269988
628.801032	2552.721841
629.147412	2550.924669
629.493739	2550.463404
629.840014	2551.973229
630.186236	2551.572457
630.532405	2553.901471
630.878521	2553.253682
631.224585	2550.264278
631.570597	2553.326779
631.916556	2551.758980
632.262462	2552.472303
632.608316	2550.806202
632.954117	2552.343754
633.299866	2554.118240
633.645562	2552.547921
633.991206	2550.382745
634.336797	2553.099927
634.682336	2552.512633
635.027823	2549.011551
635.373257	2551.796789
635.718639	2552.774773
636.063968	2551.955585
636.409245	2550.801161
636.754470	2552.931048
637.099642	2552.099258
637.444762	2548.845193
637.789829	2552.147149
638.134845	2551.580019
638.479808	2550.435677
638.824719	2548.935934
639.169577	2551.504402
639.514383	2548.467107
639.859137	2550.944834
640.203839	2550.818805
640.548489	2552.326110
640.893086	2549.379556
641.237632	2546.072559
641.582125	2553.001625
641.926566	2545.455017
642.270955	2547.874771
642.615292	2553.425082
642.959576	2550.236552
643.303809	2551.438867
643.647990	2550.304607
643.992118	2551.885009
644.336195	2548.716644
644.680219	2552.736964
645.024192	2550.954916
645.368112	2551.970709
645.711981	2553.833415
646.055797	2551.330482
646.399562	2552.492468
646.743274	2551.867365
647.086935	2553.472973
647.430544	2552.116902
647.774101	2552.694114
648.117606	2551.426264
648.461059	2553.266285
648.804460	2555.323076
649.147810	2549.477858
649.491108	2551.673281
649.834354	2551.436346
650.177548	2551.348126
650.520690	2553.533466
650.863781	2551.786707
651.206820	2553.687222
651.549807	2550.365101
651.892742	2554.009855
652.235626	2551.017931
652.578458	2552.631100
652.921238	2550.302087
653.263967	2553.346944
653.606644	2551.678322
653.949269	2549.641696
654.291843	2551.469114
654.634365	2549.593805
654.976836	2548.567930
655.319255	2548.298228
655.661622	2551.222097
656.003938	2548.625903
656.346203	2553.089845
656.688416	2550.932231
657.030577	2551.287632
657.372687	2552.079093
657.714746	2549.180430
658.056753	2550.027344
658.398708	2547.186654
658.740612	2549.850903
659.082465	2546.596839
659.424266	2548.222611
659.766016	2546.259081
660.107715	2551.446429
660.449362	2550.196222
660.790958	2551.675801
661.132503	2549.165307
661.473996	2551.474155
661.815438	2550.140770
662.156829	2552.061449
662.498168	2551.443908
662.839456	2548.202446
663.180693	2550.445760
663.521879	2551.668239
663.863013	2549.429967
664.204097	2550.473486
664.545129	2548.560368
664.886110	2550.967519
665.227040	2550.750749
665.567918	2550.818805
665.908746	2552.600853
666.249522	2553.631769
666.590248	2550.362581
666.930922	2549.107333
667.271545	2551.738816
667.612118	2551.827036
667.952639	2553.004145
668.293109	2550.846531
668.633528	2551.557334
668.973896	2549.596325
669.314213	2550.100441
669.654480	2550.014741
669.994695	2550.435677
670.334859	2548.351160
670.674973	2549.782848
671.015035	2551.315359
671.355047	2551.249824
671.695008	2553.220915
672.034918	2550.654968
672.374777	2549.422405
672.714585	2553.188147
673.054342	2551.922818
673.394049	2549.805533
673.733705	2549.349309
674.073310	2550.660009
674.412864	2552.396686
674.752368	2552.595812
675.091820	2550.932231
675.431223	2550.662529
675.770574	2550.970040
676.109875	2547.126160
676.449125	2546.740512
676.788324	2546.886705
677.127473	2549.639175
677.466571	2545.422250
677.805619	2552.013558
678.144616	2548.872920
678.483562	2549.152704
678.822458	2550.571788
679.161303	2550.576830
679.500098	2550.521377
679.838842	2552.434495
680.177535	2552.031203
680.516179	2551.527087
680.854771	2548.630944
681.193314	2549.535831
681.531805	2548.699000
681.870247	2553.717468
682.208638	2548.862837
682.546978	2553.979608
682.885268	2550.178578
683.223508	2547.726057
683.561697	2552.618497
683.899836	2549.276212
684.237925	2552.154711
684.575963	2548.678835
684.913951	2552.147149
685.251889	2549.876109
685.589776	2550.203784
685.927614	2552.799978
686.265401	2550.435677
686.603137	2552.023641
686.940824	2550.372663
687.278460	2549.218239
687.616046	2552.595812
687.953582	2549.268650
688.291068	2548.819987
688.628504	2550.410472
688.965889	2548.520039
689.303224	2551.181768
689.640510	2548.406613
689.977745	2550.312169
690.314930	2550.017262
690.652065	2551.043136
690.989150	2549.755122
691.326185	2551.827036
691.663170	2550.796120
692.000105	2548.683876
692.336990	2549.374514
692.673825	2552.734443
693.010610	2549.687066
693.347345	2547.983156
693.684030	2548.086500
694.020665	2545.560882
694.357251	2546.869061
694.693786	2548.270502
695.030272	2548.885522
695.366707	2548.928372
695.703093	2548.046170
696.039429	2548.320913
696.375716	2551.335523
696.711952	2546.869061
697.048139	2549.354350
697.384276	2552.247972
697.720363	2549.850903
698.056400	2550.712941
698.392388	2551.683363
698.728326	2549.866027
699.064214	2548.928372
699.400053	2550.473486
699.735842	2547.715975
700.071581	2551.955585
700.407270	2551.116233
700.742910	2550.521377
701.078501	2546.927034
701.414042	2550.367622
701.749533	2551.554813
702.084974	2548.779658
702.420366	2551.048178
702.755709	2552.449618
703.091002	2550.029864
703.426246	2549.498023
703.761440	2549.117416
704.096584	2549.994576
704.431679	2547.758825
704.766725	2550.849052
705.101721	2549.208156
705.436668	2548.295707
705.771565	2549.049360
706.106413	2549.997097
706.441212	2547.834442
706.775961	2550.576830
707.110661	2549.324103
707.445311	2551.466593
707.779913	2551.320400
708.114465	2550.206305
708.448967	2551.819474
708.783421	2550.851573
709.117825	2550.052550
709.452180	2546.722867
709.786485	2547.441232
710.120742	2551.396017
710.454949	2550.859134
710.789107	2547.242106
711.123216	2546.185985
711.457275	2548.862837
711.791286	2547.174051
712.125247	2546.450645
712.459159	2549.180430
712.793023	2550.397869
713.126837	2550.370142
713.460602	2548.144473
713.794318	2546.763197
714.127985	2549.286294
714.461602	2550.972560
714.795171	2551.360729
715.128691	2548.199926
715.462162	2550.319731
715.795584	2548.399051
716.128957	2552.371480
716.462281	2550.710420
716.795556	2550.541542
717.128782	2549.898794
717.461960	2551.975750
717.795088	2549.172868
718.128167	2548.981304
718.461198	2550.387786
718.794180	2550.728064
719.127113	2549.379556
719.459997	2548.250337
719.792833	2548.726726
720.125619	2548.729247
720.458357	2546.556509
720.791046	2551.108671
721.123686	2550.808723
721.456278	2550.521377
721.788821	2547.905018
722.121315	2549.230842
722.453761	2549.792930
722.786158	2548.406613
723.118506	2548.174720
723.450805	2552.207643
723.783056	2547.332847
724.115259	2550.082797
724.447412	2545.008875
724.779518	2550.909546
725.111574	2551.471634
725.443582	2549.513146
725.775542	2549.966850
726.107453	2548.991387
726.439315	2551.781665
726.771129	2552.810061
727.102895	2553.828374
727.434612	2550.586912
727.766281	2548.620862
728.097901	2547.519370
728.429473	2546.435522
728.760996	2544.363608
729.092471	2545.850748
729.423897	2549.326623
729.755276	2549.984494
730.086606	2549.651778
730.417887	2548.880481
730.749120	2549.729916
731.080305	2548.303269
731.411442	2549.238403
731.742530	2551.343085
732.073570	2548.583053
732.404562	2547.831921
732.735506	2546.899308
733.066401	2546.095244
733.397249	2547.234545
733.728048	2549.477858
734.058798	2550.904505
734.389501	2548.356201
734.720156	2549.492982
735.050762	2547.597508
735.381320	2549.082127
735.711831	2550.362581
736.042293	2550.871737
736.372707	2548.610780
736.703073	2548.199926
737.033391	2548.827549
737.363661	2550.773435
737.693883	2550.196223
738.024056	2550.075235
738.354182	2550.654968
738.684260	2549.084648
739.014290	2548.762014
739.344272	2548.714123
739.674207	2551.993394
740.004093	2548.638506
740.333931	2549.782848
740.663722	2550.493651
740.993464	2544.998793
741.323159	2548.454504
741.652806	2547.529452
741.982405	2550.193702
742.311956	2549.124977
742.641460	2547.990718
742.970915	2548.804864
743.300323	2549.162786
743.629683	2549.888712
743.958996	2547.421067
744.288260	2549.248486
744.617477	2549.261088
744.946647	2544.058618
745.275768	2548.275543
745.604842	2544.222455
745.933869	2546.425439
746.262847	2545.996941
746.591778	2549.114895
746.920662	2545.535676
747.249498	2547.166489
747.578286	2548.570450
747.907027	2550.372663
748.235720	2547.894936
748.564365	2550.362581
748.892963	2549.674463
749.221514	2548.426777
749.550017	2550.702858
749.878473	2549.868547
750.206881	2548.320913
750.535242	2548.971222
750.863555	2549.107333
751.191821	2547.499205
751.520039	2547.632796
751.848210	2551.143959
752.176334	2547.083310
752.504411	2548.641027
752.832440	2546.924514
753.160421	2548.704041
753.488356	2544.572815
753.816243	2549.747560
754.144082	2549.424926
754.471875	2550.329813
754.799620	2548.525080
755.127318	2547.332847
755.454969	2547.030378
755.782572	2548.714123
756.110129	2548.502395
756.437638	2548.814946
756.765100	2547.665563
757.092515	2548.688918
757.419882	2548.651109
757.747203	2548.356201
758.074477	2546.715306
758.401703	2550.838970
758.728882	2549.046839
759.056014	2549.281253
759.383099	2548.527601
759.710138	2548.343598
760.037129	2546.533824
760.364073	2549.898794
760.690970	2550.677653
761.017820	2548.746891
761.344623	2549.467776
761.671379	2548.026006
761.998088	2543.748587
762.324751	2546.806047
762.651366	2544.529966
762.977935	2547.836963
763.304456	2540.161806
763.630931	2551.504402
763.957359	2549.175389
764.283740	2550.526418
764.610074	2549.026675
764.936362	2550.803682
765.262602	2548.139432
765.588796	2549.926521
765.914943	2550.193702
766.241044	2548.464586
766.567097	2549.319062
766.893104	2547.433670
767.219064	2546.654812
767.544978	2547.431150
767.870845	2546.846376
768.196665	2548.691438
768.522438	2548.699000
768.848165	2548.807385
769.173846	2548.240255
769.499479	2547.784030
769.825066	2548.421736
770.150607	2547.083310
770.476101	2547.441232
770.801548	2547.453835
771.126949	2549.172868
771.452303	2548.686397
771.777611	2546.546427
772.102872	2547.037940
772.428087	2547.050542
772.753256	2549.208156
773.078378	2546.659853
773.403453	2546.657332
773.728482	2546.662374
774.053465	2549.233362
774.378401	2548.141952
774.703291	2550.649926
775.028135	2548.704041
775.352932	2549.170348
775.677683	2548.099102
776.002388	2548.762014
776.327046	2550.629762
776.651658	2545.593649
776.976224	2548.149514
777.300743	2549.581202
777.625216	2548.630944
777.949643	2546.397713
778.274024	2548.709082
778.598359	2546.443083
778.922647	2542.480737
779.246889	2544.414019
779.571086	2542.947043
779.895236	2544.900490
780.219339	2547.037940
780.543397	2545.238248
780.867409	2544.754297
781.191374	2545.598690
781.515294	2548.789741
781.839167	2545.918803
782.162995	2547.032898
782.486776	2548.031047
782.810511	2545.883515
783.134201	2547.458876
783.457844	2545.175233
783.781441	2549.739998
784.104993	2549.198074
784.428498	2547.834442
784.751958	2548.976263
785.075372	2547.181613
785.398739	2546.806047
785.722061	2550.052550
786.045337	2545.550799
786.368568	2547.234545
786.691752	2543.340253
787.014891	2547.975594
787.337983	2545.931406
787.661030	2547.882333
787.984031	2548.736808
788.306987	2547.317724
788.629897	2545.598690
788.952760	2548.988866
789.275579	2545.412168
789.598351	2548.819988
789.921078	2550.380225
790.243759	2547.705893
790.566395	2546.833773
790.888984	2545.964174
791.211529	2548.726726
791.534027	2545.664225
791.856480	2545.543237
792.178888	2547.778989
792.501249	2548.817467
792.823566	2549.132539
793.145836	2546.692621
793.468062	2548.157076
793.790241	2548.699000
794.112375	2546.427960
794.434464	2546.319575
794.756507	2548.595656
795.078505	2546.654812
795.400457	2545.364277
795.722364	2543.720860
796.044226	2546.574153
796.366042	2543.599873
796.687812	2545.132383
797.009538	2545.334030
797.331218	2545.737322
797.652852	2546.765717
797.974442	2545.893598
798.295986	2546.536345
798.617484	2548.267981
798.938938	2546.324616
799.260346	2548.610780
799.581709	2546.390151
799.903026	2547.582384
800.224299	2546.032229
800.545526	2548.146993
800.866708	2547.123639
801.187845	2547.010213
801.508936	2548.840152
801.829983	2546.057435
802.150984	2545.444935
802.471940	2547.161448
802.792851	2546.191026
803.113717	2546.332178
803.434538	2547.012734
803.755314	2547.063145
804.076045	2547.012734
804.396731	2546.468289
804.717372	2545.691952
805.037967	2546.191026
805.358518	2548.754453
805.679024	2549.755122
805.999485	2547.353012
806.319901	2547.998279
806.640272	2547.791592
806.960598	2546.732950
807.280879	2546.430481
807.601115	2548.946016
807.921306	2547.587425
808.241453	2547.426108
808.561554	2547.358053
808.881611	2546.233876
809.201623	2545.190357
809.521590	2548.026006
809.841513	2547.625234
810.161390	2546.765717
810.481223	2544.862682
810.801011	2546.100285
811.120755	2546.211190
811.440453	2545.293700
811.760107	2546.548948
812.079716	2544.471992
812.399281	2543.304965
812.718801	2544.466951
813.038276	2541.409491
813.357707	2547.955430
813.677093	2545.906201
813.996434	2548.005841
814.315731	2546.710265
814.634983	2548.565409
814.954191	2545.457538
815.273354	2546.652291
815.592473	2546.513660
815.911547	2549.127498
816.230577	2545.553320
816.549562	2546.995090
816.868502	2546.120450
817.187399	2546.682538
817.506250	2546.082641
817.825058	2545.936448
818.143821	2544.976108
818.462539	2547.095913
818.781213	2544.966025
819.099843	2545.938968
819.418429	2546.627086
819.736970	2546.412837
820.055466	2548.578012
820.373919	2545.583567
820.692327	2547.872251
821.010691	2546.022147
821.329011	2546.312013
821.647286	2549.500543
821.965517	2551.481717
822.283704	2551.133877
822.601847	2551.534649
822.919945	2550.859134
823.237999	2550.491130
823.556010	2548.809905
823.873976	2547.489123
824.191897	2546.664894
824.509775	2546.700182
824.827609	2546.586756
825.145398	2545.462579
825.463144	2548.066335
825.780845	2545.134904
826.098502	2549.427447
826.416116	2546.049873
826.733685	2547.330327
827.051210	2546.450645
827.368692	2547.587425
827.686129	2548.275543
828.003522	2547.829401
828.320872	2542.493339
828.638177	2546.735470
828.955439	2542.077444
829.272656	2543.148689
829.589830	2542.846220
829.906960	2546.627086
830.224046	2545.392003
830.541088	2546.556509
830.858086	2544.923176
831.175041	2546.478372
831.491952	2546.919472
831.808819	2549.785368
832.125642	2544.328319
832.442421	2547.673125
832.759157	2546.438042
833.075849	2548.406613
833.392497	2547.733619
833.709101	2548.436860
834.025662	2545.185316
834.342179	2547.068187
834.658653	2549.097251
834.975083	2545.588608
835.291469	2551.441388
835.607811	2548.341078
835.924110	2545.848227
836.240366	2546.090203
836.556578	2544.146838
836.872746	2546.627086
837.188871	2545.243289
837.504952	2545.182795
837.820990	2544.461910
838.136984	2546.828732
838.452935	2545.263453
838.768842	2547.569781
839.084706	2545.225645
839.400526	2546.037271
839.716303	2543.569626
840.032037	2547.592467
840.347727	2544.608103
840.663373	2547.146324
840.978977	2546.059956
841.294537	2545.661705
841.610054	2546.382590
841.925527	2543.897301
842.240957	2546.385110
842.556344	2546.246478
842.871687	2544.252702
843.186987	2544.938299
843.502244	2545.848227
843.817458	2544.751776
844.132629	2543.488967
844.447756	2548.220090
844.762840	2541.913607
845.077881	2545.079451
845.392879	2541.260777
845.707833	2542.105171
846.022745	2539.592155
846.337613	2546.516180
846.652438	2547.060625
846.967221	2547.413506
847.281960	2544.918134
847.596656	2548.804864
847.911309	2545.817980
848.225919	2544.734132
848.540485	2547.806716
848.855009	2548.343598
849.169490	2545.996941
849.483928	2546.644730
849.798323	2546.848896
850.112675	2543.897301
850.426984	2546.992569
850.741251	2544.466951
851.055474	2546.284287
851.369654	2544.716488
851.683792	2546.997610
851.997887	2546.536345
852.311938	2546.465769
852.625947	2543.746066
852.939914	2547.403423
853.253837	2546.506098
853.567718	2548.031047
853.881555	2548.134391
854.195350	2545.787733
854.509103	2545.475182
854.822812	2545.971736
855.136479	2545.437373
855.450103	2544.955943
855.763685	2545.878474
856.077224	2545.119781
856.390720	2547.378217
856.704173	2544.167002
857.017584	2544.605583
857.330953	2545.621375
857.644278	2546.314534
857.957561	2549.757642
858.270802	2546.032229
858.584000	2544.386293
858.897155	2545.354194
859.210268	2544.729091
859.523339	2545.056766
859.836367	2545.197918
860.149352	2544.562733
860.462295	2546.881664
860.775195	2540.005530
861.088054	2542.886549
861.400869	2542.637012
861.713642	2541.996786
862.026373	2541.036446
862.339062	2545.505429
862.651708	2543.083154
862.964312	2546.836293
863.276873	2549.072045
863.589392	2543.955274
863.901869	2546.064997
864.214303	2544.615665
864.526696	2544.477033
864.839045	2545.691952
865.151353	2544.726571
865.463619	2544.333361
865.775842	2545.346633
866.088023	2545.200439
866.400162	2545.883515
866.712258	2543.766231
867.024313	2543.761190
867.336325	2544.587939
867.648296	2546.427960
867.960224	2542.982331
868.272110	2544.492157
868.583954	2544.512322
868.895755	2545.434853
869.207515	2545.928886
869.519233	2545.578526
869.830909	2543.526776
870.142542	2546.057435
870.454134	2544.865202
870.765684	2547.123639
871.077191	2543.942671
871.388657	2546.289328
871.700081	2543.766231
872.011463	2543.821683
872.322803	2545.023999
872.634101	2545.281098
872.945357	2543.231868
873.256571	2543.340253
873.567744	2545.628937
873.878874	2546.904349
874.189963	2547.158927
874.501010	2545.853268
874.812015	2543.093237
875.122979	2544.028371
875.433900	2544.789585
875.744780	2544.887887
876.055618	2543.226827
876.366415	2547.867209
876.677169	2546.783361
876.987882	2544.519883
877.298554	2538.762886
877.609183	2543.032743
877.919771	2543.441076
878.230317	2542.770603
878.540822	2547.673125
878.851285	2547.416026
879.161707	2545.696993
879.472087	2545.911242
879.782425	2544.144317
880.092722	2544.542568
880.402977	2546.619524
880.713191	2545.286139
881.023363	2545.800336
881.333494	2547.998279
881.643583	2546.911911
881.953631	2546.861499
882.263637	2543.362938
882.573602	2545.490305
882.883526	2547.849565
883.193408	2546.455686
883.503248	2546.831252
883.813048	2546.254040
884.122806	2546.180943
884.432522	2545.041643
884.742197	2545.102137
885.051831	2543.912424
885.361424	2540.733977
885.670975	2542.674821
885.980485	2544.817311
886.289954	2545.558361
886.599382	2545.777651
886.908768	2544.587939
887.218113	2544.187167
887.527417	2544.353525
887.836680	2544.872764
888.145901	2543.970397
888.455082	2544.151879
888.764221	2544.655994
889.073319	2544.817311
889.382376	2541.981662
889.691392	2543.252033
890.000366	2544.605583
890.309300	2543.725902
890.618193	2544.842517
890.927044	2544.020809
891.235855	2543.544420
891.544625	2545.381921
891.853353	2544.224976
892.162041	2541.837989
892.470687	2544.227496
892.779293	2543.945192
893.087858	2542.057280
893.396381	2540.275232
893.704864	2542.473175
894.013306	2538.639377
894.321707	2546.944678
894.630068	2544.802188
894.938387	2543.972918
895.246665	2546.579195
895.554903	2547.577343
895.863100	2546.483413
896.171256	2547.453835
896.479371	2545.422250
896.787446	2546.861499
897.095480	2542.848741
897.403473	2545.054246
897.711425	2542.541230
898.019336	2543.292362
898.327207	2546.811088
898.635038	2546.289328
898.942827	2544.867723
899.250576	2544.235058
899.558284	2544.091385
899.865952	2543.718340
900.173579	2545.455017
900.481165	2542.218597
900.788711	2544.119112
901.096216	2547.158927
901.403681	2542.354708
901.711105	2546.538865
902.018489	2541.943854
902.325832	2548.063814
902.633135	2546.357384
902.940397	2546.274205
903.247619	2543.153731
903.554800	2543.342774
903.861941	2547.262271
904.169041	2544.164482
904.476101	2545.177754
904.783121	2544.955943
905.090100	2547.095913
905.397039	2546.949719
905.703938	2544.630789
906.010796	2543.665408
906.317614	2543.826725
906.624391	2546.317055
906.931129	2541.931251
907.237826	2546.133052
907.544483	2541.611138
907.851099	2543.741025
908.157675	2542.763041
908.464211	2546.533824
908.770707	2540.441590
909.077163	2542.584080
909.383578	2539.289686
909.689954	2542.072403
909.996289	2538.830941
910.302584	2544.134235
910.608839	2543.473844
910.915054	2545.623896
911.221229	2545.112219
911.527363	2548.416695
911.833458	2545.225645
912.139513	2543.451159
912.445527	2545.901159
912.751502	2542.700027
913.057436	2545.512991
913.363331	2544.403937
913.669186	2545.984338
913.975000	2543.899821
914.280775	2543.436035
914.586510	2543.322609
914.892205	2544.172044
915.197859	2545.281098
915.503475	2544.555171
915.809050	2543.743546
916.114585	2547.289997
916.420081	2546.173382
916.725536	2543.274718
917.030952	2545.046684
917.336328	2543.050387
917.641665	2543.365459
917.946961	2545.218083
918.252218	2543.254554
918.557435	2545.273536
918.862612	2544.807229
919.167750	2544.013247
919.472848	2543.378062
919.777906	2541.981662
920.082925	2544.754297
920.387904	2543.914945
920.692843	2543.186498
920.997743	2543.040305
921.302603	2542.798329
921.607423	2544.179605
921.912204	2544.285470
922.216946	2542.190870
922.521647	2545.823022
922.826310	2541.515356
923.130932	2542.763041
923.435516	2545.323947
923.740059	2543.746066
924.044564	2541.772454
924.349028	2542.369831
924.653454	2538.599048
924.957840	2539.942516
925.262186	2539.463606
925.566493	2540.471837
925.870761	2538.657021
926.174989	2541.038967
926.479178	2542.231199
926.783328	2541.210366
927.087438	2544.414019
927.391509	2546.508618
927.695541	2542.601724
927.999533	2542.911755
928.303486	2543.902342
928.607400	2542.677342
928.911275	2543.148689
929.215110	2542.263967
929.518906	2541.676672
929.822663	2546.032229
930.126381	2542.763041
930.430060	2545.397044
930.733699	2543.708258
931.037299	2542.137938
931.340861	2542.269008
931.644383	2544.335881
931.947866	2544.383772
932.251309	2540.708771
932.554714	2543.660367
932.858080	2545.921324
933.161407	2540.857485
933.464694	2542.997455
933.767943	2542.644574
934.071153	2541.888401
934.374323	2541.845551
934.677455	2541.240613
934.980548	2541.875798
935.283602	2542.117773
935.586617	2542.263967
935.889593	2542.117773
936.192530	2543.390665
936.495428	2543.609955
936.798287	2543.665408
937.101108	2540.882691
937.403890	2544.093906
937.706632	2542.702547
938.009336	2541.021323
938.312002	2542.901673
938.614628	2543.254554
938.917216	2545.104657
939.219765	2542.314378
939.522275	2543.085675
939.824747	2542.629451
940.127179	2542.029553
940.429573	2538.316743
940.731929	2539.897145
941.034246	2538.556198
941.336524	2542.321940
941.638763	2543.667928
941.940964	2541.170037
942.243126	2543.478885
942.545250	2540.852444
942.847335	2541.616179
943.149381	2539.652649
943.451389	2539.919830
943.753359	2543.557023
944.055290	2542.919317
944.357182	2546.049873
944.659036	2542.377393
944.960851	2543.592311
945.262628	2542.720191
945.564367	2542.858823
945.866067	2542.130376
946.167729	2542.422763
946.469352	2542.516025
946.770937	2543.551982
947.072484	2542.510983
947.373992	2542.067362
947.675462	2542.783206
947.976893	2541.711961
948.278286	2542.758000
948.579641	2544.766900
948.880958	2542.442928
949.182236	2544.540048
949.483476	2539.740869
949.784678	2542.994934
950.085841	2543.166333
950.386967	2543.025181
950.688054	2543.796478
950.989103	2541.381765
951.290114	2541.603576
951.591087	2540.764224
951.892021	2541.318751
952.192917	2543.062990
952.493776	2541.603576
952.794596	2543.030222
953.095378	2542.021992
953.396122	2541.780016
953.696828	2542.049718
953.997496	2543.675490
954.298126	2542.160623
954.598718	2544.348484
954.899272	2544.073741
955.199788	2544.151879
955.500266	2542.878988
955.800706	2538.455375
956.101108	2537.711805
956.401472	2540.315561
956.701798	2539.019984
957.002087	2543.587270
957.302337	2541.628782
957.602550	2545.142466
957.902724	2542.576518
958.202861	2542.674821
958.502960	2541.001158
958.803022	2542.326981
959.103045	2540.083668
959.403031	2540.733977
959.702979	2543.693134
960.002889	2541.255736
960.302762	2544.519883
960.602596	2543.201622
960.902393	2544.857641
961.202153	2541.291024
961.501875	2542.984852
961.801559	2540.897814
962.101205	2544.414019
962.400814	2543.269677
962.700385	2540.088709
962.999918	2542.200952
963.299414	2541.477547
963.598873	2542.372352
963.898293	2541.505273
964.197677	2543.511653
964.497022	2541.661549
964.796331	2543.451159
965.095601	2542.952084
965.394835	2538.455375
965.694030	2541.089378
965.993189	2542.687424
966.292309	2541.749769
966.591393	2540.255067
966.890439	2542.637012
967.189447	2545.770089
967.488419	2541.429656
967.787353	2543.078113
968.086249	2542.642053
968.385108	2544.857641
968.683930	2542.342105
968.982714	2544.434184
969.281462	2541.898483
969.580172	2542.662218
969.878844	2541.530479
970.177480	2543.962836
970.476078	2540.978473
970.774639	2544.192208
971.073162	2542.904193
971.371649	2538.841023
971.670098	2536.980838
971.968510	2539.093081
972.266885	2536.196938
972.565223	2539.120808
972.863524	2541.202804
973.161788	2542.952084
973.460014	2542.662218
973.758204	2539.806404
974.056356	2542.848741
974.354471	2544.550130
974.652550	2540.229861
974.950591	2540.791950
975.248595	2541.558205
975.546563	2542.453010
975.844493	2541.709440
976.142386	2539.972762
976.440243	2540.504604
976.738062	2540.769265
977.035845	2539.637526
977.333590	2541.916127
977.631299	2539.234233
977.928971	2543.756148
978.226606	2543.763710
978.524204	2543.418391
978.821765	2540.527289
979.119290	2541.036446
979.416777	2542.316899
979.714228	2543.564585
980.011642	2541.157434
980.309020	2542.581560
980.606360	2541.757331
980.903664	2543.294883
981.200931	2539.541744
981.498162	2542.692465
981.795356	2540.824717
982.092513	2543.272198
982.389633	2542.455531
982.686717	2542.790768
982.983764	2543.577187
983.280775	2544.005686
983.577749	2538.278935
983.874686	2541.154913
984.171587	2541.510314
984.468451	2542.873947
984.765279	2541.157434
985.062070	2544.396375
985.358824	2543.199101
985.655543	2540.988555
985.952224	2540.693648
986.248869	2541.636343
986.545478	2538.755324
986.842050	2539.140972
987.138586	2539.473688
987.435086	2539.032587
987.731549	2536.199459
988.027975	2540.663401
988.324366	2541.185160
988.620719	2541.124666
988.917037	2543.569626
989.213318	2540.902855
989.509563	2538.107536
989.805772	2541.076775
990.101944	2539.748431
990.398080	2541.061652
990.694180	2539.793802
990.990244	2540.925541
991.286271	2544.000644
991.582262	2542.977290
991.878217	2542.105171
992.174136	2541.228010
992.470019	2542.921837
992.765865	2539.556867
993.061676	2539.042670
993.357450	2542.884029
993.653188	2540.817156
993.948890	2542.389996
994.244556	2543.002496
994.540186	2543.312527
994.835780	2542.480737
995.131337	2539.234233
995.426859	2541.091899
995.722345	2540.282793
996.017795	2543.123484
996.313208	2540.980993
996.608586	2540.746580
996.903928	2540.822197
997.199234	2540.991076
997.494504	2539.992927
997.789738	2541.391847
998.084936	2540.955788
998.380099	2541.366642
998.675225	2539.859337
998.970316	2539.566950
999.265371	2541.036446
999.560390	2542.594162
999.855373	2541.414533
1000.150320	2541.437218
1000.445232	2541.643905
1000.740108	2543.244471
1001.034948	2542.299255
1001.329752	2542.465613
1001.624521	2542.926879
1001.919254	2536.075951
1002.213951	2539.037628
1002.508613	2534.719880
1002.803239	2541.033925
1003.097829	2536.627957
1003.392384	2541.706919
1003.686903	2542.218597
1003.981386	2542.286652
1004.275834	2540.751621
1004.570246	2544.391334
1004.864623	2541.888401
1005.158964	2539.783719
1005.453270	2539.680376
1005.747540	2542.543751
1006.041775	2539.100643
1006.335974	2540.244985
1006.630138	2539.594676
1006.924266	2539.322454
1007.218359	2540.721374
1007.512416	2541.986703
1007.806438	2540.131559
1008.100425	2540.106353
1008.394376	2541.107022
1008.688292	2540.640715
1008.982172	2542.001827
1009.276017	2536.333049
1009.569827	2539.899666
1009.863602	2541.260777
1010.157341	2538.851106
1010.451045	2539.166178
1010.744714	2538.742721
1011.038347	2540.741538
1011.331945	2539.410674
1011.625508	2542.006868
1011.919036	2541.071734
1012.212528	2542.788247
1012.505986	2540.970911
1012.799408	2542.591642
1013.092795	2541.870757
1013.386147	2540.202135
1013.679464	2540.018133
1013.972745	2536.806918
1014.265992	2541.273380
1014.559204	2540.923020
1014.852380	2541.187681
1015.145521	2540.232382
1015.438628	2541.291024
1015.731699	2538.886394
1016.024736	2538.780530
1016.317737	2542.465613
1016.610703	2542.321940
1016.903635	2538.596527
1017.196531	2536.660724
1017.489393	2540.338246
1017.782219	2534.346835
1018.075011	2536.408667
1018.367768	2540.426466
1018.660490	2538.967052
1018.953177	2538.967052
1019.245829	2538.967052
