Dividing Wavelength (nm)	Counts (n)	Blue Motor Position (mm): 4.600000	Red Motor Position (mm): 0.000000	
326.493990	2081.996538
326.888308	2081.996538
327.282561	2081.996538
327.676750	2074.434808
328.070874	2084.517115
328.464933	2024.023269
328.858929	2104.681731
329.252859	2134.928654
329.646726	2150.052115
330.040528	2094.599423
330.434265	2134.928654
330.827938	2215.587115
331.221547	2260.957500
331.615091	2167.696154
332.008571	2165.175577
332.401986	2099.640577
332.795338	2200.463654
333.188625	2303.807308
333.581847	2298.766154
333.975006	2281.122115
334.368100	2349.177692
334.761129	2369.342308
335.154095	2361.780577
335.546996	2313.889615
335.939833	2384.465769
336.332606	2323.971923
336.725315	2354.218846
337.117960	2455.041923
337.510540	2376.904038
337.903056	2437.397885
338.295508	2361.780577
338.687896	2336.574808
339.080220	2477.727115
339.472480	2432.356731
339.864676	2472.685962
340.256807	2379.424615
340.648875	2447.480192
341.040879	2467.644808
341.432818	2545.782692
341.824694	2515.535769
342.216506	2485.288846
342.608253	2477.727115
342.999937	2462.603654
343.391557	2518.056346
343.783113	2437.397885
344.174605	2492.850577
344.566033	2432.356731
344.957397	2510.494615
345.348697	2487.809423
345.739934	2487.809423
346.131106	2455.041923
346.522215	2424.795000
346.913260	2460.083077
347.304241	2386.986346
347.695159	2578.550192
348.086012	2477.727115
348.476802	2462.603654
348.867528	2419.753846
349.258191	2392.027500
349.648789	2412.192115
350.039324	2442.439038
350.429796	2505.453462
350.820203	2485.288846
351.210548	2475.206538
351.600828	2399.589231
351.991045	2434.877308
352.381198	2407.150962
352.771288	2356.739423
353.161314	2392.027500
353.551276	2399.589231
353.941175	2392.027500
354.331010	2462.603654
354.720782	2402.109808
355.110490	2354.218846
355.500135	2389.506923
355.889717	2404.630385
356.279235	2455.041923
356.668689	2439.918462
357.058080	2422.274423
357.447408	2419.753846
357.836672	2543.262115
358.225873	2427.315577
358.615010	2384.465769
359.004084	2359.260000
359.393095	2429.836154
359.782043	2439.918462
360.170927	2502.932885
360.559748	2437.397885
360.948505	2444.959615
361.337199	2419.753846
361.725830	2450.000769
362.114398	2510.494615
362.502903	2402.109808
362.891344	2487.809423
363.279722	2434.877308
363.668037	2460.083077
364.056289	2414.712692
364.444478	2399.589231
364.832603	2376.904038
365.220665	2417.233269
365.608665	2429.836154
365.996601	2452.521346
366.384474	2424.795000
366.772284	2452.521346
367.160031	2442.439038
367.547715	2334.054231
367.935336	2520.576923
368.322893	2452.521346
368.710388	2444.959615
369.097820	2490.330000
369.485189	2492.850577
369.872495	2535.700385
370.259738	2429.836154
370.646918	2472.685962
371.034035	2394.548077
371.421090	2480.247692
371.808081	2402.109808
372.195010	2515.535769
372.581875	2384.465769
372.968678	2533.179808
373.355418	2510.494615
373.742096	2545.782692
374.128710	2507.974038
374.515262	2452.521346
374.901751	2444.959615
375.288177	2444.959615
375.674540	2417.233269
376.060841	2538.220962
376.447079	2505.453462
376.833254	2538.220962
377.219367	2407.150962
377.605417	2447.480192
377.991404	2487.809423
378.377329	2386.986346
378.763191	2518.056346
379.148991	2457.562500
379.534727	2427.315577
379.920402	2518.056346
380.306013	2437.397885
380.691563	2467.644808
381.077049	2513.015192
381.462474	2457.562500
381.847835	2462.603654
382.233134	2507.974038
382.618371	2502.932885
383.003545	2495.371154
383.388657	2437.397885
383.773706	2465.124231
384.158693	2412.192115
384.543618	2414.712692
384.928480	2538.220962
385.313280	2437.397885
385.698017	2528.138654
386.082692	2434.877308
386.467305	2528.138654
386.851856	2518.056346
387.236344	2457.562500
387.620770	2487.809423
388.005133	2487.809423
388.389435	2477.727115
388.773674	2437.397885
389.157851	2558.385577
389.541965	2452.521346
389.926018	2507.974038
390.310008	2543.262115
390.693936	2482.768269
391.077802	2402.109808
391.461606	2470.165385
391.845348	2487.809423
392.229027	2490.330000
392.612645	2439.918462
392.996200	2434.877308
393.379694	2485.288846
393.763125	2432.356731
394.146494	2535.700385
394.529801	2455.041923
394.913047	2528.138654
395.296230	2528.138654
395.679351	2384.465769
396.062410	2507.974038
396.445408	2528.138654
396.828343	2497.891731
397.211217	2497.891731
397.594028	2497.891731
397.976778	2432.356731
398.359466	2477.727115
398.742092	2412.192115
399.124656	2447.480192
399.507158	2462.603654
399.889598	2485.288846
400.271977	2442.439038
400.654294	2495.371154
401.036549	2457.562500
401.418742	2525.618077
401.800874	2502.932885
402.182944	2455.041923
402.564952	2477.727115
402.946898	2376.904038
403.328783	2523.097500
403.710606	2434.877308
404.092367	2407.150962
404.474067	2538.220962
404.855705	2467.644808
405.237282	2535.700385
405.618797	2457.562500
406.000250	2447.480192
406.381642	2482.768269
406.762972	2497.891731
407.144240	2472.685962
407.525447	2533.179808
407.906593	2381.945192
408.287677	2399.589231
408.668700	2422.274423
409.049661	2429.836154
409.430560	2455.041923
409.811399	2480.247692
410.192176	2450.000769
410.572891	2555.865000
410.953545	2495.371154
411.334138	2452.521346
411.714669	2419.753846
412.095139	2354.218846
412.475547	2407.150962
412.855894	2472.685962
413.236180	2555.865000
413.616405	2485.288846
413.996568	2447.480192
414.376670	2518.056346
414.756711	2520.576923
415.136691	2457.562500
415.516609	2452.521346
415.896466	2568.467885
416.276262	2402.109808
416.655997	2475.206538
417.035670	2437.397885
417.415283	2555.865000
417.794834	2523.097500
418.174324	2565.947308
418.553753	2457.562500
418.933121	2477.727115
419.312428	2432.356731
419.691674	2495.371154
420.070859	2402.109808
420.449983	2487.809423
420.829045	2452.521346
421.208047	2485.288846
421.586988	2397.068654
421.965867	2455.041923
422.344686	2412.192115
422.723444	2525.618077
423.102141	2452.521346
423.480777	2507.974038
423.859352	2492.850577
424.237866	2450.000769
424.616319	2553.344423
424.994712	2439.918462
425.373044	2538.220962
425.751314	2480.247692
426.129524	2429.836154
426.507673	2394.548077
426.885762	2384.465769
427.263789	2462.603654
427.641756	2520.576923
428.019662	2434.877308
428.397508	2462.603654
428.775292	2543.262115
429.153016	2439.918462
429.530679	2470.165385
429.908282	2447.480192
430.285824	2520.576923
430.663305	2500.412308
431.040726	2515.535769
431.418086	2480.247692
431.795385	2523.097500
432.172624	2419.753846
432.549802	2434.877308
432.926920	2513.015192
433.303977	2505.453462
433.680974	2419.753846
434.057910	2465.124231
434.434786	2477.727115
434.811601	2444.959615
435.188355	2523.097500
435.565050	2505.453462
435.941683	2482.768269
436.318257	2437.397885
436.694770	2427.315577
437.071222	2465.124231
437.447614	2422.274423
437.823946	2485.288846
438.200218	2523.097500
438.576429	2538.220962
438.952580	2497.891731
439.328670	2394.548077
439.704700	2487.809423
440.080670	2434.877308
440.456580	2482.768269
440.832429	2492.850577
441.208218	2497.891731
441.583947	2442.439038
441.959616	2563.426731
442.335224	2470.165385
442.710773	2586.111923
443.086261	2472.685962
443.461689	2450.000769
443.837057	2455.041923
444.212365	2480.247692
444.587612	2523.097500
444.962800	2414.712692
445.337927	2470.165385
445.712995	2402.109808
446.088002	2515.535769
446.462949	2520.576923
446.837837	2543.262115
447.212664	2434.877308
447.587431	2439.918462
447.962139	2538.220962
448.336786	2444.959615
448.711374	2500.412308
449.085901	2523.097500
449.460369	2555.865000
449.834776	2548.303269
450.209124	2477.727115
450.583412	2560.906154
450.957640	2510.494615
451.331808	2467.644808
451.705917	2507.974038
452.079965	2528.138654
452.453954	2485.288846
452.827883	2475.206538
453.201752	2558.385577
453.575562	2437.397885
453.949311	2568.467885
454.323001	2457.562500
454.696632	2457.562500
455.070202	2447.480192
455.443713	2366.821731
455.817164	2497.891731
456.190556	2513.015192
456.563888	2376.904038
456.937160	2497.891731
457.310373	2543.262115
457.683526	2397.068654
458.056619	2560.906154
458.429653	2513.015192
458.802628	2502.932885
459.175542	2540.741538
459.548398	2538.220962
459.921194	2480.247692
460.293930	2439.918462
460.666607	2414.712692
461.039224	2515.535769
461.411782	2528.138654
461.784280	2525.618077
462.156719	2545.782692
462.529099	2497.891731
462.901419	2568.467885
463.273680	2528.138654
463.645882	2457.562500
464.018024	2538.220962
464.390106	2442.439038
464.762130	2417.233269
465.134094	2548.303269
465.505999	2528.138654
465.877845	2467.644808
466.249631	2460.083077
466.621358	2397.068654
466.993026	2492.850577
467.364634	2417.233269
467.736184	2462.603654
468.107674	2495.371154
468.479105	2507.974038
468.850477	2505.453462
469.221790	2543.262115
469.593043	2500.412308
469.964238	2427.315577
470.335373	2477.727115
470.706449	2487.809423
471.077467	2434.877308
471.448425	2465.124231
471.819324	2568.467885
472.190164	2447.480192
472.560945	2543.262115
472.931667	2578.550192
473.302330	2487.809423
473.672934	2523.097500
474.043479	2427.315577
474.413965	2530.659231
474.784393	2477.727115
475.154761	2422.274423
475.525070	2460.083077
475.895321	2442.439038
476.265513	2490.330000
476.635645	2457.562500
477.005719	2540.741538
477.375734	2429.836154
477.745691	2460.083077
478.115588	2485.288846
478.485427	2502.932885
478.855207	2460.083077
479.224928	2505.453462
479.594591	2465.124231
479.964194	2427.315577
480.333739	2475.206538
480.703226	2550.823846
481.072653	2558.385577
481.442022	2447.480192
481.811333	2487.809423
482.180584	2518.056346
482.549777	2470.165385
482.918912	2513.015192
483.287988	2502.932885
483.657005	2548.303269
484.025964	2523.097500
484.394864	2545.782692
484.763706	2520.576923
485.132489	2535.700385
485.501213	2346.657115
485.869879	2379.424615
486.238487	2533.179808
486.607036	2444.959615
486.975527	2518.056346
487.343959	2417.233269
487.712333	2490.330000
488.080648	2550.823846
488.448905	2507.974038
488.817104	2523.097500
489.185244	2528.138654
489.553326	2505.453462
489.921350	2419.753846
490.289315	2497.891731
490.657222	2419.753846
491.025070	2462.603654
491.392861	2462.603654
491.760593	2379.424615
492.128267	2447.480192
492.495883	2550.823846
492.863440	2480.247692
493.230939	2520.576923
493.598380	2444.959615
493.965763	2487.809423
494.333088	2439.918462
494.700354	2475.206538
495.067563	2450.000769
495.434713	2502.932885
495.801805	2563.426731
496.168839	2560.906154
496.535815	2528.138654
496.902733	2515.535769
497.269593	2490.330000
497.636395	2455.041923
498.003139	2485.288846
498.369825	2507.974038
498.736453	2402.109808
499.103023	2414.712692
499.469535	2462.603654
499.835989	2528.138654
500.202385	2422.274423
500.568723	2434.877308
500.935003	2407.150962
501.301226	2500.412308
501.667390	2381.945192
502.033497	2530.659231
502.399546	2477.727115
502.765537	2558.385577
503.131470	2500.412308
503.497345	2485.288846
503.863163	2450.000769
504.228923	2548.303269
504.594625	2553.344423
504.960269	2510.494615
505.325856	2447.480192
505.691385	2485.288846
506.056856	2447.480192
506.422270	2490.330000
506.787625	2490.330000
507.152924	2487.809423
507.518164	2422.274423
507.883347	2533.179808
508.248472	2510.494615
508.613540	2490.330000
508.978550	2407.150962
509.343503	2485.288846
509.708398	2409.671538
510.073236	2460.083077
510.438016	2550.823846
510.802738	2472.685962
511.167403	2588.632500
511.532010	2455.041923
511.896561	2520.576923
512.261053	2470.165385
512.625488	2480.247692
512.989866	2497.891731
513.354186	2437.397885
513.718449	2510.494615
514.082655	2439.918462
514.446803	2490.330000
514.810894	2492.850577
515.174927	2518.056346
515.538904	2576.029615
515.902822	2475.206538
516.266684	2520.576923
516.630488	2576.029615
516.994235	2452.521346
517.357925	2482.768269
517.721558	2417.233269
518.085133	2520.576923
518.448651	2412.192115
518.812112	2505.453462
519.175516	2550.823846
519.538863	2472.685962
519.902152	2465.124231
520.265385	2460.083077
520.628560	2442.439038
520.991678	2470.165385
521.354739	2520.576923
521.717743	2457.562500
522.080690	2500.412308
522.443580	2460.083077
522.806413	2455.041923
523.169189	2500.412308
523.531908	2553.344423
523.894569	2530.659231
524.257174	2550.823846
524.619722	2507.974038
524.982213	2480.247692
525.344647	2465.124231
525.707025	2525.618077
526.069345	2485.288846
526.431608	2457.562500
526.793815	2495.371154
527.155964	2447.480192
527.518057	2487.809423
527.880093	2528.138654
528.242072	2568.467885
528.603995	2518.056346
528.965860	2412.192115
529.327669	2538.220962
529.689421	2543.262115
530.051117	2447.480192
530.412755	2417.233269
530.774337	2485.288846
531.135862	2507.974038
531.497331	2555.865000
531.858743	2583.591346
532.220098	2467.644808
532.581396	2422.274423
532.942638	2578.550192
533.303824	2422.274423
533.664953	2475.206538
534.026025	2523.097500
534.387040	2455.041923
534.747999	2487.809423
535.108902	2515.535769
535.469748	2568.467885
535.830537	2525.618077
536.191270	2477.727115
536.551947	2477.727115
536.912567	2422.274423
537.273131	2507.974038
537.633638	2482.768269
537.994089	2583.591346
538.354483	2538.220962
538.714821	2460.083077
539.075103	2487.809423
539.435328	2565.947308
539.795497	2500.412308
540.155609	2578.550192
540.515665	2540.741538
540.875665	2523.097500
541.235609	2492.850577
541.595496	2470.165385
541.955328	2543.262115
542.315102	2581.070769
542.674821	2414.712692
543.034483	2510.494615
543.394090	2455.041923
543.753640	2465.124231
544.113134	2576.029615
544.472571	2528.138654
544.831953	2540.741538
545.191278	2497.891731
545.550548	2502.932885
545.909761	2507.974038
546.268918	2548.303269
546.628019	2586.111923
546.987064	2472.685962
547.346053	2465.124231
547.704986	2427.315577
548.063863	2518.056346
548.422684	2563.426731
548.781449	2485.288846
549.140158	2573.509038
549.498811	2507.974038
549.857408	2538.220962
550.215949	2434.877308
550.574434	2583.591346
550.932864	2495.371154
551.291237	2482.768269
551.649555	2457.562500
552.007817	2432.356731
552.366022	2434.877308
552.724173	2452.521346
553.082267	2414.712692
553.440305	2533.179808
553.798288	2510.494615
554.156215	2507.974038
554.514086	2399.589231
554.871902	2523.097500
555.229661	2465.124231
555.587365	2465.124231
555.945014	2634.002885
556.302606	2389.506923
556.660143	2545.782692
557.017625	2472.685962
557.375050	2553.344423
557.732421	2455.041923
558.089735	2530.659231
558.446994	2452.521346
558.804197	2495.371154
559.161345	2570.988462
559.518437	2492.850577
559.875474	2550.823846
560.232455	2540.741538
560.589381	2523.097500
560.946251	2500.412308
561.303065	2510.494615
561.659825	2455.041923
562.016528	2535.700385
562.373177	2505.453462
562.729770	2505.453462
563.086307	2525.618077
563.442789	2523.097500
563.799216	2507.974038
564.155587	2533.179808
564.511904	2578.550192
564.868164	2457.562500
565.224370	2465.124231
565.580520	2467.644808
565.936615	2515.535769
566.292654	2497.891731
566.648638	2518.056346
567.004567	2538.220962
567.360441	2548.303269
567.716260	2533.179808
568.072023	2507.974038
568.427732	2518.056346
568.783385	2467.644808
569.138982	2528.138654
569.494525	2480.247692
569.850013	2442.439038
570.205445	2442.439038
570.560823	2417.233269
570.916145	2487.809423
571.271412	2460.083077
571.626625	2384.465769
571.981782	2500.412308
572.336884	2563.426731
572.691931	2497.891731
573.046923	2570.988462
573.401860	2518.056346
573.756743	2535.700385
574.111570	2465.124231
574.466342	2467.644808
574.821059	2434.877308
575.175722	2497.891731
575.530330	2523.097500
575.884882	2467.644808
576.239380	2487.809423
576.593823	2422.274423
576.948211	2417.233269
577.302544	2450.000769
577.656823	2442.439038
578.011047	2523.097500
578.365216	2510.494615
578.719330	2492.850577
579.073389	2404.630385
579.427394	2495.371154
579.781344	2601.235385
580.135239	2515.535769
580.489080	2465.124231
580.842866	2467.644808
581.196597	2472.685962
581.550273	2565.947308
581.903895	2513.015192
582.257463	2518.056346
582.610975	2457.562500
582.964434	2576.029615
583.317837	2442.439038
583.671186	2525.618077
584.024481	2548.303269
584.377721	2507.974038
584.730906	2538.220962
585.084037	2490.330000
585.437113	2528.138654
585.790135	2573.509038
586.143103	2407.150962
586.496016	2487.809423
586.848874	2591.153077
587.201679	2482.768269
587.554428	2455.041923
587.907124	2528.138654
588.259765	2497.891731
588.612352	2591.153077
588.964884	2550.823846
589.317362	2467.644808
589.669786	2543.262115
590.022155	2392.027500
590.374470	2465.124231
590.726731	2520.576923
591.078937	2492.850577
591.431090	2525.618077
591.783188	2465.124231
592.135232	2502.932885
592.487222	2576.029615
592.839157	2490.330000
593.191038	2538.220962
593.542866	2422.274423
593.894639	2510.494615
594.246358	2518.056346
594.598022	2545.782692
594.949633	2462.603654
595.301190	2485.288846
595.652692	2490.330000
596.004141	2543.262115
596.355535	2513.015192
596.706876	2470.165385
597.058162	2558.385577
597.409395	2535.700385
597.760573	2586.111923
598.111698	2616.358846
598.462768	2465.124231
598.813785	2467.644808
599.164748	2568.467885
599.515657	2492.850577
599.866511	2397.068654
600.217312	2548.303269
600.568060	2402.109808
600.918753	2533.179808
601.269392	2510.494615
601.619978	2487.809423
601.970510	2538.220962
602.320988	2450.000769
602.671412	2535.700385
603.021783	2475.206538
603.372100	2563.426731
603.722363	2518.056346
604.072572	2460.083077
604.422728	2548.303269
604.772830	2462.603654
605.122878	2520.576923
605.472872	2492.850577
605.822813	2535.700385
606.172701	2507.974038
606.522534	2465.124231
606.872314	2505.453462
607.222041	2540.741538
607.571714	2437.397885
607.921333	2477.727115
608.270899	2568.467885
608.620411	2523.097500
608.969870	2490.330000
609.319276	2472.685962
609.668627	2563.426731
610.017926	2447.480192
610.367171	2565.947308
610.716362	2455.041923
611.065500	2495.371154
611.414585	2545.782692
611.763616	2492.850577
612.112594	2563.426731
612.461518	2462.603654
612.810389	2528.138654
613.159207	2573.509038
613.507971	2550.823846
613.856682	2581.070769
614.205340	2429.836154
614.553945	2477.727115
614.902496	2460.083077
615.250994	2515.535769
615.599439	2515.535769
615.947830	2550.823846
616.296169	2492.850577
616.644454	2530.659231
616.992686	2523.097500
617.340864	2467.644808
617.688990	2520.576923
618.037063	2570.988462
618.385082	2530.659231
618.733048	2485.288846
619.080961	2477.727115
619.428821	2500.412308
619.776628	2500.412308
620.124382	2540.741538
620.472083	2462.603654
620.819731	2558.385577
621.167326	2586.111923
621.514868	2540.741538
621.862357	2626.441154
622.209793	2510.494615
622.557176	2437.397885
622.904506	2452.521346
623.251783	2505.453462
623.599007	2507.974038
623.946179	2530.659231
624.293297	2472.685962
624.640363	2475.206538
624.987376	2502.932885
625.334336	2467.644808
625.681243	2515.535769
626.028097	2530.659231
626.374899	2482.768269
626.721647	2510.494615
627.068343	2487.809423
627.414987	2502.932885
627.761577	2560.906154
628.108115	2565.947308
628.454600	2550.823846
628.801032	2513.015192
629.147412	2495.371154
629.493739	2485.288846
629.840014	2412.192115
630.186236	2520.576923
630.532405	2560.906154
630.878521	2502.932885
631.224585	2447.480192
631.570597	2555.865000
631.916556	2450.000769
632.262462	2555.865000
632.608316	2455.041923
632.954117	2492.850577
633.299866	2477.727115
633.645562	2444.959615
633.991206	2452.521346
634.336797	2472.685962
634.682336	2510.494615
635.027823	2578.550192
635.373257	2457.562500
635.718639	2576.029615
636.063968	2465.124231
636.409245	2465.124231
636.754470	2437.397885
637.099642	2553.344423
637.444762	2457.562500
637.789829	2492.850577
638.134845	2523.097500
638.479808	2568.467885
638.824719	2500.412308
639.169577	2513.015192
639.514383	2495.371154
639.859137	2465.124231
640.203839	2518.056346
640.548489	2555.865000
640.893086	2485.288846
641.237632	2528.138654
641.582125	2447.480192
641.926566	2492.850577
642.270955	2523.097500
642.615292	2472.685962
642.959576	2462.603654
643.303809	2452.521346
643.647990	2525.618077
643.992118	2495.371154
644.336195	2525.618077
644.680219	2510.494615
645.024192	2515.535769
645.368112	2583.591346
645.711981	2487.809423
646.055797	2447.480192
646.399562	2434.877308
646.743274	2477.727115
647.086935	2535.700385
647.430544	2533.179808
647.774101	2462.603654
648.117606	2598.714808
648.461059	2528.138654
648.804460	2538.220962
649.147810	2465.124231
649.491108	2520.576923
649.834354	2422.274423
650.177548	2492.850577
650.520690	2558.385577
650.863781	2558.385577
651.206820	2510.494615
651.549807	2550.823846
651.892742	2510.494615
652.235626	2472.685962
652.578458	2457.562500
652.921238	2550.823846
653.263967	2460.083077
653.606644	2495.371154
653.949269	2470.165385
654.291843	2598.714808
654.634365	2465.124231
654.976836	2540.741538
655.319255	2513.015192
655.661622	2434.877308
656.003938	2533.179808
656.346203	2523.097500
656.688416	2505.453462
657.030577	2560.906154
657.372687	2563.426731
657.714746	2480.247692
658.056753	2379.424615
658.398708	2513.015192
658.740612	2475.206538
659.082465	2591.153077
659.424266	2450.000769
659.766016	2505.453462
660.107715	2500.412308
660.449362	2467.644808
660.790958	2495.371154
661.132503	2465.124231
661.473996	2447.480192
661.815438	2470.165385
662.156829	2528.138654
662.498168	2487.809423
662.839456	2482.768269
663.180693	2538.220962
663.521879	2455.041923
663.863013	2457.562500
664.204097	2447.480192
664.545129	2455.041923
664.886110	2518.056346
665.227040	2513.015192
665.567918	2447.480192
665.908746	2528.138654
666.249522	2502.932885
666.590248	2487.809423
666.930922	2515.535769
667.271545	2447.480192
667.612118	2518.056346
667.952639	2460.083077
668.293109	2528.138654
668.633528	2533.179808
668.973896	2507.974038
669.314213	2533.179808
669.654480	2495.371154
669.994695	2598.714808
670.334859	2505.453462
670.674973	2487.809423
671.015035	2424.795000
671.355047	2492.850577
671.695008	2507.974038
672.034918	2518.056346
672.374777	2548.303269
672.714585	2452.521346
673.054342	2545.782692
673.394049	2507.974038
673.733705	2528.138654
674.073310	2497.891731
674.412864	2444.959615
674.752368	2502.932885
675.091820	2507.974038
675.431223	2462.603654
675.770574	2487.809423
676.109875	2462.603654
676.449125	2591.153077
676.788324	2523.097500
677.127473	2439.918462
677.466571	2528.138654
677.805619	2470.165385
678.144616	2495.371154
678.483562	2394.548077
678.822458	2530.659231
679.161303	2437.397885
679.500098	2485.288846
679.838842	2513.015192
680.177535	2513.015192
680.516179	2515.535769
680.854771	2528.138654
681.193314	2502.932885
681.531805	2434.877308
681.870247	2505.453462
682.208638	2462.603654
682.546978	2467.644808
682.885268	2429.836154
683.223508	2513.015192
683.561697	2502.932885
683.899836	2455.041923
684.237925	2492.850577
684.575963	2465.124231
684.913951	2570.988462
685.251889	2485.288846
685.589776	2402.109808
685.927614	2434.877308
686.265401	2528.138654
686.603137	2586.111923
686.940824	2507.974038
687.278460	2434.877308
687.616046	2523.097500
687.953582	2518.056346
688.291068	2533.179808
688.628504	2487.809423
688.965889	2477.727115
689.303224	2565.947308
689.640510	2467.644808
689.977745	2495.371154
690.314930	2543.262115
690.652065	2417.233269
690.989150	2523.097500
691.326185	2543.262115
691.663170	2477.727115
692.000105	2560.906154
692.336990	2523.097500
692.673825	2470.165385
693.010610	2540.741538
693.347345	2492.850577
693.684030	2545.782692
694.020665	2439.918462
694.357251	2434.877308
694.693786	2505.453462
695.030272	2460.083077
695.366707	2528.138654
695.703093	2490.330000
696.039429	2593.673654
696.375716	2477.727115
696.711952	2480.247692
697.048139	2487.809423
697.384276	2465.124231
697.720363	2601.235385
698.056400	2457.562500
698.392388	2510.494615
698.728326	2447.480192
699.064214	2447.480192
699.400053	2576.029615
699.735842	2507.974038
700.071581	2520.576923
700.407270	2518.056346
700.742910	2507.974038
701.078501	2482.768269
701.414042	2558.385577
701.749533	2369.342308
702.084974	2447.480192
702.420366	2487.809423
702.755709	2555.865000
703.091002	2553.344423
703.426246	2515.535769
703.761440	2507.974038
704.096584	2497.891731
704.431679	2543.262115
704.766725	2444.959615
705.101721	2407.150962
705.436668	2376.904038
705.771565	2533.179808
706.106413	2470.165385
706.441212	2467.644808
706.775961	2553.344423
707.110661	2518.056346
707.445311	2520.576923
707.779913	2434.877308
708.114465	2457.562500
708.448967	2475.206538
708.783421	2487.809423
709.117825	2520.576923
709.452180	2472.685962
709.786485	2538.220962
710.120742	2583.591346
710.454949	2462.603654
710.789107	2515.535769
711.123216	2505.453462
711.457275	2523.097500
711.791286	2450.000769
712.125247	2525.618077
712.459159	2467.644808
712.793023	2583.591346
713.126837	2460.083077
713.460602	2490.330000
713.794318	2507.974038
714.127985	2558.385577
714.461602	2560.906154
714.795171	2581.070769
715.128691	2490.330000
715.462162	2397.068654
715.795584	2533.179808
716.128957	2495.371154
716.462281	2550.823846
716.795556	2439.918462
717.128782	2548.303269
717.461960	2586.111923
717.795088	2558.385577
718.128167	2444.959615
718.461198	2429.836154
718.794180	2457.562500
719.127113	2472.685962
719.459997	2528.138654
719.792833	2472.685962
720.125619	2505.453462
720.458357	2492.850577
720.791046	2389.506923
721.123686	2432.356731
721.456278	2510.494615
721.788821	2477.727115
722.121315	2480.247692
722.453761	2450.000769
722.786158	2520.576923
723.118506	2535.700385
723.450805	2573.509038
723.783056	2460.083077
724.115259	2485.288846
724.447412	2465.124231
724.779518	2502.932885
725.111574	2399.589231
725.443582	2434.877308
725.775542	2452.521346
726.107453	2477.727115
726.439315	2550.823846
726.771129	2510.494615
727.102895	2533.179808
727.434612	2560.906154
727.766281	2482.768269
728.097901	2535.700385
728.429473	2581.070769
728.760996	2465.124231
729.092471	2470.165385
729.423897	2515.535769
729.755276	2457.562500
730.086606	2460.083077
730.417887	2563.426731
730.749120	2475.206538
731.080305	2407.150962
731.411442	2558.385577
731.742530	2550.823846
732.073570	2455.041923
732.404562	2502.932885
732.735506	2518.056346
733.066401	2568.467885
733.397249	2530.659231
733.728048	2452.521346
734.058798	2545.782692
734.389501	2442.439038
734.720156	2467.644808
735.050762	2586.111923
735.381320	2581.070769
735.711831	2568.467885
736.042293	2480.247692
736.372707	2462.603654
736.703073	2462.603654
737.033391	2505.453462
737.363661	2487.809423
737.693883	2530.659231
738.024056	2444.959615
738.354182	2490.330000
738.684260	2452.521346
739.014290	2593.673654
739.344272	2434.877308
739.674207	2553.344423
740.004093	2520.576923
740.333931	2434.877308
740.663722	2555.865000
740.993464	2553.344423
741.323159	2475.206538
741.652806	2535.700385
741.982405	2502.932885
742.311956	2477.727115
742.641460	2455.041923
742.970915	2538.220962
743.300323	2492.850577
743.629683	2515.535769
743.958996	2563.426731
744.288260	2603.755962
744.617477	2492.850577
744.946647	2455.041923
745.275768	2477.727115
745.604842	2450.000769
745.933869	2455.041923
746.262847	2379.424615
746.591778	2502.932885
746.920662	2518.056346
747.249498	2485.288846
747.578286	2457.562500
747.907027	2439.918462
748.235720	2515.535769
748.564365	2497.891731
748.892963	2457.562500
749.221514	2366.821731
749.550017	2515.535769
749.878473	2507.974038
750.206881	2462.603654
750.535242	2482.768269
750.863555	2447.480192
751.191821	2462.603654
751.520039	2538.220962
751.848210	2480.247692
752.176334	2460.083077
752.504411	2472.685962
752.832440	2565.947308
753.160421	2518.056346
753.488356	2540.741538
753.816243	2485.288846
754.144082	2535.700385
754.471875	2543.262115
754.799620	2523.097500
755.127318	2540.741538
755.454969	2507.974038
755.782572	2477.727115
756.110129	2460.083077
756.437638	2535.700385
756.765100	2515.535769
757.092515	2528.138654
757.419882	2402.109808
757.747203	2460.083077
758.074477	2467.644808
758.401703	2487.809423
758.728882	2603.755962
759.056014	2490.330000
759.383099	2495.371154
759.710138	2422.274423
760.037129	2412.192115
760.364073	2470.165385
760.690970	2495.371154
761.017820	2487.809423
761.344623	2465.124231
761.671379	2465.124231
761.998088	2500.412308
762.324751	2543.262115
762.651366	2523.097500
762.977935	2523.097500
763.304456	2487.809423
763.630931	2475.206538
763.957359	2444.959615
764.283740	2450.000769
764.610074	2520.576923
764.936362	2442.439038
765.262602	2497.891731
765.588796	2513.015192
765.914943	2485.288846
766.241044	2530.659231
766.567097	2434.877308
766.893104	2487.809423
767.219064	2495.371154
767.544978	2543.262115
767.870845	2480.247692
768.196665	2533.179808
768.522438	2422.274423
768.848165	2528.138654
769.173846	2490.330000
769.499479	2581.070769
769.825066	2510.494615
770.150607	2495.371154
770.476101	2462.603654
770.801548	2470.165385
771.126949	2490.330000
771.452303	2520.576923
771.777611	2472.685962
772.102872	2450.000769
772.428087	2429.836154
772.753256	2505.453462
773.078378	2500.412308
773.403453	2500.412308
773.728482	2530.659231
774.053465	2515.535769
774.378401	2482.768269
774.703291	2460.083077
775.028135	2560.906154
775.352932	2530.659231
775.677683	2447.480192
776.002388	2500.412308
776.327046	2495.371154
776.651658	2465.124231
776.976224	2510.494615
777.300743	2492.850577
777.625216	2535.700385
777.949643	2507.974038
778.274024	2502.932885
778.598359	2475.206538
778.922647	2545.782692
779.246889	2437.397885
779.571086	2447.480192
779.895236	2510.494615
780.219339	2427.315577
780.543397	2548.303269
780.867409	2472.685962
781.191374	2502.932885
781.515294	2384.465769
781.839167	2487.809423
782.162995	2513.015192
782.486776	2485.288846
782.810511	2550.823846
783.134201	2437.397885
783.457844	2402.109808
783.781441	2495.371154
784.104993	2497.891731
784.428498	2550.823846
784.751958	2437.397885
785.075372	2581.070769
785.398739	2578.550192
785.722061	2497.891731
786.045337	2465.124231
786.368568	2422.274423
786.691752	2586.111923
787.014891	2492.850577
787.337983	2528.138654
787.661030	2467.644808
787.984031	2535.700385
788.306987	2442.439038
788.629897	2495.371154
788.952760	2472.685962
789.275579	2407.150962
789.598351	2497.891731
789.921078	2530.659231
790.243759	2472.685962
790.566395	2490.330000
790.888984	2402.109808
791.211529	2487.809423
791.534027	2505.453462
791.856480	2505.453462
792.178888	2611.317692
792.501249	2399.589231
792.823566	2507.974038
793.145836	2452.521346
793.468062	2472.685962
793.790241	2434.877308
794.112375	2490.330000
794.434464	2462.603654
794.756507	2455.041923
795.078505	2550.823846
795.400457	2442.439038
795.722364	2535.700385
796.044226	2601.235385
796.366042	2472.685962
796.687812	2444.959615
797.009538	2465.124231
797.331218	2523.097500
797.652852	2450.000769
797.974442	2535.700385
798.295986	2452.521346
798.617484	2502.932885
798.938938	2470.165385
799.260346	2510.494615
799.581709	2432.356731
799.903026	2485.288846
800.224299	2515.535769
800.545526	2495.371154
800.866708	2545.782692
801.187845	2475.206538
801.508936	2457.562500
801.829983	2427.315577
802.150984	2487.809423
802.471940	2467.644808
802.792851	2467.644808
803.113717	2528.138654
803.434538	2376.904038
803.755314	2477.727115
804.076045	2543.262115
804.396731	2467.644808
804.717372	2502.932885
805.037967	2487.809423
805.358518	2518.056346
805.679024	2455.041923
805.999485	2442.439038
806.319901	2414.712692
806.640272	2538.220962
806.960598	2523.097500
807.280879	2492.850577
807.601115	2480.247692
807.921306	2487.809423
808.241453	2477.727115
808.561554	2515.535769
808.881611	2505.453462
809.201623	2565.947308
809.521590	2518.056346
809.841513	2528.138654
810.161390	2538.220962
810.481223	2558.385577
810.801011	2467.644808
811.120755	2432.356731
811.440453	2497.891731
811.760107	2422.274423
812.079716	2553.344423
812.399281	2437.397885
812.718801	2500.412308
813.038276	2442.439038
813.357707	2495.371154
813.677093	2576.029615
813.996434	2497.891731
814.315731	2510.494615
814.634983	2500.412308
814.954191	2472.685962
815.273354	2432.356731
815.592473	2553.344423
815.911547	2596.194231
816.230577	2525.618077
816.549562	2515.535769
816.868502	2515.535769
817.187399	2455.041923
817.506250	2507.974038
817.825058	2538.220962
818.143821	2442.439038
818.462539	2598.714808
818.781213	2452.521346
819.099843	2477.727115
819.418429	2487.809423
819.736970	2515.535769
820.055466	2477.727115
820.373919	2465.124231
820.692327	2593.673654
821.010691	2472.685962
821.329011	2482.768269
821.647286	2422.274423
821.965517	2392.027500
822.283704	2525.618077
822.601847	2515.535769
822.919945	2490.330000
823.237999	2540.741538
823.556010	2369.342308
823.873976	2578.550192
824.191897	2477.727115
824.509775	2525.618077
824.827609	2525.618077
825.145398	2480.247692
825.463144	2467.644808
825.780845	2482.768269
826.098502	2502.932885
826.416116	2528.138654
826.733685	2379.424615
827.051210	2518.056346
827.368692	2525.618077
827.686129	2429.836154
828.003522	2513.015192
828.320872	2480.247692
828.638177	2497.891731
828.955439	2497.891731
829.272656	2470.165385
829.589830	2450.000769
829.906960	2525.618077
830.224046	2513.015192
830.541088	2462.603654
830.858086	2550.823846
831.175041	2510.494615
831.491952	2502.932885
831.808819	2424.795000
832.125642	2510.494615
832.442421	2495.371154
832.759157	2560.906154
833.075849	2565.947308
833.392497	2487.809423
833.709101	2465.124231
834.025662	2442.439038
834.342179	2515.535769
834.658653	2528.138654
834.975083	2523.097500
835.291469	2492.850577
835.607811	2439.918462
835.924110	2482.768269
836.240366	2507.974038
836.556578	2460.083077
836.872746	2475.206538
837.188871	2455.041923
837.504952	2465.124231
837.820990	2442.439038
838.136984	2485.288846
838.452935	2477.727115
838.768842	2533.179808
839.084706	2467.644808
839.400526	2500.412308
839.716303	2513.015192
840.032037	2452.521346
840.347727	2515.535769
840.663373	2543.262115
840.978977	2530.659231
841.294537	2505.453462
841.610054	2586.111923
841.925527	2497.891731
842.240957	2520.576923
842.556344	2530.659231
842.871687	2417.233269
843.186987	2502.932885
843.502244	2507.974038
843.817458	2490.330000
844.132629	2505.453462
844.447756	2482.768269
844.762840	2510.494615
845.077881	2497.891731
845.392879	2485.288846
845.707833	2437.397885
846.022745	2485.288846
846.337613	2520.576923
846.652438	2477.727115
846.967221	2452.521346
847.281960	2462.603654
847.596656	2427.315577
847.911309	2515.535769
848.225919	2497.891731
848.540485	2470.165385
848.855009	2470.165385
849.169490	2462.603654
849.483928	2482.768269
849.798323	2497.891731
850.112675	2444.959615
850.426984	2530.659231
850.741251	2460.083077
851.055474	2520.576923
851.369654	2502.932885
851.683792	2397.068654
851.997887	2535.700385
852.311938	2510.494615
852.625947	2560.906154
852.939914	2465.124231
853.253837	2492.850577
853.567718	2518.056346
853.881555	2500.412308
854.195350	2475.206538
854.509103	2477.727115
854.822812	2470.165385
855.136479	2452.521346
855.450103	2480.247692
855.763685	2482.768269
856.077224	2553.344423
856.390720	2465.124231
856.704173	2500.412308
857.017584	2530.659231
857.330953	2565.947308
857.644278	2500.412308
857.957561	2523.097500
858.270802	2434.877308
858.584000	2530.659231
858.897155	2513.015192
859.210268	2465.124231
859.523339	2520.576923
859.836367	2528.138654
860.149352	2475.206538
860.462295	2520.576923
860.775195	2482.768269
861.088054	2480.247692
861.400869	2528.138654
861.713642	2538.220962
862.026373	2389.506923
862.339062	2510.494615
862.651708	2576.029615
862.964312	2467.644808
863.276873	2513.015192
863.589392	2495.371154
863.901869	2525.618077
864.214303	2477.727115
864.526696	2487.809423
864.839045	2596.194231
865.151353	2548.303269
865.463619	2477.727115
865.775842	2477.727115
866.088023	2457.562500
866.400162	2538.220962
866.712258	2462.603654
867.024313	2507.974038
867.336325	2437.397885
867.648296	2462.603654
867.960224	2583.591346
868.272110	2520.576923
868.583954	2533.179808
868.895755	2518.056346
869.207515	2369.342308
869.519233	2424.795000
869.830909	2470.165385
870.142542	2455.041923
870.454134	2467.644808
870.765684	2485.288846
871.077191	2492.850577
871.388657	2565.947308
871.700081	2528.138654
872.011463	2507.974038
872.322803	2487.809423
872.634101	2404.630385
872.945357	2467.644808
873.256571	2507.974038
873.567744	2533.179808
873.878874	2447.480192
874.189963	2497.891731
874.501010	2386.986346
874.812015	2523.097500
875.122979	2389.506923
875.433900	2558.385577
875.744780	2523.097500
876.055618	2507.974038
876.366415	2510.494615
876.677169	2429.836154
876.987882	2492.850577
877.298554	2485.288846
877.609183	2432.356731
877.919771	2480.247692
878.230317	2444.959615
878.540822	2414.712692
878.851285	2482.768269
879.161707	2495.371154
879.472087	2505.453462
879.782425	2427.315577
880.092722	2558.385577
880.402977	2520.576923
880.713191	2457.562500
881.023363	2417.233269
881.333494	2543.262115
881.643583	2422.274423
881.953631	2490.330000
882.263637	2558.385577
882.573602	2497.891731
882.883526	2490.330000
883.193408	2510.494615
883.503248	2455.041923
883.813048	2502.932885
884.122806	2432.356731
884.432522	2515.535769
884.742197	2424.795000
885.051831	2447.480192
885.361424	2520.576923
885.670975	2505.453462
885.980485	2467.644808
886.289954	2487.809423
886.599382	2452.521346
886.908768	2485.288846
887.218113	2513.015192
887.527417	2477.727115
887.836680	2507.974038
888.145901	2465.124231
888.455082	2472.685962
888.764221	2490.330000
889.073319	2492.850577
889.382376	2462.603654
889.691392	2477.727115
890.000366	2419.753846
890.309300	2495.371154
890.618193	2505.453462
890.927044	2586.111923
891.235855	2518.056346
891.544625	2429.836154
891.853353	2533.179808
892.162041	2482.768269
892.470687	2447.480192
892.779293	2457.562500
893.087858	2540.741538
893.396381	2510.494615
893.704864	2475.206538
894.013306	2492.850577
894.321707	2482.768269
894.630068	2505.453462
894.938387	2480.247692
895.246665	2513.015192
895.554903	2439.918462
895.863100	2500.412308
896.171256	2457.562500
896.479371	2530.659231
896.787446	2465.124231
897.095480	2530.659231
897.403473	2475.206538
897.711425	2513.015192
898.019336	2525.618077
898.327207	2513.015192
898.635038	2470.165385
898.942827	2543.262115
899.250576	2500.412308
899.558284	2432.356731
899.865952	2525.618077
900.173579	2500.412308
900.481165	2434.877308
900.788711	2475.206538
901.096216	2525.618077
901.403681	2447.480192
901.711105	2515.535769
902.018489	2497.891731
902.325832	2513.015192
902.633135	2487.809423
902.940397	2543.262115
903.247619	2467.644808
903.554800	2492.850577
903.861941	2439.918462
904.169041	2482.768269
904.476101	2490.330000
904.783121	2502.932885
905.090100	2550.823846
905.397039	2515.535769
905.703938	2530.659231
906.010796	2565.947308
906.317614	2495.371154
906.624391	2490.330000
906.931129	2417.233269
907.237826	2530.659231
907.544483	2447.480192
907.851099	2442.439038
908.157675	2565.947308
908.464211	2497.891731
908.770707	2495.371154
909.077163	2543.262115
909.383578	2465.124231
909.689954	2492.850577
909.996289	2492.850577
910.302584	2492.850577
910.608839	2424.795000
910.915054	2392.027500
911.221229	2495.371154
911.527363	2444.959615
911.833458	2475.206538
912.139513	2553.344423
912.445527	2424.795000
912.751502	2563.426731
913.057436	2507.974038
913.363331	2487.809423
913.669186	2505.453462
913.975000	2482.768269
914.280775	2550.823846
914.586510	2472.685962
914.892205	2492.850577
915.197859	2477.727115
915.503475	2439.918462
915.809050	2520.576923
916.114585	2565.947308
916.420081	2500.412308
916.725536	2497.891731
917.030952	2450.000769
917.336328	2510.494615
917.641665	2497.891731
917.946961	2560.906154
918.252218	2538.220962
918.557435	2439.918462
918.862612	2480.247692
919.167750	2427.315577
919.472848	2490.330000
919.777906	2472.685962
920.082925	2475.206538
920.387904	2439.918462
920.692843	2523.097500
920.997743	2500.412308
921.302603	2520.576923
921.607423	2457.562500
921.912204	2399.589231
922.216946	2485.288846
922.521647	2444.959615
922.826310	2535.700385
923.130932	2397.068654
923.435516	2480.247692
923.740059	2563.426731
924.044564	2528.138654
924.349028	2417.233269
924.653454	2417.233269
924.957840	2550.823846
925.262186	2570.988462
925.566493	2437.397885
925.870761	2467.644808
926.174989	2578.550192
926.479178	2515.535769
926.783328	2455.041923
927.087438	2477.727115
927.391509	2487.809423
927.695541	2472.685962
927.999533	2538.220962
928.303486	2543.262115
928.607400	2528.138654
928.911275	2613.838269
929.215110	2444.959615
929.518906	2482.768269
929.822663	2515.535769
930.126381	2553.344423
930.430060	2611.317692
930.733699	2518.056346
931.037299	2540.741538
931.340861	2553.344423
931.644383	2490.330000
931.947866	2450.000769
932.251309	2437.397885
932.554714	2520.576923
932.858080	2460.083077
933.161407	2414.712692
933.464694	2515.535769
933.767943	2528.138654
934.071153	2444.959615
934.374323	2520.576923
934.677455	2528.138654
934.980548	2533.179808
935.283602	2543.262115
935.586617	2502.932885
935.889593	2520.576923
936.192530	2422.274423
936.495428	2550.823846
936.798287	2520.576923
937.101108	2475.206538
937.403890	2485.288846
937.706632	2495.371154
938.009336	2565.947308
938.312002	2520.576923
938.614628	2467.644808
938.917216	2462.603654
939.219765	2477.727115
939.522275	2558.385577
939.824747	2424.795000
940.127179	2492.850577
940.429573	2419.753846
940.731929	2558.385577
941.034246	2513.015192
941.336524	2437.397885
941.638763	2429.836154
941.940964	2545.782692
942.243126	2492.850577
942.545250	2515.535769
942.847335	2467.644808
943.149381	2434.877308
943.451389	2487.809423
943.753359	2540.741538
944.055290	2452.521346
944.357182	2472.685962
944.659036	2528.138654
944.960851	2442.439038
945.262628	2465.124231
945.564367	2470.165385
945.866067	2550.823846
946.167729	2507.974038
946.469352	2490.330000
946.770937	2533.179808
947.072484	2419.753846
947.373992	2485.288846
947.675462	2538.220962
947.976893	2490.330000
948.278286	2460.083077
948.579641	2460.083077
948.880958	2482.768269
949.182236	2442.439038
949.483476	2465.124231
949.784678	2510.494615
950.085841	2545.782692
950.386967	2601.235385
950.688054	2450.000769
950.989103	2553.344423
951.290114	2480.247692
951.591087	2467.644808
951.892021	2419.753846
952.192917	2460.083077
952.493776	2505.453462
952.794596	2565.947308
953.095378	2578.550192
953.396122	2485.288846
953.696828	2500.412308
953.997496	2462.603654
954.298126	2442.439038
954.598718	2477.727115
954.899272	2543.262115
955.199788	2591.153077
955.500266	2545.782692
955.800706	2455.041923
956.101108	2543.262115
956.401472	2495.371154
956.701798	2460.083077
957.002087	2513.015192
957.302337	2487.809423
957.602550	2480.247692
957.902724	2407.150962
958.202861	2439.918462
958.502960	2565.947308
958.803022	2538.220962
959.103045	2485.288846
959.403031	2533.179808
959.702979	2399.589231
960.002889	2497.891731
960.302762	2533.179808
960.602596	2392.027500
960.902393	2480.247692
961.202153	2470.165385
961.501875	2437.397885
961.801559	2555.865000
962.101205	2505.453462
962.400814	2510.494615
962.700385	2444.959615
962.999918	2437.397885
963.299414	2492.850577
963.598873	2447.480192
963.898293	2394.548077
964.197677	2518.056346
964.497022	2523.097500
964.796331	2470.165385
965.095601	2452.521346
965.394835	2507.974038
965.694030	2492.850577
965.993189	2450.000769
966.292309	2530.659231
966.591393	2394.548077
966.890439	2497.891731
967.189447	2424.795000
967.488419	2490.330000
967.787353	2485.288846
968.086249	2523.097500
968.385108	2523.097500
968.683930	2452.521346
968.982714	2500.412308
969.281462	2457.562500
969.580172	2555.865000
969.878844	2475.206538
970.177480	2495.371154
970.476078	2465.124231
970.774639	2462.603654
971.073162	2482.768269
971.371649	2472.685962
971.670098	2432.356731
971.968510	2462.603654
972.266885	2434.877308
972.565223	2424.795000
972.863524	2540.741538
973.161788	2480.247692
973.460014	2510.494615
973.758204	2422.274423
974.056356	2513.015192
974.354471	2525.618077
974.652550	2500.412308
974.950591	2444.959615
975.248595	2560.906154
975.546563	2545.782692
975.844493	2412.192115
976.142386	2470.165385
976.440243	2472.685962
976.738062	2495.371154
977.035845	2507.974038
977.333590	2460.083077
977.631299	2439.918462
977.928971	2510.494615
978.226606	2528.138654
978.524204	2568.467885
978.821765	2510.494615
979.119290	2480.247692
979.416777	2414.712692
979.714228	2543.262115
980.011642	2513.015192
980.309020	2465.124231
980.606360	2465.124231
980.903664	2543.262115
981.200931	2495.371154
981.498162	2470.165385
981.795356	2482.768269
982.092513	2452.521346
982.389633	2470.165385
982.686717	2548.303269
982.983764	2480.247692
983.280775	2480.247692
983.577749	2480.247692
983.874686	2475.206538
984.171587	2432.356731
984.468451	2429.836154
984.765279	2450.000769
985.062070	2450.000769
985.358824	2518.056346
985.655543	2530.659231
985.952224	2444.959615
986.248869	2374.383462
986.545478	2424.795000
986.842050	2568.467885
987.138586	2490.330000
987.435086	2548.303269
987.731549	2427.315577
988.027975	2452.521346
988.324366	2487.809423
988.620719	2419.753846
988.917037	2467.644808
989.213318	2422.274423
989.509563	2535.700385
989.805772	2518.056346
990.101944	2490.330000
990.398080	2392.027500
990.694180	2576.029615
990.990244	2427.315577
991.286271	2502.932885
991.582262	2424.795000
991.878217	2490.330000
992.174136	2457.562500
992.470019	2553.344423
992.765865	2455.041923
993.061676	2462.603654
993.357450	2424.795000
993.653188	2553.344423
993.948890	2576.029615
994.244556	2568.467885
994.540186	2505.453462
994.835780	2497.891731
995.131337	2540.741538
995.426859	2583.591346
995.722345	2523.097500
996.017795	2492.850577
996.313208	2467.644808
996.608586	2475.206538
996.903928	2439.918462
997.199234	2444.959615
997.494504	2439.918462
997.789738	2497.891731
998.084936	2437.397885
998.380099	2520.576923
998.675225	2482.768269
998.970316	2520.576923
999.265371	2492.850577
999.560390	2442.439038
999.855373	2540.741538
1000.150320	2480.247692
1000.445232	2470.165385
1000.740108	2465.124231
1001.034948	2570.988462
1001.329752	2475.206538
1001.624521	2510.494615
1001.919254	2450.000769
1002.213951	2513.015192
1002.508613	2475.206538
1002.803239	2543.262115
1003.097829	2389.506923
1003.392384	2465.124231
1003.686903	2434.877308
1003.981386	2513.015192
1004.275834	2439.918462
1004.570246	2414.712692
1004.864623	2538.220962
1005.158964	2623.920577
1005.453270	2480.247692
1005.747540	2555.865000
1006.041775	2407.150962
1006.335974	2447.480192
1006.630138	2495.371154
1006.924266	2465.124231
1007.218359	2492.850577
1007.512416	2518.056346
1007.806438	2452.521346
1008.100425	2502.932885
1008.394376	2507.974038
1008.688292	2540.741538
1008.982172	2422.274423
1009.276017	2434.877308
1009.569827	2485.288846
1009.863602	2487.809423
1010.157341	2470.165385
1010.451045	2525.618077
1010.744714	2482.768269
1011.038347	2447.480192
1011.331945	2553.344423
1011.625508	2565.947308
1011.919036	2402.109808
1012.212528	2515.535769
1012.505986	2482.768269
1012.799408	2520.576923
1013.092795	2437.397885
1013.386147	2414.712692
1013.679464	2553.344423
1013.972745	2434.877308
1014.265992	2540.741538
1014.559204	2457.562500
1014.852380	2477.727115
1015.145521	2505.453462
1015.438628	2417.233269
1015.731699	2404.630385
1016.024736	2462.603654
1016.317737	2482.768269
1016.610703	2432.356731
1016.903635	2457.562500
1017.196531	2472.685962
1017.489393	2520.576923
1017.782219	2530.659231
1018.075011	2490.330000
1018.367768	2492.850577
1018.660490	2540.741538
1018.953177	2540.741538
1019.245829	2540.741538
