Dividing Wavelength (nm)	Counts (n)	Blue Motor Position (mm): 1.900000	Red Motor Position (mm): 0.000000	
326.493990	2114.764038
326.888308	2114.764038
327.282561	2114.764038
327.676750	2061.831923
328.070874	2006.379231
328.464933	2059.311346
328.858929	2094.599423
329.252859	2102.161154
329.646726	2059.311346
330.040528	2142.490385
330.434265	2087.037692
330.827938	2114.764038
331.221547	2099.640577
331.615091	2182.819615
332.008571	2180.299038
332.401986	2238.272308
332.795338	2175.257885
333.188625	2177.778462
333.581847	2180.299038
333.975006	2202.984231
334.368100	2318.930769
334.761129	2326.492500
335.154095	2339.095385
335.546996	2339.095385
335.939833	2397.068654
336.332606	2394.548077
336.725315	2412.192115
337.117960	2303.807308
337.510540	2475.206538
337.903056	2371.862885
338.295508	2467.644808
338.687896	2414.712692
339.080220	2432.356731
339.472480	2472.685962
339.864676	2510.494615
340.256807	2502.932885
340.648875	2452.521346
341.040879	2485.288846
341.432818	2485.288846
341.824694	2535.700385
342.216506	2505.453462
342.608253	2475.206538
342.999937	2447.480192
343.391557	2513.015192
343.783113	2442.439038
344.174605	2407.150962
344.566033	2356.739423
344.957397	2573.509038
345.348697	2455.041923
345.739934	2414.712692
346.131106	2467.644808
346.522215	2518.056346
346.913260	2394.548077
347.304241	2457.562500
347.695159	2538.220962
348.086012	2462.603654
348.476802	2381.945192
348.867528	2447.480192
349.258191	2528.138654
349.648789	2442.439038
350.039324	2409.671538
350.429796	2419.753846
350.820203	2487.809423
351.210548	2397.068654
351.600828	2444.959615
351.991045	2460.083077
352.381198	2480.247692
352.771288	2518.056346
353.161314	2361.780577
353.551276	2477.727115
353.941175	2384.465769
354.331010	2394.548077
354.720782	2462.603654
355.110490	2444.959615
355.500135	2487.809423
355.889717	2376.904038
356.279235	2528.138654
356.668689	2369.342308
357.058080	2462.603654
357.447408	2417.233269
357.836672	2402.109808
358.225873	2487.809423
358.615010	2470.165385
359.004084	2419.753846
359.393095	2492.850577
359.782043	2450.000769
360.170927	2402.109808
360.559748	2460.083077
360.948505	2439.918462
361.337199	2434.877308
361.725830	2455.041923
362.114398	2439.918462
362.502903	2414.712692
362.891344	2399.589231
363.279722	2432.356731
363.668037	2487.809423
364.056289	2444.959615
364.444478	2482.768269
364.832603	2434.877308
365.220665	2389.506923
365.608665	2422.274423
365.996601	2457.562500
366.384474	2434.877308
366.772284	2412.192115
367.160031	2470.165385
367.547715	2414.712692
367.935336	2402.109808
368.322893	2427.315577
368.710388	2424.795000
369.097820	2344.136538
369.485189	2427.315577
369.872495	2419.753846
370.259738	2492.850577
370.646918	2487.809423
371.034035	2467.644808
371.421090	2371.862885
371.808081	2485.288846
372.195010	2545.782692
372.581875	2412.192115
372.968678	2457.562500
373.355418	2495.371154
373.742096	2422.274423
374.128710	2346.657115
374.515262	2515.535769
374.901751	2381.945192
375.288177	2437.397885
375.674540	2439.918462
376.060841	2447.480192
376.447079	2497.891731
376.833254	2470.165385
377.219367	2427.315577
377.605417	2510.494615
377.991404	2427.315577
378.377329	2523.097500
378.763191	2429.836154
379.148991	2507.974038
379.534727	2429.836154
379.920402	2497.891731
380.306013	2414.712692
380.691563	2485.288846
381.077049	2477.727115
381.462474	2485.288846
381.847835	2407.150962
382.233134	2407.150962
382.618371	2457.562500
383.003545	2477.727115
383.388657	2447.480192
383.773706	2477.727115
384.158693	2452.521346
384.543618	2452.521346
384.928480	2376.904038
385.313280	2447.480192
385.698017	2427.315577
386.082692	2480.247692
386.467305	2510.494615
386.851856	2492.850577
387.236344	2568.467885
387.620770	2437.397885
388.005133	2434.877308
388.389435	2460.083077
388.773674	2455.041923
389.157851	2381.945192
389.541965	2507.974038
389.926018	2518.056346
390.310008	2475.206538
390.693936	2427.315577
391.077802	2505.453462
391.461606	2477.727115
391.845348	2397.068654
392.229027	2437.397885
392.612645	2452.521346
392.996200	2462.603654
393.379694	2507.974038
393.763125	2533.179808
394.146494	2513.015192
394.529801	2460.083077
394.913047	2450.000769
395.296230	2472.685962
395.679351	2409.671538
396.062410	2500.412308
396.445408	2399.589231
396.828343	2490.330000
397.211217	2434.877308
397.594028	2460.083077
397.976778	2550.823846
398.359466	2475.206538
398.742092	2460.083077
399.124656	2457.562500
399.507158	2545.782692
399.889598	2424.795000
400.271977	2457.562500
400.654294	2495.371154
401.036549	2371.862885
401.418742	2392.027500
401.800874	2487.809423
402.182944	2467.644808
402.564952	2497.891731
402.946898	2439.918462
403.328783	2455.041923
403.710606	2487.809423
404.092367	2507.974038
404.474067	2487.809423
404.855705	2495.371154
405.237282	2457.562500
405.618797	2402.109808
406.000250	2437.397885
406.381642	2538.220962
406.762972	2457.562500
407.144240	2497.891731
407.525447	2490.330000
407.906593	2487.809423
408.287677	2583.591346
408.668700	2397.068654
409.049661	2407.150962
409.430560	2439.918462
409.811399	2452.521346
410.192176	2515.535769
410.572891	2573.509038
410.953545	2513.015192
411.334138	2419.753846
411.714669	2515.535769
412.095139	2457.562500
412.475547	2470.165385
412.855894	2414.712692
413.236180	2495.371154
413.616405	2457.562500
413.996568	2502.932885
414.376670	2495.371154
414.756711	2467.644808
415.136691	2462.603654
415.516609	2487.809423
415.896466	2500.412308
416.276262	2507.974038
416.655997	2492.850577
417.035670	2500.412308
417.415283	2538.220962
417.794834	2455.041923
418.174324	2442.439038
418.553753	2475.206538
418.933121	2485.288846
419.312428	2507.974038
419.691674	2502.932885
420.070859	2480.247692
420.449983	2502.932885
420.829045	2578.550192
421.208047	2528.138654
421.586988	2475.206538
421.965867	2570.988462
422.344686	2419.753846
422.723444	2477.727115
423.102141	2528.138654
423.480777	2437.397885
423.859352	2475.206538
424.237866	2550.823846
424.616319	2472.685962
424.994712	2472.685962
425.373044	2487.809423
425.751314	2427.315577
426.129524	2460.083077
426.507673	2545.782692
426.885762	2515.535769
427.263789	2487.809423
427.641756	2452.521346
428.019662	2560.906154
428.397508	2502.932885
428.775292	2533.179808
429.153016	2502.932885
429.530679	2591.153077
429.908282	2490.330000
430.285824	2450.000769
430.663305	2480.247692
431.040726	2414.712692
431.418086	2500.412308
431.795385	2480.247692
432.172624	2535.700385
432.549802	2460.083077
432.926920	2462.603654
433.303977	2510.494615
433.680974	2470.165385
434.057910	2402.109808
434.434786	2404.630385
434.811601	2565.947308
435.188355	2545.782692
435.565050	2419.753846
435.941683	2480.247692
436.318257	2462.603654
436.694770	2502.932885
437.071222	2487.809423
437.447614	2455.041923
437.823946	2505.453462
438.200218	2555.865000
438.576429	2495.371154
438.952580	2457.562500
439.328670	2513.015192
439.704700	2558.385577
440.080670	2477.727115
440.456580	2487.809423
440.832429	2538.220962
441.208218	2465.124231
441.583947	2402.109808
441.959616	2518.056346
442.335224	2487.809423
442.710773	2472.685962
443.086261	2573.509038
443.461689	2450.000769
443.837057	2442.439038
444.212365	2492.850577
444.587612	2480.247692
444.962800	2455.041923
445.337927	2510.494615
445.712995	2429.836154
446.088002	2510.494615
446.462949	2465.124231
446.837837	2507.974038
447.212664	2444.959615
447.587431	2510.494615
447.962139	2485.288846
448.336786	2477.727115
448.711374	2442.439038
449.085901	2518.056346
449.460369	2535.700385
449.834776	2442.439038
450.209124	2518.056346
450.583412	2525.618077
450.957640	2487.809423
451.331808	2381.945192
451.705917	2439.918462
452.079965	2548.303269
452.453954	2487.809423
452.827883	2447.480192
453.201752	2419.753846
453.575562	2455.041923
453.949311	2447.480192
454.323001	2502.932885
454.696632	2442.439038
455.070202	2460.083077
455.443713	2543.262115
455.817164	2472.685962
456.190556	2414.712692
456.563888	2535.700385
456.937160	2465.124231
457.310373	2545.782692
457.683526	2505.453462
458.056619	2538.220962
458.429653	2457.562500
458.802628	2518.056346
459.175542	2492.850577
459.548398	2452.521346
459.921194	2523.097500
460.293930	2487.809423
460.666607	2533.179808
461.039224	2550.823846
461.411782	2530.659231
461.784280	2535.700385
462.156719	2538.220962
462.529099	2475.206538
462.901419	2490.330000
463.273680	2450.000769
463.645882	2467.644808
464.018024	2477.727115
464.390106	2533.179808
464.762130	2540.741538
465.134094	2530.659231
465.505999	2548.303269
465.877845	2507.974038
466.249631	2525.618077
466.621358	2455.041923
466.993026	2465.124231
467.364634	2553.344423
467.736184	2513.015192
468.107674	2502.932885
468.479105	2492.850577
468.850477	2507.974038
469.221790	2535.700385
469.593043	2500.412308
469.964238	2540.741538
470.335373	2439.918462
470.706449	2553.344423
471.077467	2482.768269
471.448425	2460.083077
471.819324	2596.194231
472.190164	2460.083077
472.560945	2505.453462
472.931667	2480.247692
473.302330	2460.083077
473.672934	2472.685962
474.043479	2450.000769
474.413965	2462.603654
474.784393	2505.453462
475.154761	2444.959615
475.525070	2460.083077
475.895321	2500.412308
476.265513	2520.576923
476.635645	2518.056346
477.005719	2462.603654
477.375734	2470.165385
477.745691	2515.535769
478.115588	2450.000769
478.485427	2462.603654
478.855207	2475.206538
479.224928	2505.453462
479.594591	2558.385577
479.964194	2409.671538
480.333739	2334.054231
480.703226	2492.850577
481.072653	2422.274423
481.442022	2507.974038
481.811333	2560.906154
482.180584	2548.303269
482.549777	2525.618077
482.918912	2490.330000
483.287988	2533.179808
483.657005	2495.371154
484.025964	2482.768269
484.394864	2442.439038
484.763706	2500.412308
485.132489	2545.782692
485.501213	2538.220962
485.869879	2444.959615
486.238487	2586.111923
486.607036	2535.700385
486.975527	2538.220962
487.343959	2553.344423
487.712333	2533.179808
488.080648	2472.685962
488.448905	2538.220962
488.817104	2513.015192
489.185244	2455.041923
489.553326	2455.041923
489.921350	2434.877308
490.289315	2462.603654
490.657222	2455.041923
491.025070	2497.891731
491.392861	2563.426731
491.760593	2507.974038
492.128267	2495.371154
492.495883	2558.385577
492.863440	2523.097500
493.230939	2570.988462
493.598380	2502.932885
493.965763	2543.262115
494.333088	2578.550192
494.700354	2485.288846
495.067563	2394.548077
495.434713	2500.412308
495.801805	2460.083077
496.168839	2442.439038
496.535815	2452.521346
496.902733	2437.397885
497.269593	2530.659231
497.636395	2535.700385
498.003139	2480.247692
498.369825	2470.165385
498.736453	2487.809423
499.103023	2545.782692
499.469535	2507.974038
499.835989	2465.124231
500.202385	2555.865000
500.568723	2533.179808
500.935003	2543.262115
501.301226	2543.262115
501.667390	2523.097500
502.033497	2457.562500
502.399546	2419.753846
502.765537	2530.659231
503.131470	2460.083077
503.497345	2530.659231
503.863163	2563.426731
504.228923	2439.918462
504.594625	2414.712692
504.960269	2540.741538
505.325856	2475.206538
505.691385	2520.576923
506.056856	2570.988462
506.422270	2548.303269
506.787625	2485.288846
507.152924	2482.768269
507.518164	2550.823846
507.883347	2374.383462
508.248472	2487.809423
508.613540	2533.179808
508.978550	2520.576923
509.343503	2429.836154
509.708398	2507.974038
510.073236	2593.673654
510.438016	2424.795000
510.802738	2555.865000
511.167403	2480.247692
511.532010	2507.974038
511.896561	2465.124231
512.261053	2528.138654
512.625488	2452.521346
512.989866	2505.453462
513.354186	2553.344423
513.718449	2422.274423
514.082655	2528.138654
514.446803	2465.124231
514.810894	2513.015192
515.174927	2384.465769
515.538904	2500.412308
515.902822	2427.315577
516.266684	2543.262115
516.630488	2485.288846
516.994235	2523.097500
517.357925	2530.659231
517.721558	2563.426731
518.085133	2485.288846
518.448651	2523.097500
518.812112	2434.877308
519.175516	2485.288846
519.538863	2414.712692
519.902152	2487.809423
520.265385	2591.153077
520.628560	2482.768269
520.991678	2467.644808
521.354739	2523.097500
521.717743	2507.974038
522.080690	2485.288846
522.443580	2429.836154
522.806413	2477.727115
523.169189	2565.947308
523.531908	2422.274423
523.894569	2482.768269
524.257174	2470.165385
524.619722	2533.179808
524.982213	2563.426731
525.344647	2414.712692
525.707025	2621.400000
526.069345	2480.247692
526.431608	2495.371154
526.793815	2530.659231
527.155964	2467.644808
527.518057	2500.412308
527.880093	2505.453462
528.242072	2533.179808
528.603995	2530.659231
528.965860	2568.467885
529.327669	2525.618077
529.689421	2502.932885
530.051117	2455.041923
530.412755	2565.947308
530.774337	2507.974038
531.135862	2538.220962
531.497331	2434.877308
531.858743	2533.179808
532.220098	2593.673654
532.581396	2518.056346
532.942638	2568.467885
533.303824	2462.603654
533.664953	2434.877308
534.026025	2434.877308
534.387040	2467.644808
534.747999	2528.138654
535.108902	2460.083077
535.469748	2472.685962
535.830537	2553.344423
536.191270	2412.192115
536.551947	2477.727115
536.912567	2465.124231
537.273131	2560.906154
537.633638	2485.288846
537.994089	2505.453462
538.354483	2528.138654
538.714821	2543.262115
539.075103	2465.124231
539.435328	2568.467885
539.795497	2543.262115
540.155609	2492.850577
540.515665	2565.947308
540.875665	2482.768269
541.235609	2578.550192
541.595496	2515.535769
541.955328	2485.288846
542.315102	2523.097500
542.674821	2434.877308
543.034483	2462.603654
543.394090	2523.097500
543.753640	2553.344423
544.113134	2465.124231
544.472571	2462.603654
544.831953	2480.247692
545.191278	2565.947308
545.550548	2555.865000
545.909761	2467.644808
546.268918	2540.741538
546.628019	2470.165385
546.987064	2518.056346
547.346053	2477.727115
547.704986	2528.138654
548.063863	2399.589231
548.422684	2475.206538
548.781449	2447.480192
549.140158	2452.521346
549.498811	2497.891731
549.857408	2500.412308
550.215949	2482.768269
550.574434	2477.727115
550.932864	2470.165385
551.291237	2518.056346
551.649555	2520.576923
552.007817	2419.753846
552.366022	2497.891731
552.724173	2465.124231
553.082267	2548.303269
553.440305	2460.083077
553.798288	2520.576923
554.156215	2492.850577
554.514086	2533.179808
554.871902	2507.974038
555.229661	2540.741538
555.587365	2581.070769
555.945014	2520.576923
556.302606	2465.124231
556.660143	2548.303269
557.017625	2535.700385
557.375050	2465.124231
557.732421	2520.576923
558.089735	2578.550192
558.446994	2548.303269
558.804197	2538.220962
559.161345	2452.521346
559.518437	2510.494615
559.875474	2558.385577
560.232455	2507.974038
560.589381	2502.932885
560.946251	2450.000769
561.303065	2439.918462
561.659825	2543.262115
562.016528	2502.932885
562.373177	2515.535769
562.729770	2470.165385
563.086307	2455.041923
563.442789	2465.124231
563.799216	2560.906154
564.155587	2472.685962
564.511904	2540.741538
564.868164	2432.356731
565.224370	2558.385577
565.580520	2460.083077
565.936615	2485.288846
566.292654	2485.288846
566.648638	2470.165385
567.004567	2492.850577
567.360441	2510.494615
567.716260	2548.303269
568.072023	2482.768269
568.427732	2475.206538
568.783385	2510.494615
569.138982	2470.165385
569.494525	2497.891731
569.850013	2535.700385
570.205445	2513.015192
570.560823	2525.618077
570.916145	2409.671538
571.271412	2437.397885
571.626625	2497.891731
571.981782	2490.330000
572.336884	2523.097500
572.691931	2434.877308
573.046923	2432.356731
573.401860	2437.397885
573.756743	2510.494615
574.111570	2555.865000
574.466342	2467.644808
574.821059	2560.906154
575.175722	2502.932885
575.530330	2520.576923
575.884882	2467.644808
576.239380	2513.015192
576.593823	2450.000769
576.948211	2515.535769
577.302544	2465.124231
577.656823	2452.521346
578.011047	2475.206538
578.365216	2424.795000
578.719330	2523.097500
579.073389	2502.932885
579.427394	2404.630385
579.781344	2558.385577
580.135239	2543.262115
580.489080	2515.535769
580.842866	2485.288846
581.196597	2462.603654
581.550273	2543.262115
581.903895	2540.741538
582.257463	2467.644808
582.610975	2518.056346
582.964434	2560.906154
583.317837	2439.918462
583.671186	2419.753846
584.024481	2487.809423
584.377721	2487.809423
584.730906	2535.700385
585.084037	2550.823846
585.437113	2475.206538
585.790135	2487.809423
586.143103	2507.974038
586.496016	2548.303269
586.848874	2540.741538
587.201679	2497.891731
587.554428	2502.932885
587.907124	2487.809423
588.259765	2457.562500
588.612352	2414.712692
588.964884	2528.138654
589.317362	2490.330000
589.669786	2482.768269
590.022155	2492.850577
590.374470	2432.356731
590.726731	2467.644808
591.078937	2450.000769
591.431090	2570.988462
591.783188	2500.412308
592.135232	2510.494615
592.487222	2523.097500
592.839157	2500.412308
593.191038	2495.371154
593.542866	2525.618077
593.894639	2480.247692
594.246358	2465.124231
594.598022	2470.165385
594.949633	2417.233269
595.301190	2563.426731
595.652692	2450.000769
596.004141	2528.138654
596.355535	2409.671538
596.706876	2507.974038
597.058162	2480.247692
597.409395	2560.906154
597.760573	2593.673654
598.111698	2465.124231
598.462768	2462.603654
598.813785	2465.124231
599.164748	2535.700385
599.515657	2540.741538
599.866511	2538.220962
600.217312	2434.877308
600.568060	2538.220962
600.918753	2482.768269
601.269392	2530.659231
601.619978	2447.480192
601.970510	2558.385577
602.320988	2442.439038
602.671412	2460.083077
603.021783	2550.823846
603.372100	2457.562500
603.722363	2477.727115
604.072572	2485.288846
604.422728	2500.412308
604.772830	2550.823846
605.122878	2477.727115
605.472872	2523.097500
605.822813	2553.344423
606.172701	2555.865000
606.522534	2550.823846
606.872314	2457.562500
607.222041	2485.288846
607.571714	2495.371154
607.921333	2507.974038
608.270899	2450.000769
608.620411	2442.439038
608.969870	2482.768269
609.319276	2538.220962
609.668627	2482.768269
610.017926	2455.041923
610.367171	2490.330000
610.716362	2490.330000
611.065500	2472.685962
611.414585	2530.659231
611.763616	2472.685962
612.112594	2500.412308
612.461518	2450.000769
612.810389	2525.618077
613.159207	2495.371154
613.507971	2535.700385
613.856682	2434.877308
614.205340	2455.041923
614.553945	2482.768269
614.902496	2457.562500
615.250994	2472.685962
615.599439	2538.220962
615.947830	2452.521346
616.296169	2409.671538
616.644454	2593.673654
616.992686	2419.753846
617.340864	2538.220962
617.688990	2510.494615
618.037063	2500.412308
618.385082	2495.371154
618.733048	2460.083077
619.080961	2558.385577
619.428821	2455.041923
619.776628	2495.371154
620.124382	2548.303269
620.472083	2560.906154
620.819731	2523.097500
621.167326	2513.015192
621.514868	2457.562500
621.862357	2397.068654
622.209793	2480.247692
622.557176	2465.124231
622.904506	2500.412308
623.251783	2472.685962
623.599007	2452.521346
623.946179	2495.371154
624.293297	2502.932885
624.640363	2465.124231
624.987376	2470.165385
625.334336	2475.206538
625.681243	2487.809423
626.028097	2475.206538
626.374899	2538.220962
626.721647	2470.165385
627.068343	2457.562500
627.414987	2442.439038
627.761577	2538.220962
628.108115	2482.768269
628.454600	2470.165385
628.801032	2523.097500
629.147412	2540.741538
629.493739	2462.603654
629.840014	2525.618077
630.186236	2485.288846
630.532405	2450.000769
630.878521	2485.288846
631.224585	2470.165385
631.570597	2442.439038
631.916556	2487.809423
632.262462	2450.000769
632.608316	2462.603654
632.954117	2480.247692
633.299866	2535.700385
633.645562	2513.015192
633.991206	2505.453462
634.336797	2581.070769
634.682336	2525.618077
635.027823	2553.344423
635.373257	2450.000769
635.718639	2502.932885
636.063968	2505.453462
636.409245	2502.932885
636.754470	2424.795000
637.099642	2434.877308
637.444762	2510.494615
637.789829	2452.521346
638.134845	2424.795000
638.479808	2568.467885
638.824719	2462.603654
639.169577	2565.947308
639.514383	2485.288846
639.859137	2497.891731
640.203839	2487.809423
640.548489	2510.494615
640.893086	2472.685962
641.237632	2487.809423
641.582125	2502.932885
641.926566	2452.521346
642.270955	2520.576923
642.615292	2550.823846
642.959576	2417.233269
643.303809	2470.165385
643.647990	2570.988462
643.992118	2576.029615
644.336195	2490.330000
644.680219	2477.727115
645.024192	2485.288846
645.368112	2550.823846
645.711981	2518.056346
646.055797	2480.247692
646.399562	2487.809423
646.743274	2457.562500
647.086935	2586.111923
647.430544	2502.932885
647.774101	2465.124231
648.117606	2472.685962
648.461059	2402.109808
648.804460	2518.056346
649.147810	2535.700385
649.491108	2507.974038
649.834354	2510.494615
650.177548	2495.371154
650.520690	2533.179808
650.863781	2437.397885
651.206820	2497.891731
651.549807	2465.124231
651.892742	2568.467885
652.235626	2490.330000
652.578458	2507.974038
652.921238	2497.891731
653.263967	2558.385577
653.606644	2492.850577
653.949269	2581.070769
654.291843	2538.220962
654.634365	2462.603654
654.976836	2533.179808
655.319255	2515.535769
655.661622	2490.330000
656.003938	2608.797115
656.346203	2555.865000
656.688416	2480.247692
657.030577	2452.521346
657.372687	2439.918462
657.714746	2447.480192
658.056753	2543.262115
658.398708	2530.659231
658.740612	2485.288846
659.082465	2550.823846
659.424266	2407.150962
659.766016	2490.330000
660.107715	2485.288846
660.449362	2487.809423
660.790958	2409.671538
661.132503	2533.179808
661.473996	2460.083077
661.815438	2497.891731
662.156829	2558.385577
662.498168	2434.877308
662.839456	2555.865000
663.180693	2485.288846
663.521879	2543.262115
663.863013	2477.727115
664.204097	2487.809423
664.545129	2492.850577
664.886110	2402.109808
665.227040	2470.165385
665.567918	2497.891731
665.908746	2528.138654
666.249522	2455.041923
666.590248	2455.041923
666.930922	2419.753846
667.271545	2472.685962
667.612118	2523.097500
667.952639	2568.467885
668.293109	2578.550192
668.633528	2490.330000
668.973896	2500.412308
669.314213	2439.918462
669.654480	2472.685962
669.994695	2412.192115
670.334859	2485.288846
670.674973	2404.630385
671.015035	2470.165385
671.355047	2404.630385
671.695008	2515.535769
672.034918	2457.562500
672.374777	2553.344423
672.714585	2500.412308
673.054342	2462.603654
673.394049	2452.521346
673.733705	2513.015192
674.073310	2505.453462
674.412864	2500.412308
674.752368	2591.153077
675.091820	2439.918462
675.431223	2510.494615
675.770574	2573.509038
676.109875	2515.535769
676.449125	2510.494615
676.788324	2490.330000
677.127473	2576.029615
677.466571	2576.029615
677.805619	2412.192115
678.144616	2510.494615
678.483562	2555.865000
678.822458	2588.632500
679.161303	2437.397885
679.500098	2490.330000
679.838842	2550.823846
680.177535	2563.426731
680.516179	2502.932885
680.854771	2457.562500
681.193314	2525.618077
681.531805	2480.247692
681.870247	2495.371154
682.208638	2535.700385
682.546978	2412.192115
682.885268	2507.974038
683.223508	2485.288846
683.561697	2492.850577
683.899836	2568.467885
684.237925	2515.535769
684.575963	2518.056346
684.913951	2452.521346
685.251889	2525.618077
685.589776	2462.603654
685.927614	2518.056346
686.265401	2452.521346
686.603137	2530.659231
686.940824	2502.932885
687.278460	2460.083077
687.616046	2533.179808
687.953582	2444.959615
688.291068	2510.494615
688.628504	2490.330000
688.965889	2455.041923
689.303224	2485.288846
689.640510	2568.467885
689.977745	2434.877308
690.314930	2505.453462
690.652065	2528.138654
690.989150	2518.056346
691.326185	2457.562500
691.663170	2427.315577
692.000105	2452.521346
692.336990	2482.768269
692.673825	2487.809423
693.010610	2492.850577
693.347345	2513.015192
693.684030	2500.412308
694.020665	2455.041923
694.357251	2492.850577
694.693786	2475.206538
695.030272	2515.535769
695.366707	2500.412308
695.703093	2518.056346
696.039429	2475.206538
696.375716	2447.480192
696.711952	2492.850577
697.048139	2460.083077
697.384276	2598.714808
697.720363	2437.397885
698.056400	2447.480192
698.392388	2465.124231
698.728326	2455.041923
699.064214	2487.809423
699.400053	2462.603654
699.735842	2482.768269
700.071581	2487.809423
700.407270	2457.562500
700.742910	2457.562500
701.078501	2439.918462
701.414042	2490.330000
701.749533	2477.727115
702.084974	2523.097500
702.420366	2507.974038
702.755709	2515.535769
703.091002	2515.535769
703.426246	2467.644808
703.761440	2550.823846
704.096584	2492.850577
704.431679	2452.521346
704.766725	2467.644808
705.101721	2553.344423
705.436668	2510.494615
705.771565	2485.288846
706.106413	2555.865000
706.441212	2467.644808
706.775961	2500.412308
707.110661	2429.836154
707.445311	2548.303269
707.779913	2392.027500
708.114465	2543.262115
708.448967	2581.070769
708.783421	2560.906154
709.117825	2427.315577
709.452180	2475.206538
709.786485	2500.412308
710.120742	2394.548077
710.454949	2540.741538
710.789107	2457.562500
711.123216	2533.179808
711.457275	2429.836154
711.791286	2543.262115
712.125247	2500.412308
712.459159	2457.562500
712.793023	2424.795000
713.126837	2555.865000
713.460602	2419.753846
713.794318	2399.589231
714.127985	2482.768269
714.461602	2533.179808
714.795171	2518.056346
715.128691	2586.111923
715.462162	2485.288846
715.795584	2550.823846
716.128957	2465.124231
716.462281	2492.850577
716.795556	2553.344423
717.128782	2447.480192
717.461960	2505.453462
717.795088	2553.344423
718.128167	2550.823846
718.461198	2460.083077
718.794180	2437.397885
719.127113	2492.850577
719.459997	2414.712692
719.792833	2530.659231
720.125619	2480.247692
720.458357	2472.685962
720.791046	2490.330000
721.123686	2472.685962
721.456278	2570.988462
721.788821	2525.618077
722.121315	2530.659231
722.453761	2450.000769
722.786158	2470.165385
723.118506	2460.083077
723.450805	2518.056346
723.783056	2389.506923
724.115259	2475.206538
724.447412	2525.618077
724.779518	2490.330000
725.111574	2507.974038
725.443582	2480.247692
725.775542	2533.179808
726.107453	2492.850577
726.439315	2414.712692
726.771129	2533.179808
727.102895	2470.165385
727.434612	2515.535769
727.766281	2550.823846
728.097901	2507.974038
728.429473	2505.453462
728.760996	2555.865000
729.092471	2442.439038
729.423897	2555.865000
729.755276	2487.809423
730.086606	2482.768269
730.417887	2548.303269
730.749120	2530.659231
731.080305	2558.385577
731.411442	2533.179808
731.742530	2485.288846
732.073570	2497.891731
732.404562	2515.535769
732.735506	2513.015192
733.066401	2555.865000
733.397249	2513.015192
733.728048	2472.685962
734.058798	2487.809423
734.389501	2404.630385
734.720156	2507.974038
735.050762	2434.877308
735.381320	2500.412308
735.711831	2528.138654
736.042293	2523.097500
736.372707	2492.850577
736.703073	2477.727115
737.033391	2434.877308
737.363661	2417.233269
737.693883	2414.712692
738.024056	2530.659231
738.354182	2502.932885
738.684260	2533.179808
739.014290	2482.768269
739.344272	2518.056346
739.674207	2520.576923
740.004093	2480.247692
740.333931	2485.288846
740.663722	2480.247692
740.993464	2507.974038
741.323159	2424.795000
741.652806	2480.247692
741.982405	2452.521346
742.311956	2495.371154
742.641460	2523.097500
742.970915	2407.150962
743.300323	2500.412308
743.629683	2434.877308
743.958996	2518.056346
744.288260	2480.247692
744.617477	2523.097500
744.946647	2515.535769
745.275768	2492.850577
745.604842	2442.439038
745.933869	2460.083077
746.262847	2515.535769
746.591778	2492.850577
746.920662	2525.618077
747.249498	2434.877308
747.578286	2495.371154
747.907027	2518.056346
748.235720	2429.836154
748.564365	2558.385577
748.892963	2507.974038
749.221514	2513.015192
749.550017	2518.056346
749.878473	2455.041923
750.206881	2533.179808
750.535242	2482.768269
750.863555	2500.412308
751.191821	2467.644808
751.520039	2497.891731
751.848210	2560.906154
752.176334	2444.959615
752.504411	2505.453462
752.832440	2447.480192
753.160421	2442.439038
753.488356	2439.918462
753.816243	2528.138654
754.144082	2502.932885
754.471875	2528.138654
754.799620	2439.918462
755.127318	2434.877308
755.454969	2502.932885
755.782572	2535.700385
756.110129	2507.974038
756.437638	2444.959615
756.765100	2437.397885
757.092515	2596.194231
757.419882	2528.138654
757.747203	2432.356731
758.074477	2482.768269
758.401703	2442.439038
758.728882	2482.768269
759.056014	2497.891731
759.383099	2444.959615
759.710138	2475.206538
760.037129	2490.330000
760.364073	2500.412308
760.690970	2462.603654
761.017820	2518.056346
761.344623	2518.056346
761.671379	2480.247692
761.998088	2520.576923
762.324751	2550.823846
762.651366	2573.509038
762.977935	2472.685962
763.304456	2545.782692
763.630931	2490.330000
763.957359	2505.453462
764.283740	2505.453462
764.610074	2525.618077
764.936362	2492.850577
765.262602	2530.659231
765.588796	2502.932885
765.914943	2598.714808
766.241044	2513.015192
766.567097	2490.330000
766.893104	2439.918462
767.219064	2530.659231
767.544978	2563.426731
767.870845	2550.823846
768.196665	2470.165385
768.522438	2490.330000
768.848165	2505.453462
769.173846	2510.494615
769.499479	2439.918462
769.825066	2485.288846
770.150607	2424.795000
770.476101	2513.015192
770.801548	2555.865000
771.126949	2480.247692
771.452303	2447.480192
771.777611	2583.591346
772.102872	2530.659231
772.428087	2482.768269
772.753256	2581.070769
773.078378	2462.603654
773.403453	2515.535769
773.728482	2455.041923
774.053465	2560.906154
774.378401	2495.371154
774.703291	2505.453462
775.028135	2518.056346
775.352932	2477.727115
775.677683	2465.124231
776.002388	2482.768269
776.327046	2528.138654
776.651658	2467.644808
776.976224	2437.397885
777.300743	2533.179808
777.625216	2455.041923
777.949643	2518.056346
778.274024	2482.768269
778.598359	2402.109808
778.922647	2540.741538
779.246889	2477.727115
779.571086	2462.603654
779.895236	2525.618077
780.219339	2545.782692
780.543397	2439.918462
780.867409	2492.850577
781.191374	2495.371154
781.515294	2507.974038
781.839167	2477.727115
782.162995	2460.083077
782.486776	2505.453462
782.810511	2507.974038
783.134201	2502.932885
783.457844	2497.891731
783.781441	2485.288846
784.104993	2462.603654
784.428498	2482.768269
784.751958	2444.959615
785.075372	2497.891731
785.398739	2417.233269
785.722061	2439.918462
786.045337	2450.000769
786.368568	2513.015192
786.691752	2497.891731
787.014891	2513.015192
787.337983	2535.700385
787.661030	2485.288846
787.984031	2540.741538
788.306987	2457.562500
788.629897	2500.412308
788.952760	2402.109808
789.275579	2553.344423
789.598351	2505.453462
789.921078	2467.644808
790.243759	2465.124231
790.566395	2495.371154
790.888984	2505.453462
791.211529	2477.727115
791.534027	2482.768269
791.856480	2538.220962
792.178888	2543.262115
792.501249	2583.591346
792.823566	2543.262115
793.145836	2490.330000
793.468062	2472.685962
793.790241	2450.000769
794.112375	2495.371154
794.434464	2490.330000
794.756507	2495.371154
795.078505	2475.206538
795.400457	2525.618077
795.722364	2553.344423
796.044226	2444.959615
796.366042	2462.603654
796.687812	2543.262115
797.009538	2523.097500
797.331218	2450.000769
797.652852	2487.809423
797.974442	2465.124231
798.295986	2525.618077
798.617484	2480.247692
798.938938	2515.535769
799.260346	2462.603654
799.581709	2538.220962
799.903026	2472.685962
800.224299	2495.371154
800.545526	2417.233269
800.866708	2535.700385
801.187845	2513.015192
801.508936	2475.206538
801.829983	2553.344423
802.150984	2528.138654
802.471940	2482.768269
802.792851	2470.165385
803.113717	2487.809423
803.434538	2550.823846
803.755314	2417.233269
804.076045	2480.247692
804.396731	2555.865000
804.717372	2553.344423
805.037967	2560.906154
805.358518	2513.015192
805.679024	2409.671538
805.999485	2487.809423
806.319901	2591.153077
806.640272	2409.671538
806.960598	2581.070769
807.280879	2450.000769
807.601115	2528.138654
807.921306	2510.494615
808.241453	2530.659231
808.561554	2505.453462
808.881611	2460.083077
809.201623	2543.262115
809.521590	2540.741538
809.841513	2444.959615
810.161390	2568.467885
810.481223	2505.453462
810.801011	2460.083077
811.120755	2500.412308
811.440453	2492.850577
811.760107	2432.356731
812.079716	2437.397885
812.399281	2470.165385
812.718801	2455.041923
813.038276	2439.918462
813.357707	2505.453462
813.677093	2507.974038
813.996434	2500.412308
814.315731	2507.974038
814.634983	2550.823846
814.954191	2507.974038
815.273354	2548.303269
815.592473	2495.371154
815.911547	2497.891731
816.230577	2475.206538
816.549562	2452.521346
816.868502	2452.521346
817.187399	2553.344423
817.506250	2392.027500
817.825058	2513.015192
818.143821	2490.330000
818.462539	2399.589231
818.781213	2505.453462
819.099843	2429.836154
819.418429	2495.371154
819.736970	2480.247692
820.055466	2530.659231
820.373919	2573.509038
820.692327	2495.371154
821.010691	2518.056346
821.329011	2485.288846
821.647286	2369.342308
821.965517	2510.494615
822.283704	2507.974038
822.601847	2513.015192
822.919945	2437.397885
823.237999	2475.206538
823.556010	2510.494615
823.873976	2472.685962
824.191897	2419.753846
824.509775	2507.974038
824.827609	2568.467885
825.145398	2535.700385
825.463144	2505.453462
825.780845	2480.247692
826.098502	2427.315577
826.416116	2462.603654
826.733685	2583.591346
827.051210	2538.220962
827.368692	2510.494615
827.686129	2502.932885
828.003522	2530.659231
828.320872	2480.247692
828.638177	2613.838269
828.955439	2480.247692
829.272656	2535.700385
829.589830	2515.535769
829.906960	2540.741538
830.224046	2505.453462
830.541088	2485.288846
830.858086	2492.850577
831.175041	2502.932885
831.491952	2450.000769
831.808819	2492.850577
832.125642	2402.109808
832.442421	2485.288846
832.759157	2510.494615
833.075849	2434.877308
833.392497	2470.165385
833.709101	2576.029615
834.025662	2477.727115
834.342179	2535.700385
834.658653	2457.562500
834.975083	2399.589231
835.291469	2437.397885
835.607811	2558.385577
835.924110	2497.891731
836.240366	2482.768269
836.556578	2520.576923
836.872746	2518.056346
837.188871	2507.974038
837.504952	2507.974038
837.820990	2495.371154
838.136984	2530.659231
838.452935	2563.426731
838.768842	2497.891731
839.084706	2497.891731
839.400526	2533.179808
839.716303	2424.795000
840.032037	2419.753846
840.347727	2553.344423
840.663373	2472.685962
840.978977	2555.865000
841.294537	2462.603654
841.610054	2485.288846
841.925527	2490.330000
842.240957	2515.535769
842.556344	2487.809423
842.871687	2510.494615
843.186987	2452.521346
843.502244	2500.412308
843.817458	2548.303269
844.132629	2472.685962
844.447756	2570.988462
844.762840	2505.453462
845.077881	2500.412308
845.392879	2583.591346
845.707833	2505.453462
846.022745	2520.576923
846.337613	2417.233269
846.652438	2545.782692
846.967221	2429.836154
847.281960	2457.562500
847.596656	2480.247692
847.911309	2482.768269
848.225919	2457.562500
848.540485	2530.659231
848.855009	2543.262115
849.169490	2399.589231
849.483928	2495.371154
849.798323	2417.233269
850.112675	2500.412308
850.426984	2500.412308
850.741251	2510.494615
851.055474	2477.727115
851.369654	2457.562500
851.683792	2535.700385
851.997887	2485.288846
852.311938	2525.618077
852.625947	2457.562500
852.939914	2538.220962
853.253837	2472.685962
853.567718	2507.974038
853.881555	2507.974038
854.195350	2447.480192
854.509103	2513.015192
854.822812	2545.782692
855.136479	2427.315577
855.450103	2528.138654
855.763685	2528.138654
856.077224	2500.412308
856.390720	2442.439038
856.704173	2583.591346
857.017584	2518.056346
857.330953	2482.768269
857.644278	2500.412308
857.957561	2480.247692
858.270802	2520.576923
858.584000	2452.521346
858.897155	2495.371154
859.210268	2475.206538
859.523339	2535.700385
859.836367	2515.535769
860.149352	2510.494615
860.462295	2518.056346
860.775195	2528.138654
861.088054	2492.850577
861.400869	2502.932885
861.713642	2444.959615
862.026373	2487.809423
862.339062	2563.426731
862.651708	2535.700385
862.964312	2510.494615
863.276873	2502.932885
863.589392	2472.685962
863.901869	2520.576923
864.214303	2457.562500
864.526696	2515.535769
864.839045	2520.576923
865.151353	2475.206538
865.463619	2485.288846
865.775842	2523.097500
866.088023	2492.850577
866.400162	2530.659231
866.712258	2467.644808
867.024313	2502.932885
867.336325	2334.054231
867.648296	2505.453462
867.960224	2505.453462
868.272110	2462.603654
868.583954	2525.618077
868.895755	2492.850577
869.207515	2497.891731
869.519233	2487.809423
869.830909	2490.330000
870.142542	2447.480192
870.454134	2510.494615
870.765684	2417.233269
871.077191	2513.015192
871.388657	2419.753846
871.700081	2538.220962
872.011463	2465.124231
872.322803	2447.480192
872.634101	2485.288846
872.945357	2429.836154
873.256571	2553.344423
873.567744	2442.439038
873.878874	2518.056346
874.189963	2583.591346
874.501010	2515.535769
874.812015	2601.235385
875.122979	2510.494615
875.433900	2578.550192
875.744780	2540.741538
876.055618	2533.179808
876.366415	2505.453462
876.677169	2495.371154
876.987882	2507.974038
877.298554	2490.330000
877.609183	2480.247692
877.919771	2513.015192
878.230317	2427.315577
878.540822	2518.056346
878.851285	2450.000769
879.161707	2520.576923
879.472087	2515.535769
879.782425	2462.603654
880.092722	2563.426731
880.402977	2480.247692
880.713191	2500.412308
881.023363	2477.727115
881.333494	2480.247692
881.643583	2480.247692
881.953631	2576.029615
882.263637	2495.371154
882.573602	2487.809423
882.883526	2444.959615
883.193408	2455.041923
883.503248	2472.685962
883.813048	2472.685962
884.122806	2492.850577
884.432522	2442.439038
884.742197	2392.027500
885.051831	2439.918462
885.361424	2550.823846
885.670975	2505.453462
885.980485	2500.412308
886.289954	2495.371154
886.599382	2424.795000
886.908768	2555.865000
887.218113	2502.932885
887.527417	2565.947308
887.836680	2502.932885
888.145901	2477.727115
888.455082	2437.397885
888.764221	2555.865000
889.073319	2442.439038
889.382376	2460.083077
889.691392	2497.891731
890.000366	2487.809423
890.309300	2553.344423
890.618193	2470.165385
890.927044	2470.165385
891.235855	2507.974038
891.544625	2518.056346
891.853353	2455.041923
892.162041	2475.206538
892.470687	2450.000769
892.779293	2487.809423
893.087858	2502.932885
893.396381	2538.220962
893.704864	2492.850577
894.013306	2500.412308
894.321707	2447.480192
894.630068	2460.083077
894.938387	2472.685962
895.246665	2576.029615
895.554903	2510.494615
895.863100	2543.262115
896.171256	2480.247692
896.479371	2444.959615
896.787446	2432.356731
897.095480	2455.041923
897.403473	2439.918462
897.711425	2480.247692
898.019336	2442.439038
898.327207	2439.918462
898.635038	2412.192115
898.942827	2495.371154
899.250576	2490.330000
899.558284	2525.618077
899.865952	2409.671538
900.173579	2480.247692
900.481165	2452.521346
900.788711	2465.124231
901.096216	2578.550192
901.403681	2444.959615
901.711105	2455.041923
902.018489	2525.618077
902.325832	2518.056346
902.633135	2497.891731
902.940397	2513.015192
903.247619	2462.603654
903.554800	2588.632500
903.861941	2573.509038
904.169041	2513.015192
904.476101	2545.782692
904.783121	2439.918462
905.090100	2518.056346
905.397039	2434.877308
905.703938	2560.906154
906.010796	2487.809423
906.317614	2530.659231
906.624391	2462.603654
906.931129	2477.727115
907.237826	2480.247692
907.544483	2513.015192
907.851099	2470.165385
908.157675	2470.165385
908.464211	2497.891731
908.770707	2485.288846
909.077163	2505.453462
909.383578	2545.782692
909.689954	2500.412308
909.996289	2472.685962
910.302584	2487.809423
910.608839	2447.480192
910.915054	2487.809423
911.221229	2535.700385
911.527363	2495.371154
911.833458	2502.932885
912.139513	2477.727115
912.445527	2467.644808
912.751502	2477.727115
913.057436	2563.426731
913.363331	2485.288846
913.669186	2497.891731
913.975000	2538.220962
914.280775	2518.056346
914.586510	2470.165385
914.892205	2477.727115
915.197859	2553.344423
915.503475	2472.685962
915.809050	2482.768269
916.114585	2545.782692
916.420081	2502.932885
916.725536	2429.836154
917.030952	2455.041923
917.336328	2510.494615
917.641665	2472.685962
917.946961	2505.453462
918.252218	2394.548077
918.557435	2523.097500
918.862612	2434.877308
919.167750	2434.877308
919.472848	2472.685962
919.777906	2533.179808
920.082925	2485.288846
920.387904	2548.303269
920.692843	2472.685962
920.997743	2444.959615
921.302603	2460.083077
921.607423	2518.056346
921.912204	2482.768269
922.216946	2455.041923
922.521647	2371.862885
922.826310	2470.165385
923.130932	2487.809423
923.435516	2505.453462
923.740059	2497.891731
924.044564	2485.288846
924.349028	2505.453462
924.653454	2447.480192
924.957840	2502.932885
925.262186	2507.974038
925.566493	2497.891731
925.870761	2447.480192
926.174989	2518.056346
926.479178	2510.494615
926.783328	2548.303269
927.087438	2573.509038
927.391509	2548.303269
927.695541	2457.562500
927.999533	2480.247692
928.303486	2472.685962
928.607400	2570.988462
928.911275	2422.274423
929.215110	2462.603654
929.518906	2465.124231
929.822663	2424.795000
930.126381	2500.412308
930.430060	2480.247692
930.733699	2525.618077
931.037299	2477.727115
931.340861	2427.315577
931.644383	2490.330000
931.947866	2455.041923
932.251309	2427.315577
932.554714	2523.097500
932.858080	2437.397885
933.161407	2500.412308
933.464694	2407.150962
933.767943	2472.685962
934.071153	2490.330000
934.374323	2407.150962
934.677455	2404.630385
934.980548	2462.603654
935.283602	2480.247692
935.586617	2465.124231
935.889593	2467.644808
936.192530	2422.274423
936.495428	2439.918462
936.798287	2535.700385
937.101108	2462.603654
937.403890	2467.644808
937.706632	2470.165385
938.009336	2540.741538
938.312002	2422.274423
938.614628	2455.041923
938.917216	2548.303269
939.219765	2485.288846
939.522275	2525.618077
939.824747	2470.165385
940.127179	2492.850577
940.429573	2422.274423
940.731929	2397.068654
941.034246	2457.562500
941.336524	2490.330000
941.638763	2535.700385
941.940964	2490.330000
942.243126	2467.644808
942.545250	2593.673654
942.847335	2545.782692
943.149381	2533.179808
943.451389	2444.959615
943.753359	2558.385577
944.055290	2500.412308
944.357182	2523.097500
944.659036	2465.124231
944.960851	2523.097500
945.262628	2513.015192
945.564367	2460.083077
945.866067	2480.247692
946.167729	2477.727115
946.469352	2570.988462
946.770937	2581.070769
947.072484	2520.576923
947.373992	2439.918462
947.675462	2502.932885
947.976893	2555.865000
948.278286	2485.288846
948.579641	2500.412308
948.880958	2530.659231
949.182236	2409.671538
949.483476	2502.932885
949.784678	2513.015192
950.085841	2510.494615
950.386967	2475.206538
950.688054	2495.371154
950.989103	2450.000769
951.290114	2505.453462
951.591087	2434.877308
951.892021	2558.385577
952.192917	2613.838269
952.493776	2475.206538
952.794596	2513.015192
953.095378	2558.385577
953.396122	2487.809423
953.696828	2510.494615
953.997496	2518.056346
954.298126	2444.959615
954.598718	2523.097500
954.899272	2452.521346
955.199788	2555.865000
955.500266	2432.356731
955.800706	2452.521346
956.101108	2525.618077
956.401472	2485.288846
956.701798	2417.233269
957.002087	2490.330000
957.302337	2540.741538
957.602550	2427.315577
957.902724	2477.727115
958.202861	2417.233269
958.502960	2510.494615
958.803022	2450.000769
959.103045	2487.809423
959.403031	2492.850577
959.702979	2573.509038
960.002889	2555.865000
960.302762	2444.959615
960.602596	2467.644808
960.902393	2545.782692
961.202153	2505.453462
961.501875	2513.015192
961.801559	2477.727115
962.101205	2588.632500
962.400814	2538.220962
962.700385	2397.068654
962.999918	2601.235385
963.299414	2523.097500
963.598873	2482.768269
963.898293	2442.439038
964.197677	2507.974038
964.497022	2480.247692
964.796331	2540.741538
965.095601	2500.412308
965.394835	2581.070769
965.694030	2528.138654
965.993189	2455.041923
966.292309	2475.206538
966.591393	2475.206538
966.890439	2500.412308
967.189447	2392.027500
967.488419	2467.644808
967.787353	2477.727115
968.086249	2513.015192
968.385108	2465.124231
968.683930	2434.877308
968.982714	2492.850577
969.281462	2558.385577
969.580172	2520.576923
969.878844	2533.179808
970.177480	2563.426731
970.476078	2525.618077
970.774639	2482.768269
971.073162	2434.877308
971.371649	2475.206538
971.670098	2460.083077
971.968510	2507.974038
972.266885	2450.000769
972.565223	2492.850577
972.863524	2523.097500
973.161788	2505.453462
973.460014	2422.274423
973.758204	2389.506923
974.056356	2455.041923
974.354471	2500.412308
974.652550	2507.974038
974.950591	2545.782692
975.248595	2495.371154
975.546563	2477.727115
975.844493	2535.700385
976.142386	2563.426731
976.440243	2518.056346
976.738062	2482.768269
977.035845	2513.015192
977.333590	2487.809423
977.631299	2520.576923
977.928971	2558.385577
978.226606	2424.795000
978.524204	2434.877308
978.821765	2523.097500
979.119290	2434.877308
979.416777	2543.262115
979.714228	2492.850577
980.011642	2467.644808
980.309020	2545.782692
980.606360	2467.644808
980.903664	2545.782692
981.200931	2450.000769
981.498162	2538.220962
981.795356	2402.109808
982.092513	2487.809423
982.389633	2518.056346
982.686717	2510.494615
982.983764	2417.233269
983.280775	2429.836154
983.577749	2518.056346
983.874686	2497.891731
984.171587	2565.947308
984.468451	2462.603654
984.765279	2525.618077
985.062070	2502.932885
985.358824	2492.850577
985.655543	2487.809423
985.952224	2419.753846
986.248869	2427.315577
986.545478	2555.865000
986.842050	2510.494615
987.138586	2412.192115
987.435086	2424.795000
987.731549	2533.179808
988.027975	2477.727115
988.324366	2439.918462
988.620719	2490.330000
988.917037	2437.397885
989.213318	2535.700385
989.509563	2467.644808
989.805772	2419.753846
990.101944	2510.494615
990.398080	2457.562500
990.694180	2513.015192
990.990244	2442.439038
991.286271	2596.194231
991.582262	2530.659231
991.878217	2447.480192
992.174136	2515.535769
992.470019	2525.618077
992.765865	2462.603654
993.061676	2455.041923
993.357450	2457.562500
993.653188	2492.850577
993.948890	2538.220962
994.244556	2414.712692
994.540186	2452.521346
994.835780	2482.768269
995.131337	2545.782692
995.426859	2477.727115
995.722345	2553.344423
996.017795	2530.659231
996.313208	2470.165385
996.608586	2573.509038
996.903928	2417.233269
997.199234	2444.959615
997.494504	2515.535769
997.789738	2475.206538
998.084936	2505.453462
998.380099	2513.015192
998.675225	2548.303269
998.970316	2432.356731
999.265371	2402.109808
999.560390	2487.809423
999.855373	2434.877308
1000.150320	2457.562500
1000.445232	2525.618077
1000.740108	2414.712692
1001.034948	2558.385577
1001.329752	2502.932885
1001.624521	2518.056346
1001.919254	2452.521346
1002.213951	2457.562500
1002.508613	2513.015192
1002.803239	2450.000769
1003.097829	2578.550192
1003.392384	2581.070769
1003.686903	2523.097500
1003.981386	2510.494615
1004.275834	2525.618077
1004.570246	2538.220962
1004.864623	2460.083077
1005.158964	2505.453462
1005.453270	2490.330000
1005.747540	2467.644808
1006.041775	2497.891731
1006.335974	2500.412308
1006.630138	2502.932885
1006.924266	2465.124231
1007.218359	2457.562500
1007.512416	2548.303269
1007.806438	2439.918462
1008.100425	2535.700385
1008.394376	2402.109808
1008.688292	2523.097500
1008.982172	2573.509038
1009.276017	2515.535769
1009.569827	2518.056346
1009.863602	2475.206538
1010.157341	2495.371154
1010.451045	2439.918462
1010.744714	2502.932885
1011.038347	2412.192115
1011.331945	2386.986346
1011.625508	2487.809423
1011.919036	2460.083077
1012.212528	2540.741538
1012.505986	2495.371154
1012.799408	2518.056346
1013.092795	2442.439038
1013.386147	2515.535769
1013.679464	2540.741538
1013.972745	2533.179808
1014.265992	2402.109808
1014.559204	2424.795000
1014.852380	2462.603654
1015.145521	2475.206538
1015.438628	2480.247692
1015.731699	2530.659231
1016.024736	2482.768269
1016.317737	2450.000769
1016.610703	2477.727115
1016.903635	2520.576923
1017.196531	2470.165385
1017.489393	2500.412308
1017.782219	2530.659231
1018.075011	2442.439038
1018.367768	2485.288846
1018.660490	2470.165385
1018.953177	2470.165385
1019.245829	2470.165385
