Dividing Wavelength (nm)	Counts (n)	Blue Motor Position (mm): 23.000000	Red Motor Position (mm): 0.000000	
326.493990	2057.814123
326.888308	2057.814123
327.282561	2057.814123
327.676750	2032.827644
328.070874	2034.342511
328.464933	2042.252082
328.858929	2048.782896
329.252859	2060.165822
329.646726	2073.141752
330.040528	2089.497775
330.434265	2107.182143
330.827938	2127.949176
331.221547	2147.413071
331.615091	2168.850578
332.008571	2189.519309
332.401986	2209.840200
332.795338	2229.004146
333.188625	2248.397465
333.581847	2270.205497
333.975006	2283.143618
334.368100	2304.344191
334.761129	2321.290029
335.154095	2337.300734
335.546996	2385.179093
335.939833	2483.050574
336.332606	2492.081801
336.725315	2506.960767
337.117960	2520.660102
337.510540	2526.112110
337.903056	2532.360620
338.295508	2540.542413
338.687896	2551.254865
339.080220	2554.718138
339.472480	2559.534960
339.864676	2561.286761
340.256807	2570.126424
340.648875	2565.178532
341.040879	2565.390260
341.432818	2569.478636
341.824694	2573.103226
342.216506	2567.336146
342.608253	2569.302196
342.999937	2569.763461
343.391557	2568.142730
343.783113	2568.311609
344.174605	2564.404715
344.566033	2564.792883
344.957397	2560.807851
345.348697	2559.431616
345.739934	2557.405072
346.131106	2558.801472
346.522215	2557.889023
346.913260	2551.378373
347.304241	2550.599515
347.695159	2548.056253
348.086012	2549.606408
348.476802	2544.159441
348.867528	2542.458051
349.258191	2537.421939
349.648789	2540.817156
350.039324	2534.876156
350.429796	2540.681045
350.820203	2541.361600
351.210548	2542.299255
351.600828	2538.767927
351.991045	2537.842875
352.381198	2536.368338
352.771288	2536.789274
353.161314	2534.810621
353.551276	2535.733152
353.941175	2537.300951
354.331010	2534.825744
354.720782	2539.884542
355.110490	2540.318082
355.500135	2537.447144
355.889717	2538.165509
356.279235	2537.759696
356.668689	2539.443441
357.058080	2539.065355
357.447408	2539.261960
357.836672	2539.143493
358.225873	2537.661393
358.615010	2540.428987
359.004084	2541.772454
359.393095	2541.215407
359.782043	2540.502084
360.170927	2541.843031
360.559748	2540.328164
360.948505	2546.022147
361.337199	2544.192208
361.725830	2544.822352
362.114398	2545.167672
362.502903	2545.271015
362.891344	2545.424770
363.279722	2546.168341
363.668037	2544.328319
364.056289	2547.179092
364.444478	2550.415513
364.832603	2551.325441
365.220665	2546.947199
365.608665	2549.682025
365.996601	2550.954916
366.384474	2548.759494
366.772284	2551.194371
367.160031	2549.646737
367.547715	2549.813095
367.935336	2547.698331
368.322893	2549.581202
368.710388	2547.174051
369.097820	2547.511808
369.485189	2547.380738
369.872495	2552.663867
370.259738	2553.639331
370.646918	2555.383570
371.034035	2553.667057
371.421090	2552.404248
371.808081	2554.098076
372.195010	2555.204609
372.581875	2555.229815
372.968678	2553.750236
373.355418	2553.485575
373.742096	2555.290308
374.128710	2556.396842
374.515262	2555.892726
374.901751	2557.793241
375.288177	2557.775597
375.674540	2556.422048
376.060841	2554.796275
376.447079	2553.261244
376.833254	2558.456153
377.219367	2556.956410
377.605417	2556.641338
377.991404	2558.105793
378.377329	2556.737120
378.763191	2557.026986
379.148991	2560.389436
379.534727	2558.919939
379.920402	2560.638973
380.306013	2558.577141
380.691563	2563.260373
381.077049	2560.591082
381.462474	2560.286092
381.847835	2560.744837
382.233134	2560.951524
382.618371	2560.235680
383.003545	2560.843139
383.388657	2562.103428
383.773706	2562.642831
384.158693	2562.554611
384.543618	2560.117213
384.928480	2562.516802
385.313280	2561.019580
385.698017	2565.410425
386.082692	2562.748696
386.467305	2563.535116
386.851856	2563.363716
387.236344	2565.239026
387.620770	2560.190310
388.005133	2561.919426
388.389435	2563.555280
388.773674	2561.231308
389.157851	2566.663152
389.541965	2565.465877
389.926018	2565.251628
390.310008	2563.986299
390.693936	2568.470405
391.077802	2564.747513
391.461606	2566.020404
391.845348	2568.752710
392.229027	2566.433779
392.612645	2566.222051
392.996200	2569.874367
393.379694	2571.356466
393.763125	2567.164746
394.146494	2570.343194
394.529801	2571.704305
394.913047	2568.447720
395.296230	2567.268090
395.679351	2571.235478
396.062410	2570.345714
396.445408	2569.040056
396.828343	2570.111301
397.211217	2570.113821
397.594028	2571.265725
397.976778	2568.417473
398.359466	2573.546847
398.742092	2572.793195
399.124656	2572.808318
399.507158	2569.123235
399.889598	2574.030798
400.271977	2572.223544
400.654294	2574.207238
401.036549	2573.745973
401.418742	2573.209090
401.800874	2573.244378
402.182944	2575.747311
402.564952	2574.189594
402.946898	2572.929306
403.328783	2575.966601
403.710606	2573.846796
404.092367	2573.438462
404.474067	2573.067938
404.855705	2575.633885
405.237282	2576.533731
405.618797	2571.790005
406.000250	2575.165058
406.381642	2576.039698
406.762972	2574.643298
407.144240	2574.441652
407.525447	2572.601631
407.906593	2573.012485
408.287677	2580.115471
408.668700	2578.933320
409.049661	2579.782754
409.430560	2576.874009
409.811399	2578.154462
410.192176	2580.501119
410.572891	2577.415933
410.953545	2580.226376
411.334138	2583.059504
411.714669	2579.268557
412.095139	2582.144535
412.475547	2578.772003
412.855894	2581.317786
413.236180	2577.554564
413.616405	2580.889288
413.996568	2580.760738
414.376670	2579.916345
414.756711	2580.178485
415.136691	2583.077148
415.516609	2581.073290
415.896466	2578.691345
416.276262	2580.917014
416.655997	2581.143866
417.035670	2582.421798
417.415283	2582.416757
417.794834	2584.599577
418.174324	2579.818042
418.553753	2582.520101
418.933121	2580.181006
419.312428	2585.098651
419.691674	2580.816191
420.070859	2585.731316
420.449983	2585.484299
420.829045	2584.551686
421.208047	2583.084710
421.586988	2587.107551
421.965867	2583.268712
422.344686	2585.348188
422.723444	2584.647468
423.102141	2584.201326
423.480777	2585.580081
423.859352	2583.906418
424.237866	2586.963878
424.616319	2586.149732
424.994712	2588.007397
425.373044	2585.713672
425.751314	2586.522777
426.129524	2584.395410
426.507673	2584.435739
426.885762	2583.750142
427.263789	2585.398600
427.641756	2587.742736
428.019662	2585.612849
428.397508	2589.383632
428.775292	2585.882551
429.153016	2588.466142
429.530679	2589.318097
429.908282	2590.270875
430.285824	2587.838518
430.663305	2589.050916
431.040726	2587.770463
431.418086	2591.057295
431.795385	2587.614187
432.172624	2586.202664
432.549802	2588.723241
432.926920	2589.439085
433.303977	2592.123499
433.680974	2591.662233
434.057910	2591.571493
434.434786	2590.147367
434.811601	2591.069898
435.188355	2591.510999
435.565050	2588.572006
435.941683	2589.746595
436.318257	2593.414034
436.694770	2593.928232
437.071222	2592.327666
437.447614	2590.462439
437.823946	2590.608632
438.200218	2593.358582
438.576429	2593.020824
438.952580	2593.325814
439.328670	2593.250197
439.704700	2593.353541
440.080670	2593.603078
440.456580	2592.509147
440.832429	2595.644745
441.208218	2596.037955
441.583947	2595.420414
441.959616	2596.300095
442.335224	2596.073243
442.710773	2596.723552
443.086261	2595.823706
443.461689	2598.215733
443.837057	2597.633480
444.212365	2597.104159
444.587612	2596.625249
444.962800	2595.606936
445.337927	2596.451330
445.712995	2597.351176
446.088002	2600.653131
446.462949	2601.172370
446.837837	2599.165991
447.212664	2603.453492
447.587431	2603.420725
447.962139	2608.166971
448.336786	2606.780654
448.711374	2607.304934
449.085901	2608.300562
449.460369	2607.239399
449.834776	2607.045314
450.209124	2608.242588
450.583412	2610.964812
450.957640	2609.465068
451.331808	2609.404574
451.705917	2610.410285
452.079965	2608.229986
452.453954	2608.534975
452.827883	2613.225769
453.201752	2611.489092
453.575562	2614.964967
453.949311	2615.204422
454.323001	2614.695265
454.696632	2617.475462
455.070202	2620.507716
455.443713	2619.144084
455.817164	2617.165431
456.190556	2619.794393
456.563888	2621.757922
456.937160	2623.005607
457.310373	2621.901595
457.683526	2625.745475
458.056619	2625.677419
458.429653	2626.368057
458.802628	2626.486524
459.175542	2625.322018
459.548398	2632.699746
459.921194	2634.552370
460.293930	2638.434059
460.666607	2642.993782
461.039224	2648.150883
461.411782	2648.483599
461.784280	2650.787406
462.156719	2653.217242
462.529099	2653.844866
462.901419	2652.337561
463.273680	2653.597850
463.645882	2651.583909
464.018024	2660.617656
464.390106	2662.946669
464.762130	2679.335461
465.134094	2695.295754
465.505999	2715.029350
465.877845	2732.587689
466.249631	2745.518249
466.621358	2745.230903
466.993026	2747.670822
467.364634	2752.124681
467.736184	2750.045205
468.107674	2756.220618
468.479105	2762.315373
468.850477	2772.140582
469.221790	2776.221396
469.593043	2779.770369
469.964238	2789.214970
470.335373	2799.856846
470.706449	2826.380877
471.077467	2856.300125
471.448425	2910.941192
471.819324	2954.451391
472.190164	2960.173100
472.560945	2949.818570
472.931667	2942.571912
473.302330	2957.458439
473.672934	2972.246664
474.043479	2999.524347
474.413965	3021.024868
474.784393	3039.709905
475.154761	3084.041812
475.525070	3110.989300
475.895321	3139.610451
476.265513	3184.093592
476.635645	3234.129565
477.005719	3271.129113
477.375734	3319.057884
477.745691	3378.871174
478.115588	3449.550672
478.485427	3552.115467
478.855207	3695.735420
479.224928	3836.975947
479.594591	3952.050366
479.964194	3974.828820
480.333739	4045.717525
480.703226	4134.961072
481.072653	4240.021239
481.442022	4351.410574
481.811333	4447.038742
482.180584	4486.175740
482.549777	4553.152510
482.918912	4617.306234
483.287988	4703.010890
483.657005	4776.160553
484.025964	4831.930838
484.394864	4938.132826
484.763706	5020.515362
485.132489	5072.953445
485.501213	5174.197458
485.869879	5289.833965
486.238487	5391.020005
486.607036	5518.954408
486.975527	5604.228046
487.343959	5745.723152
487.712333	5900.705865
488.080648	6016.420510
488.448905	6195.021029
488.817104	6315.428989
489.185244	6574.761066
489.553326	6892.328553
489.921350	7353.878955
490.289315	7899.805670
490.657222	8183.536932
491.025070	8421.602901
491.392861	8527.827575
491.760593	8566.188235
492.128267	8550.147283
492.495883	8550.006131
492.863440	8570.732835
493.230939	8576.136952
493.598380	8651.207294
493.965763	8805.857292
494.333088	8894.994974
494.700354	9034.612250
495.067563	9214.742759
495.434713	9381.146207
495.801805	9636.457964
496.168839	9799.113313
496.535815	9960.573909
496.902733	10198.453356
497.269593	10350.368527
497.636395	10595.950858
498.003139	10879.644311
498.369825	11026.896415
498.736453	11354.475633
499.103023	11530.159844
499.469535	11767.131884
499.835989	12037.657843
500.202385	12208.580685
500.568723	12447.881737
500.935003	12809.191316
501.301226	13016.745702
501.667390	13493.172549
502.033497	13809.817505
502.399546	13964.359117
502.765537	14052.276840
503.131470	14463.405621
503.497345	14895.452671
503.863163	14715.206215
504.228923	15272.911585
504.594625	15698.760536
504.960269	15722.700976
505.325856	16270.621467
505.691385	16374.353289
506.056856	16774.404135
506.422270	17270.650278
506.787625	17296.796223
507.152924	17772.572761
507.518164	18148.660482
507.883347	18184.692129
508.248472	18524.055044
508.613540	19139.287542
508.978550	19523.355410
509.343503	19697.212203
509.708398	20169.800211
510.073236	20760.547825
510.438016	21064.867159
510.802738	21147.403450
511.167403	21740.336404
511.532010	22147.434783
511.896561	22700.308207
512.261053	23414.170880
512.625488	23544.335993
512.989866	23773.456435
513.354186	24065.228338
513.718449	24282.171873
514.082655	25104.913386
514.446803	25153.794935
514.810894	25815.680791
515.174927	26067.902320
515.538904	26324.797000
515.902822	27013.912648
516.266684	27048.041260
516.630488	27521.176233
516.994235	27774.388350
517.357925	28433.695656
517.721558	28856.613175
518.085133	29368.716268
518.448651	29735.427443
518.812112	29894.574149
519.175516	30216.908047
519.538863	30791.070264
519.902152	31057.291078
520.265385	31690.321370
520.628560	31914.624989
520.991678	32096.777001
521.354739	32491.887516
521.717743	32992.403517
522.080690	33122.848414
522.443580	33880.445617
522.806413	34089.073769
523.169189	34407.672171
523.531908	34788.748114
523.894569	34874.223398
524.257174	35217.321808
524.619722	35682.060740
524.982213	35987.937791
525.344647	36194.776333
525.707025	36486.439851
526.069345	37039.698924
526.431608	37119.976778
526.793815	37642.777199
527.155964	37414.796058
527.518057	37813.614342
527.880093	37833.219389
528.242072	38561.565297
528.603995	38479.104622
528.965860	38565.018487
529.327669	38908.520189
529.689421	39093.245710
530.051117	39193.252120
530.412755	39593.431516
530.774337	39793.691352
531.135862	39887.534952
531.497331	40148.865846
531.858743	40261.180233
532.220098	40754.280697
532.581396	40635.546400
532.942638	40525.102281
533.303824	40879.921374
533.664953	41066.189488
534.026025	40868.276309
534.387040	41500.137052
534.747999	41669.025789
535.108902	42081.687081
535.469748	41562.947309
535.830537	41874.609084
536.191270	42220.119686
536.551947	42060.849471
536.912567	42410.965168
537.273131	42655.120851
537.633638	42377.675908
537.994089	42672.328830
538.354483	42486.970644
538.714821	43196.495404
539.075103	43550.931369
539.435328	43481.620545
539.795497	43329.032380
540.155609	43508.651212
540.515665	44164.351572
540.875665	43556.937904
541.235609	43899.375923
541.595496	44087.549593
541.955328	44700.165732
542.315102	44234.695833
542.674821	44164.732179
543.034483	44135.407787
543.394090	44192.108165
543.753640	44225.059667
544.113134	45332.543194
544.472571	44505.909910
544.831953	45669.710687
545.191278	44992.923180
545.550548	44735.668058
545.909761	45409.998002
546.268918	45596.835767
546.628019	46057.992959
546.987064	45537.624894
547.346053	44873.306682
547.704986	45811.999775
548.063863	45513.341656
548.422684	45746.684065
548.781449	45385.745011
549.140158	45931.520491
549.498811	45735.021355
549.857408	45166.933728
550.215949	46020.277566
550.574434	45897.409524
550.932864	45845.364651
551.291237	46581.894872
551.649555	46374.713532
552.007817	46585.572394
552.366022	46267.341996
552.724173	46359.244751
553.082267	46798.661967
553.440305	47162.119077
553.798288	46450.106508
554.156215	46835.492637
554.514086	47056.706030
554.871902	46704.944397
555.229661	46893.440701
555.587365	46597.769466
555.945014	46736.088645
556.302606	46764.220804
556.660143	46892.072027
557.017625	47107.641848
557.375050	46837.151177
557.732421	47257.202800
558.089735	47317.366451
558.446994	47219.875577
558.804197	47694.631281
559.161345	47577.016121
559.518437	46929.232893
559.875474	47189.177470
560.232455	47430.043801
560.589381	47497.300355
560.946251	47299.830797
561.303065	47984.154829
561.659825	47690.772278
562.016528	47492.780961
562.373177	47075.900223
562.729770	47717.533243
563.086307	47244.937673
563.442789	47792.427145
563.799216	47639.110533
564.155587	47539.366263
564.511904	47523.456382
564.868164	47584.408973
565.224370	47894.056807
565.580520	47642.074732
565.936615	47833.888115
566.292654	47490.245260
566.648638	47855.832258
567.004567	47801.627251
567.360441	47913.818130
567.716260	47646.316863
568.072023	47994.040532
568.427732	47954.671641
568.783385	47471.482086
569.138982	47891.896672
569.494525	48026.001447
569.850013	47634.346643
570.205445	47753.882483
570.560823	47535.224956
570.916145	47419.270855
571.271412	47649.623860
571.626625	47316.514496
571.981782	47397.125067
572.336884	46994.301586
572.691931	47313.542736
573.046923	46993.363932
573.401860	46828.588777
573.756743	46832.573809
574.111570	46990.298910
574.466342	46900.725168
574.821059	47072.179851
575.175722	46560.399392
575.530330	46668.350661
575.884882	46300.333827
576.239380	46201.575103
576.593823	46296.457180
576.948211	46237.710093
577.302544	45784.296114
577.656823	45777.014167
578.011047	46045.322019
578.365216	45878.371606
578.719330	45595.507423
579.073389	45569.855511
579.427394	45618.868130
579.781344	45559.856383
580.135239	45314.430328
580.489080	45382.264094
580.842866	44872.167381
581.196597	45374.004164
581.550273	45347.923754
581.903895	45282.895390
582.257463	45738.245173
582.610975	45161.025496
582.964434	45491.301732
583.317837	45010.670562
583.671186	44971.886445
584.024481	45232.191465
584.377721	44788.935410
584.730906	45007.247619
585.084037	45113.898269
585.437113	44829.793962
585.790135	44949.602024
586.143103	44503.147357
586.496016	44689.859093
586.848874	44771.888748
587.201679	44798.531247
587.554428	44309.972863
587.907124	44584.851858
588.259765	44349.356877
588.612352	44521.333320
588.964884	43973.962315
589.317362	44272.708653
589.669786	44284.918328
590.022155	44146.092513
590.374470	44581.048308
590.726731	44185.476527
591.078937	43500.852547
591.431090	43846.211915
591.783188	43376.154565
592.135232	43165.600693
592.487222	43446.914721
592.839157	43601.295017
593.191038	43233.575611
593.542866	43049.407138
593.894639	42452.302629
594.246358	42745.760797
594.598022	42736.656474
594.949633	42316.698111
595.301190	42299.722026
595.652692	42238.320772
596.004141	42730.556678
596.355535	41634.269553
596.706876	41648.941832
597.058162	41369.843390
597.409395	41870.135060
597.760573	42081.712287
598.111698	41673.507374
598.462768	41612.542180
598.813785	41615.811369
599.164748	41228.459189
599.515657	41496.126815
599.866511	40998.585095
600.217312	41710.297715
600.568060	40639.521350
600.918753	41458.761782
601.269392	41377.667261
601.619978	41095.750814
601.970510	41306.314769
602.320988	41451.978910
602.671412	41697.220962
603.021783	41583.608478
603.372100	41144.004739
603.722363	41258.955650
604.072572	41290.639302
604.422728	41282.167643
604.772830	41074.222567
605.122878	41221.399053
605.472872	41088.390730
605.822813	41330.308141
606.172701	41091.352408
606.522534	41427.005034
606.872314	41624.923254
607.222041	41460.163223
607.571714	41790.920889
607.921333	41297.127267
608.270899	41502.082938
608.620411	41884.492266
608.969870	41622.871505
609.319276	41630.085396
609.668627	41676.970647
610.017926	42071.297263
610.367171	42204.817263
610.716362	42252.299892
611.065500	42124.809111
611.414585	42346.587113
611.763616	42521.807538
612.112594	42423.845316
612.461518	42548.407186
612.810389	42952.173362
613.159207	42733.795619
613.507971	42709.643451
613.856682	43197.521279
614.205340	43026.096842
614.553945	43722.527205
614.902496	43051.070718
615.250994	43473.816839
615.599439	43528.972103
615.947830	43648.434846
616.296169	43640.585770
616.644454	43684.476576
616.992686	43830.339842
617.340864	44300.911389
617.688990	43819.972709
618.037063	44488.243186
618.385082	44330.215616
618.733048	44641.600127
619.080961	44509.065672
619.428821	44549.142845
619.776628	44570.156895
620.124382	44379.508018
620.472083	44488.240666
620.819731	44585.325727
621.167326	44148.081248
621.514868	44132.851922
621.862357	43614.838077
622.209793	43704.273187
622.557176	43259.603088
622.904506	43025.007953
623.251783	42638.805157
623.599007	42330.077334
623.946179	42260.025460
624.293297	41982.719148
624.640363	41459.321350
624.987376	41300.172123
625.334336	41104.439243
625.681243	40692.836593
626.028097	40603.131781
626.374899	40424.564030
626.721647	40376.529395
627.068343	40174.981544
627.414987	39883.431452
627.761577	39622.934868
628.108115	39955.570364
628.454600	39205.688647
628.801032	39418.387531
629.147412	39314.630502
629.493739	39237.457998
629.840014	38793.100452
630.186236	39214.107374
630.532405	38665.917181
630.878521	38907.615302
631.224585	38665.728138
631.570597	38331.610543
631.916556	38481.778955
632.262462	38381.275991
632.608316	38327.466715
632.954117	38185.046557
633.299866	38140.611306
633.645562	38063.232115
633.991206	37530.533388
634.336797	37134.066803
634.682336	37015.075408
635.027823	36774.304859
635.373257	36633.487788
635.718639	36321.145457
636.063968	36219.500672
636.409245	35554.872429
636.754470	35524.917893
637.099642	35300.412627
637.444762	34730.336264
637.789829	34884.721601
638.134845	34496.010831
638.479808	34422.097433
638.824719	34356.655694
639.169577	33843.430945
639.514383	33941.549443
639.859137	33552.936975
640.203839	33728.686722
640.548489	33436.239305
640.893086	33435.498255
641.237632	33154.774041
641.582125	33254.752725
641.926566	33055.856521
642.270955	33079.678493
642.615292	33014.874460
642.959576	32895.134454
643.303809	32910.915786
643.647990	32989.426716
643.992118	32939.988120
644.336195	32798.278765
644.680219	32878.344891
645.024192	33075.605241
645.368112	33602.471353
645.711981	33629.940600
646.055797	34341.880072
646.399562	34154.119777
646.743274	35021.815780
647.086935	35422.438797
647.430544	35377.605295
647.774101	35421.352428
648.117606	35712.350513
648.461059	35839.569072
648.804460	35444.511489
649.147810	34943.035148
649.491108	34580.543419
649.834354	34446.882266
650.177548	33618.497181
650.520690	33124.000318
650.863781	33112.133442
651.206820	32932.381019
651.549807	32511.754704
651.892742	31949.318210
652.235626	31846.904649
652.578458	31715.073435
652.921238	31030.457016
653.263967	31345.440912
653.606644	31036.476154
653.949269	30947.749326
654.291843	30553.130323
654.634365	30926.210996
654.976836	30459.435438
655.319255	30533.396727
655.661622	30415.020352
656.003938	30278.095052
656.346203	30093.122514
656.688416	30339.161069
657.030577	30101.725243
657.372687	29933.423802
657.714746	30100.785068
658.056753	30272.161614
658.398708	29657.881894
658.740612	29728.405116
659.082465	29946.699680
659.424266	29829.810446
659.766016	29833.240951
660.107715	29713.223681
660.449362	29805.948144
660.790958	29772.268195
661.132503	29705.036847
661.473996	29792.999941
661.815438	29866.323523
662.156829	29982.897685
662.498168	29787.878128
662.839456	29771.544790
663.180693	29892.865198
663.521879	29983.850463
663.863013	29928.911969
664.204097	29912.014021
664.545129	30336.958085
664.886110	30258.386661
665.227040	30371.011079
665.567918	30369.584432
665.908746	30436.972056
666.249522	30523.208555
666.590248	30552.502700
666.930922	30646.666412
667.271545	30640.617028
667.612118	30694.159123
667.952639	30504.200884
668.293109	30550.985312
668.633528	30405.679094
668.973896	30361.601765
669.314213	30342.294146
669.654480	30157.198100
669.994695	30147.582099
670.334859	30061.222093
670.674973	29899.796785
671.015035	30082.493241
671.355047	30031.295283
671.695008	29957.770054
672.034918	29853.062768
672.374777	29955.786360
672.714585	29830.518728
673.054342	29966.806322
673.394049	29809.010645
673.733705	30031.449038
674.073310	29749.467057
674.412864	29806.676591
674.752368	29501.749798
675.091820	29735.145138
675.431223	29333.302162
675.770574	29126.703075
676.109875	28969.560227
676.449125	28761.254709
676.788324	28666.251644
677.127473	28180.813735
677.466571	28087.093644
677.805619	27810.641808
678.144616	27751.642664
678.483562	27691.000104
678.822458	27367.403397
679.161303	27322.292632
679.500098	27235.451195
679.838842	27169.659096
680.177535	27255.162107
680.516179	27495.536925
680.854771	27610.019008
681.193314	28374.068888
681.531805	29391.328364
681.870247	30141.502468
682.208638	30859.181294
682.546978	31126.871604
682.885268	31273.891815
683.223508	30829.050317
683.561697	30569.309907
683.899836	30403.171120
684.237925	29992.538892
684.575963	29853.614774
684.913951	29481.486880
685.251889	29645.573917
685.589776	29674.038792
685.927614	29674.000983
686.265401	29861.315137
686.603137	29956.824838
686.940824	30472.504629
687.278460	30798.768106
687.616046	30973.552472
687.953582	31624.017594
688.291068	31541.824101
688.628504	31866.078678
688.965889	31866.625643
689.303224	31605.128390
689.640510	31320.890492
689.977745	30711.651927
690.314930	29956.618150
690.652065	29528.004127
690.989150	28867.486944
691.326185	28024.220373
691.663170	27384.462662
692.000105	26644.880022
692.336990	26040.528855
692.673825	25627.600382
693.010610	25136.221472
693.347345	24627.546364
693.684030	24006.675336
694.020665	23818.451254
694.357251	23132.650164
694.693786	23138.961689
695.030272	22907.706318
695.366707	22408.586717
695.703093	22124.197584
696.039429	22193.619314
696.375716	21958.905711
696.711952	21961.295218
697.048139	21819.517808
697.384276	21664.464518
697.720363	21777.459461
698.056400	21671.769150
698.392388	21511.586487
698.728326	21507.999706
699.064214	21330.747695
699.400053	21349.248730
699.735842	20964.810338
700.071581	20758.720407
700.407270	20518.678304
700.742910	20337.262301
701.078501	20090.664178
701.414042	19889.310411
701.749533	19584.118958
702.084974	19270.965001
702.420366	19506.260857
702.755709	19096.614175
703.091002	18795.064955
703.426246	18867.256798
703.761440	18787.714952
704.096584	18549.724600
704.431679	18483.680443
704.766725	18434.730839
705.101721	18359.962966
705.436668	18483.292274
705.771565	18201.353143
706.106413	18521.940280
706.441212	18590.053831
706.775961	18697.758083
707.110661	18775.238097
707.445311	19129.054000
707.779913	19011.607718
708.114465	19309.413882
708.448967	19615.439646
708.783421	20250.360370
709.117825	20606.265832
709.452180	20828.275727
709.786485	21276.237699
710.120742	22043.332435
710.454949	22154.414260
710.789107	22646.645125
711.123216	23373.861814
711.457275	23572.876486
711.791286	24148.094825
712.125247	24290.908193
712.459159	24026.333315
712.793023	24778.032368
713.126837	23748.268310
713.460602	24009.437888
713.794318	23679.096118
714.127985	23418.511314
714.461602	22519.812215
714.795171	22502.329493
715.128691	21527.524094
715.462162	21012.441680
715.795584	20583.096689
716.128957	20313.510905
716.462281	19931.860270
716.795556	19658.170987
717.128782	19177.575106
717.461960	18576.959433
717.795088	18535.211118
718.128167	18192.707564
718.461198	17741.103358
718.794180	17604.725023
719.127113	17284.858771
719.459997	17093.146210
719.792833	16722.081999
720.125619	16756.034170
720.458357	16419.960608
720.791046	16279.229237
721.123686	16139.243956
721.456278	15909.145530
721.788821	15908.530509
722.121315	15637.316432
722.453761	15741.375930
722.786158	15625.252951
723.118506	15708.376537
723.450805	15579.370889
723.783056	15764.040958
724.115259	15657.526418
724.447412	15645.137783
724.779518	15862.449322
725.111574	15909.833648
725.443582	16173.662434
725.775542	16141.701519
726.107453	16652.236813
726.439315	16564.493009
726.771129	16989.855489
727.102895	17398.950164
727.434612	17677.040375
727.766281	17841.802927
728.097901	18159.700609
728.429473	18240.094410
728.760996	18268.415612
729.092471	18388.342142
729.423897	18275.110265
729.755276	18154.742634
730.086606	18273.708824
730.417887	18848.692749
730.749120	19399.300175
731.080305	19616.183217
731.411442	20023.432830
731.742530	20136.258894
732.073570	20295.428286
732.404562	20619.768562
732.735506	20463.943977
733.066401	20253.145608
733.397249	19769.099057
733.728048	19138.120515
734.058798	18286.488149
734.389501	17515.783946
734.720156	17017.685178
735.050762	16424.651402
735.381320	16040.225612
735.711831	15768.031031
736.042293	15396.813065
736.372707	15435.135916
736.703073	15231.281737
737.033391	15424.488999
737.363661	15414.479788
737.693883	15538.419076
738.024056	15733.589868
738.354182	15952.504494
738.684260	16304.094728
739.014290	16583.649394
739.344272	16808.593240
739.674207	17154.681055
740.004093	17327.685893
740.333931	17385.152526
740.663722	17472.089745
740.993464	17513.180190
741.323159	17353.403339
741.652806	17063.509267
741.982405	16897.136067
742.311956	16545.734876
742.641460	16432.031651
742.970915	16105.127948
743.300323	15766.674961
743.629683	15548.904676
743.958996	15232.050513
744.288260	14919.506536
744.617477	14613.279125
744.946647	14585.822481
745.275768	14260.892389
745.604842	14059.221029
745.933869	13890.869176
746.262847	13854.764432
746.591778	13772.346608
746.920662	13647.928411
747.249498	13653.584585
747.578286	13821.601202
747.907027	13986.366274
748.235720	14256.690587
748.564365	14329.555425
748.892963	14246.109205
749.221514	14349.286501
749.550017	14210.674935
749.878473	14187.553683
750.206881	13956.426861
750.535242	13885.954051
750.863555	13804.577225
751.191821	13711.555334
751.520039	13720.904154
751.848210	13651.437054
752.176334	13700.880691
752.504411	13617.615953
752.832440	13442.685393
753.160421	13564.182242
753.488356	13451.409110
753.816243	13357.573072
754.144082	13192.525696
754.471875	13141.342861
754.799620	13111.106020
755.127318	13089.824789
755.454969	13071.961460
755.782572	13040.055998
756.110129	13061.143144
756.437638	12955.467957
756.765100	12969.154689
757.092515	12988.399294
757.419882	13024.226774
757.747203	13043.602449
758.074477	13127.724183
758.401703	13109.981842
758.728882	13304.348570
759.056014	13345.406248
759.383099	13521.813865
759.710138	13642.980518
760.037129	13766.521555
760.364073	13822.957272
760.690970	13851.028937
761.017820	13867.788253
761.344623	14098.229478
761.671379	14472.658659
761.998088	15169.099104
762.324751	16935.310204
762.651366	20332.072433
762.977935	24792.666838
763.304456	27746.004133
763.630931	28812.122472
763.957359	27625.364281
764.283740	25376.296342
764.610074	23122.509883
764.936362	20498.611992
765.262602	18628.921127
765.588796	16700.173145
765.914943	15418.689152
766.241044	14315.399865
766.567097	13518.322866
766.893104	12805.924648
767.219064	12332.484685
767.544978	11854.636232
767.870845	11471.811009
768.196665	11252.087278
768.522438	11015.687409
768.848165	10810.824999
769.173846	10612.785791
769.499479	10477.035080
769.825066	10309.260438
770.150607	10075.119007
770.476101	10000.056226
770.801548	9871.489159
771.126949	9712.339932
771.452303	9600.809444
771.777611	9407.302233
772.102872	9400.035410
772.428087	9254.351105
772.753256	9101.226057
773.078378	9007.349690
773.403453	8823.624838
773.728482	8711.471768
774.053465	8643.350656
774.378401	8536.904172
774.703291	8417.320441
775.028135	8294.409549
775.352932	8258.183817
775.677683	8149.690625
776.002388	8047.803864
776.327046	8055.897437
776.651658	7959.271120
776.976224	7854.379832
777.300743	7855.430913
777.625216	7770.127028
777.949643	7722.717497
778.274024	7740.855568
778.598359	7654.792990
778.922647	7669.024167
779.246889	7618.973071
779.571086	7631.611244
779.895236	7636.609548
780.219339	7641.673387
780.543397	7644.420816
780.867409	7729.608754
781.191374	7732.391471
781.515294	7695.497787
781.839167	7790.261397
782.162995	7764.720391
782.486776	7704.672687
782.810511	7664.610637
783.134201	7577.255003
783.457844	7568.153199
783.781441	7521.814913
784.104993	7455.619522
784.428498	7432.410050
784.751958	7415.421361
785.075372	7386.316259
785.398739	7334.057138
785.722061	7375.865948
786.045337	7381.292750
786.368568	7533.296141
786.691752	7563.089360
787.014891	7905.043428
787.337983	8256.265658
787.661030	8848.187860
787.984031	9468.522006
788.306987	9879.166836
788.629897	10090.731460
788.952760	10030.396411
789.275579	9812.137134
789.598351	9422.395448
789.921078	9064.055109
790.243759	8651.179568
790.566395	8366.203141
790.888984	8109.825180
791.211529	7904.279694
791.534027	7681.407762
791.856480	7473.843293
792.178888	7410.029847
792.501249	7311.331617
792.823566	7149.513099
793.145836	7156.767319
793.468062	7123.415045
793.790241	7073.913435
794.112375	7141.222921
794.434464	7292.046682
794.756507	7335.330029
795.078505	7495.701736
795.400457	7801.152809
795.722364	8150.477045
796.044226	8442.120398
796.366042	8710.340029
796.687812	8665.647680
797.009538	8744.806398
797.331218	8637.583576
797.652852	8548.466058
797.974442	8411.538238
798.295986	8314.438053
798.617484	8127.680947
798.938938	7985.802713
799.260346	7887.691777
799.581709	7676.548089
799.903026	7602.264167
800.224299	7497.319947
800.545526	7325.061199
800.866708	7228.543267
801.187845	7161.470716
801.508936	7056.385343
801.829983	7019.174066
802.150984	6865.421394
802.471940	6828.464695
802.792851	6808.579864
803.113717	6770.826663
803.434538	6736.735860
803.755314	6684.423807
804.076045	6683.097983
804.396731	6632.653677
804.717372	6659.404560
805.037967	6664.891856
805.358518	6703.602876
805.679024	6789.410877
805.999485	6792.808614
806.319901	6836.149934
806.640272	6854.739189
806.960598	6939.725481
807.280879	6941.794875
807.601115	7024.386619
807.921306	6966.698175
808.241453	6973.854093
808.561554	7003.128073
808.881611	6963.799512
809.201623	6978.184444
809.521590	6923.939108
809.841513	6903.305665
810.161390	6944.706141
810.481223	6812.040616
810.801011	6794.313399
811.120755	6771.824811
811.440453	6697.210693
811.760107	6663.447565
812.079716	6630.309541
812.399281	6567.489202
812.718801	6556.267593
813.038276	6513.339648
813.357707	6452.167767
813.677093	6492.189487
813.996434	6398.507204
814.315731	6443.655778
814.634983	6431.138593
814.954191	6446.660306
815.273354	6551.400359
815.592473	6618.546008
815.911547	6741.323310
816.230577	6819.582182
816.549562	6971.661191
816.868502	7072.693476
817.187399	7171.222828
817.506250	7327.866601
817.825058	7354.652772
818.143821	7626.489432
818.462539	7904.607369
818.781213	8270.509438
819.099843	8812.219228
819.418429	9813.183174
819.736970	10772.028279
820.055466	11959.754372
820.373919	13493.122138
820.692327	15833.588716
821.010691	19981.324072
821.329011	28976.650610
821.647286	41940.769187
821.965517	55347.947213
822.283704	60747.501892
822.601847	62750.309465
822.919945	60074.717061
823.237999	55901.050010
823.556010	49786.246341
823.873976	43064.086978
824.191897	36544.614766
824.509775	31706.143031
824.827609	27174.695209
825.145398	24576.648354
825.463144	23194.638712
825.780845	23508.755529
826.098502	25255.908547
826.416116	29024.070224
826.733685	32612.582822
827.051210	33775.019967
827.368692	31990.751454
827.686129	28057.262616
828.003522	23951.126862
828.320872	20256.412276
828.638177	17418.066220
828.955439	15274.297903
829.272656	13460.558804
829.589830	11985.101294
829.906960	10713.991996
830.224046	9768.684909
830.541088	9027.844501
830.858086	8566.546157
831.175041	8189.921553
831.491952	8065.447903
831.808819	8115.327599
832.125642	8511.418619
832.442421	9401.222602
832.759157	11187.608399
833.075849	14095.691257
833.392497	17303.339641
833.709101	19469.059662
834.025662	19314.984357
834.342179	17633.560423
834.658653	15458.433609
834.975083	13533.678220
835.291469	11923.402612
835.607811	10602.511919
835.924110	9690.327734
836.240366	8824.438985
836.556578	8021.758743
836.872746	7373.960391
837.188871	6873.945985
837.504952	6455.142047
837.820990	6146.371374
838.136984	5921.878711
838.452935	5831.158107
838.768842	5861.959557
839.084706	6283.765502
839.400526	7492.576221
839.716303	9063.873628
840.032037	10158.661008
840.347727	10088.909083
840.663373	9118.484447
840.978977	8076.004079
841.294537	7269.459793
841.610054	6668.312279
841.925527	6238.468214
842.240957	5878.068564
842.556344	5544.649169
842.871687	5259.133338
843.186987	4975.492817
843.502244	4756.908387
843.817458	4585.834310
844.132629	4452.397488
844.447756	4358.926934
844.762840	4281.716622
845.077881	4200.874158
845.392879	4141.025580
845.707833	4090.951799
846.022745	4045.901527
846.337613	4020.642826
846.652438	3974.808655
846.967221	3958.250986
847.281960	3928.225873
847.596656	3909.923964
847.911309	3890.707086
848.225919	3866.280175
848.540485	3847.721167
848.855009	3835.672809
849.169490	3813.801763
849.483928	3802.310453
849.798323	3793.765697
850.112675	3774.450516
850.426984	3779.781537
850.741251	3765.462139
851.055474	3761.779576
851.369654	3764.554731
851.683792	3761.129267
851.997887	3765.968775
852.311938	3769.288375
852.625947	3773.220475
852.939914	3762.190430
853.253837	3768.494393
853.567718	3771.357768
853.881555	3761.890482
854.195350	3773.013787
854.509103	3769.255607
854.822812	3767.861728
855.136479	3760.867127
855.450103	3770.112603
855.763685	3757.101385
856.077224	3760.020213
856.390720	3779.509314
856.704173	3798.741316
857.017584	3810.890497
857.330953	3819.919203
857.644278	3842.128007
857.957561	3850.032536
858.270802	3847.592618
858.584000	3850.536651
858.897155	3842.327132
859.210268	3828.826922
859.523339	3804.919250
859.836367	3806.451761
860.149352	3798.128816
860.462295	3792.538176
860.775195	3780.046197
861.088054	3777.162657
861.400869	3773.157460
861.713642	3771.188890
862.026373	3786.761014
862.339062	3791.764359
862.651708	3806.608037
862.964312	3844.026001
863.276873	3856.669215
863.589392	3907.352976
863.901869	3958.046819
864.214303	4003.013911
864.526696	4032.492058
864.839045	4083.185901
865.151353	4107.363275
865.463619	4119.711582
865.775842	4121.725523
866.088023	4140.569356
866.400162	4134.351092
866.712258	4137.529540
867.024313	4139.944253
867.336325	4140.183707
867.648296	4143.142865
867.960224	4145.325684
868.272110	4153.636026
868.583954	4160.217253
868.895755	4176.132175
869.207515	4170.622194
869.519233	4211.884038
869.830909	4222.992221
870.142542	4251.260491
870.454134	4264.208695
870.765684	4292.592912
871.077191	4330.991380
871.388657	4355.201522
871.700081	4391.119743
872.011463	4433.218419
872.322803	4467.508347
872.634101	4499.219725
872.945357	4539.478380
873.256571	4593.206998
873.567744	4622.324702
873.878874	4640.669461
874.189963	4678.841078
874.501010	4693.820867
874.812015	4692.726936
875.122979	4728.413264
875.433900	4729.529880
875.744780	4739.975151
876.055618	4770.784162
876.366415	4768.346765
876.677169	4792.728305
876.987882	4839.205223
877.298554	4889.483171
877.609183	4971.659020
877.919771	5081.004167
878.230317	5224.924068
878.540822	5438.893323
878.851285	5755.578608
879.161707	6224.615123
879.472087	6982.348437
879.782425	8208.523411
880.092722	10388.046111
880.402977	13686.767980
880.713191	17419.520593
881.023363	21132.829475
881.333494	23321.010357
881.643583	24543.046543
881.953631	24557.534819
882.263637	23722.845771
882.573602	22253.273808
882.883526	20713.355063
883.193408	19052.224295
883.503248	17351.185232
883.813048	15811.863864
884.122806	14378.250451
884.432522	12916.787183
884.742197	11646.275262
885.051831	10558.472399
885.361424	9557.639523
885.670975	8732.561435
885.980485	8048.565078
886.289954	7472.588046
886.599382	7005.328537
886.908768	6620.151616
887.218113	6255.454382
887.527417	5971.642461
887.836680	5703.624476
888.145901	5484.465354
888.455082	5322.044418
888.764221	5170.673691
889.073319	5037.872055
889.382376	4963.636023
889.691392	4900.190582
890.000366	4876.285430
890.309300	4862.097103
890.618193	4864.731106
890.927044	4845.882231
891.235855	4872.015573
891.544625	4904.173093
891.853353	4967.381601
892.162041	5078.155915
892.470687	5264.817239
892.779293	5519.950036
893.087858	5888.738166
893.396381	6465.362987
893.704864	7265.711695
894.013306	8410.028412
894.321707	9580.816228
894.630068	10394.985260
894.938387	10599.051167
895.246665	10361.481751
895.554903	9762.048230
895.863100	9065.519564
896.171256	8510.357456
896.479371	8006.148810
896.787446	7516.125971
897.095480	7085.739982
897.403473	6764.134531
897.711425	6450.937725
898.019336	6184.656417
898.327207	5911.932515
898.635038	5680.087329
898.942827	5437.925421
899.250576	5245.033231
899.558284	5056.052976
899.865952	4931.423050
900.173579	4779.865801
900.481165	4678.563815
900.788711	4581.685441
901.096216	4513.405532
901.403681	4447.530254
901.711105	4420.035801
902.018489	4410.800407
902.325832	4477.472188
902.633135	4602.061784
902.940397	4936.950676
903.247619	5736.122274
903.554800	7166.474061
903.861941	9073.494670
904.169041	10594.751063
904.476101	11219.090405
904.783121	10870.590399
905.090100	10131.978181
905.397039	9304.238364
905.703938	8551.722644
906.010796	7860.721604
906.317614	7302.353322
906.624391	6777.183558
906.931129	6355.528847
907.237826	5949.622701
907.544483	5572.433488
907.851099	5199.148649
908.157675	4849.990772
908.464211	4524.581770
908.770707	4288.149134
909.077163	4091.488682
909.383578	3950.021302
909.689954	3829.215091
909.996289	3760.352930
910.302584	3696.206768
910.608839	3661.193433
910.915054	3630.351654
911.221229	3616.803553
911.527363	3632.257210
911.833458	3642.087460
912.139513	3670.610309
912.445527	3701.676419
912.751502	3784.731950
913.057436	3881.912793
913.363331	4015.977238
913.669186	4219.697827
913.975000	4481.033763
914.280775	4903.747116
914.586510	5484.029294
914.892205	6277.340551
915.197859	7305.914897
915.503475	8519.542438
915.809050	9569.254342
916.114585	10209.934584
916.420081	10465.609304
916.725536	10440.217012
917.030952	9997.437347
917.336328	9592.806613
917.641665	9180.576339
917.946961	8708.789874
918.252218	8288.992829
918.557435	7779.886702
918.862612	7352.031372
919.167750	6981.345248
919.472848	6557.784981
919.777906	6188.205389
920.082925	5825.627961
920.387904	5460.744204
920.692843	5197.651426
920.997743	4955.633192
921.302603	4718.020926
921.607423	4560.245413
921.912204	4393.705855
922.216946	4275.964666
922.521647	4151.697703
922.826310	4047.832289
923.130932	3956.877271
923.435516	3858.975543
923.740059	3788.076755
924.044564	3709.948953
924.349028	3652.126918
924.653454	3590.014862
924.957840	3518.443080
925.262186	3475.416832
925.566493	3414.280239
925.870761	3354.592977
926.174989	3319.473779
926.479178	3281.801236
926.783328	3240.249526
927.087438	3214.844631
927.391509	3176.786440
927.695541	3146.811739
927.999533	3122.208388
928.303486	3102.056375
928.607400	3087.469797
928.911275	3074.188877
929.215110	3051.453273
929.518906	3045.406409
929.822663	3045.867674
930.126381	3041.078578
930.430060	3047.780792
930.733699	3049.744322
931.037299	3062.203533
931.340861	3056.759087
931.644383	3066.319636
931.947866	3064.832495
932.251309	3058.992318
932.554714	3061.278482
932.858080	3051.475958
933.161407	3044.703168
933.464694	3040.798794
933.767943	3032.536343
934.071153	3028.924356
934.374323	3016.354239
934.677455	3011.182015
934.980548	3000.303205
935.283602	2997.281034
935.586617	2995.325066
935.889593	3004.633557
936.192530	3007.421315
936.495428	3021.123171
936.798287	3044.690565
937.101108	3076.817838
937.403890	3129.654172
937.706632	3190.004345
938.009336	3266.017383
938.312002	3338.095801
938.614628	3400.104514
938.917216	3452.156948
939.219765	3485.015189
939.522275	3516.938296
939.824747	3524.610932
940.127179	3523.637989
940.429573	3515.080630
940.731929	3514.823532
941.034246	3500.365502
941.336524	3484.400168
941.638763	3473.165957
941.940964	3459.106179
942.243126	3415.575815
942.545250	3389.303842
942.847335	3354.224973
943.149381	3321.966629
943.451389	3289.226856
943.753359	3252.865013
944.055290	3229.927763
944.357182	3206.388095
944.659036	3190.561393
944.960851	3183.014785
945.262628	3165.950480
945.564367	3166.620953
945.866067	3161.690705
946.167729	3159.447391
946.469352	3156.762977
946.770937	3151.726864
947.072484	3139.875111
947.373992	3136.366468
947.675462	3133.387146
947.976893	3114.283694
948.278286	3107.233640
948.579641	3105.121397
948.880958	3095.613781
949.182236	3097.736106
949.483476	3090.988522
949.784678	3094.981116
950.085841	3095.923812
950.386967	3104.062754
950.688054	3118.747636
950.989103	3140.989206
951.290114	3159.185251
951.591087	3187.687935
951.892021	3213.854044
952.192917	3241.451841
952.493776	3271.643311
952.794596	3274.854526
953.095378	3277.498611
953.396122	3275.426697
953.696828	3272.830503
953.997496	3257.568410
954.298126	3235.034452
954.598718	3216.379662
954.899272	3190.263965
955.199788	3161.967968
955.500266	3132.847743
955.800706	3094.698811
956.101108	3058.979716
956.401472	3025.355219
956.701798	2994.316835
957.002087	2953.533901
957.302337	2928.655806
957.602550	2896.100035
957.902724	2871.025336
958.202861	2845.224710
958.502960	2824.523212
958.803022	2803.400777
959.103045	2783.120215
959.403031	2764.460384
959.702979	2755.250196
960.002889	2738.528689
960.302762	2727.211299
960.602596	2717.123950
960.902393	2708.584235
961.202153	2697.944880
961.501875	2689.899198
961.801559	2682.816377
962.101205	2678.430573
962.400814	2671.398164
962.700385	2663.269303
962.999918	2658.477687
963.299414	2655.011893
963.598873	2650.941162
963.898293	2641.741056
964.197677	2645.416057
964.497022	2640.919348
964.796331	2641.569657
965.095601	2638.981024
965.394835	2635.951291
965.694030	2633.798718
965.993189	2632.916516
966.292309	2630.728655
966.591393	2627.719086
966.890439	2631.890641
967.189447	2630.337966
967.488419	2629.859056
967.787353	2630.723614
968.086249	2631.812503
968.385108	2635.306023
968.683930	2638.368524
968.982714	2641.060500
969.281462	2644.410347
969.580172	2651.843528
969.878844	2656.312511
970.177480	2664.937925
970.476078	2669.890859
970.774639	2677.213135
971.073162	2686.375432
971.371649	2692.369364
971.670098	2697.629808
971.968510	2703.532999
972.266885	2707.031560
972.565223	2710.814946
972.863524	2712.765872
973.161788	2718.447253
973.460014	2720.738457
973.758204	2722.255844
974.056356	2725.240207
974.354471	2727.690208
974.652550	2724.952862
974.950591	2724.574775
975.248595	2723.652244
975.546563	2720.279712
975.844493	2715.689742
976.142386	2709.801674
976.440243	2707.323947
976.738062	2705.068030
977.035845	2697.859180
977.333590	2690.831812
977.631299	2684.679084
977.928971	2680.230265
978.226606	2671.609892
978.524204	2670.921775
978.821765	2666.409942
979.119290	2668.985972
979.416777	2668.512103
979.714228	2671.919923
980.011642	2674.208607
980.309020	2681.145235
980.606360	2698.587627
980.903664	2719.843652
981.200931	2754.022675
981.498162	2801.807773
981.795356	2876.578167
982.092513	2964.879017
982.389633	3070.352559
982.686717	3164.233967
982.983764	3240.856985
983.280775	3287.149900
983.577749	3294.268010
983.874686	3281.471041
984.171587	3246.314034
984.468451	3211.099053
984.765279	3166.252949
985.062070	3121.381638
985.358824	3076.669124
985.655543	3020.480424
985.952224	2968.503607
986.248869	2902.459450
986.545478	2847.894001
986.842050	2791.024745
987.138586	2744.686458
987.435086	2708.543906
987.731549	2679.239679
988.027975	2654.336379
988.324366	2635.056486
988.620719	2623.446708
988.917037	2607.105808
989.213318	2602.548605
989.509563	2592.872110
989.805772	2591.054774
990.101944	2588.080494
990.398080	2584.748291
990.694180	2578.845100
990.990244	2583.672005
991.286271	2584.839032
991.582262	2581.259813
991.878217	2586.840370
992.174136	2587.465473
992.470019	2590.714497
992.765865	2595.944694
993.061676	2598.036772
993.357450	2604.723863
993.653188	2612.537652
993.948890	2632.472894
994.244556	2650.610966
994.540186	2673.875891
994.835780	2706.265304
995.131337	2741.427352
995.426859	2781.265071
995.722345	2829.692915
996.017795	2879.824670
996.313208	2916.609969
996.608586	2944.104422
996.903928	2958.610343
997.199234	2954.932821
997.494504	2952.893674
997.789738	2937.561005
998.084936	2914.774989
998.380099	2884.233159
998.675225	2855.400279
998.970316	2822.161431
999.265371	2786.719599
999.560390	2754.526791
999.855373	2722.933880
1000.150320	2696.455219
1000.445232	2666.815755
1000.740108	2649.794299
1001.034948	2633.345014
1001.329752	2617.452777
1001.624521	2605.076744
1001.919254	2593.167018
1002.213951	2586.157293
1002.508613	2576.823597
1002.803239	2571.840417
1003.097829	2564.301371
1003.392384	2558.660320
1003.686903	2554.357695
1003.981386	2551.214536
1004.275834	2545.427291
1004.570246	2545.656663
1004.864623	2543.856972
1005.158964	2540.560057
1005.453270	2537.421939
1005.747540	2536.312885
1006.041775	2535.397915
1006.335974	2534.614016
1006.630138	2534.498069
1006.924266	2532.605116
1007.218359	2533.333563
1007.512416	2531.536392
1007.806438	2526.606143
1008.100425	2529.991278
1008.394376	2528.178983
1008.688292	2528.592358
1008.982172	2527.994981
1009.276017	2527.899199
1009.569827	2527.576565
1009.863602	2525.124044
1010.157341	2524.488858
1010.451045	2526.192768
1010.744714	2525.386184
1011.038347	2521.731347
1011.331945	2522.691687
1011.625508	2521.970802
1011.919036	2523.034486
1012.212528	2519.404855
1012.505986	2518.041223
1012.799408	2523.016842
1013.092795	2516.256654
1013.386147	2518.273116
1013.679464	2518.051305
1013.972745	2518.008455
1014.265992	2514.068793
1014.559204	2517.461490
1014.852380	2517.058198
1015.145521	2517.617766
1015.438628	2518.792355
1015.731699	2518.053826
1016.024736	2516.909484
1016.317737	2521.683456
1016.610703	2519.062056
1016.903635	2520.826460
1017.196531	2523.979702
1017.489393	2523.586492
1017.782219	2523.951976
1018.075011	2526.180166
1018.367768	2526.850639
1018.660490	2526.303674
1018.953177	2526.303674
1019.245829	2526.303674
