Dividing Wavelength (nm)	Counts (n)	Blue Motor Position (mm): 4.000000	Red Motor Position (mm): 0.000000	
326.493990	2150.052115
326.888308	2150.052115
327.282561	2150.052115
327.676750	2079.475962
328.070874	2029.064423
328.464933	2097.120000
328.858929	2061.831923
329.252859	2102.161154
329.646726	2081.996538
330.040528	2107.202308
330.434265	2182.819615
330.827938	2034.105577
331.221547	2215.587115
331.615091	2134.928654
332.008571	2142.490385
332.401986	2044.187885
332.795338	2245.834038
333.188625	2175.257885
333.581847	2250.875192
333.975006	2195.422500
334.368100	2326.492500
334.761129	2260.957500
335.154095	2291.204423
335.546996	2399.589231
335.939833	2311.369038
336.332606	2306.327885
336.725315	2414.712692
337.117960	2374.383462
337.510540	2399.589231
337.903056	2450.000769
338.295508	2402.109808
338.687896	2351.698269
339.080220	2427.315577
339.472480	2475.206538
339.864676	2379.424615
340.256807	2505.453462
340.648875	2434.877308
341.040879	2477.727115
341.432818	2407.150962
341.824694	2515.535769
342.216506	2402.109808
342.608253	2528.138654
342.999937	2487.809423
343.391557	2467.644808
343.783113	2452.521346
344.174605	2520.576923
344.566033	2518.056346
344.957397	2492.850577
345.348697	2533.179808
345.739934	2399.589231
346.131106	2530.659231
346.522215	2472.685962
346.913260	2510.494615
347.304241	2455.041923
347.695159	2409.671538
348.086012	2480.247692
348.476802	2455.041923
348.867528	2444.959615
349.258191	2437.397885
349.648789	2450.000769
350.039324	2424.795000
350.429796	2437.397885
350.820203	2513.015192
351.210548	2397.068654
351.600828	2455.041923
351.991045	2351.698269
352.381198	2422.274423
352.771288	2450.000769
353.161314	2447.480192
353.551276	2497.891731
353.941175	2455.041923
354.331010	2540.741538
354.720782	2414.712692
355.110490	2507.974038
355.500135	2346.657115
355.889717	2371.862885
356.279235	2424.795000
356.668689	2407.150962
357.058080	2477.727115
357.447408	2422.274423
357.836672	2419.753846
358.225873	2472.685962
358.615010	2346.657115
359.004084	2427.315577
359.393095	2394.548077
359.782043	2465.124231
360.170927	2505.453462
360.559748	2427.315577
360.948505	2482.768269
361.337199	2402.109808
361.725830	2472.685962
362.114398	2432.356731
362.502903	2452.521346
362.891344	2419.753846
363.279722	2465.124231
363.668037	2334.054231
364.056289	2490.330000
364.444478	2379.424615
364.832603	2434.877308
365.220665	2407.150962
365.608665	2392.027500
365.996601	2490.330000
366.384474	2429.836154
366.772284	2392.027500
367.160031	2563.426731
367.547715	2460.083077
367.935336	2409.671538
368.322893	2374.383462
368.710388	2465.124231
369.097820	2455.041923
369.485189	2570.988462
369.872495	2460.083077
370.259738	2513.015192
370.646918	2467.644808
371.034035	2427.315577
371.421090	2404.630385
371.808081	2329.013077
372.195010	2470.165385
372.581875	2477.727115
372.968678	2402.109808
373.355418	2558.385577
373.742096	2470.165385
374.128710	2515.535769
374.515262	2392.027500
374.901751	2460.083077
375.288177	2417.233269
375.674540	2505.453462
376.060841	2356.739423
376.447079	2505.453462
376.833254	2510.494615
377.219367	2533.179808
377.605417	2482.768269
377.991404	2371.862885
378.377329	2533.179808
378.763191	2550.823846
379.148991	2419.753846
379.534727	2439.918462
379.920402	2510.494615
380.306013	2439.918462
380.691563	2520.576923
381.077049	2525.618077
381.462474	2525.618077
381.847835	2409.671538
382.233134	2510.494615
382.618371	2399.589231
383.003545	2422.274423
383.388657	2518.056346
383.773706	2404.630385
384.158693	2540.741538
384.543618	2450.000769
384.928480	2495.371154
385.313280	2371.862885
385.698017	2523.097500
386.082692	2480.247692
386.467305	2465.124231
386.851856	2397.068654
387.236344	2485.288846
387.620770	2444.959615
388.005133	2485.288846
388.389435	2568.467885
388.773674	2417.233269
389.157851	2538.220962
389.541965	2462.603654
389.926018	2502.932885
390.310008	2417.233269
390.693936	2513.015192
391.077802	2513.015192
391.461606	2434.877308
391.845348	2480.247692
392.229027	2482.768269
392.612645	2434.877308
392.996200	2520.576923
393.379694	2427.315577
393.763125	2505.453462
394.146494	2515.535769
394.529801	2573.509038
394.913047	2439.918462
395.296230	2492.850577
395.679351	2462.603654
396.062410	2407.150962
396.445408	2525.618077
396.828343	2455.041923
397.211217	2475.206538
397.594028	2434.877308
397.976778	2412.192115
398.359466	2502.932885
398.742092	2366.821731
399.124656	2397.068654
399.507158	2407.150962
399.889598	2485.288846
400.271977	2434.877308
400.654294	2467.644808
401.036549	2477.727115
401.418742	2578.550192
401.800874	2462.603654
402.182944	2437.397885
402.564952	2513.015192
402.946898	2502.932885
403.328783	2513.015192
403.710606	2399.589231
404.092367	2497.891731
404.474067	2530.659231
404.855705	2470.165385
405.237282	2460.083077
405.618797	2495.371154
406.000250	2477.727115
406.381642	2560.906154
406.762972	2450.000769
407.144240	2465.124231
407.525447	2472.685962
407.906593	2563.426731
408.287677	2505.453462
408.668700	2434.877308
409.049661	2528.138654
409.430560	2455.041923
409.811399	2525.618077
410.192176	2533.179808
410.572891	2457.562500
410.953545	2472.685962
411.334138	2457.562500
411.714669	2422.274423
412.095139	2455.041923
412.475547	2412.192115
412.855894	2515.535769
413.236180	2447.480192
413.616405	2480.247692
413.996568	2523.097500
414.376670	2460.083077
414.756711	2457.562500
415.136691	2462.603654
415.516609	2485.288846
415.896466	2465.124231
416.276262	2444.959615
416.655997	2447.480192
417.035670	2591.153077
417.415283	2452.521346
417.794834	2528.138654
418.174324	2447.480192
418.553753	2553.344423
418.933121	2485.288846
419.312428	2480.247692
419.691674	2432.356731
420.070859	2472.685962
420.449983	2560.906154
420.829045	2392.027500
421.208047	2480.247692
421.586988	2505.453462
421.965867	2465.124231
422.344686	2460.083077
422.723444	2520.576923
423.102141	2540.741538
423.480777	2477.727115
423.859352	2402.109808
424.237866	2545.782692
424.616319	2460.083077
424.994712	2495.371154
425.373044	2593.673654
425.751314	2460.083077
426.129524	2457.562500
426.507673	2490.330000
426.885762	2558.385577
427.263789	2525.618077
427.641756	2460.083077
428.019662	2457.562500
428.397508	2480.247692
428.775292	2457.562500
429.153016	2487.809423
429.530679	2525.618077
429.908282	2543.262115
430.285824	2429.836154
430.663305	2487.809423
431.040726	2402.109808
431.418086	2533.179808
431.795385	2439.918462
432.172624	2515.535769
432.549802	2462.603654
432.926920	2520.576923
433.303977	2389.506923
433.680974	2389.506923
434.057910	2497.891731
434.434786	2475.206538
434.811601	2475.206538
435.188355	2510.494615
435.565050	2565.947308
435.941683	2518.056346
436.318257	2407.150962
436.694770	2452.521346
437.071222	2439.918462
437.447614	2467.644808
437.823946	2502.932885
438.200218	2573.509038
438.576429	2389.506923
438.952580	2485.288846
439.328670	2507.974038
439.704700	2424.795000
440.080670	2470.165385
440.456580	2581.070769
440.832429	2507.974038
441.208218	2507.974038
441.583947	2523.097500
441.959616	2535.700385
442.335224	2520.576923
442.710773	2472.685962
443.086261	2462.603654
443.461689	2530.659231
443.837057	2477.727115
444.212365	2505.453462
444.587612	2540.741538
444.962800	2490.330000
445.337927	2480.247692
445.712995	2487.809423
446.088002	2477.727115
446.462949	2455.041923
446.837837	2510.494615
447.212664	2500.412308
447.587431	2452.521346
447.962139	2523.097500
448.336786	2573.509038
448.711374	2439.918462
449.085901	2495.371154
449.460369	2490.330000
449.834776	2555.865000
450.209124	2465.124231
450.583412	2480.247692
450.957640	2447.480192
451.331808	2460.083077
451.705917	2578.550192
452.079965	2462.603654
452.453954	2510.494615
452.827883	2397.068654
453.201752	2429.836154
453.575562	2482.768269
453.949311	2540.741538
454.323001	2470.165385
454.696632	2442.439038
455.070202	2480.247692
455.443713	2550.823846
455.817164	2460.083077
456.190556	2475.206538
456.563888	2434.877308
456.937160	2424.795000
457.310373	2490.330000
457.683526	2525.618077
458.056619	2492.850577
458.429653	2477.727115
458.802628	2477.727115
459.175542	2444.959615
459.548398	2523.097500
459.921194	2510.494615
460.293930	2543.262115
460.666607	2497.891731
461.039224	2497.891731
461.411782	2455.041923
461.784280	2535.700385
462.156719	2510.494615
462.529099	2528.138654
462.901419	2507.974038
463.273680	2538.220962
463.645882	2457.562500
464.018024	2475.206538
464.390106	2533.179808
464.762130	2462.603654
465.134094	2523.097500
465.505999	2563.426731
465.877845	2528.138654
466.249631	2490.330000
466.621358	2450.000769
466.993026	2535.700385
467.364634	2500.412308
467.736184	2533.179808
468.107674	2470.165385
468.479105	2520.576923
468.850477	2381.945192
469.221790	2460.083077
469.593043	2520.576923
469.964238	2586.111923
470.335373	2500.412308
470.706449	2414.712692
471.077467	2424.795000
471.448425	2480.247692
471.819324	2407.150962
472.190164	2555.865000
472.560945	2432.356731
472.931667	2543.262115
473.302330	2480.247692
473.672934	2457.562500
474.043479	2452.521346
474.413965	2485.288846
474.784393	2455.041923
475.154761	2475.206538
475.525070	2467.644808
475.895321	2465.124231
476.265513	2502.932885
476.635645	2558.385577
477.005719	2507.974038
477.375734	2538.220962
477.745691	2477.727115
478.115588	2560.906154
478.485427	2467.644808
478.855207	2513.015192
479.224928	2507.974038
479.594591	2518.056346
479.964194	2485.288846
480.333739	2497.891731
480.703226	2515.535769
481.072653	2523.097500
481.442022	2442.439038
481.811333	2523.097500
482.180584	2407.150962
482.549777	2442.439038
482.918912	2515.535769
483.287988	2510.494615
483.657005	2465.124231
484.025964	2417.233269
484.394864	2470.165385
484.763706	2417.233269
485.132489	2545.782692
485.501213	2462.603654
485.869879	2507.974038
486.238487	2439.918462
486.607036	2507.974038
486.975527	2513.015192
487.343959	2450.000769
487.712333	2528.138654
488.080648	2500.412308
488.448905	2477.727115
488.817104	2515.535769
489.185244	2520.576923
489.553326	2492.850577
489.921350	2470.165385
490.289315	2452.521346
490.657222	2507.974038
491.025070	2439.918462
491.392861	2429.836154
491.760593	2470.165385
492.128267	2495.371154
492.495883	2447.480192
492.863440	2515.535769
493.230939	2565.947308
493.598380	2485.288846
493.965763	2487.809423
494.333088	2502.932885
494.700354	2563.426731
495.067563	2482.768269
495.434713	2497.891731
495.801805	2518.056346
496.168839	2485.288846
496.535815	2450.000769
496.902733	2424.795000
497.269593	2407.150962
497.636395	2502.932885
498.003139	2492.850577
498.369825	2545.782692
498.736453	2482.768269
499.103023	2487.809423
499.469535	2455.041923
499.835989	2510.494615
500.202385	2482.768269
500.568723	2560.906154
500.935003	2422.274423
501.301226	2467.644808
501.667390	2525.618077
502.033497	2505.453462
502.399546	2480.247692
502.765537	2460.083077
503.131470	2523.097500
503.497345	2452.521346
503.863163	2472.685962
504.228923	2510.494615
504.594625	2480.247692
504.960269	2545.782692
505.325856	2555.865000
505.691385	2475.206538
506.056856	2520.576923
506.422270	2525.618077
506.787625	2518.056346
507.152924	2482.768269
507.518164	2497.891731
507.883347	2545.782692
508.248472	2442.439038
508.613540	2513.015192
508.978550	2495.371154
509.343503	2533.179808
509.708398	2543.262115
510.073236	2470.165385
510.438016	2591.153077
510.802738	2482.768269
511.167403	2419.753846
511.532010	2525.618077
511.896561	2404.630385
512.261053	2545.782692
512.625488	2555.865000
512.989866	2520.576923
513.354186	2492.850577
513.718449	2472.685962
514.082655	2502.932885
514.446803	2487.809423
514.810894	2606.276538
515.174927	2495.371154
515.538904	2485.288846
515.902822	2525.618077
516.266684	2487.809423
516.630488	2492.850577
516.994235	2497.891731
517.357925	2487.809423
517.721558	2518.056346
518.085133	2492.850577
518.448651	2505.453462
518.812112	2548.303269
519.175516	2437.397885
519.538863	2422.274423
519.902152	2439.918462
520.265385	2492.850577
520.628560	2518.056346
520.991678	2573.509038
521.354739	2500.412308
521.717743	2490.330000
522.080690	2606.276538
522.443580	2422.274423
522.806413	2560.906154
523.169189	2480.247692
523.531908	2434.877308
523.894569	2507.974038
524.257174	2535.700385
524.619722	2450.000769
524.982213	2495.371154
525.344647	2578.550192
525.707025	2432.356731
526.069345	2482.768269
526.431608	2444.959615
526.793815	2548.303269
527.155964	2412.192115
527.518057	2500.412308
527.880093	2429.836154
528.242072	2543.262115
528.603995	2523.097500
528.965860	2545.782692
529.327669	2545.782692
529.689421	2510.494615
530.051117	2550.823846
530.412755	2525.618077
530.774337	2538.220962
531.135862	2482.768269
531.497331	2570.988462
531.858743	2500.412308
532.220098	2462.603654
532.581396	2472.685962
532.942638	2596.194231
533.303824	2636.523462
533.664953	2525.618077
534.026025	2480.247692
534.387040	2475.206538
534.747999	2533.179808
535.108902	2427.315577
535.469748	2533.179808
535.830537	2490.330000
536.191270	2548.303269
536.551947	2505.453462
536.912567	2492.850577
537.273131	2520.576923
537.633638	2465.124231
537.994089	2502.932885
538.354483	2497.891731
538.714821	2429.836154
539.075103	2475.206538
539.435328	2543.262115
539.795497	2480.247692
540.155609	2457.562500
540.515665	2475.206538
540.875665	2553.344423
541.235609	2520.576923
541.595496	2470.165385
541.955328	2452.521346
542.315102	2467.644808
542.674821	2419.753846
543.034483	2450.000769
543.394090	2460.083077
543.753640	2455.041923
544.113134	2558.385577
544.472571	2470.165385
544.831953	2505.453462
545.191278	2470.165385
545.550548	2417.233269
545.909761	2518.056346
546.268918	2470.165385
546.628019	2462.603654
546.987064	2429.836154
547.346053	2513.015192
547.704986	2628.961731
548.063863	2424.795000
548.422684	2480.247692
548.781449	2555.865000
549.140158	2500.412308
549.498811	2412.192115
549.857408	2457.562500
550.215949	2480.247692
550.574434	2487.809423
550.932864	2444.959615
551.291237	2520.576923
551.649555	2573.509038
552.007817	2500.412308
552.366022	2528.138654
552.724173	2568.467885
553.082267	2560.906154
553.440305	2480.247692
553.798288	2424.795000
554.156215	2528.138654
554.514086	2543.262115
554.871902	2490.330000
555.229661	2495.371154
555.587365	2533.179808
555.945014	2523.097500
556.302606	2485.288846
556.660143	2525.618077
557.017625	2523.097500
557.375050	2505.453462
557.732421	2475.206538
558.089735	2467.644808
558.446994	2533.179808
558.804197	2485.288846
559.161345	2497.891731
559.518437	2472.685962
559.875474	2422.274423
560.232455	2409.671538
560.589381	2502.932885
560.946251	2598.714808
561.303065	2520.576923
561.659825	2505.453462
562.016528	2530.659231
562.373177	2515.535769
562.729770	2502.932885
563.086307	2434.877308
563.442789	2518.056346
563.799216	2465.124231
564.155587	2507.974038
564.511904	2450.000769
564.868164	2417.233269
565.224370	2397.068654
565.580520	2477.727115
565.936615	2462.603654
566.292654	2560.906154
566.648638	2528.138654
567.004567	2518.056346
567.360441	2497.891731
567.716260	2530.659231
568.072023	2460.083077
568.427732	2477.727115
568.783385	2492.850577
569.138982	2507.974038
569.494525	2500.412308
569.850013	2530.659231
570.205445	2462.603654
570.560823	2460.083077
570.916145	2472.685962
571.271412	2646.605769
571.626625	2520.576923
571.981782	2485.288846
572.336884	2520.576923
572.691931	2414.712692
573.046923	2538.220962
573.401860	2560.906154
573.756743	2553.344423
574.111570	2460.083077
574.466342	2518.056346
574.821059	2412.192115
575.175722	2530.659231
575.530330	2460.083077
575.884882	2560.906154
576.239380	2457.562500
576.593823	2455.041923
576.948211	2450.000769
577.302544	2530.659231
577.656823	2505.453462
578.011047	2452.521346
578.365216	2437.397885
578.719330	2485.288846
579.073389	2470.165385
579.427394	2588.632500
579.781344	2500.412308
580.135239	2482.768269
580.489080	2543.262115
580.842866	2606.276538
581.196597	2427.315577
581.550273	2429.836154
581.903895	2581.070769
582.257463	2530.659231
582.610975	2558.385577
582.964434	2528.138654
583.317837	2520.576923
583.671186	2404.630385
584.024481	2490.330000
584.377721	2502.932885
584.730906	2518.056346
585.084037	2550.823846
585.437113	2477.727115
585.790135	2525.618077
586.143103	2419.753846
586.496016	2477.727115
586.848874	2535.700385
587.201679	2538.220962
587.554428	2472.685962
587.907124	2485.288846
588.259765	2462.603654
588.612352	2533.179808
588.964884	2492.850577
589.317362	2535.700385
589.669786	2593.673654
590.022155	2520.576923
590.374470	2550.823846
590.726731	2419.753846
591.078937	2487.809423
591.431090	2525.618077
591.783188	2480.247692
592.135232	2545.782692
592.487222	2565.947308
592.839157	2497.891731
593.191038	2513.015192
593.542866	2444.959615
593.894639	2497.891731
594.246358	2518.056346
594.598022	2427.315577
594.949633	2530.659231
595.301190	2432.356731
595.652692	2518.056346
596.004141	2513.015192
596.355535	2598.714808
596.706876	2480.247692
597.058162	2439.918462
597.409395	2447.480192
597.760573	2475.206538
598.111698	2523.097500
598.462768	2535.700385
598.813785	2520.576923
599.164748	2533.179808
599.515657	2477.727115
599.866511	2576.029615
600.217312	2427.315577
600.568060	2581.070769
600.918753	2460.083077
601.269392	2427.315577
601.619978	2528.138654
601.970510	2392.027500
602.320988	2555.865000
602.671412	2550.823846
603.021783	2553.344423
603.372100	2407.150962
603.722363	2495.371154
604.072572	2472.685962
604.422728	2540.741538
604.772830	2555.865000
605.122878	2447.480192
605.472872	2513.015192
605.822813	2505.453462
606.172701	2545.782692
606.522534	2533.179808
606.872314	2497.891731
607.222041	2535.700385
607.571714	2543.262115
607.921333	2462.603654
608.270899	2399.589231
608.620411	2462.603654
608.969870	2487.809423
609.319276	2570.988462
609.668627	2414.712692
610.017926	2535.700385
610.367171	2520.576923
610.716362	2447.480192
611.065500	2495.371154
611.414585	2513.015192
611.763616	2528.138654
612.112594	2399.589231
612.461518	2457.562500
612.810389	2492.850577
613.159207	2465.124231
613.507971	2407.150962
613.856682	2555.865000
614.205340	2538.220962
614.553945	2424.795000
614.902496	2528.138654
615.250994	2598.714808
615.599439	2502.932885
615.947830	2553.344423
616.296169	2457.562500
616.644454	2492.850577
616.992686	2397.068654
617.340864	2500.412308
617.688990	2475.206538
618.037063	2477.727115
618.385082	2424.795000
618.733048	2518.056346
619.080961	2465.124231
619.428821	2477.727115
619.776628	2563.426731
620.124382	2442.439038
620.472083	2533.179808
620.819731	2442.439038
621.167326	2578.550192
621.514868	2540.741538
621.862357	2444.959615
622.209793	2535.700385
622.557176	2485.288846
622.904506	2507.974038
623.251783	2419.753846
623.599007	2533.179808
623.946179	2507.974038
624.293297	2477.727115
624.640363	2452.521346
624.987376	2470.165385
625.334336	2480.247692
625.681243	2507.974038
626.028097	2573.509038
626.374899	2525.618077
626.721647	2495.371154
627.068343	2485.288846
627.414987	2472.685962
627.761577	2540.741538
628.108115	2543.262115
628.454600	2548.303269
628.801032	2462.603654
629.147412	2586.111923
629.493739	2450.000769
629.840014	2535.700385
630.186236	2442.439038
630.532405	2606.276538
630.878521	2513.015192
631.224585	2550.823846
631.570597	2548.303269
631.916556	2429.836154
632.262462	2487.809423
632.608316	2490.330000
632.954117	2570.988462
633.299866	2472.685962
633.645562	2515.535769
633.991206	2452.521346
634.336797	2444.959615
634.682336	2480.247692
635.027823	2460.083077
635.373257	2502.932885
635.718639	2439.918462
636.063968	2513.015192
636.409245	2394.548077
636.754470	2540.741538
637.099642	2460.083077
637.444762	2460.083077
637.789829	2510.494615
638.134845	2492.850577
638.479808	2450.000769
638.824719	2475.206538
639.169577	2505.453462
639.514383	2424.795000
639.859137	2540.741538
640.203839	2429.836154
640.548489	2477.727115
640.893086	2472.685962
641.237632	2543.262115
641.582125	2455.041923
641.926566	2460.083077
642.270955	2553.344423
642.615292	2545.782692
642.959576	2520.576923
643.303809	2528.138654
643.647990	2495.371154
643.992118	2470.165385
644.336195	2497.891731
644.680219	2535.700385
645.024192	2553.344423
645.368112	2427.315577
645.711981	2525.618077
646.055797	2528.138654
646.399562	2543.262115
646.743274	2530.659231
647.086935	2442.439038
647.430544	2523.097500
647.774101	2553.344423
648.117606	2485.288846
648.461059	2485.288846
648.804460	2555.865000
649.147810	2555.865000
649.491108	2414.712692
649.834354	2507.974038
650.177548	2507.974038
650.520690	2548.303269
650.863781	2482.768269
651.206820	2497.891731
651.549807	2538.220962
651.892742	2437.397885
652.235626	2568.467885
652.578458	2545.782692
652.921238	2437.397885
653.263967	2497.891731
653.606644	2533.179808
653.949269	2523.097500
654.291843	2452.521346
654.634365	2432.356731
654.976836	2497.891731
655.319255	2495.371154
655.661622	2550.823846
656.003938	2490.330000
656.346203	2560.906154
656.688416	2467.644808
657.030577	2437.397885
657.372687	2444.959615
657.714746	2606.276538
658.056753	2424.795000
658.398708	2492.850577
658.740612	2386.986346
659.082465	2507.974038
659.424266	2563.426731
659.766016	2457.562500
660.107715	2475.206538
660.449362	2518.056346
660.790958	2568.467885
661.132503	2470.165385
661.473996	2452.521346
661.815438	2533.179808
662.156829	2528.138654
662.498168	2462.603654
662.839456	2510.494615
663.180693	2515.535769
663.521879	2520.576923
663.863013	2392.027500
664.204097	2490.330000
664.545129	2490.330000
664.886110	2462.603654
665.227040	2475.206538
665.567918	2505.453462
665.908746	2490.330000
666.249522	2525.618077
666.590248	2444.959615
666.930922	2487.809423
667.271545	2578.550192
667.612118	2545.782692
667.952639	2502.932885
668.293109	2447.480192
668.633528	2502.932885
668.973896	2482.768269
669.314213	2492.850577
669.654480	2429.836154
669.994695	2497.891731
670.334859	2465.124231
670.674973	2495.371154
671.015035	2555.865000
671.355047	2555.865000
671.695008	2523.097500
672.034918	2558.385577
672.374777	2538.220962
672.714585	2462.603654
673.054342	2472.685962
673.394049	2535.700385
673.733705	2578.550192
674.073310	2518.056346
674.412864	2530.659231
674.752368	2444.959615
675.091820	2507.974038
675.431223	2482.768269
675.770574	2548.303269
676.109875	2520.576923
676.449125	2568.467885
676.788324	2523.097500
677.127473	2404.630385
677.466571	2563.426731
677.805619	2500.412308
678.144616	2482.768269
678.483562	2495.371154
678.822458	2397.068654
679.161303	2480.247692
679.500098	2465.124231
679.838842	2424.795000
680.177535	2507.974038
680.516179	2392.027500
680.854771	2535.700385
681.193314	2533.179808
681.531805	2442.439038
681.870247	2523.097500
682.208638	2505.453462
682.546978	2528.138654
682.885268	2505.453462
683.223508	2616.358846
683.561697	2480.247692
683.899836	2523.097500
684.237925	2593.673654
684.575963	2502.932885
684.913951	2523.097500
685.251889	2525.618077
685.589776	2460.083077
685.927614	2450.000769
686.265401	2520.576923
686.603137	2495.371154
686.940824	2477.727115
687.278460	2535.700385
687.616046	2460.083077
687.953582	2550.823846
688.291068	2507.974038
688.628504	2553.344423
688.965889	2518.056346
689.303224	2621.400000
689.640510	2450.000769
689.977745	2543.262115
690.314930	2500.412308
690.652065	2538.220962
690.989150	2540.741538
691.326185	2450.000769
691.663170	2570.988462
692.000105	2565.947308
692.336990	2477.727115
692.673825	2560.906154
693.010610	2495.371154
693.347345	2465.124231
693.684030	2422.274423
694.020665	2462.603654
694.357251	2439.918462
694.693786	2573.509038
695.030272	2482.768269
695.366707	2490.330000
695.703093	2525.618077
696.039429	2495.371154
696.375716	2540.741538
696.711952	2480.247692
697.048139	2535.700385
697.384276	2492.850577
697.720363	2497.891731
698.056400	2379.424615
698.392388	2545.782692
698.728326	2507.974038
699.064214	2540.741538
699.400053	2442.439038
699.735842	2581.070769
700.071581	2497.891731
700.407270	2507.974038
700.742910	2465.124231
701.078501	2596.194231
701.414042	2550.823846
701.749533	2442.439038
702.084974	2528.138654
702.420366	2507.974038
702.755709	2518.056346
703.091002	2530.659231
703.426246	2460.083077
703.761440	2497.891731
704.096584	2472.685962
704.431679	2497.891731
704.766725	2535.700385
705.101721	2480.247692
705.436668	2513.015192
705.771565	2460.083077
706.106413	2538.220962
706.441212	2548.303269
706.775961	2581.070769
707.110661	2470.165385
707.445311	2540.741538
707.779913	2523.097500
708.114465	2502.932885
708.448967	2525.618077
708.783421	2510.494615
709.117825	2550.823846
709.452180	2475.206538
709.786485	2570.988462
710.120742	2492.850577
710.454949	2480.247692
710.789107	2470.165385
711.123216	2568.467885
711.457275	2465.124231
711.791286	2460.083077
712.125247	2515.535769
712.459159	2485.288846
712.793023	2452.521346
713.126837	2533.179808
713.460602	2510.494615
713.794318	2553.344423
714.127985	2457.562500
714.461602	2510.494615
714.795171	2500.412308
715.128691	2555.865000
715.462162	2565.947308
715.795584	2513.015192
716.128957	2555.865000
716.462281	2545.782692
716.795556	2528.138654
717.128782	2497.891731
717.461960	2495.371154
717.795088	2492.850577
718.128167	2477.727115
718.461198	2472.685962
718.794180	2502.932885
719.127113	2477.727115
719.459997	2465.124231
719.792833	2487.809423
720.125619	2444.959615
720.458357	2520.576923
720.791046	2553.344423
721.123686	2467.644808
721.456278	2482.768269
721.788821	2467.644808
722.121315	2444.959615
722.453761	2434.877308
722.786158	2462.603654
723.118506	2465.124231
723.450805	2518.056346
723.783056	2477.727115
724.115259	2563.426731
724.447412	2354.218846
724.779518	2518.056346
725.111574	2502.932885
725.443582	2477.727115
725.775542	2450.000769
726.107453	2578.550192
726.439315	2447.480192
726.771129	2500.412308
727.102895	2573.509038
727.434612	2606.276538
727.766281	2492.850577
728.097901	2402.109808
728.429473	2535.700385
728.760996	2515.535769
729.092471	2392.027500
729.423897	2555.865000
729.755276	2450.000769
730.086606	2472.685962
730.417887	2447.480192
730.749120	2545.782692
731.080305	2563.426731
731.411442	2500.412308
731.742530	2424.795000
732.073570	2528.138654
732.404562	2518.056346
732.735506	2495.371154
733.066401	2500.412308
733.397249	2543.262115
733.728048	2548.303269
734.058798	2538.220962
734.389501	2553.344423
734.720156	2444.959615
735.050762	2525.618077
735.381320	2507.974038
735.711831	2548.303269
736.042293	2439.918462
736.372707	2497.891731
736.703073	2457.562500
737.033391	2533.179808
737.363661	2477.727115
737.693883	2485.288846
738.024056	2502.932885
738.354182	2407.150962
738.684260	2570.988462
739.014290	2467.644808
739.344272	2462.603654
739.674207	2439.918462
740.004093	2467.644808
740.333931	2450.000769
740.663722	2492.850577
740.993464	2576.029615
741.323159	2540.741538
741.652806	2407.150962
741.982405	2475.206538
742.311956	2485.288846
742.641460	2482.768269
742.970915	2475.206538
743.300323	2422.274423
743.629683	2467.644808
743.958996	2507.974038
744.288260	2475.206538
744.617477	2548.303269
744.946647	2475.206538
745.275768	2568.467885
745.604842	2538.220962
745.933869	2482.768269
746.262847	2422.274423
746.591778	2533.179808
746.920662	2467.644808
747.249498	2497.891731
747.578286	2515.535769
747.907027	2424.795000
748.235720	2576.029615
748.564365	2457.562500
748.892963	2533.179808
749.221514	2427.315577
749.550017	2523.097500
749.878473	2482.768269
750.206881	2558.385577
750.535242	2500.412308
750.863555	2553.344423
751.191821	2515.535769
751.520039	2581.070769
751.848210	2437.397885
752.176334	2535.700385
752.504411	2515.535769
752.832440	2477.727115
753.160421	2540.741538
753.488356	2482.768269
753.816243	2553.344423
754.144082	2543.262115
754.471875	2523.097500
754.799620	2460.083077
755.127318	2485.288846
755.454969	2525.618077
755.782572	2475.206538
756.110129	2550.823846
756.437638	2545.782692
756.765100	2553.344423
757.092515	2538.220962
757.419882	2427.315577
757.747203	2424.795000
758.074477	2518.056346
758.401703	2565.947308
758.728882	2467.644808
759.056014	2472.685962
759.383099	2477.727115
759.710138	2523.097500
760.037129	2477.727115
760.364073	2452.521346
760.690970	2460.083077
761.017820	2502.932885
761.344623	2404.630385
761.671379	2598.714808
761.998088	2495.371154
762.324751	2540.741538
762.651366	2490.330000
762.977935	2442.439038
763.304456	2472.685962
763.630931	2437.397885
763.957359	2490.330000
764.283740	2500.412308
764.610074	2495.371154
764.936362	2470.165385
765.262602	2507.974038
765.588796	2555.865000
765.914943	2444.959615
766.241044	2432.356731
766.567097	2495.371154
766.893104	2502.932885
767.219064	2452.521346
767.544978	2513.015192
767.870845	2475.206538
768.196665	2523.097500
768.522438	2530.659231
768.848165	2470.165385
769.173846	2490.330000
769.499479	2553.344423
769.825066	2510.494615
770.150607	2470.165385
770.476101	2465.124231
770.801548	2520.576923
771.126949	2465.124231
771.452303	2444.959615
771.777611	2545.782692
772.102872	2548.303269
772.428087	2470.165385
772.753256	2507.974038
773.078378	2492.850577
773.403453	2472.685962
773.728482	2497.891731
774.053465	2490.330000
774.378401	2457.562500
774.703291	2510.494615
775.028135	2439.918462
775.352932	2427.315577
775.677683	2535.700385
776.002388	2583.591346
776.327046	2455.041923
776.651658	2525.618077
776.976224	2558.385577
777.300743	2457.562500
777.625216	2480.247692
777.949643	2417.233269
778.274024	2492.850577
778.598359	2518.056346
778.922647	2553.344423
779.246889	2495.371154
779.571086	2492.850577
779.895236	2455.041923
780.219339	2533.179808
780.543397	2555.865000
780.867409	2386.986346
781.191374	2586.111923
781.515294	2533.179808
781.839167	2520.576923
782.162995	2528.138654
782.486776	2507.974038
782.810511	2432.356731
783.134201	2555.865000
783.457844	2485.288846
783.781441	2528.138654
784.104993	2402.109808
784.428498	2586.111923
784.751958	2502.932885
785.075372	2507.974038
785.398739	2452.521346
785.722061	2439.918462
786.045337	2523.097500
786.368568	2510.494615
786.691752	2442.439038
787.014891	2470.165385
787.337983	2480.247692
787.661030	2510.494615
787.984031	2374.383462
788.306987	2520.576923
788.629897	2480.247692
788.952760	2510.494615
789.275579	2434.877308
789.598351	2492.850577
789.921078	2505.453462
790.243759	2535.700385
790.566395	2465.124231
790.888984	2513.015192
791.211529	2570.988462
791.534027	2558.385577
791.856480	2452.521346
792.178888	2553.344423
792.501249	2500.412308
792.823566	2444.959615
793.145836	2432.356731
793.468062	2515.535769
793.790241	2576.029615
794.112375	2434.877308
794.434464	2477.727115
794.756507	2444.959615
795.078505	2462.603654
795.400457	2467.644808
795.722364	2447.480192
796.044226	2492.850577
796.366042	2392.027500
796.687812	2485.288846
797.009538	2482.768269
797.331218	2477.727115
797.652852	2450.000769
797.974442	2470.165385
798.295986	2492.850577
798.617484	2485.288846
798.938938	2457.562500
799.260346	2505.453462
799.581709	2439.918462
799.903026	2510.494615
800.224299	2487.809423
800.545526	2502.932885
800.866708	2518.056346
801.187845	2490.330000
801.508936	2525.618077
801.829983	2447.480192
802.150984	2460.083077
802.471940	2477.727115
802.792851	2545.782692
803.113717	2467.644808
803.434538	2543.262115
803.755314	2374.383462
804.076045	2487.809423
804.396731	2563.426731
804.717372	2472.685962
805.037967	2515.535769
805.358518	2432.356731
805.679024	2442.439038
805.999485	2520.576923
806.319901	2591.153077
806.640272	2412.192115
806.960598	2510.494615
807.280879	2455.041923
807.601115	2455.041923
807.921306	2429.836154
808.241453	2601.235385
808.561554	2500.412308
808.881611	2528.138654
809.201623	2477.727115
809.521590	2535.700385
809.841513	2455.041923
810.161390	2480.247692
810.481223	2452.521346
810.801011	2518.056346
811.120755	2477.727115
811.440453	2528.138654
811.760107	2450.000769
812.079716	2545.782692
812.399281	2518.056346
812.718801	2568.467885
813.038276	2452.521346
813.357707	2475.206538
813.677093	2518.056346
813.996434	2457.562500
814.315731	2442.439038
814.634983	2510.494615
814.954191	2447.480192
815.273354	2533.179808
815.592473	2513.015192
815.911547	2550.823846
816.230577	2480.247692
816.549562	2513.015192
816.868502	2525.618077
817.187399	2520.576923
817.506250	2520.576923
817.825058	2485.288846
818.143821	2439.918462
818.462539	2482.768269
818.781213	2470.165385
819.099843	2404.630385
819.418429	2467.644808
819.736970	2550.823846
820.055466	2550.823846
820.373919	2414.712692
820.692327	2507.974038
821.010691	2482.768269
821.329011	2530.659231
821.647286	2530.659231
821.965517	2507.974038
822.283704	2457.562500
822.601847	2495.371154
822.919945	2500.412308
823.237999	2444.959615
823.556010	2497.891731
823.873976	2502.932885
824.191897	2588.632500
824.509775	2495.371154
824.827609	2497.891731
825.145398	2548.303269
825.463144	2465.124231
825.780845	2492.850577
826.098502	2432.356731
826.416116	2543.262115
826.733685	2497.891731
827.051210	2482.768269
827.368692	2475.206538
827.686129	2601.235385
828.003522	2495.371154
828.320872	2472.685962
828.638177	2450.000769
828.955439	2492.850577
829.272656	2601.235385
829.589830	2452.521346
829.906960	2419.753846
830.224046	2475.206538
830.541088	2525.618077
830.858086	2475.206538
831.175041	2455.041923
831.491952	2515.535769
831.808819	2533.179808
832.125642	2477.727115
832.442421	2518.056346
832.759157	2482.768269
833.075849	2513.015192
833.392497	2429.836154
833.709101	2533.179808
834.025662	2457.562500
834.342179	2520.576923
834.658653	2480.247692
834.975083	2480.247692
835.291469	2560.906154
835.607811	2528.138654
835.924110	2510.494615
836.240366	2465.124231
836.556578	2505.453462
836.872746	2475.206538
837.188871	2462.603654
837.504952	2540.741538
837.820990	2573.509038
838.136984	2578.550192
838.452935	2528.138654
838.768842	2490.330000
839.084706	2525.618077
839.400526	2465.124231
839.716303	2538.220962
840.032037	2482.768269
840.347727	2500.412308
840.663373	2528.138654
840.978977	2533.179808
841.294537	2538.220962
841.610054	2555.865000
841.925527	2409.671538
842.240957	2538.220962
842.556344	2480.247692
842.871687	2457.562500
843.186987	2472.685962
843.502244	2515.535769
843.817458	2523.097500
844.132629	2419.753846
844.447756	2472.685962
844.762840	2530.659231
845.077881	2462.603654
845.392879	2500.412308
845.707833	2565.947308
846.022745	2444.959615
846.337613	2475.206538
846.652438	2540.741538
846.967221	2570.988462
847.281960	2482.768269
847.596656	2558.385577
847.911309	2568.467885
848.225919	2450.000769
848.540485	2475.206538
848.855009	2505.453462
849.169490	2467.644808
849.483928	2492.850577
849.798323	2570.988462
850.112675	2472.685962
850.426984	2523.097500
850.741251	2502.932885
851.055474	2535.700385
851.369654	2480.247692
851.683792	2475.206538
851.997887	2586.111923
852.311938	2465.124231
852.625947	2462.603654
852.939914	2460.083077
853.253837	2513.015192
853.567718	2462.603654
853.881555	2452.521346
854.195350	2530.659231
854.509103	2570.988462
854.822812	2419.753846
855.136479	2515.535769
855.450103	2444.959615
855.763685	2525.618077
856.077224	2530.659231
856.390720	2570.988462
856.704173	2553.344423
857.017584	2533.179808
857.330953	2487.809423
857.644278	2465.124231
857.957561	2560.906154
858.270802	2505.453462
858.584000	2460.083077
858.897155	2507.974038
859.210268	2452.521346
859.523339	2419.753846
859.836367	2513.015192
860.149352	2500.412308
860.462295	2558.385577
860.775195	2525.618077
861.088054	2545.782692
861.400869	2576.029615
861.713642	2404.630385
862.026373	2492.850577
862.339062	2513.015192
862.651708	2462.603654
862.964312	2482.768269
863.276873	2502.932885
863.589392	2450.000769
863.901869	2475.206538
864.214303	2540.741538
864.526696	2550.823846
864.839045	2465.124231
865.151353	2515.535769
865.463619	2452.521346
865.775842	2510.494615
866.088023	2480.247692
866.400162	2538.220962
866.712258	2533.179808
867.024313	2465.124231
867.336325	2460.083077
867.648296	2581.070769
867.960224	2502.932885
868.272110	2535.700385
868.583954	2427.315577
868.895755	2510.494615
869.207515	2460.083077
869.519233	2490.330000
869.830909	2487.809423
870.142542	2578.550192
870.454134	2535.700385
870.765684	2450.000769
871.077191	2515.535769
871.388657	2507.974038
871.700081	2507.974038
872.011463	2432.356731
872.322803	2455.041923
872.634101	2492.850577
872.945357	2422.274423
873.256571	2472.685962
873.567744	2505.453462
873.878874	2513.015192
874.189963	2500.412308
874.501010	2444.959615
874.812015	2480.247692
875.122979	2502.932885
875.433900	2530.659231
875.744780	2485.288846
876.055618	2502.932885
876.366415	2439.918462
876.677169	2470.165385
876.987882	2560.906154
877.298554	2492.850577
877.609183	2460.083077
877.919771	2455.041923
878.230317	2525.618077
878.540822	2460.083077
878.851285	2530.659231
879.161707	2455.041923
879.472087	2523.097500
879.782425	2447.480192
880.092722	2470.165385
880.402977	2450.000769
880.713191	2497.891731
881.023363	2485.288846
881.333494	2497.891731
881.643583	2485.288846
881.953631	2455.041923
882.263637	2472.685962
882.573602	2452.521346
882.883526	2528.138654
883.193408	2467.644808
883.503248	2603.755962
883.813048	2455.041923
884.122806	2565.947308
884.432522	2457.562500
884.742197	2533.179808
885.051831	2591.153077
885.361424	2497.891731
885.670975	2472.685962
885.980485	2518.056346
886.289954	2465.124231
886.599382	2500.412308
886.908768	2472.685962
887.218113	2535.700385
887.527417	2407.150962
887.836680	2523.097500
888.145901	2500.412308
888.455082	2525.618077
888.764221	2457.562500
889.073319	2513.015192
889.382376	2540.741538
889.691392	2424.795000
890.000366	2472.685962
890.309300	2568.467885
890.618193	2475.206538
890.927044	2565.947308
891.235855	2502.932885
891.544625	2369.342308
891.853353	2543.262115
892.162041	2497.891731
892.470687	2407.150962
892.779293	2490.330000
893.087858	2495.371154
893.396381	2535.700385
893.704864	2452.521346
894.013306	2528.138654
894.321707	2409.671538
894.630068	2518.056346
894.938387	2492.850577
895.246665	2485.288846
895.554903	2482.768269
895.863100	2495.371154
896.171256	2412.192115
896.479371	2475.206538
896.787446	2427.315577
897.095480	2510.494615
897.403473	2477.727115
897.711425	2399.589231
898.019336	2482.768269
898.327207	2553.344423
898.635038	2490.330000
898.942827	2513.015192
899.250576	2490.330000
899.558284	2434.877308
899.865952	2495.371154
900.173579	2565.947308
900.481165	2495.371154
900.788711	2505.453462
901.096216	2432.356731
901.403681	2513.015192
901.711105	2452.521346
902.018489	2543.262115
902.325832	2502.932885
902.633135	2550.823846
902.940397	2450.000769
903.247619	2550.823846
903.554800	2414.712692
903.861941	2515.535769
904.169041	2525.618077
904.476101	2560.906154
904.783121	2444.959615
905.090100	2371.862885
905.397039	2477.727115
905.703938	2518.056346
906.010796	2545.782692
906.317614	2502.932885
906.624391	2460.083077
906.931129	2432.356731
907.237826	2528.138654
907.544483	2457.562500
907.851099	2520.576923
908.157675	2570.988462
908.464211	2520.576923
908.770707	2548.303269
909.077163	2518.056346
909.383578	2525.618077
909.689954	2626.441154
909.996289	2505.453462
910.302584	2543.262115
910.608839	2573.509038
910.915054	2573.509038
911.221229	2502.932885
911.527363	2477.727115
911.833458	2480.247692
912.139513	2510.494615
912.445527	2535.700385
912.751502	2470.165385
913.057436	2462.603654
913.363331	2450.000769
913.669186	2560.906154
913.975000	2472.685962
914.280775	2450.000769
914.586510	2475.206538
914.892205	2399.589231
915.197859	2439.918462
915.503475	2540.741538
915.809050	2419.753846
916.114585	2462.603654
916.420081	2525.618077
916.725536	2545.782692
917.030952	2530.659231
917.336328	2439.918462
917.641665	2429.836154
917.946961	2447.480192
918.252218	2452.521346
918.557435	2596.194231
918.862612	2414.712692
919.167750	2455.041923
919.472848	2376.904038
919.777906	2424.795000
920.082925	2533.179808
920.387904	2507.974038
920.692843	2447.480192
920.997743	2467.644808
921.302603	2492.850577
921.607423	2444.959615
921.912204	2568.467885
922.216946	2412.192115
922.521647	2467.644808
922.826310	2525.618077
923.130932	2513.015192
923.435516	2553.344423
923.740059	2424.795000
924.044564	2472.685962
924.349028	2502.932885
924.653454	2500.412308
924.957840	2576.029615
925.262186	2482.768269
925.566493	2525.618077
925.870761	2490.330000
926.174989	2495.371154
926.479178	2447.480192
926.783328	2500.412308
927.087438	2558.385577
927.391509	2515.535769
927.695541	2523.097500
927.999533	2442.439038
928.303486	2424.795000
928.607400	2487.809423
928.911275	2487.809423
929.215110	2545.782692
929.518906	2545.782692
929.822663	2457.562500
930.126381	2553.344423
930.430060	2528.138654
930.733699	2467.644808
931.037299	2457.562500
931.340861	2533.179808
931.644383	2510.494615
931.947866	2427.315577
932.251309	2432.356731
932.554714	2543.262115
932.858080	2480.247692
933.161407	2384.465769
933.464694	2518.056346
933.767943	2475.206538
934.071153	2424.795000
934.374323	2505.453462
934.677455	2533.179808
934.980548	2538.220962
935.283602	2452.521346
935.586617	2492.850577
935.889593	2518.056346
936.192530	2545.782692
936.495428	2467.644808
936.798287	2510.494615
937.101108	2475.206538
937.403890	2528.138654
937.706632	2432.356731
938.009336	2513.015192
938.312002	2500.412308
938.614628	2548.303269
938.917216	2528.138654
939.219765	2485.288846
939.522275	2530.659231
939.824747	2460.083077
940.127179	2472.685962
940.429573	2482.768269
940.731929	2447.480192
941.034246	2475.206538
941.336524	2460.083077
941.638763	2424.795000
941.940964	2510.494615
942.243126	2548.303269
942.545250	2487.809423
942.847335	2510.494615
943.149381	2482.768269
943.451389	2500.412308
943.753359	2427.315577
944.055290	2457.562500
944.357182	2465.124231
944.659036	2550.823846
944.960851	2490.330000
945.262628	2543.262115
945.564367	2462.603654
945.866067	2553.344423
946.167729	2480.247692
946.469352	2500.412308
946.770937	2520.576923
947.072484	2475.206538
947.373992	2460.083077
947.675462	2480.247692
947.976893	2475.206538
948.278286	2465.124231
948.579641	2492.850577
948.880958	2500.412308
949.182236	2475.206538
949.483476	2578.550192
949.784678	2502.932885
950.085841	2520.576923
950.386967	2389.506923
950.688054	2462.603654
950.989103	2482.768269
951.290114	2470.165385
951.591087	2480.247692
951.892021	2500.412308
952.192917	2505.453462
952.493776	2505.453462
952.794596	2515.535769
953.095378	2555.865000
953.396122	2475.206538
953.696828	2543.262115
953.997496	2507.974038
954.298126	2457.562500
954.598718	2427.315577
954.899272	2361.780577
955.199788	2465.124231
955.500266	2442.439038
955.800706	2497.891731
956.101108	2482.768269
956.401472	2505.453462
956.701798	2381.945192
957.002087	2490.330000
957.302337	2477.727115
957.602550	2444.959615
957.902724	2467.644808
958.202861	2465.124231
958.502960	2475.206538
958.803022	2472.685962
959.103045	2502.932885
959.403031	2492.850577
959.702979	2477.727115
960.002889	2497.891731
960.302762	2480.247692
960.602596	2495.371154
960.902393	2455.041923
961.202153	2543.262115
961.501875	2513.015192
961.801559	2515.535769
962.101205	2513.015192
962.400814	2492.850577
962.700385	2490.330000
962.999918	2450.000769
963.299414	2492.850577
963.598873	2485.288846
963.898293	2515.535769
964.197677	2490.330000
964.497022	2510.494615
964.796331	2495.371154
965.095601	2487.809423
965.394835	2452.521346
965.694030	2510.494615
965.993189	2500.412308
966.292309	2513.015192
966.591393	2523.097500
966.890439	2495.371154
967.189447	2475.206538
967.488419	2455.041923
967.787353	2515.535769
968.086249	2500.412308
968.385108	2497.891731
968.683930	2528.138654
968.982714	2417.233269
969.281462	2513.015192
969.580172	2414.712692
969.878844	2538.220962
970.177480	2513.015192
970.476078	2462.603654
970.774639	2485.288846
971.073162	2543.262115
971.371649	2407.150962
971.670098	2510.494615
971.968510	2434.877308
972.266885	2482.768269
972.565223	2530.659231
972.863524	2538.220962
973.161788	2475.206538
973.460014	2492.850577
973.758204	2409.671538
974.056356	2540.741538
974.354471	2487.809423
974.652550	2482.768269
974.950591	2394.548077
975.248595	2374.383462
975.546563	2530.659231
975.844493	2492.850577
976.142386	2505.453462
976.440243	2467.644808
976.738062	2467.644808
977.035845	2450.000769
977.333590	2515.535769
977.631299	2497.891731
977.928971	2452.521346
978.226606	2432.356731
978.524204	2490.330000
978.821765	2412.192115
979.119290	2528.138654
979.416777	2495.371154
979.714228	2530.659231
980.011642	2465.124231
980.309020	2460.083077
980.606360	2482.768269
980.903664	2543.262115
981.200931	2485.288846
981.498162	2583.591346
981.795356	2505.453462
982.092513	2505.453462
982.389633	2520.576923
982.686717	2538.220962
982.983764	2480.247692
983.280775	2482.768269
983.577749	2583.591346
983.874686	2515.535769
984.171587	2427.315577
984.468451	2535.700385
984.765279	2560.906154
985.062070	2429.836154
985.358824	2497.891731
985.655543	2432.356731
985.952224	2502.932885
986.248869	2424.795000
986.545478	2495.371154
986.842050	2543.262115
987.138586	2424.795000
987.435086	2510.494615
987.731549	2502.932885
988.027975	2518.056346
988.324366	2460.083077
988.620719	2497.891731
988.917037	2576.029615
989.213318	2465.124231
989.509563	2553.344423
989.805772	2424.795000
990.101944	2563.426731
990.398080	2502.932885
990.694180	2502.932885
990.990244	2429.836154
991.286271	2502.932885
991.582262	2510.494615
991.878217	2495.371154
992.174136	2424.795000
992.470019	2495.371154
992.765865	2535.700385
993.061676	2419.753846
993.357450	2427.315577
993.653188	2497.891731
993.948890	2573.509038
994.244556	2487.809423
994.540186	2475.206538
994.835780	2558.385577
995.131337	2402.109808
995.426859	2485.288846
995.722345	2402.109808
996.017795	2492.850577
996.313208	2477.727115
996.608586	2480.247692
996.903928	2507.974038
997.199234	2550.823846
997.494504	2475.206538
997.789738	2497.891731
998.084936	2475.206538
998.380099	2513.015192
998.675225	2520.576923
998.970316	2412.192115
999.265371	2568.467885
999.560390	2402.109808
999.855373	2475.206538
1000.150320	2586.111923
1000.445232	2455.041923
1000.740108	2548.303269
1001.034948	2465.124231
1001.329752	2533.179808
1001.624521	2452.521346
1001.919254	2518.056346
1002.213951	2462.603654
1002.508613	2366.821731
1002.803239	2455.041923
1003.097829	2465.124231
1003.392384	2523.097500
1003.686903	2389.506923
1003.981386	2482.768269
1004.275834	2497.891731
1004.570246	2472.685962
1004.864623	2500.412308
1005.158964	2450.000769
1005.453270	2450.000769
1005.747540	2502.932885
1006.041775	2495.371154
1006.335974	2520.576923
1006.630138	2485.288846
1006.924266	2490.330000
1007.218359	2505.453462
1007.512416	2538.220962
1007.806438	2450.000769
1008.100425	2533.179808
1008.394376	2485.288846
1008.688292	2487.809423
1008.982172	2593.673654
1009.276017	2465.124231
1009.569827	2500.412308
1009.863602	2543.262115
1010.157341	2492.850577
1010.451045	2520.576923
1010.744714	2452.521346
1011.038347	2465.124231
1011.331945	2505.453462
1011.625508	2500.412308
1011.919036	2535.700385
1012.212528	2505.453462
1012.505986	2553.344423
1012.799408	2548.303269
1013.092795	2520.576923
1013.386147	2553.344423
1013.679464	2502.932885
1013.972745	2475.206538
1014.265992	2518.056346
1014.559204	2540.741538
1014.852380	2444.959615
1015.145521	2470.165385
1015.438628	2497.891731
1015.731699	2447.480192
1016.024736	2530.659231
1016.317737	2548.303269
1016.610703	2349.177692
1016.903635	2447.480192
1017.196531	2417.233269
1017.489393	2520.576923
1017.782219	2502.932885
1018.075011	2535.700385
1018.367768	2437.397885
1018.660490	2528.138654
1018.953177	2528.138654
1019.245829	2528.138654
