Dividing Wavelength (nm)	Counts (n)	Blue Motor Position (mm): 25.200000	Red Motor Position (mm): 0.000000	
326.493990	2199.336956
326.888308	2199.336956
327.282561	2199.336956
327.676750	2161.233395
328.070874	2153.596047
328.464933	2154.410193
328.858929	2159.511841
329.252859	2166.337563
329.646726	2171.257729
330.040528	2187.333969
330.434265	2197.320494
330.827938	2216.376056
331.221547	2234.317523
331.615091	2249.763618
332.008571	2270.172729
332.401986	2289.770215
332.795338	2305.259160
333.188625	2324.276913
333.581847	2342.488081
333.975006	2362.254445
334.368100	2382.832435
334.761129	2400.852040
335.154095	2418.906932
335.546996	2444.226128
335.939833	2478.165696
336.332606	2491.386122
336.725315	2506.890190
337.117960	2519.170441
337.510540	2531.463295
337.903056	2540.441590
338.295508	2550.576830
338.687896	2561.148129
339.080220	2566.890003
339.472480	2573.751014
339.864676	2579.376942
340.256807	2582.567992
340.648875	2586.905905
341.040879	2588.360278
341.432818	2594.845722
341.824694	2597.401587
342.216506	2595.591813
342.608253	2598.094746
342.999937	2599.065168
343.391557	2597.089036
343.783113	2597.252873
344.174605	2596.998295
344.566033	2596.353027
344.957397	2593.227512
345.348697	2591.589137
345.739934	2592.040320
346.131106	2589.514702
346.522215	2587.097469
346.913260	2586.157293
347.304241	2584.793661
347.695159	2580.700244
348.086012	2580.758218
348.476802	2578.691345
348.867528	2574.476940
349.258191	2572.024419
349.648789	2569.103070
350.039324	2566.433779
350.429796	2571.774882
350.820203	2567.799932
351.210548	2568.409911
351.600828	2567.157185
351.991045	2566.678275
352.381198	2565.246587
352.771288	2563.265414
353.161314	2563.043603
353.551276	2562.491597
353.941175	2561.732903
354.331010	2564.321536
354.720782	2563.091494
355.110490	2562.922615
355.500135	2564.692060
355.889717	2562.073181
356.279235	2559.605536
356.668689	2565.160888
357.058080	2564.719787
357.447408	2563.973696
357.836672	2564.780281
358.225873	2563.729200
358.615010	2565.470919
359.004084	2565.924622
359.393095	2563.414128
359.782043	2563.875393
360.170927	2565.957390
360.559748	2569.004767
360.948505	2567.200034
361.337199	2569.264387
361.725830	2570.504511
362.114398	2568.984603
362.502903	2568.145251
362.891344	2568.546022
363.279722	2567.368913
363.668037	2568.296485
364.056289	2571.147258
364.444478	2569.289593
364.832603	2573.463668
365.220665	2573.539285
365.608665	2573.670355
365.996601	2574.121539
366.384474	2574.761765
366.772284	2574.237485
367.160031	2574.865109
367.547715	2575.031467
367.935336	2575.558268
368.322893	2574.207238
368.710388	2570.749007
369.097820	2575.187743
369.485189	2572.160530
369.872495	2575.933833
370.259738	2579.344174
370.646918	2578.630851
371.034035	2577.395768
371.421090	2577.836869
371.808081	2579.026581
372.195010	2579.397106
372.581875	2577.511715
372.968678	2581.534555
373.355418	2579.961715
373.742096	2576.919379
374.128710	2581.781572
374.515262	2581.466500
374.901751	2577.514235
375.288177	2583.861048
375.674540	2581.970615
376.060841	2583.235945
376.447079	2578.953485
376.833254	2582.595718
377.219367	2581.854669
377.605417	2581.562282
377.991404	2581.892477
378.377329	2579.636561
378.763191	2582.157138
379.148991	2582.278126
379.534727	2585.451532
379.920402	2583.364494
380.306013	2586.447160
380.691563	2586.333734
381.077049	2582.625965
381.462474	2586.527818
381.847835	2583.808116
382.233134	2586.628641
382.618371	2585.542273
383.003545	2584.002200
383.388657	2586.036306
383.773706	2587.026892
384.158693	2586.908425
384.543618	2588.239290
384.928480	2587.364650
385.313280	2588.440936
385.698017	2587.180648
386.082692	2587.692325
386.467305	2589.673498
386.851856	2589.912953
387.236344	2588.632500
387.620770	2585.428847
388.005133	2584.622262
388.389435	2585.766604
388.773674	2584.624783
389.157851	2592.741040
389.541965	2589.975967
389.926018	2591.082501
390.310008	2587.246183
390.693936	2591.117789
391.077802	2591.226174
391.461606	2593.545104
391.845348	2594.170207
392.229027	2595.738006
392.612645	2592.869590
392.996200	2592.216760
393.379694	2593.008222
393.763125	2594.394539
394.146494	2593.961000
394.529801	2593.048551
394.913047	2595.606936
395.296230	2595.654827
395.679351	2594.034096
396.062410	2594.954107
396.445408	2595.858994
396.828343	2596.665579
397.211217	2597.210023
397.594028	2595.001998
397.976778	2596.239601
398.359466	2597.605754
398.742092	2597.373861
399.124656	2595.319591
399.507158	2598.036772
399.889598	2598.077102
400.271977	2596.292533
400.654294	2600.075919
401.036549	2596.985692
401.418742	2599.392843
401.800874	2599.014756
402.182944	2599.654983
402.564952	2599.808738
402.946898	2600.292689
403.328783	2600.063316
403.710606	2600.156578
404.092367	2603.652618
404.474067	2600.834613
404.855705	2600.738831
405.237282	2601.124479
405.618797	2603.919799
406.000250	2603.287134
406.381642	2606.395006
406.762972	2598.813110
407.144240	2598.102307
407.525447	2601.263111
407.906593	2598.717328
408.287677	2604.534820
408.668700	2602.001640
409.049661	2605.386775
409.430560	2604.403750
409.811399	2603.871908
410.192176	2604.827207
410.572891	2604.106322
410.953545	2604.292844
411.334138	2603.561877
411.714669	2605.091867
412.095139	2607.582197
412.475547	2605.669079
412.855894	2607.259563
413.236180	2606.001796
413.616405	2607.483895
413.996568	2605.958946
414.376670	2608.108998
414.756711	2608.477002
415.136691	2608.988679
415.516609	2608.724019
415.896466	2608.267794
416.276262	2612.240223
416.655997	2607.622527
417.035670	2609.303751
417.415283	2610.753083
417.794834	2611.352980
418.174324	2608.716457
418.553753	2610.788371
418.933121	2611.942795
419.312428	2612.893053
419.691674	2613.782817
420.070859	2609.994389
420.449983	2612.696448
420.829045	2613.051849
421.208047	2614.533948
421.586988	2611.632764
421.965867	2614.080245
422.344686	2615.335492
422.723444	2615.063270
423.102141	2610.667383
423.480777	2615.239710
423.859352	2615.401027
424.237866	2613.926489
424.616319	2616.686521
424.994712	2616.769700
425.373044	2616.769700
425.751314	2613.303907
426.129524	2611.821808
426.507673	2614.339864
426.885762	2611.403392
427.263789	2616.605863
427.641756	2618.886985
428.019662	2616.021089
428.397508	2615.464041
428.775292	2620.754732
429.153016	2619.822119
429.530679	2619.285236
429.908282	2619.625514
430.285824	2620.921090
430.663305	2622.211626
431.040726	2620.016203
431.418086	2621.107613
431.795385	2623.189610
432.172624	2622.004938
432.549802	2625.269086
432.926920	2621.248765
433.303977	2623.177007
433.680974	2624.026441
434.057910	2623.829836
434.434786	2626.826802
434.811601	2627.217492
435.188355	2625.906792
435.565050	2628.165228
435.941683	2626.824282
436.318257	2627.938377
436.694770	2628.399642
437.071222	2626.332769
437.447614	2630.418624
437.823946	2630.700929
438.200218	2630.131278
438.576429	2630.983233
438.952580	2630.809314
439.328670	2631.852832
439.704700	2636.604120
440.080670	2634.476753
440.456580	2635.200159
440.832429	2635.694192
441.208218	2637.188894
441.583947	2634.338121
441.959616	2635.517751
442.335224	2638.000520
442.710773	2641.761220
443.086261	2640.541261
443.461689	2643.525624
443.837057	2642.091416
444.212365	2644.256592
444.587612	2642.593011
444.962800	2646.300779
445.337927	2645.655512
445.712995	2646.877992
446.088002	2653.247489
446.462949	2654.059115
446.837837	2654.807727
447.212664	2659.720331
447.587431	2663.007163
447.962139	2673.369255
448.336786	2684.563137
448.711374	2695.252904
449.085901	2690.163859
449.460369	2693.554035
449.834776	2694.869776
450.209124	2708.672455
450.583412	2723.322048
450.957640	2743.257291
451.331808	2746.695358
451.705917	2750.342633
452.079965	2756.676843
452.453954	2780.433280
452.827883	2789.940897
453.201752	2811.325471
453.575562	2820.185299
453.949311	2850.611183
454.323001	2872.867877
454.696632	2905.322826
455.070202	2939.789195
455.443713	2980.582212
455.817164	3028.679860
456.190556	3070.007240
456.563888	3123.932462
456.937160	3176.357942
457.310373	3188.250024
457.683526	3230.036148
458.056619	3251.463572
458.429653	3310.467758
458.802628	3336.039010
459.175542	3416.145466
459.548398	3548.616906
459.921194	3649.795385
460.293930	3739.422059
460.666607	3909.634098
461.039224	4123.774752
461.411782	4311.903051
461.784280	4390.771903
462.156719	4489.449969
462.529099	4524.511194
462.901419	4484.497036
463.273680	4545.255542
463.645882	4613.880770
464.018024	4670.669368
464.390106	4818.198735
464.762130	5071.723403
465.134094	5319.261701
465.505999	5864.643971
465.877845	6743.876654
466.249631	7560.397384
466.621358	7650.752505
466.993026	7477.218346
467.364634	7484.991805
467.736184	7333.532858
468.107674	7276.361132
468.479105	7471.703323
468.850477	7523.095366
469.221790	7551.169552
469.593043	7503.291193
469.964238	7528.691047
470.335373	7566.887870
470.706449	7861.087087
471.077467	7851.128288
471.448425	8638.460737
471.819324	10268.285940
472.190164	11271.316759
472.560945	10234.061547
472.931667	9476.900403
473.302330	9403.670082
473.672934	9351.695786
474.043479	9702.156801
474.413965	9802.221185
474.784393	9828.478034
475.154761	10306.114758
475.525070	10502.750005
475.895321	10494.134673
476.265513	10956.516866
476.635645	11405.101420
477.005719	11511.101762
477.375734	11799.445680
477.745691	12264.532452
478.115588	12700.355325
478.485427	13233.220410
478.855207	13995.326925
479.224928	15158.013607
479.594591	16702.976026
479.964194	16985.706619
480.333739	17482.663565
480.703226	17401.816060
481.072653	17463.176985
481.442022	18079.503413
481.811333	18869.958857
482.180584	19104.095247
482.549777	18704.079689
482.918912	18724.382937
483.287988	19012.613428
483.657005	19024.800418
484.025964	19021.843781
484.394864	19216.442402
484.763706	19215.250169
485.132489	19037.564619
485.501213	19319.740685
485.869879	19492.165791
486.238487	19452.708680
486.607036	19829.056020
486.975527	19722.793538
487.343959	20166.954480
487.712333	20347.820998
488.080648	20200.773061
488.448905	20768.044021
488.817104	20699.794359
489.185244	21396.756564
489.553326	21578.142320
489.921350	22455.484571
490.289315	24506.462890
490.657222	26218.499230
491.025070	26826.522878
491.392861	26821.166652
491.760593	26251.609528
492.128267	25693.200917
492.495883	24906.163375
492.863440	24268.951447
493.230939	23577.332866
493.598380	23563.663777
493.965763	23288.396612
494.333088	22997.320389
494.700354	23003.382377
495.067563	23007.266586
495.434713	22852.215817
495.801805	23051.926168
496.168839	22985.178770
496.535815	22878.336556
496.902733	23155.249657
497.269593	22883.284448
497.636395	23150.233709
498.003139	23207.095404
498.369825	23015.478625
498.736453	23237.561617
499.103023	23179.351413
499.469535	23249.622577
499.835989	23478.730417
500.202385	23556.041552
500.568723	23117.647690
500.935003	23411.413369
501.301226	23032.331203
501.667390	23861.636298
502.033497	24158.847606
502.399546	23901.484099
502.765537	23550.372775
503.131470	23952.084681
503.497345	24101.605304
503.863163	23338.694725
504.228923	23998.329706
504.594625	24184.499517
504.960269	23718.427200
505.325856	24235.158072
505.691385	23669.081866
506.056856	24270.622589
506.422270	24261.898873
506.787625	23880.873342
507.152924	24285.257059
507.518164	24315.927439
507.883347	24130.909531
508.248472	23834.777031
508.613540	24625.040911
508.978550	24404.601335
509.343503	24391.733790
509.708398	24684.947462
510.073236	24834.828528
510.438016	25064.069958
510.802738	24742.076338
511.167403	24992.377188
511.532010	24687.939387
511.896561	25483.844318
512.261053	25451.210409
512.625488	25290.301819
512.989866	25194.620719
513.354186	25053.481014
513.718449	25141.368490
514.082655	25529.822162
514.446803	25285.124554
514.810894	25724.476235
515.174927	25207.064807
515.538904	25243.570323
515.902822	25730.896145
516.266684	25489.563507
516.630488	25393.542129
516.994235	25406.450004
517.357925	25678.911766
517.721558	25878.730502
518.085133	25961.196217
518.448651	25877.959205
518.812112	25602.445024
519.175516	25777.247034
519.538863	25963.530271
519.902152	25744.293011
520.265385	26039.714709
520.628560	25826.315105
520.991678	25841.133576
521.354739	25922.638952
521.717743	25967.474974
522.080690	25761.001915
522.443580	26095.545487
522.806413	26107.553516
523.169189	26196.797063
523.531908	26247.841266
523.894569	25853.711255
524.257174	25916.206439
524.619722	26133.339018
524.982213	25797.446937
525.344647	25894.342955
525.707025	25996.199469
526.069345	25996.234757
526.431608	25953.117768
526.793815	26146.251933
527.155964	25581.554483
527.518057	25757.233653
527.880093	25682.778331
528.242072	25918.250627
528.603995	25622.460925
528.965860	25424.530102
529.327669	25475.032381
529.689421	25467.558871
530.051117	25301.856144
530.412755	25476.363246
530.774337	25291.302488
531.135862	25149.078935
531.497331	25353.643917
531.858743	24907.398458
532.220098	25377.521342
532.581396	25054.426231
532.942638	25017.245200
533.303824	25097.510452
533.664953	25109.725168
534.026025	24794.476612
534.387040	25018.641600
534.747999	25078.462452
535.108902	25251.905871
535.469748	24740.511060
535.830537	24934.066162
536.191270	25038.793613
536.551947	24938.005824
536.912567	24594.655356
537.273131	24898.531068
537.633638	24630.883608
537.994089	24833.971532
538.354483	24396.406940
538.714821	24888.340376
539.075103	24931.575832
539.435328	24715.469128
539.795497	24267.837352
540.155609	24675.396996
540.515665	24967.181502
540.875665	24202.514080
541.235609	24479.217974
541.595496	24460.618637
541.955328	24816.516537
542.315102	24729.259205
542.674821	24300.435973
543.034483	24176.133722
543.394090	24331.895294
543.753640	24127.242092
544.113134	24767.045173
544.472571	24361.927968
544.831953	24639.224197
545.191278	24254.753037
545.550548	24197.372103
545.909761	24405.574278
546.268918	24630.911334
546.628019	24589.069757
546.987064	24298.570746
547.346053	24059.887235
547.704986	24181.187479
548.063863	24341.017262
548.422684	24334.524256
548.781449	23887.996492
549.140158	24292.173522
549.498811	23866.231310
549.857408	23605.132308
550.215949	24048.864752
550.574434	23711.576272
550.932864	23937.097330
551.291237	24071.328134
551.649555	23953.465957
552.007817	24003.370859
552.366022	23872.573082
552.724173	23915.896758
553.082267	23853.767057
553.440305	24324.673841
553.798288	23592.839455
554.156215	24128.245281
554.514086	24210.544638
554.871902	23584.065327
555.229661	23875.678432
555.587365	23722.427356
555.945014	23574.184665
556.302606	23843.150387
556.660143	23771.376959
557.017625	24034.517628
557.375050	23574.542587
557.732421	23964.289314
558.089735	23764.294138
558.446994	23836.680066
558.804197	23853.560370
559.161345	23809.309122
559.518437	23552.311098
559.875474	23754.599999
560.232455	23932.895529
560.589381	23759.409260
560.946251	23730.009251
561.303065	24061.145003
561.659825	24142.010152
562.016528	23746.937446
562.373177	23489.032015
562.729770	23836.559079
563.086307	23706.615777
563.442789	23896.679879
563.799216	23707.387073
564.155587	23728.270053
564.511904	23698.807029
564.868164	23635.046515
565.224370	23617.135296
565.580520	23516.350027
565.936615	23673.024048
566.292654	23334.359333
566.648638	23644.513802
567.004567	23465.086534
567.360441	23416.388988
567.716260	23144.519561
568.072023	23467.284477
568.427732	23219.869687
568.783385	23009.827492
569.138982	23246.396239
569.494525	23293.646974
569.850013	23031.080997
570.205445	23128.544144
570.560823	22927.089554
570.916145	22701.311397
571.271412	22866.124360
571.626625	22632.015696
571.981782	22740.581986
572.336884	22554.240775
572.691931	22687.717926
573.046923	22403.918608
573.401860	22301.663844
573.756743	22299.728041
574.111570	22212.112787
574.466342	22152.783447
574.821059	22236.625397
575.175722	21925.187954
575.530330	21921.712078
575.884882	21948.674690
576.239380	21852.948219
576.593823	21747.691448
576.948211	21729.787790
577.302544	21578.684244
577.656823	21446.580808
578.011047	21532.910567
578.365216	21416.107033
578.719330	21292.439967
579.073389	21200.307839
579.427394	21344.381496
579.781344	21116.269284
580.135239	21007.634939
580.489080	20979.480095
580.842866	20732.173690
581.196597	20921.705952
581.550273	20905.692726
581.903895	20801.600461
582.257463	21121.023092
582.610975	20649.561782
582.964434	20940.643046
583.317837	20663.503093
583.671186	20757.218143
584.024481	20712.563602
584.377721	20488.650672
584.730906	20542.777540
585.084037	20575.504711
585.437113	20473.398661
585.790135	20685.669046
586.143103	20147.858589
586.496016	20166.281486
586.848874	20403.084647
587.201679	20349.827377
587.554428	20010.187198
587.907124	20332.621919
588.259765	20122.060484
588.612352	20199.626198
588.964884	19764.259549
589.317362	19936.876218
589.669786	19981.974381
590.022155	20046.722961
590.374470	20218.787624
590.726731	20019.362098
591.078937	19772.343039
591.431090	19882.308249
591.783188	19619.119689
592.135232	19602.294838
592.487222	19692.113076
592.839157	19724.804958
593.191038	19601.813407
593.542866	19493.910030
593.894639	19211.126505
594.246358	19435.735115
594.598022	19331.894907
594.949633	19091.252908
595.301190	19056.988185
595.652692	19222.093535
596.004141	19452.287743
596.355535	18780.503582
596.706876	18796.307599
597.058162	18694.476291
597.409395	18917.212112
597.760573	18999.319906
598.111698	18784.176062
598.462768	18716.541422
598.813785	18674.047015
599.164748	18496.933637
599.515657	18525.786681
599.866511	18313.775915
600.217312	18677.820319
600.568060	18219.307212
600.918753	18529.363379
601.269392	18428.094160
601.619978	18199.881126
601.970510	18414.394825
602.320988	18358.765692
602.671412	18555.353048
603.021783	18463.745200
603.372100	18200.400365
603.722363	18338.807764
604.072572	18280.093445
604.422728	18414.296522
604.772830	18175.572682
605.122878	18116.447509
605.472872	18112.704452
605.822813	18103.627855
606.172701	18065.133604
606.522534	18272.052805
606.872314	18291.234395
607.222041	18123.323643
607.571714	18343.049895
607.921333	18179.524947
608.270899	18242.894771
608.620411	18432.729501
608.969870	18193.879632
609.319276	18196.264098
609.668627	18225.399447
610.017926	18365.873719
610.367171	18477.089135
610.716362	18510.378394
611.065500	18332.430704
611.414585	18468.345253
611.763616	18459.341753
612.112594	18401.436539
612.461518	18372.270943
612.810389	18554.425476
613.159207	18422.367410
613.507971	18317.987799
613.856682	18605.658722
614.205340	18532.811529
614.553945	18681.155042
614.902496	18425.573583
615.250994	18659.309202
615.599439	18602.354246
615.947830	18576.062108
616.296169	18633.105284
616.644454	18589.393439
616.992686	18569.039781
617.340864	18775.336399
617.688990	18544.786790
618.037063	18718.951093
618.385082	18562.665242
618.733048	18853.617957
619.080961	18699.729174
619.428821	18745.001256
619.776628	18633.664852
620.124382	18563.081137
620.472083	18601.683772
620.819731	18626.095560
621.167326	18317.521492
621.514868	18362.291979
621.862357	18121.619733
622.209793	18124.059651
622.557176	17962.462944
622.904506	17792.197973
623.251783	17697.724229
623.599007	17464.260833
623.946179	17415.598575
624.293297	17353.688165
624.640363	17110.654138
624.987376	17137.054660
625.334336	16928.328206
625.681243	16768.342147
626.028097	16775.825740
626.374899	16721.411526
626.721647	16564.067032
627.068343	16409.356541
627.414987	16340.801890
627.761577	16313.020091
628.108115	16356.056421
628.454600	16074.205510
628.801032	16168.684295
629.147412	16105.294306
629.493739	16130.913449
629.840014	15933.789211
630.186236	16036.142278
630.532405	15794.970957
630.878521	15994.124260
631.224585	15884.882457
631.570597	15710.544233
631.916556	15747.543782
632.262462	15721.327261
632.608316	15648.119625
632.954117	15585.470686
633.299866	15579.522124
633.645562	15495.261758
633.991206	15255.219656
634.336797	15134.226923
634.682336	15099.362303
635.027823	14990.145704
635.373257	14867.050810
635.718639	14761.547022
636.063968	14715.173447
636.409245	14469.747393
636.754470	14499.618750
637.099642	14343.837014
637.444762	14121.691008
637.789829	14157.079908
638.134845	14000.055527
638.479808	14021.503116
638.824719	13967.222492
639.169577	13821.979288
639.514383	13870.616341
639.859137	13688.900388
640.203839	13771.328295
640.548489	13612.809212
640.893086	13605.295373
641.237632	13475.508346
641.582125	13625.265903
641.926566	13461.362868
642.270955	13467.712202
642.615292	13432.325822
642.959576	13434.352366
643.303809	13480.748626
643.647990	13405.625351
643.992118	13471.571205
644.336195	13243.343047
644.680219	13440.850413
645.024192	13360.590203
645.368112	13599.619033
645.711981	13656.329493
646.055797	13839.681300
646.399562	13804.012616
646.743274	14077.207866
647.086935	14341.719729
647.430544	14314.684021
647.774101	14346.365153
648.117606	14499.338966
648.461059	14468.411487
648.804460	14459.380260
649.147810	14185.978322
649.491108	14086.377725
649.834354	14108.624337
650.177548	13802.558243
650.520690	13611.175878
650.863781	13538.361452
651.206820	13575.819746
651.549807	13406.716761
651.892742	13203.722098
652.235626	13153.355930
652.578458	13150.530363
652.921238	12832.118484
653.263967	13037.709340
653.606644	12860.795087
653.949269	12836.884895
654.291843	12643.866676
654.634365	12797.301755
654.976836	12648.892706
655.319255	12661.004078
655.661622	12609.349895
656.003938	12532.482381
656.346203	12459.864560
656.688416	12527.027853
657.030577	12494.862771
657.372687	12412.583578
657.714746	12381.522509
658.056753	12571.505953
658.398708	12392.665979
658.740612	12393.023901
659.082465	12502.868123
659.424266	12463.660549
659.766016	12479.179741
660.107715	12397.291238
660.449362	12471.678504
660.790958	12422.812079
661.132503	12368.677649
661.473996	12432.833893
661.815438	12449.913323
662.156829	12465.750107
662.498168	12444.781428
662.839456	12444.766304
663.180693	12463.665590
663.521879	12544.336655
663.863013	12534.050180
664.204097	12504.647650
664.545129	12631.823359
664.886110	12598.690375
665.227040	12685.914940
665.567918	12693.350642
665.908746	12723.136299
666.249522	12698.603524
666.590248	12754.731731
666.930922	12867.010830
667.271545	12848.749250
667.612118	12933.518773
667.952639	12836.146366
668.293109	12852.555321
668.633528	12800.270994
668.973896	12779.640072
669.314213	12859.524717
669.654480	12598.765993
669.994695	12662.455930
670.334859	12697.527238
670.674973	12637.333340
671.015035	12674.436232
671.355047	12612.856018
671.695008	12587.809045
672.034918	12598.173657
672.374777	12630.164819
672.714585	12547.046275
673.054342	12585.427100
673.394049	12537.803319
673.733705	12625.554684
674.073310	12537.813402
674.412864	12553.753530
674.752368	12429.181577
675.091820	12439.412599
675.431223	12433.872371
675.770574	12297.960343
676.109875	12226.310423
676.449125	12189.308354
676.788324	12127.224024
677.127473	11957.742952
677.466571	11942.813575
677.805619	11853.819565
678.144616	11772.745209
678.483562	11736.458983
678.822458	11603.339754
679.161303	11584.274110
679.500098	11579.908471
679.838842	11532.992973
680.177535	11556.749410
680.516179	11613.792587
680.854771	11559.670759
681.193314	11777.499017
681.531805	11932.093561
681.870247	12333.298831
682.208638	12748.442892
682.546978	13064.656828
682.885268	13114.695321
683.223508	12808.346923
683.561697	12647.702994
683.899836	12553.176318
684.237925	12363.003830
684.575963	12266.937082
684.913951	12198.475692
685.251889	12144.152218
685.589776	12241.113771
685.927614	12164.692400
686.265401	12130.402471
686.603137	12172.085252
686.940824	12327.468737
687.278460	12447.922067
687.616046	12490.537461
687.953582	12674.290039
688.291068	12587.403232
688.628504	12822.661279
688.965889	12828.095643
689.303224	12796.684213
689.640510	12692.836444
689.977745	12385.255483
690.314930	12158.912717
690.652065	12077.777866
690.989150	11788.370265
691.326185	11562.319885
691.663170	11352.686023
692.000105	11115.449323
692.336990	11004.470842
692.673825	10754.127142
693.010610	10633.096600
693.347345	10428.516494
693.684030	10223.911183
694.020665	10168.193830
694.357251	9973.612854
694.693786	9917.429194
695.030272	9750.642619
695.366707	9633.357654
695.703093	9571.142254
696.039429	9564.921470
696.375716	9486.125715
696.711952	9365.201037
697.048139	9401.051203
697.384276	9349.349129
697.720363	9370.088436
698.056400	9314.295466
698.392388	9263.767981
698.728326	9218.291732
699.064214	9157.192947
699.400053	9202.250780
699.735842	9015.881843
700.071581	8975.933219
700.407270	8908.117097
700.742910	8823.922266
701.078501	8738.550326
701.414042	8602.328267
701.749533	8540.611941
702.084974	8406.451713
702.420366	8518.791306
702.755709	8401.534068
703.091002	8265.122965
703.426246	8297.910630
703.761440	8246.435408
704.096584	8205.173564
704.431679	8133.637070
704.766725	8124.711707
705.101721	8077.372752
705.436668	8113.946323
705.771565	8009.861620
706.106413	8093.660720
706.441212	8136.729818
706.775961	8090.169721
707.110661	8123.413610
707.445311	8274.217207
707.779913	8164.766195
708.114465	8292.403169
708.448967	8333.576793
708.783421	8472.241292
709.117825	8652.170155
709.452180	8692.050723
709.786485	8779.325699
710.120742	9058.966064
710.454949	9060.223832
710.789107	9158.377618
711.123216	9371.578097
711.457275	9534.112458
711.791286	9697.352582
712.125247	9696.493065
712.459159	9679.985807
712.793023	9933.760012
713.126837	9507.285958
713.460602	9655.589143
713.794318	9487.675870
714.127985	9511.540692
714.461602	9194.101755
714.795171	9147.203901
715.128691	8899.443792
715.462162	8648.306110
715.795584	8597.965148
716.128957	8452.048950
716.462281	8276.647043
716.795556	8326.723345
717.128782	8125.253631
717.461960	7857.258331
717.795088	7928.744413
718.128167	7836.229158
718.461198	7672.656318
718.794180	7610.221628
719.127113	7602.387675
719.459997	7454.281096
719.792833	7223.633184
720.125619	7284.369005
720.458357	7144.300546
720.791046	7133.583052
721.123686	7134.208156
721.456278	6973.569268
721.788821	6994.807649
722.121315	6887.428551
722.453761	6951.292409
722.786158	6896.873153
723.118506	6905.720378
723.450805	6872.617641
723.783056	6942.273785
724.115259	6851.253231
724.447412	6842.915163
724.779518	6895.340642
725.111574	6892.336115
725.443582	6975.152190
725.775542	6955.763912
726.107453	7147.017727
726.439315	7055.359468
726.771129	7116.392718
727.102895	7285.205837
727.434612	7395.158443
727.766281	7425.226405
728.097901	7511.112543
728.429473	7504.725402
728.760996	7476.562996
729.092471	7451.110210
729.423897	7402.576501
729.755276	7417.468070
730.086606	7334.631830
730.417887	7437.524300
730.749120	7619.262938
731.080305	7821.491345
731.411442	7943.625899
731.742530	7936.913603
732.073570	8045.454687
732.404562	8125.359496
732.735506	7971.846279
733.066401	8114.624358
733.397249	8057.727376
733.728048	7814.668143
734.058798	7483.403841
734.389501	7265.699092
734.720156	7085.664365
735.050762	6849.166194
735.381320	6750.036944
735.711831	6702.241765
736.042293	6595.656649
736.372707	6615.423013
736.703073	6482.480225
737.033391	6514.418455
737.363661	6519.439444
737.693883	6554.656945
738.024056	6636.827753
738.354182	6681.973806
738.684260	6720.740279
739.014290	6830.448389
739.344272	6938.916376
739.674207	6969.369987
740.004093	7037.912035
740.333931	7055.251083
740.663722	7062.938843
740.993464	7137.537838
741.323159	7134.863506
741.652806	6881.611060
741.982405	6887.947790
742.311956	6948.993643
742.641460	6788.112779
742.970915	6595.898624
743.300323	6583.933446
743.629683	6533.259767
743.958996	6401.915024
744.288260	6311.080994
744.617477	6258.637870
744.946647	6267.785044
745.275768	6100.471668
745.604842	6053.989709
745.933869	6036.592687
746.262847	5993.306820
746.591778	5982.846426
746.920662	5940.914108
747.249498	5929.758035
747.578286	5981.278627
747.907027	6057.410132
748.235720	6115.103618
748.564365	6087.165543
748.892963	6108.469459
749.221514	6264.896463
749.550017	6106.347133
749.878473	5975.385518
750.206881	6032.219487
750.535242	5970.752698
750.863555	5904.393469
751.191821	5922.009781
751.520039	5925.069762
751.848210	5834.056770
752.176334	5851.892372
752.504411	5906.941772
752.832440	5831.241286
753.160421	5757.355614
753.488356	5804.384538
753.816243	5841.550445
754.144082	5687.709553
754.471875	5658.906921
754.799620	5707.080187
755.127318	5715.423297
755.454969	5670.015103
755.782572	5640.645341
756.110129	5676.613974
756.437638	5666.019989
756.765100	5605.052274
757.092515	5603.144197
757.419882	5648.509541
757.747203	5638.255834
758.074477	5700.796389
758.401703	5689.547054
758.728882	5634.583353
759.056014	5688.667372
759.383099	5818.126724
759.710138	5833.139280
760.037129	5813.783770
760.364073	5819.588658
760.690970	5900.751235
761.017820	5883.167691
761.344623	5835.964847
761.671379	5934.839518
761.998088	6056.510286
762.324751	6296.791843
762.651366	6882.639455
762.977935	8172.655601
763.304456	9801.709507
763.630931	10712.298168
763.957359	10337.291774
764.283740	9397.482066
764.610074	8570.382475
764.936362	7581.494613
765.262602	6981.332645
765.588796	6449.841274
765.914943	6103.095589
766.241044	5946.499707
766.567097	5751.603658
766.893104	5489.937526
767.219064	5308.808868
767.544978	5247.352162
767.870845	5171.119833
768.196665	5067.940017
768.522438	4992.292463
768.848165	4963.177278
769.173846	4901.521446
769.499479	4852.317264
769.825066	4802.170386
770.150607	4741.527826
770.476101	4713.912385
770.801548	4713.408270
771.126949	4638.799193
771.452303	4582.668466
771.777611	4542.815624
772.102872	4557.681987
772.428087	4523.155124
772.753256	4484.474350
773.078378	4439.345941
773.403453	4368.598388
773.728482	4354.324361
774.053465	4308.545643
774.378401	4298.929642
774.703291	4297.891164
775.028135	4227.950196
775.352932	4178.302392
775.677683	4164.590454
776.002388	4183.703988
776.327046	4192.621790
776.651658	4118.912559
776.976224	4058.680852
777.300743	4061.594639
777.625216	4083.818566
777.949643	4080.907300
778.274024	4035.453736
778.598359	3989.228876
778.922647	4016.796426
779.246889	4006.411649
779.571086	4006.424252
779.895236	3988.399606
780.219339	3968.008139
780.543397	3964.328097
780.867409	4019.692569
781.191374	4035.335269
781.515294	3972.903099
781.839167	3961.401707
782.162995	3985.432887
782.486776	3973.586176
782.810511	3978.637412
783.134201	3974.833861
783.457844	3934.829785
783.781441	3875.427348
784.104993	3880.410529
784.428498	3901.154877
784.751958	3899.924836
785.075372	3877.862226
785.398739	3838.407635
785.722061	3853.127804
786.045337	3893.961151
786.368568	3928.409875
786.691752	3840.895445
787.014891	3886.875809
787.337983	4007.994571
787.661030	4169.918953
787.984031	4330.560362
788.306987	4500.638810
788.629897	4586.265329
788.952760	4539.881672
789.275579	4474.079491
789.598351	4409.222526
789.921078	4272.987864
790.243759	4074.505034
790.566395	4050.708268
790.888984	4048.144841
791.211529	3941.242132
791.534027	3880.987741
791.856480	3873.398284
792.178888	3810.857729
792.501249	3760.020213
792.823566	3771.317439
793.145836	3803.527892
793.468062	3750.464706
793.790241	3699.554094
794.112375	3735.280751
794.434464	3797.289464
794.756507	3820.360304
795.078505	3802.716266
795.400457	3834.757840
795.722364	3971.605002
796.044226	4076.319850
796.366042	4146.452382
796.687812	4132.125423
797.009538	4137.879900
797.331218	4096.141667
797.652852	4069.640321
797.974442	4047.887742
798.295986	4048.238102
798.617484	3966.369764
798.938938	3877.479098
799.260346	3921.659770
799.581709	3917.369748
799.903026	3847.461548
800.224299	3806.660969
800.545526	3802.378509
800.866708	3762.528188
801.187845	3702.127603
801.508936	3733.914598
801.829983	3737.733272
802.150984	3655.683452
802.471940	3644.479488
802.792851	3656.187568
803.113717	3655.315448
803.434538	3660.583454
803.755314	3601.843929
804.076045	3575.486256
804.396731	3595.562652
804.717372	3624.135912
805.037967	3610.013119
805.358518	3599.835029
805.679024	3625.202116
805.999485	3634.528250
806.319901	3640.731390
806.640272	3653.485509
806.960598	3667.593178
807.280879	3642.026967
807.601115	3655.751508
807.921306	3672.974610
808.241453	3712.749314
808.561554	3688.899615
808.881611	3627.677322
809.201623	3659.771828
809.521590	3672.868746
809.841513	3642.934374
810.161390	3673.362779
810.481223	3654.047598
810.801011	3594.196499
811.120755	3587.670725
811.440453	3622.346302
811.760107	3628.007518
812.079716	3587.290118
812.399281	3557.474214
812.718801	3576.938109
813.038276	3550.751835
813.357707	3549.368038
813.677093	3565.161973
813.996434	3513.684231
814.315731	3520.666229
814.634983	3527.610418
814.954191	3534.990667
815.273354	3570.311512
815.592473	3564.652817
815.911547	3566.220616
816.230577	3609.778705
816.549562	3658.733350
816.868502	3701.016028
817.187399	3728.089545
817.506250	3723.948237
817.825058	3695.705173
818.143821	3784.926034
818.462539	3887.831107
818.781213	3931.449691
819.099843	3987.943382
819.418429	4227.307449
819.736970	4468.849294
820.055466	4713.161253
820.373919	5075.660544
820.692327	5483.888142
821.010691	5916.207413
821.329011	7264.249760
821.647286	9973.736362
821.965517	14481.200894
822.283704	18505.490995
822.601847	20708.112263
822.919945	18911.651720
823.237999	16361.654623
823.556010	13887.358012
823.873976	11807.380456
824.191897	9722.984328
824.509775	8372.628092
824.827609	7254.913543
825.145398	6702.130859
825.463144	6583.459577
825.780845	6699.784202
826.098502	6880.494444
826.416116	7742.042760
826.733685	9053.587153
827.051210	10162.469600
827.368692	10229.496782
827.686129	8996.854008
828.003522	7485.231260
828.320872	6471.225849
828.638177	5768.874651
828.955439	5213.715063
829.272656	4715.850709
829.589830	4429.893778
829.906960	4258.118981
830.224046	4077.149120
830.541088	3952.110860
830.858086	3903.441040
831.175041	3826.427333
831.491952	3811.238337
831.808819	3817.607834
832.125642	3890.094586
832.442421	4035.829302
832.759157	4306.609840
833.075849	4848.039845
833.392497	5709.757040
833.709101	6480.708259
834.025662	6824.338511
834.342179	6474.537887
834.658653	5812.082380
834.975083	5170.855173
835.291469	4594.941155
835.607811	4182.758772
835.924110	4048.926220
836.240366	3846.541537
836.556578	3642.334477
836.872746	3533.979916
837.188871	3496.960203
837.504952	3429.917898
837.820990	3348.594004
838.136984	3304.158753
838.452935	3327.532063
838.768842	3319.728357
839.084706	3343.305834
839.400526	3495.941890
839.716303	3831.347499
840.032037	4348.544678
840.347727	4621.359321
840.663373	4351.609700
840.978977	3968.260197
841.294537	3662.168897
841.610054	3436.254628
841.925527	3326.662464
842.240957	3256.729057
842.556344	3207.436655
842.871687	3146.128663
843.186987	3097.965479
843.502244	3059.715724
843.817458	3024.170548
844.132629	2992.189468
844.447756	3003.491735
844.762840	2989.240393
845.077881	2956.977009
845.392879	2939.249791
845.707833	2936.628391
846.022745	2933.046651
846.337613	2935.867177
846.652438	2926.503234
846.967221	2920.821853
847.281960	2907.319123
847.596656	2905.232085
847.911309	2903.291241
848.225919	2898.270252
848.540485	2893.458470
848.855009	2894.902761
849.169490	2881.649567
849.483928	2873.976931
849.798323	2871.118597
850.112675	2867.511651
850.426984	2880.298538
850.741251	2880.411964
851.055474	2867.002495
851.369654	2860.572503
851.683792	2866.122813
851.997887	2875.453989
852.311938	2876.121942
852.625947	2866.931919
852.939914	2867.312526
853.253837	2872.701519
853.567718	2856.385825
853.881555	2856.216946
854.195350	2873.019112
854.509103	2869.578524
854.822812	2860.433871
855.136479	2858.283819
855.450103	2862.682226
855.763685	2854.906246
856.077224	2847.536079
856.390720	2864.461753
856.704173	2872.918289
857.017584	2863.730786
857.330953	2861.605940
857.644278	2870.858978
857.957561	2881.589073
858.270802	2884.901112
858.584000	2883.668549
858.897155	2871.761344
859.210268	2871.993237
859.523339	2865.969058
859.836367	2866.536188
860.149352	2861.598378
860.462295	2856.005218
860.775195	2864.444109
861.088054	2864.363451
861.400869	2846.981552
861.713642	2843.646829
862.026373	2862.135261
862.339062	2862.165508
862.651708	2869.104656
862.964312	2870.705222
863.276873	2864.751620
863.589392	2870.826210
863.901869	2884.495299
864.214303	2907.926582
864.526696	2923.508788
864.839045	2918.588622
865.151353	2916.443611
865.463619	2914.845565
865.775842	2919.919487
866.088023	2938.239040
866.400162	2942.818928
866.712258	2912.186357
867.024313	2904.193607
867.336325	2910.507653
867.648296	2933.104625
867.960224	2924.375867
868.272110	2911.936820
868.583954	2918.029054
868.895755	2930.140426
869.207515	2916.115936
869.519233	2922.467790
869.830909	2932.913061
870.142542	2944.356480
870.454134	2942.942436
870.765684	2949.198508
871.077191	2945.503343
871.388657	2952.994497
871.700081	2966.436734
872.011463	2974.792446
872.322803	2974.384113
872.634101	2976.342601
872.945357	2992.607884
873.256571	3018.985722
873.567744	3011.600431
873.878874	3004.162209
874.189963	3028.137936
874.501010	3028.768081
874.812015	3021.685259
875.122979	3019.310876
875.433900	3018.957995
875.744780	3023.752132
876.055618	3029.269675
876.366415	3024.523429
876.677169	3037.320398
876.987882	3033.771426
877.298554	3028.112731
877.609183	3049.819939
877.919771	3072.545461
878.230317	3098.530088
878.540822	3150.869868
878.851285	3188.091227
879.161707	3230.109245
879.472087	3327.368226
879.782425	3550.489695
880.092722	3986.567147
880.402977	4506.907485
880.713191	5130.079800
881.023363	6264.044508
881.333494	7539.426184
881.643583	8107.128163
881.953631	7809.311917
882.263637	7190.716970
882.573602	6607.163083
882.883526	6036.557399
883.193408	5463.239575
883.503248	5006.064895
883.813048	4701.576682
884.122806	4403.704983
884.432522	4088.605142
884.742197	3854.453628
885.051831	3663.721572
885.361424	3527.794420
885.670975	3453.747432
885.980485	3371.503528
886.289954	3295.656848
886.599382	3252.885178
886.908768	3213.632233
887.218113	3168.244205
887.527417	3113.230093
887.836680	3062.379974
888.145901	3057.830332
888.455082	3048.068138
888.764221	2999.605006
889.073319	2969.574852
889.382376	2963.704428
889.691392	2971.455203
890.000366	2967.873463
890.309300	2955.721761
890.618193	2967.139975
890.927044	2987.382728
891.235855	2982.593632
891.544625	2970.850264
891.853353	2983.523725
892.162041	3000.603154
892.470687	3039.825852
892.779293	3090.960796
893.087858	3138.629946
893.396381	3205.344576
893.704864	3327.592557
894.013306	3559.707445
894.321707	3863.626007
894.630068	4068.964806
894.938387	4068.359868
895.246665	4021.696427
895.554903	3902.233684
895.863100	3706.730176
896.171256	3541.299672
896.479371	3399.733989
896.787446	3277.266718
897.095480	3176.010102
897.403473	3110.301182
897.711425	3076.041501
898.019336	3067.423648
898.327207	3038.520193
898.635038	3000.280520
898.942827	2988.438850
899.250576	2976.884525
899.558284	2944.301027
899.865952	2924.529622
900.173579	2905.043042
900.481165	2900.231260
900.788711	2884.099568
901.096216	2864.139119
901.403681	2849.139166
901.711105	2857.653675
902.018489	2856.952955
902.325832	2853.348530
902.633135	2863.816486
902.940397	2897.483832
903.247619	2976.748414
903.554800	3163.966786
903.861941	3505.837675
904.169041	3928.964402
904.476101	4226.485741
904.783121	4189.692879
905.090100	3950.878298
905.397039	3676.556350
905.703938	3425.085952
906.010796	3244.111049
906.317614	3132.509986
906.624391	3039.147816
906.931129	2965.554532
907.237826	2908.458423
907.544483	2860.149046
907.851099	2830.441527
908.157675	2809.409833
908.464211	2787.127933
908.770707	2776.206273
909.077163	2764.563728
909.383578	2749.412540
909.689954	2737.220510
909.996289	2738.659759
910.302584	2737.260839
910.608839	2736.149264
910.915054	2731.279510
911.221229	2726.926473
911.527363	2725.129302
911.833458	2733.782443
912.139513	2737.996847
912.445527	2742.095305
912.751502	2749.941861
913.057436	2758.554673
913.363331	2769.108328
913.669186	2791.546504
913.975000	2824.611432
914.280775	2885.644682
914.586510	2953.954837
914.892205	3034.451982
915.197859	3159.906136
915.503475	3352.193388
915.809050	3562.462435
916.114585	3707.206565
916.420081	3731.071388
916.725536	3672.034435
917.030952	3556.178637
917.336328	3426.232814
917.641665	3296.687763
917.946961	3198.455840
918.252218	3129.074439
918.557435	3051.619631
918.862612	2993.553100
919.167750	2942.589556
919.472848	2903.923906
919.777906	2877.924155
920.082925	2853.688807
920.387904	2822.012717
920.692843	2803.993113
920.997743	2791.649848
921.302603	2777.900101
921.607423	2769.098246
921.912204	2756.444950
922.216946	2744.850296
922.521647	2736.529872
922.826310	2728.043089
923.130932	2723.175855
923.435516	2716.544217
923.740059	2707.618854
924.044564	2700.016794
924.349028	2694.448840
924.653454	2688.802747
924.957840	2682.713034
925.262186	2676.431756
925.566493	2673.535613
925.870761	2668.562515
926.174989	2665.600837
926.479178	2661.295692
926.783328	2655.311842
927.087438	2654.396872
927.391509	2655.909219
927.695541	2651.220946
927.999533	2645.090902
928.303486	2641.831797
928.607400	2643.976807
928.911275	2642.860192
929.215110	2641.073103
929.518906	2641.902373
929.822663	2642.202321
930.126381	2638.129069
930.430060	2641.355407
930.733699	2640.314409
931.037299	2642.618217
931.340861	2644.939668
931.644383	2643.482774
931.947866	2641.998155
932.251309	2644.052425
932.554714	2642.829945
932.858080	2639.838020
933.161407	2635.051445
933.464694	2635.568163
933.767943	2631.590692
934.071153	2636.783081
934.374323	2634.106228
934.677455	2632.132617
934.980548	2632.457771
935.283602	2631.885600
935.586617	2632.714870
935.889593	2632.810652
936.192530	2633.692854
936.495428	2632.412401
936.798287	2637.330046
937.101108	2637.821559
937.403890	2643.316416
937.706632	2647.641726
938.009336	2652.750936
938.312002	2661.575476
938.614628	2668.620488
938.917216	2677.316478
939.219765	2678.654905
939.522275	2678.070131
939.824747	2671.572084
940.127179	2672.192146
940.429573	2669.815242
940.731929	2667.206444
941.034246	2662.974396
941.336524	2660.516833
941.638763	2656.370484
941.940964	2654.326296
942.243126	2653.439053
942.545250	2652.176244
942.847335	2653.282777
943.149381	2647.855975
943.451389	2642.449338
943.753359	2639.381796
944.055290	2638.353400
944.357182	2635.769809
944.659036	2635.714356
944.960851	2636.306692
945.262628	2633.773512
945.564367	2634.174284
945.866067	2634.622947
946.167729	2636.112607
946.469352	2634.081022
946.770937	2634.310395
947.072484	2631.782256
947.373992	2632.903913
947.675462	2632.614047
947.976893	2626.277316
948.278286	2628.581124
948.579641	2629.417955
948.880958	2623.678602
949.182236	2625.029631
949.483476	2628.442492
949.784678	2624.916205
950.085841	2625.208592
950.386967	2624.275978
950.688054	2625.780763
950.989103	2628.729838
951.290114	2628.581124
951.591087	2630.000208
951.892021	2634.557412
952.192917	2633.713018
952.493776	2637.289717
952.794596	2638.035808
953.095378	2637.811476
953.396122	2638.237454
953.696828	2636.004223
953.997496	2637.251908
954.298126	2633.949952
954.598718	2632.077164
954.899272	2629.715383
955.199788	2624.601133
955.500266	2620.968981
955.800706	2619.224742
956.101108	2616.699124
956.401472	2615.408589
956.701798	2613.971860
957.002087	2611.441201
957.302337	2611.355501
957.602550	2608.386261
957.902724	2610.032198
958.202861	2605.394337
958.502960	2606.362238
958.803022	2607.320057
959.103045	2603.836620
959.403031	2604.824686
959.702979	2602.646908
960.002889	2604.562546
960.302762	2601.462237
960.602596	2604.249995
960.902393	2602.921651
961.202153	2601.563060
961.501875	2601.547936
961.801559	2601.999119
962.101205	2600.769078
962.400814	2601.724377
962.700385	2599.942329
962.999918	2598.699684
963.299414	2596.955445
963.598873	2596.421083
963.898293	2596.612647
964.197677	2598.992071
964.497022	2597.875456
964.796331	2597.078953
965.095601	2597.482246
965.394835	2598.528285
965.694030	2599.571804
965.993189	2598.608943
966.292309	2598.195569
966.591393	2598.800507
966.890439	2596.738675
967.189447	2598.064499
967.488419	2595.294385
967.787353	2597.429313
968.086249	2596.708428
968.385108	2598.155240
968.683930	2597.779674
968.982714	2595.473346
969.281462	2596.537029
969.580172	2598.424941
969.878844	2598.089705
970.177480	2596.494179
970.476078	2599.642380
970.774639	2598.039293
971.073162	2595.727924
971.371649	2601.056424
971.670098	2597.325970
971.968510	2597.991402
972.266885	2598.369489
972.565223	2599.735641
972.863524	2596.542070
973.161788	2598.669437
973.460014	2595.231370
973.758204	2597.641042
974.056356	2598.273707
974.354471	2598.492997
974.652550	2597.429313
974.950591	2597.154571
975.248595	2597.305805
975.546563	2597.998964
975.844493	2597.812441
976.142386	2597.172215
976.440243	2598.064499
976.738062	2597.406628
977.035845	2598.964345
977.333590	2600.196907
977.631299	2596.239601
977.928971	2591.458067
978.226606	2592.546956
978.524204	2595.715321
978.821765	2590.754826
979.119290	2594.288675
979.416777	2596.796649
979.714228	2596.842019
980.011642	2595.798500
980.309020	2595.816144
980.606360	2594.870928
980.903664	2598.876125
981.200931	2597.812441
981.498162	2598.750096
981.795356	2596.474015
982.092513	2597.918305
982.389633	2601.666403
982.686717	2604.721343
982.983764	2606.352156
983.280775	2610.438011
983.577749	2613.190481
983.874686	2615.123763
984.171587	2610.730398
984.468451	2607.698144
984.765279	2605.699326
985.062070	2606.911724
985.358824	2601.615992
985.655543	2599.468460
985.952224	2598.303954
986.248869	2596.277410
986.545478	2597.043665
986.842050	2596.867225
987.138586	2590.810278
987.435086	2593.600557
987.731549	2595.019642
988.027975	2592.516709
988.324366	2593.161977
988.620719	2593.260279
988.917037	2594.336566
989.213318	2591.440423
989.509563	2595.029724
989.805772	2594.954107
990.101944	2592.514188
990.398080	2591.637028
990.694180	2592.756164
990.990244	2592.118458
991.286271	2591.523602
991.582262	2590.979157
991.878217	2591.538725
992.174136	2591.662233
992.470019	2591.548808
992.765865	2589.136615
993.061676	2589.741554
993.357450	2591.148036
993.653188	2586.593353
993.948890	2592.725917
994.244556	2590.626276
994.540186	2592.526791
994.835780	2592.730958
995.131337	2594.041658
995.426859	2593.214909
995.722345	2596.075764
996.017795	2594.414703
996.313208	2597.895620
996.608586	2599.355034
996.903928	2596.763881
997.199234	2598.825713
997.494504	2600.713625
997.789738	2597.204982
998.084936	2595.274220
998.380099	2593.053592
998.675225	2597.018459
998.970316	2592.998139
999.265371	2592.879672
999.560390	2592.977975
999.855373	2592.869590
1000.150320	2590.187696
1000.445232	2592.458736
1000.740108	2592.209199
1001.034948	2592.126020
1001.329752	2594.480238
1001.624521	2591.967223
1001.919254	2590.585947
1002.213951	2593.575351
1002.508613	2592.705752
1002.803239	2589.486976
1003.097829	2591.190886
1003.392384	2591.037130
1003.686903	2591.195927
1003.981386	2590.066708
1004.275834	2587.778024
1004.570246	2593.590475
1004.864623	2588.267016
1005.158964	2589.842377
1005.453270	2590.858169
1005.747540	2589.693663
1006.041775	2590.868252
1006.335974	2587.556214
1006.630138	2588.995463
1006.924266	2591.213571
1007.218359	2592.176431
1007.512416	2589.870103
1007.806438	2583.979515
1008.100425	2587.906574
1008.394376	2584.355081
1008.688292	2587.979671
1008.982172	2587.793148
1009.276017	2589.408838
1009.569827	2588.884558
1009.863602	2590.522933
1010.157341	2589.766760
1010.451045	2591.203488
1010.744714	2588.846749
1011.038347	2590.643920
1011.331945	2586.787438
1011.625508	2591.049733
1011.919036	2589.252562
1012.212528	2590.996801
1012.505986	2588.670309
1012.799408	2589.681060
1013.092795	2588.423292
1013.386147	2594.749940
1013.679464	2589.824733
1013.972745	2588.140987
1014.265992	2587.906574
1014.559204	2589.943200
1014.852380	2587.306677
1015.145521	2588.241811
1015.438628	2589.224836
1015.731699	2588.876996
1016.024736	2590.888416
1016.317737	2586.699217
1016.610703	2588.335072
1016.903635	2588.692994
1017.196531	2591.614342
1017.489393	2590.764908
1017.782219	2586.600915
1018.075011	2588.798858
1018.367768	2588.158632
1018.660490	2586.424475
1018.953177	2586.424475
1019.245829	2586.424475
