Dividing Wavelength (nm)	Counts (n)	Blue Motor Position (mm): 37.400000	Red Motor Position (mm): 0.000000	
326.493990	2050.196940
326.888308	2050.196940
327.282561	2050.196940
327.676750	2023.259534
328.070874	2026.921933
328.464933	2032.948632
328.858929	2042.592359
329.252859	2052.183155
329.646726	2068.811401
330.040528	2084.229770
330.434265	2099.844744
330.827938	2120.868876
331.221547	2140.403347
331.615091	2163.572490
332.008571	2183.318690
332.401986	2205.807277
332.795338	2223.436192
333.188625	2243.378997
333.581847	2263.231060
333.975006	2280.275202
334.368100	2299.038376
334.761129	2314.963381
335.154095	2330.752275
335.546996	2381.055429
335.939833	2489.709938
336.332606	2495.408962
336.725315	2512.175840
337.117960	2525.013138
337.510540	2533.820034
337.903056	2540.267670
338.295508	2545.656663
338.687896	2556.502706
339.080220	2560.938921
339.472480	2563.020918
339.864676	2567.575600
340.256807	2569.821434
340.648875	2574.764286
341.040879	2573.524162
341.432818	2574.779409
341.824694	2574.280335
342.216506	2574.406364
342.608253	2574.577763
342.999937	2573.302351
343.391557	2573.589697
343.783113	2572.037022
344.174605	2568.969479
344.566033	2566.804304
344.957397	2567.502504
345.348697	2566.093501
345.739934	2562.277348
346.131106	2563.232646
346.522215	2563.182235
346.913260	2557.826009
347.304241	2557.773077
347.695159	2556.598488
348.086012	2554.345092
348.476802	2550.972560
348.867528	2547.053063
349.258191	2545.094575
349.648789	2546.906870
350.039324	2543.395706
350.429796	2548.111705
350.820203	2546.306972
351.210548	2545.036602
351.600828	2543.226827
351.991045	2544.688762
352.381198	2545.570964
352.771288	2544.358566
353.161314	2544.673638
353.551276	2542.205994
353.941175	2538.949408
354.331010	2543.821683
354.720782	2544.799667
355.110490	2548.235214
355.500135	2542.969728
355.889717	2541.729605
356.279235	2542.672300
356.668689	2543.824204
357.058080	2547.088351
357.447408	2542.422763
357.836672	2547.743701
358.225873	2546.037271
358.615010	2546.425439
359.004084	2545.613814
359.393095	2547.567261
359.782043	2547.484082
360.170927	2551.247303
360.559748	2549.598846
360.948505	2551.736295
361.337199	2551.612787
361.725830	2549.099772
362.114398	2550.367622
362.502903	2553.576316
362.891344	2555.033210
363.279722	2551.330482
363.668037	2554.231666
364.056289	2552.830225
364.444478	2555.557490
364.832603	2555.993549
365.220665	2554.909701
365.608665	2553.641851
365.996601	2557.435319
366.384474	2555.232335
366.772284	2556.961451
367.160031	2557.891544
367.547715	2556.260731
367.935336	2554.970195
368.322893	2552.497509
368.710388	2555.796944
369.097820	2557.377346
369.485189	2552.994063
369.872495	2558.993036
370.259738	2558.491441
370.646918	2559.618139
371.034035	2559.920608
371.421090	2563.744323
371.808081	2560.800290
372.195010	2562.383212
372.581875	2560.407080
372.968678	2561.795917
373.355418	2563.383881
373.742096	2561.705177
374.128710	2565.216340
374.515262	2563.809858
374.901751	2564.888665
375.288177	2568.062072
375.674540	2565.249108
376.060841	2567.641135
376.447079	2566.184242
376.833254	2569.970148
377.219367	2565.533933
377.605417	2568.152812
377.991404	2567.391598
378.377329	2566.748851
378.763191	2563.416648
379.148991	2567.792370
379.534727	2567.232802
379.920402	2568.886300
380.306013	2569.670200
380.691563	2571.913513
381.077049	2569.813873
381.462474	2571.051476
381.847835	2567.436969
382.233134	2574.212279
382.618371	2570.144068
383.003545	2573.279666
383.388657	2572.392423
383.773706	2571.732032
384.158693	2575.487691
384.543618	2574.693710
384.928480	2576.420305
385.313280	2574.363514
385.698017	2572.712536
386.082692	2577.574729
386.467305	2575.825449
386.851856	2576.296797
387.236344	2577.242013
387.620770	2573.219172
388.005133	2574.819738
388.389435	2577.738567
388.773674	2574.786971
389.157851	2580.009606
389.541965	2580.107909
389.926018	2582.295770
390.310008	2578.993814
390.693936	2581.133784
391.077802	2584.100503
391.461606	2584.816347
391.845348	2584.418095
392.229027	2585.829618
392.612645	2582.164700
392.996200	2586.583271
393.379694	2586.454722
393.763125	2587.115113
394.146494	2587.735175
394.529801	2590.109558
394.913047	2591.455546
395.296230	2590.643920
395.679351	2588.723241
396.062410	2590.699373
396.445408	2589.000504
396.828343	2593.474528
397.211217	2592.378077
397.594028	2597.366299
397.976778	2591.702563
398.359466	2596.181628
398.742092	2593.953438
399.124656	2598.273707
399.507158	2598.976948
399.889598	2605.984152
400.271977	2607.781323
400.654294	2607.511621
401.036549	2610.450614
401.418742	2616.855400
401.800874	2619.933024
402.182944	2624.742285
402.564952	2630.743779
402.946898	2635.631177
403.328783	2641.751138
403.710606	2649.932931
404.092367	2660.645383
404.474067	2670.112670
404.855705	2680.951150
405.237282	2686.806451
405.618797	2702.260108
406.000250	2718.656461
406.381642	2738.105232
406.762972	2747.844741
407.144240	2761.191196
407.525447	2783.556275
407.906593	2796.920374
408.287677	2825.130671
408.668700	2847.848631
409.049661	2872.066334
409.430560	2896.883934
409.811399	2915.324475
410.192176	2945.374793
410.572891	2979.407623
410.953545	3020.855990
411.334138	3027.752288
411.714669	3077.599217
412.095139	3086.701021
412.475547	3132.688947
412.855894	3162.855211
413.236180	3216.210783
413.616405	3228.246538
413.996568	3280.545989
414.376670	3316.270126
414.756711	3346.055783
415.136691	3398.960172
415.516609	3460.769759
415.896466	3508.154085
416.276262	3570.150195
416.655997	3649.954181
417.035670	3718.770972
417.415283	3812.546516
417.794834	3869.178838
418.174324	3896.176738
418.553753	3936.077470
418.933121	4050.133576
419.312428	4098.074949
419.691674	4109.740179
420.070859	4259.477572
420.449983	4251.187394
420.829045	4394.257861
421.208047	4399.319180
421.586988	4529.060836
421.965867	4616.338332
422.344686	4705.528947
422.723444	4850.227706
423.102141	4679.877035
423.480777	4950.007264
423.859352	4890.504005
424.237866	5160.971991
424.616319	5204.993867
424.994712	5356.301579
425.373044	5354.448955
425.751314	5605.584116
426.129524	5465.135049
426.507673	5700.020051
426.885762	5774.861021
427.263789	5847.720818
427.641756	5959.122756
428.019662	6060.570936
428.397508	6133.687831
428.775292	6177.946641
429.153016	6335.394479
429.530679	6340.460838
429.908282	6421.573004
430.285824	6411.765439
430.663305	6661.330281
431.040726	6626.279138
431.418086	6658.078737
431.795385	6810.354350
432.172624	6993.625498
432.549802	6926.628564
432.926920	7079.851914
433.303977	7073.429484
433.680974	7143.710731
434.057910	7337.812798
434.434786	7413.031854
434.811601	7403.413333
435.188355	7741.296669
435.565050	7671.948036
435.941683	7707.730146
436.318257	8021.027776
436.694770	7998.125814
437.071222	8223.661996
437.447614	8028.647480
437.823946	8018.378649
438.200218	8180.282867
438.576429	8100.768747
438.952580	8263.298068
439.328670	8288.604660
439.704700	8384.263075
440.080670	8297.343500
440.456580	8549.154176
440.832429	8552.733395
441.208218	8315.103485
441.583947	8438.092516
441.959616	8548.844145
442.335224	8599.638811
442.710773	8683.574023
443.086261	8867.119914
443.461689	8615.639433
443.837057	8766.790870
444.212365	8973.170667
444.587612	8983.999066
444.962800	8882.679435
445.337927	9021.371660
445.712995	8582.511491
446.088002	9223.040499
446.462949	9292.489955
446.837837	9301.949680
447.212664	9367.003250
447.587431	10265.430126
447.962139	11227.516694
448.336786	11981.217085
448.711374	11584.085067
449.085901	10446.037025
449.460369	10437.603174
449.834776	10357.433705
450.209124	11276.388160
450.583412	11047.237471
450.957640	11257.463668
451.331808	10854.131031
451.705917	10370.656651
452.079965	10296.992791
452.453954	10494.976546
452.827883	10458.531524
453.201752	10419.437376
453.575562	10441.749523
453.949311	10794.945365
454.323001	10872.954700
454.696632	10787.776844
455.070202	11374.758715
455.443713	11429.276274
455.817164	11578.489386
456.190556	11899.026113
456.563888	11725.272663
456.937160	11949.344390
457.310373	11445.612133
457.683526	11488.585449
458.056619	11526.933506
458.429653	11610.490631
458.802628	11781.476487
459.175542	11844.909326
459.548398	12385.676420
459.921194	12971.587046
460.293930	13294.591417
460.666607	14117.451398
461.039224	14850.788047
461.411782	15111.050218
461.784280	14716.935331
462.156719	14634.915758
462.529099	14546.874526
462.901419	13971.212566
463.273680	13621.933701
463.645882	13844.939223
464.018024	13802.253253
464.390106	14214.503691
464.762130	15369.580752
465.134094	17035.447684
465.505999	19308.952616
465.877845	21317.451652
466.249631	22211.870811
466.621358	21576.292217
466.993026	20756.784603
467.364634	20053.841070
467.736184	19346.998204
468.107674	18801.502508
468.479105	18664.587290
468.850477	18397.864881
469.221790	17978.806365
469.593043	17346.141557
469.964238	16998.443094
470.335373	17110.291175
470.706449	17989.009660
471.077467	19119.327093
471.448425	21462.281481
471.819324	22947.791053
472.190164	22430.614038
472.560945	20749.905949
472.931667	19351.068936
473.302330	19113.605384
473.672934	18658.152257
474.043479	19090.310212
474.413965	18905.990504
474.784393	18746.075022
475.154761	19382.243431
475.525070	19512.035499
475.895321	19356.558752
476.265513	19871.124449
476.635645	20451.903181
477.005719	20521.791217
477.375734	20901.213661
477.745691	21512.909789
478.115588	22180.116583
478.485427	23435.724333
478.855207	25313.554141
479.224928	27026.936469
479.594591	28201.996663
479.964194	27671.942022
480.333739	28057.771772
480.703226	28353.803450
481.072653	28855.463792
481.442022	29345.589975
481.811333	29664.117801
482.180584	29157.711212
482.549777	28948.478122
482.918912	28744.492873
483.287988	28698.885554
483.657005	28525.482464
484.025964	28187.208438
484.394864	28389.318378
484.763706	28333.028855
485.132489	27835.466970
485.501213	27907.978927
485.869879	28118.371483
486.238487	28061.272854
486.607036	28330.417537
486.975527	28046.804742
487.343959	28383.669766
487.712333	28712.988182
488.080648	28694.792137
488.448905	29119.640418
488.817104	29039.221412
489.185244	29949.096749
489.553326	31124.446809
489.921350	33038.313305
490.289315	35447.427796
490.657222	36090.326146
491.025070	36497.603486
491.392861	36102.460203
491.760593	35310.860418
492.128267	34304.764577
492.495883	33376.022722
492.863440	32539.234033
493.230939	31656.152429
493.598380	31141.319551
493.965763	31033.569929
494.333088	30577.302656
494.700354	30401.600800
495.067563	30379.891071
495.434713	30302.184205
495.801805	30593.212538
496.168839	30462.051797
496.535815	30337.293321
496.902733	30478.372532
497.269593	30294.708174
497.636395	30448.453284
498.003139	30763.414494
498.369825	30525.063699
498.736453	30946.221856
499.103023	30791.902055
499.469535	30885.813710
499.835989	31030.557839
500.202385	30899.855844
500.568723	30967.127521
500.935003	31305.676290
501.301226	31207.348584
501.667390	31904.227610
502.033497	32099.312702
502.399546	31909.820770
502.765537	31505.618534
503.131470	31988.215753
503.497345	32422.506116
503.863163	31410.010531
504.228923	32181.112985
504.594625	32591.253700
504.960269	32070.144586
505.325856	32767.825154
505.691385	32454.285550
506.056856	32765.342386
506.422270	33284.152734
506.787625	32804.310505
507.152924	33283.557878
507.518164	33479.653722
507.883347	33038.625857
508.248472	33213.034656
508.613540	33908.212292
508.978550	34141.146367
509.343503	34007.399515
509.708398	34367.264803
510.073236	34981.471426
510.438016	35082.546560
510.802738	34769.382522
511.167403	35342.702866
511.532010	35602.836487
511.896561	36098.616324
512.261053	36840.033943
512.625488	36624.290203
512.989866	36580.921156
513.354186	36636.532645
513.718449	36602.875381
514.082655	37495.424273
514.446803	37203.254119
514.810894	37822.438881
515.174927	37849.799744
515.538904	37840.090482
515.902822	38505.565639
516.266684	38203.610606
516.630488	38564.060668
516.994235	38588.757280
517.357925	39178.577322
517.721558	39457.791710
518.085133	39821.203449
518.448651	40019.038491
518.812112	39914.948746
519.175516	40071.615205
519.538863	40517.671621
519.902152	40598.425864
520.265385	41125.710392
520.628560	41162.508294
520.991678	41129.687862
521.354739	41356.713705
521.717743	41720.347255
522.080690	41632.023719
522.443580	42310.686535
522.806413	42352.974254
523.169189	42492.790656
523.531908	42712.837022
523.894569	42578.654109
524.257174	42781.956282
524.619722	43131.880415
524.982213	43267.298410
525.344647	43303.095643
525.707025	43424.484107
526.069345	43871.271490
526.431608	43788.273933
526.793815	44173.639898
527.155964	43734.305861
527.518057	44008.166544
527.880093	43849.007234
528.242072	44482.198843
528.603995	44218.458276
528.965860	44151.957895
529.327669	44374.461823
529.689421	44416.270633
530.051117	44372.321853
530.412755	44669.845712
530.774337	44726.863683
531.135862	44675.103636
531.497331	44804.315971
531.858743	44808.061548
532.220098	45224.821298
532.581396	44953.115709
532.942638	44721.459566
533.303824	44973.338297
533.664953	45035.253749
534.026025	44703.301330
534.387040	45291.856041
534.747999	45354.988932
535.108902	45672.679926
535.469748	44997.987019
535.830537	45259.542245
536.191270	45513.555905
536.551947	45246.205873
536.912567	45532.929059
537.273131	45690.964191
537.633638	45287.157686
537.994089	45500.239697
538.354483	45247.972797
538.714821	45910.304795
539.075103	46197.925307
539.435328	46033.671912
539.795497	45790.917669
540.155609	45927.159893
540.515665	46496.558220
540.875665	45815.286607
541.235609	46099.123733
541.595496	46218.959522
541.955328	46792.821790
542.315102	46228.421768
542.674821	46107.885258
543.034483	46020.849737
543.394090	46023.471137
543.753640	46013.119128
544.113134	47069.122392
544.472571	46167.504464
544.831953	47315.513827
545.191278	46567.250320
545.550548	46253.567043
545.909761	46902.257679
546.268918	47037.988225
546.628019	47466.662743
546.987064	46900.556289
547.346053	46190.519852
547.704986	47107.699821
548.063863	46740.464367
548.422684	46940.847711
548.781449	46540.481793
549.140158	47082.143692
549.498811	46845.005294
549.857408	46224.507312
550.215949	47077.160511
550.574434	46919.851306
550.932864	46838.025817
551.291237	47571.380111
551.649555	47315.551636
552.007817	47488.964807
552.366022	47163.969181
552.724173	47242.550687
553.082267	47651.037903
553.440305	47988.961569
553.798288	47238.558093
554.156215	47631.936972
554.514086	47834.200667
554.871902	47450.004250
555.229661	47632.027712
555.587365	47316.307809
555.945014	47438.523022
556.302606	47458.785940
556.660143	47553.413439
557.017625	47780.303170
557.375050	47492.256681
557.732421	47883.248573
558.089735	47940.236297
558.446994	47810.822316
558.804197	48293.079257
559.161345	48172.152059
559.518437	47501.628186
559.875474	47764.912528
560.232455	48002.784413
560.589381	48045.891320
560.946251	47835.730657
561.303065	48513.677629
561.659825	48202.731698
562.016528	47994.849637
562.373177	47580.751616
562.729770	48226.929237
563.086307	47738.506964
563.442789	48291.692940
563.799216	48139.175351
564.155587	48019.931898
564.511904	48000.687293
564.868164	48035.088127
565.224370	48348.720993
565.580520	48083.521012
565.936615	48278.391856
566.292654	47934.436449
566.648638	48285.139440
567.004567	48236.363756
567.360441	48350.825675
567.716260	48055.993792
568.072023	48416.027958
568.427732	48345.623204
568.783385	47889.262670
569.138982	48292.406263
569.494525	48428.318292
569.850013	48019.077422
570.205445	48142.762132
570.560823	47930.761448
570.916145	47790.461095
571.271412	48016.352679
571.626625	47688.062658
571.981782	47759.132845
572.336884	47345.004577
572.691931	47679.956483
573.046923	47333.767845
573.401860	47181.860236
573.756743	47192.219807
574.111570	47358.411526
574.466342	47238.875686
574.821059	47401.253772
575.175722	46899.764828
575.530330	47003.663009
575.884882	46641.181362
576.239380	46534.795372
576.593823	46625.299207
576.948211	46570.252328
577.302544	46098.891840
577.656823	46092.262723
578.011047	46353.543206
578.365216	46185.458534
578.719330	45889.194963
579.073389	45880.521658
579.427394	45929.632579
579.781344	45852.170209
580.135239	45611.460154
580.489080	45675.278641
580.842866	45163.377194
581.196597	45654.995559
581.550273	45644.215051
581.903895	45580.492346
582.257463	46009.668458
582.610975	45449.946626
582.964434	45780.812676
583.317837	45296.135981
583.671186	45249.711995
584.024481	45525.284150
584.377721	45066.886989
584.730906	45265.901661
585.084037	45407.986582
585.437113	45101.645745
585.790135	45229.610394
586.143103	44769.040497
586.496016	44943.782012
586.848874	45053.684207
587.201679	45064.479838
587.554428	44559.033589
587.907124	44853.499988
588.259765	44603.582266
588.612352	44777.010561
588.964884	44232.833127
589.317362	44542.727977
589.669786	44552.764914
590.022155	44396.723559
590.374470	44850.119894
590.726731	44414.531435
591.078937	43759.254531
591.431090	44101.748003
591.783188	43642.783713
592.135232	43427.476032
592.487222	43676.221686
592.839157	43836.366541
593.191038	43467.560767
593.542866	43269.942495
593.894639	42679.285622
594.246358	42989.906399
594.598022	42977.812671
594.949633	42566.139445
595.301190	42530.624516
595.652692	42467.153868
596.004141	42949.869555
596.355535	41845.526667
596.706876	41873.290822
597.058162	41595.646753
597.409395	42094.063113
597.760573	42306.449446
598.111698	41908.455391
598.462768	41828.389265
598.813785	41844.127747
599.164748	41443.419031
599.515657	41724.533934
599.866511	41226.339384
600.217312	41927.021960
600.568060	40841.888389
600.918753	41687.572194
601.269392	41603.430295
601.619978	41313.425317
601.970510	41523.631350
602.320988	41663.694768
602.671412	41939.216511
603.021783	41799.551344
603.372100	41367.874820
603.722363	41468.861734
604.072572	41497.644202
604.422728	41501.788030
604.772830	41275.321756
605.122878	41446.594958
605.472872	41304.026086
605.822813	41547.959958
606.172701	41315.315750
606.522534	41637.725264
606.872314	41842.121368
607.222041	41680.892665
607.571714	42001.784792
607.921333	41494.851403
608.270899	41722.877915
608.620411	42091.771909
608.969870	41838.612725
609.319276	41856.592000
609.668627	41883.053016
610.017926	42294.431335
610.367171	42414.693101
610.716362	42461.338897
611.065500	42341.634179
611.414585	42559.578383
611.763616	42761.771502
612.112594	42639.183243
612.461518	42774.447483
612.810389	43168.663194
613.159207	42964.511586
613.507971	42943.686580
613.856682	43421.935804
614.205340	43256.790125
614.553945	43947.014827
614.902496	43265.619706
615.250994	43693.568297
615.599439	43745.721554
615.947830	43866.192528
616.296169	43851.482441
616.644454	43900.081685
616.992686	44053.975509
617.340864	44497.433210
617.688990	44030.261921
618.037063	44721.779679
618.385082	44527.649886
618.733048	44874.599738
619.080961	44735.786525
619.428821	44764.352223
619.776628	44778.285973
620.124382	44603.458757
620.472083	44702.961052
620.819731	44808.495087
621.167326	44371.169950
621.514868	44348.210015
621.862357	43817.318541
622.209793	43908.881019
622.557176	43480.813960
622.904506	43230.200559
623.251783	42869.528686
623.599007	42549.279306
623.946179	42477.120230
624.293297	42206.727861
624.640363	41664.007320
624.987376	41511.056192
625.334336	41307.388535
625.681243	40902.488099
626.028097	40807.631228
626.374899	40615.558225
626.721647	40596.122057
627.068343	40383.392926
627.414987	40082.851937
627.761577	39838.063588
628.108115	40149.493470
628.454600	39404.610057
628.801032	39632.802927
629.147412	39524.642451
629.493739	39425.215773
629.840014	38998.567800
630.186236	39425.422461
630.532405	38870.038542
630.878521	39092.945762
631.224585	38868.682471
631.570597	38528.281078
631.916556	38704.078716
632.262462	38588.086807
632.608316	38516.333544
632.954117	38381.981753
633.299866	38328.626180
633.645562	38250.392514
633.991206	37715.228662
634.336797	37319.611512
634.682336	37198.875877
635.027823	36966.103119
635.373257	36844.024017
635.718639	36510.420620
636.063968	36409.758860
636.409245	35751.232933
636.754470	35708.544442
637.099642	35494.035784
637.444762	34902.063170
637.789829	35064.007717
638.134845	34673.489693
638.479808	34587.631281
638.824719	34529.625245
639.169577	34020.057852
639.514383	34123.053666
639.859137	33738.814400
640.203839	33902.974533
640.548489	33596.444653
640.893086	33597.599078
641.237632	33334.125692
641.582125	33435.074798
641.926566	33230.295567
642.270955	33253.419340
642.615292	33180.804039
642.959576	33082.113370
643.303809	33077.384768
643.647990	33172.433203
643.992118	33120.214411
644.336195	32956.699545
644.680219	33032.914229
645.024192	33229.615011
645.368112	33770.215747
645.711981	33784.590597
646.055797	34525.985532
646.399562	34325.428267
646.743274	35189.686203
647.086935	35595.138645
647.430544	35543.880193
647.774101	35597.626454
648.117606	35885.060444
648.461059	36029.204676
648.804460	35630.945961
649.147810	35119.528465
649.491108	34762.551758
649.834354	34618.775530
650.177548	33785.959270
650.520690	33307.571414
650.863781	33278.665438
651.206820	33108.728142
651.549807	32703.195042
651.892742	32121.581999
652.235626	32026.092463
652.578458	31880.869423
652.921238	31189.271007
653.263967	31506.561230
653.606644	31195.519517
653.949269	31114.147732
654.291843	30721.220037
654.634365	31082.247310
654.976836	30617.800765
655.319255	30702.290504
655.661622	30572.763097
656.003938	30436.185636
656.346203	30256.821383
656.688416	30493.407774
657.030577	30256.297102
657.372687	30085.553222
657.714746	30253.458933
658.056753	30444.261565
658.398708	29820.980865
658.740612	29884.471677
659.082465	30094.218965
659.424266	29977.314608
659.766016	29984.457923
660.107715	29834.569295
660.449362	29942.079463
660.790958	29938.066704
661.132503	29858.194663
661.473996	29936.982856
661.815438	30028.076506
662.156829	30135.047270
662.498168	29940.294894
662.839456	29917.639949
663.180693	30035.406344
663.521879	30122.328439
663.863013	30079.493755
664.204097	30069.839945
664.545129	30469.873147
664.886110	30413.276113
665.227040	30520.511537
665.567918	30516.034993
665.908746	30588.136096
666.249522	30680.386690
666.590248	30688.301302
666.930922	30801.457562
667.271545	30799.272222
667.612118	30852.088390
667.952639	30663.471099
668.293109	30697.972756
668.633528	30566.297817
668.973896	30521.565138
669.314213	30498.900111
669.654480	30319.160291
669.994695	30303.167230
670.334859	30217.830578
670.674973	30057.453830
671.015035	30254.068912
671.355047	30180.256338
671.695008	30110.678333
672.034918	30032.515242
672.374777	30119.011360
672.714585	29985.904734
673.054342	30112.939290
673.394049	29961.283738
673.733705	30181.720793
674.073310	29896.900642
674.412864	29967.396137
674.752368	29653.160853
675.091820	29892.585414
675.431223	29491.591873
675.770574	29280.259142
676.109875	29127.522263
676.449125	28919.856971
676.788324	28814.290168
677.127473	28351.308078
677.466571	28236.344565
677.805619	27953.092213
678.144616	27891.600218
678.483562	27846.716305
678.822458	27527.575978
679.161303	27469.131361
679.500098	27386.849648
679.838842	27318.168968
680.177535	27396.750474
680.516179	27637.977248
680.854771	27769.206044
681.193314	28531.657878
681.531805	29549.600430
681.870247	30280.459353
682.208638	31010.123522
682.546978	31290.512499
682.885268	31430.333942
683.223508	30980.806692
683.561697	30718.651569
683.899836	30546.082790
684.237925	30150.758026
684.575963	30002.258237
684.913951	29627.771082
685.251889	29808.269596
685.589776	29825.845578
685.927614	29827.259622
686.265401	30009.734268
686.603137	30118.071185
686.940824	30607.675608
687.278460	30947.731682
687.616046	31119.884565
687.953582	31775.504267
688.291068	31692.000074
688.628504	32035.088402
688.965889	32039.378424
689.303224	31755.889137
689.640510	31476.321868
689.977745	30863.627592
690.314930	30125.111156
690.652065	29676.604739
690.989150	29021.375727
691.326185	28173.917436
691.663170	27545.729173
692.000105	26789.624152
692.336990	26184.559662
692.673825	25755.812047
693.010610	25268.539158
693.347345	24769.638847
693.684030	24138.551920
694.020665	23922.155350
694.357251	23256.823866
694.693786	23248.873966
695.030272	23031.196943
695.366707	22532.657075
695.703093	22244.910534
696.039429	22315.854692
696.375716	22072.435017
696.711952	22081.657807
697.048139	21941.561622
697.384276	21777.484667
697.720363	21889.516749
698.056400	21770.263214
698.392388	21621.465996
698.728326	21608.689192
699.064214	21451.909307
699.400053	21450.354111
699.735842	21076.471895
700.071581	20867.901717
700.407270	20621.608584
700.742910	20448.190371
701.078501	20206.484688
701.414042	20001.949953
701.749533	19698.096925
702.084974	19370.532831
702.420366	19607.986300
702.755709	19192.307878
703.091002	18889.750427
703.426246	18957.296847
703.761440	18883.406135
704.096584	18648.906781
704.431679	18577.340041
704.766725	18524.453296
705.101721	18456.191031
705.436668	18578.885154
705.771565	18297.200601
706.106413	18609.419423
706.441212	18692.517803
706.775961	18792.877094
707.110661	18870.669659
707.445311	19237.264888
707.779913	19101.612479
708.114465	19395.685668
708.448967	19717.094514
708.783421	20343.309165
709.117825	20706.388188
709.452180	20935.435534
709.786485	21390.611397
710.120742	22146.091315
710.454949	22256.490064
710.789107	22767.426130
711.123216	23480.303257
711.457275	23705.413461
711.791286	24260.053810
712.125247	24416.800928
712.459159	24151.197655
712.793023	24908.293263
713.126837	23889.571853
713.460602	24132.187464
713.794318	23794.034425
714.127985	23543.080746
714.461602	22632.630717
714.795171	22617.015743
715.128691	21641.113893
715.462162	21119.132660
715.795584	20687.834222
716.128957	20421.603325
716.462281	20039.022598
716.795556	19761.121431
717.128782	19283.918246
717.461960	18673.820163
717.795088	18636.893712
718.128167	18291.675496
718.461198	17831.982759
718.794180	17703.025003
719.127113	17369.540073
719.459997	17172.158735
719.792833	16803.673074
720.125619	16845.290320
720.458357	16502.373391
720.791046	16366.675612
721.123686	16211.334977
721.456278	15985.491284
721.788821	15983.704195
722.121315	15711.229830
722.453761	15825.265771
722.786158	15700.257759
723.118506	15775.708708
723.450805	15667.477656
723.783056	15838.390415
724.115259	15736.952318
724.447412	15727.374125
724.779518	15947.118021
725.111574	15993.196688
725.443582	16255.122439
725.775542	16211.186263
726.107453	16726.084675
726.439315	16650.167419
726.771129	17063.567240
727.102895	17491.740163
727.434612	17764.784178
727.766281	17932.137883
728.097901	18253.277027
728.429473	18341.406479
728.760996	18346.001491
729.092471	18473.756932
729.423897	18372.195326
729.755276	18253.511441
730.086606	18363.060755
730.417887	18940.469476
730.749120	19496.012191
731.080305	19707.085303
731.411442	20110.690162
731.742530	20226.850949
732.073570	20398.323277
732.404562	20715.883202
732.735506	20570.947508
733.066401	20359.856753
733.397249	19864.490290
733.728048	19239.639271
734.058798	18375.925780
734.389501	17614.593082
734.720156	17102.560565
735.050762	16505.771129
735.381320	16128.541587
735.711831	15848.021540
736.042293	15478.368852
736.372707	15511.060734
736.703073	15300.806810
737.033391	15496.900133
737.363661	15500.945659
737.693883	15613.360869
738.024056	15812.594831
738.354182	16023.501584
738.684260	16391.404992
739.014290	16669.439750
739.344272	16890.456538
739.674207	17244.494252
740.004093	17421.988238
740.333931	17471.159652
740.663722	17553.360707
740.993464	17593.369824
741.323159	17445.855580
741.652806	17154.048390
741.982405	16986.296434
742.311956	16631.489944
742.641460	16517.708581
742.970915	16189.990731
743.300323	15843.378637
743.629683	15627.889475
743.958996	15312.809798
744.288260	14995.038144
744.617477	14679.338405
744.946647	14651.556606
745.275768	14340.593031
745.604842	14128.055465
745.933869	13951.642806
746.262847	13917.763732
746.591778	13843.328575
746.920662	13729.794228
747.249498	13724.425400
747.578286	13884.600501
747.907027	14059.168097
748.235720	14328.932842
748.564365	14392.895003
748.892963	14314.515143
749.221514	14416.477520
749.550017	14281.838383
749.878473	14258.601185
750.206881	14029.727759
750.535242	13958.145895
750.863555	13870.044170
751.191821	13776.263585
751.520039	13791.210606
751.848210	13720.551273
752.176334	13773.092699
752.504411	13690.395091
752.832440	13511.913039
753.160421	13626.707673
753.488356	13519.636086
753.816243	13421.953648
754.144082	13254.012649
754.471875	13205.932644
754.799620	13171.879650
755.127318	13155.092608
755.454969	13132.430101
755.782572	13116.205147
756.110129	13120.084315
756.437638	13029.013350
756.765100	13029.562836
757.092515	13060.553329
757.419882	13090.316301
757.747203	13108.169548
758.074477	13198.113815
758.401703	13177.006503
758.728882	13377.833470
759.056014	13422.437599
759.383099	13585.440788
759.710138	13704.560733
760.037129	13824.578003
760.364073	13888.484710
760.690970	13920.934618
761.017820	13937.610755
761.344623	14163.018387
761.671379	14548.258323
761.998088	15243.892183
762.324751	17016.508069
762.651366	20422.200702
762.977935	24888.095880
763.304456	27893.251196
763.630931	28975.465939
763.957359	27794.164797
764.283740	25529.754106
764.610074	23269.393983
764.936362	20617.074066
765.262602	18747.277337
765.588796	16796.340716
765.914943	15504.550084
766.241044	14389.678746
766.567097	13592.019494
766.893104	12877.405689
767.219064	12397.747462
767.544978	11916.990264
767.870845	11527.382169
768.196665	11307.802110
768.522438	11067.981819
768.848165	10869.168793
769.173846	10656.946299
769.499479	10526.272029
769.825066	10363.493172
770.150607	10124.333271
770.476101	10046.752434
770.801548	9920.063197
771.126949	9763.217777
771.452303	9653.267691
771.777611	9449.511815
772.102872	9443.291031
772.428087	9300.417169
772.753256	9145.046287
773.078378	9056.586640
773.403453	8871.523362
773.728482	8752.544569
774.053465	8679.256274
774.378401	8581.485616
774.703291	8454.322510
775.028135	8329.934560
775.352932	8297.086401
775.677683	8188.731841
776.002388	8084.458094
776.327046	8094.966379
776.651658	7995.811924
776.976224	7892.584217
777.300743	7894.295688
777.625216	7807.481978
777.949643	7754.262517
778.274024	7775.967205
778.598359	7684.429933
778.922647	7705.474230
779.246889	7649.784603
779.571086	7659.715677
779.895236	7665.739855
780.219339	7676.192688
780.543397	7677.568923
780.867409	7758.882734
781.191374	7769.764065
781.515294	7737.747697
781.839167	7833.980803
782.162995	7800.126935
782.486776	7745.644664
782.810511	7697.345369
783.134201	7611.837318
783.457844	7608.260619
783.781441	7557.874287
784.104993	7485.011969
784.428498	7464.902807
784.751958	7444.360105
785.075372	7422.254645
785.398739	7366.076027
785.722061	7411.138901
786.045337	7416.545538
786.368568	7574.436997
786.691752	7593.442148
787.014891	7938.062986
787.337983	8296.365516
787.661030	8882.187922
787.984031	9516.465899
788.306987	9912.655221
788.629897	10132.812492
788.952760	10085.019833
789.275579	9861.752170
789.598351	9464.965472
789.921078	9110.731153
790.243759	8697.812762
790.566395	8401.891990
790.888984	8153.226994
791.211529	7939.146834
791.534027	7715.231383
791.856480	7517.618153
792.178888	7438.257788
792.501249	7342.133067
792.823566	7183.936618
793.145836	7188.582041
793.468062	7156.910992
793.790241	7105.506346
794.112375	7176.500916
794.434464	7332.106212
794.756507	7374.315793
795.078505	7530.442848
795.400457	7839.826021
795.722364	8186.228908
796.044226	8477.912590
796.366042	8751.380062
796.687812	8708.684010
797.009538	8783.837532
797.331218	8683.712654
797.652852	8599.704346
797.974442	8445.503012
798.295986	8357.151749
798.617484	8166.765013
798.938938	8024.725462
799.260346	7921.331397
799.581709	7721.699184
799.903026	7645.552555
800.224299	7536.693879
800.545526	7361.536468
800.866708	7267.539113
801.187845	7196.184101
801.508936	7090.887000
801.829983	7048.450567
802.150984	6898.796353
802.471940	6856.175918
802.792851	6842.267375
803.113717	6807.216232
803.434538	6772.601149
803.755314	6708.500357
804.076045	6715.494958
804.396731	6657.771226
804.717372	6694.259098
805.037967	6692.270363
805.358518	6731.271249
805.679024	6811.465925
805.999485	6826.440672
806.319901	6861.955601
806.640272	6890.251597
806.960598	6967.300593
807.280879	6968.303783
807.601115	7048.458129
807.921306	6995.173133
808.241453	7010.248703
808.561554	7030.080602
808.881611	6991.762792
809.201623	7001.799729
809.521590	6948.055988
809.841513	6933.648370
810.161390	6979.711914
810.481223	6838.549524
810.801011	6825.545867
811.120755	6802.006199
811.440453	6729.368214
811.760107	6694.748090
812.079716	6665.101064
812.399281	6597.690755
812.718801	6590.053407
813.038276	6537.292690
813.357707	6480.814123
813.677093	6525.463623
813.996434	6427.375372
814.315731	6466.519932
814.634983	6463.233099
814.954191	6477.121478
815.273354	6583.769608
815.592473	6650.766543
815.911547	6768.890860
816.230577	6851.633838
816.549562	7007.607138
816.868502	7108.828467
817.187399	7205.298507
817.506250	7356.265941
817.825058	7397.752117
818.143821	7662.911768
818.462539	7942.292514
818.781213	8307.927403
819.099843	8857.466104
819.418429	9866.715186
819.736970	10830.843421
820.055466	12032.377235
820.373919	13565.762644
820.692327	15928.541369
821.010691	20086.553117
821.329011	29116.467012
821.647286	42126.848257
821.965517	55572.535658
822.283704	60959.691619
822.601847	62974.050996
822.919945	60339.211280
823.237999	56230.862459
823.556010	50147.581126
823.873976	43422.339096
824.191897	36856.452981
824.509775	31986.496720
824.827609	27411.274038
825.145398	24775.287460
825.463144	23385.123752
825.780845	23665.454755
826.098502	25430.834065
826.416116	29203.094200
826.733685	32864.078425
827.051210	34023.879047
827.368692	32253.151073
827.686129	28295.852866
828.003522	24161.675693
828.320872	20437.896335
828.638177	17565.139363
828.955439	15390.299894
829.272656	13568.885639
829.589830	12075.751322
829.906960	10789.185846
830.224046	9842.414304
830.541088	9089.407072
830.858086	8615.094989
831.175041	8232.899910
831.491952	8117.326417
831.808819	8160.017428
832.125642	8558.084580
832.442421	9444.052245
832.759157	11242.740978
833.075849	14170.859902
833.392497	17404.739930
833.709101	19601.639488
834.025662	19460.900555
834.342179	17781.619112
834.658653	15580.626137
834.975083	13637.392399
835.291469	12003.037719
835.607811	10674.000522
835.924110	9762.416234
836.240366	8880.179023
836.556578	8076.437618
836.872746	7421.478308
837.188871	6915.631287
837.504952	6488.932902
837.820990	6177.896230
838.136984	5953.804338
838.452935	5862.498960
838.768842	5889.970728
839.084706	6312.905892
839.400526	7515.165631
839.716303	9104.739741
840.032037	10211.976252
840.347727	10157.980453
840.663373	9183.409468
840.978977	8131.945763
841.294537	7313.340516
841.610054	6706.763680
841.925527	6271.495333
842.240957	5905.038737
842.556344	5573.474487
842.871687	5280.903561
843.186987	4997.810005
843.502244	4771.787352
843.817458	4605.005818
844.132629	4466.921053
844.447756	4377.027197
844.762840	4292.124084
845.077881	4219.365111
845.392879	4152.292559
845.707833	4102.859004
846.022745	4058.970719
846.337613	4028.920401
846.652438	3986.040346
846.967221	3969.238180
847.281960	3940.634673
847.596656	3918.899739
847.911309	3899.060278
848.225919	3875.369375
848.540485	3857.932024
848.855009	3845.460209
849.169490	3821.376097
849.483928	3811.719767
849.798323	3803.974034
850.112675	3782.985190
850.426984	3789.876447
850.741251	3773.535547
851.055474	3770.899023
851.369654	3774.253911
851.683792	3768.567490
851.997887	3778.909417
852.311938	3775.395733
852.625947	3783.577525
852.939914	3773.802728
853.253837	3782.861682
853.567718	3779.867236
853.881555	3773.102008
854.195350	3782.564253
854.509103	3778.014612
854.822812	3779.005199
855.136479	3770.105042
855.450103	3779.317750
855.763685	3765.068929
856.077224	3770.518416
856.390720	3787.524749
856.704173	3807.868325
857.017584	3820.108247
857.330953	3831.685257
857.644278	3853.236189
857.957561	3855.114019
858.270802	3859.618290
858.584000	3860.266078
858.897155	3854.113350
859.210268	3833.991584
859.523339	3815.369562
859.836367	3814.958708
860.149352	3803.364054
860.462295	3797.521357
860.775195	3788.376704
861.088054	3782.604583
861.400869	3782.279428
861.713642	3783.859830
862.026373	3794.524391
862.339062	3798.844660
862.651708	3815.440138
862.964312	3850.377855
863.276873	3862.340513
863.589392	3921.241355
863.901869	3966.470587
864.214303	4016.554450
864.526696	4048.709450
864.839045	4094.036985
865.151353	4122.025471
865.463619	4129.297336
865.775842	4132.463180
866.088023	4156.877488
866.400162	4142.321157
866.712258	4154.283815
867.024313	4154.094771
867.336325	4152.017816
867.648296	4162.485772
867.960224	4158.654495
868.272110	4170.463398
868.583954	4173.001619
868.895755	4189.866799
869.207515	4185.675080
869.519233	4227.625041
869.830909	4242.980396
870.142542	4266.779683
870.454134	4279.054893
870.765684	4309.022032
871.077191	4347.622147
871.388657	4368.202658
871.700081	4407.062392
872.011463	4453.098209
872.322803	4486.702540
872.634101	4517.803939
872.945357	4556.862799
873.256571	4611.468578
873.567744	4647.648939
873.878874	4662.326258
874.189963	4699.179613
874.501010	4709.844174
874.812015	4706.716138
875.122979	4751.579887
875.433900	4750.380092
875.744780	4765.052371
876.055618	4791.836021
876.366415	4788.433242
876.677169	4813.500380
876.987882	4858.964026
877.298554	4911.429834
877.609183	4992.821784
877.919771	5105.627683
878.230317	5252.408439
878.540822	5471.829702
878.851285	5797.856244
879.161707	6261.942347
879.472087	7018.160794
879.782425	8266.153881
880.092722	10453.702099
880.402977	13780.094862
880.713191	17551.379533
881.023363	21303.991771
881.333494	23547.741293
881.643583	24788.308760
881.953631	24785.435302
882.263637	23963.714623
882.573602	22488.562102
882.883526	20924.445819
883.193408	19240.372759
883.503248	17530.494033
883.813048	15971.726414
884.122806	14526.934242
884.432522	13052.608471
884.742197	11759.791964
885.051831	10666.153966
885.361424	9643.901227
885.670975	8815.317017
885.980485	8114.253834
886.289954	7528.617950
886.599382	7053.584982
886.908768	6671.034502
887.218113	6300.613038
887.527417	6012.357340
887.836680	5741.332307
888.145901	5520.055900
888.455082	5351.426783
888.764221	5197.739646
889.073319	5068.494544
889.382376	4990.270960
889.691392	4931.659985
890.000366	4904.157970
890.309300	4885.016709
890.618193	4885.974528
890.927044	4873.616139
891.235855	4896.024068
891.544625	4927.385086
891.853353	4992.433615
892.162041	5107.071974
892.470687	5294.842352
892.779293	5546.335435
893.087858	5920.477270
893.396381	6506.284553
893.704864	7310.139384
894.013306	8468.236095
894.321707	9656.872116
894.630068	10470.821857
894.938387	10686.152223
895.246665	10454.531369
895.554903	9842.585703
895.863100	9152.653388
896.171256	8577.283814
896.479371	8074.711023
896.787446	7571.671925
897.095480	7146.511092
897.403473	6817.442213
897.711425	6498.881619
898.019336	6226.558488
898.327207	5951.498011
898.635038	5719.756168
898.942827	5473.735258
899.250576	5281.120331
899.558284	5081.210855
899.865952	4958.559582
900.173579	4811.703208
900.481165	4702.736147
900.788711	4603.425417
901.096216	4532.735837
901.403681	4468.806444
901.711105	4443.928350
902.018489	4430.465949
902.325832	4496.363912
902.633135	4619.471409
902.940397	4968.150377
903.247619	5761.607827
903.554800	7204.998558
903.861941	9138.626378
904.169041	10679.896152
904.476101	11318.713687
904.783121	10976.918416
905.090100	10235.745292
905.397039	9393.968382
905.703938	8633.986713
906.010796	7937.402595
906.317614	7371.863271
906.624391	6832.895870
906.931129	6400.904273
907.237826	5997.541389
907.544483	5613.128203
907.851099	5231.941355
908.157675	4878.581676
908.464211	4550.145462
908.770707	4315.000840
909.077163	4108.512658
909.383578	3964.635607
909.689954	3844.212524
909.996289	3776.151906
910.302584	3708.600444
910.608839	3676.190866
910.915054	3645.800270
911.221229	3629.502220
911.527363	3641.230464
911.833458	3653.666991
912.139513	3680.322092
912.445527	3712.295610
912.751502	3791.991211
913.057436	3896.249834
913.363331	4034.866442
913.669186	4239.257504
913.975000	4502.695601
914.280775	4927.087658
914.586510	5515.581876
914.892205	6317.589123
915.197859	7359.227619
915.503475	8592.087163
915.809050	9648.413060
916.114585	10308.494183
916.420081	10571.874307
916.725536	10538.726200
917.030952	10097.315207
917.336328	9688.699441
917.641665	9269.449361
917.946961	8793.604767
918.252218	8363.128037
918.557435	7856.171963
918.862612	7421.697598
919.167750	7043.152314
919.472848	6614.185410
919.777906	6234.147945
920.082925	5871.348706
920.387904	5505.544938
920.692843	5235.636520
920.997743	4987.533613
921.302603	4747.476388
921.607423	4586.857664
921.912204	4416.166716
922.216946	4296.696411
922.521647	4169.651772
922.826310	4070.746854
923.130932	3974.233964
923.435516	3871.747306
923.740059	3803.061585
924.044564	3727.953434
924.349028	3667.444464
924.653454	3602.249742
924.957840	3529.452960
925.262186	3482.449242
925.566493	3420.390117
925.870761	3361.436343
926.174989	3327.269923
926.479178	3290.910601
926.783328	3245.320926
927.087438	3218.509550
927.391509	3184.007893
927.695541	3153.498830
927.999533	3125.898512
928.303486	3104.319853
928.607400	3086.716144
928.911275	3076.384299
929.215110	3059.083059
929.518906	3046.122253
929.822663	3044.912376
930.126381	3045.439176
930.430060	3053.709189
930.733699	3057.444684
931.037299	3065.046744
931.340861	3064.892989
931.644383	3071.247363
931.947866	3069.674523
932.251309	3063.332752
932.554714	3062.148081
932.858080	3056.423851
933.161407	3050.470248
933.464694	3039.606561
933.767943	3036.173536
934.071153	3030.681198
934.374323	3016.881040
934.677455	3011.398785
934.980548	3005.402333
935.283602	3001.858401
935.586617	2996.441682
935.889593	3005.518279
936.192530	3012.066738
936.495428	3024.783048
936.798287	3046.195349
937.101108	3079.892942
937.403890	3131.907568
937.706632	3191.975436
938.009336	3273.768158
938.312002	3346.827080
938.614628	3412.372162
938.917216	3463.154225
939.219765	3492.284533
939.522275	3527.479348
939.824747	3535.837581
940.127179	3532.187786
940.429573	3528.283412
940.731929	3523.990870
941.034246	3509.006040
941.336524	3494.827795
941.638763	3484.190960
941.940964	3468.591110
942.243126	3424.929676
942.545250	3404.351686
942.847335	3366.250645
943.149381	3330.942404
943.451389	3297.217085
943.753359	3263.272475
944.055290	3240.554515
944.357182	3211.653580
944.659036	3196.527598
944.960851	3187.698017
945.262628	3170.535409
945.564367	3174.207890
945.866067	3169.817045
946.167729	3162.056188
946.469352	3162.225067
946.770937	3159.500323
947.072484	3141.644556
947.373992	3145.221255
947.675462	3139.819659
947.976893	3120.915332
948.278286	3115.770834
948.579641	3104.549226
948.880958	3097.675612
949.182236	3106.013681
949.483476	3096.468256
949.784678	3097.688215
950.085841	3095.621342
950.386967	3108.458641
950.688054	3124.870117
950.989103	3143.103970
951.290114	3165.385870
951.591087	3193.762525
951.892021	3222.756722
952.192917	3251.652616
952.493776	3277.793519
952.794596	3282.673356
953.095378	3288.768111
953.396122	3283.457255
953.696828	3277.092798
953.997496	3265.316663
954.298126	3243.821183
954.598718	3221.952658
954.899272	3194.286805
955.199788	3166.003412
955.500266	3134.745737
955.800706	3100.881786
956.101108	3062.506003
956.401472	3028.122813
956.701798	2998.082577
957.002087	2957.329889
957.302337	2928.023142
957.602550	2898.935684
957.902724	2868.499718
958.202861	2845.781758
958.502960	2821.637151
958.803022	2802.470684
959.103045	2782.671553
959.403031	2765.650097
959.702979	2751.055956
960.002889	2741.250912
960.302762	2727.319683
960.602596	2713.869885
960.902393	2704.702547
961.202153	2695.575538
961.501875	2689.490865
961.801559	2681.281346
962.101205	2677.629030
962.400814	2670.029491
962.700385	2664.655621
962.999918	2656.161276
963.299414	2649.454021
963.598873	2647.525780
963.898293	2640.140489
964.197677	2642.681231
964.497022	2639.643936
964.796331	2635.858029
965.095601	2633.405508
965.394835	2634.340642
965.694030	2631.149592
965.993189	2627.807307
966.292309	2624.943931
966.591393	2627.144395
966.890439	2626.146246
967.189447	2626.252111
967.488419	2628.079529
967.787353	2626.768829
968.086249	2629.692698
968.385108	2630.685805
968.683930	2633.196300
968.982714	2634.675879
969.281462	2641.887249
969.580172	2648.599546
969.878844	2652.269506
970.177480	2662.087153
970.476078	2668.620488
970.774639	2677.465192
971.073162	2684.411902
971.371649	2689.831143
971.670098	2692.697039
971.968510	2699.522761
972.266885	2702.950746
972.565223	2707.686910
972.863524	2711.934082
973.161788	2717.623024
973.460014	2717.774259
973.758204	2718.953889
974.056356	2723.334651
974.354471	2722.618807
974.652550	2724.544528
974.950591	2724.058057
975.248595	2722.354147
975.546563	2719.629403
975.844493	2717.494475
976.142386	2710.363762
976.440243	2705.597352
976.738062	2700.722556
977.035845	2693.334745
977.333590	2688.548169
977.631299	2682.350071
977.928971	2677.445028
978.226606	2670.856240
978.524204	2665.537822
978.821765	2661.081442
979.119290	2663.929694
979.416777	2664.159067
979.714228	2668.471774
980.011642	2671.907320
980.309020	2679.355625
980.606360	2693.765763
980.903664	2719.873899
981.200931	2751.396234
981.498162	2801.785087
981.795356	2877.543547
982.092513	2967.500417
982.389633	3072.462282
982.686717	3172.244360
982.983764	3247.992738
983.280775	3296.637352
983.577749	3304.183959
983.874686	3291.802885
984.171587	3255.705703
984.468451	3217.576936
984.765279	3173.449196
985.062070	3128.313225
985.358824	3078.557037
985.655543	3024.979653
985.952224	2969.761375
986.248869	2909.552354
986.545478	2847.347036
986.842050	2791.969961
987.138586	2744.825090
987.435086	2707.427290
987.731549	2675.040397
988.027975	2651.205822
988.324366	2634.817031
988.620719	2622.156173
988.917037	2607.977928
989.213318	2598.613985
989.509563	2589.960844
989.805772	2585.496902
990.101944	2582.373907
990.398080	2577.806622
990.694180	2577.312589
990.990244	2575.888463
991.286271	2578.270408
991.582262	2577.806622
991.878217	2582.935996
992.174136	2582.731829
992.470019	2587.410020
992.765865	2590.633838
993.061676	2593.040989
993.357450	2602.490632
993.653188	2610.891715
993.948890	2629.428037
994.244556	2648.032416
994.540186	2672.759275
994.835780	2701.829089
995.131337	2743.171592
995.426859	2780.186264
995.722345	2829.249294
996.017795	2883.739126
996.313208	2919.178437
996.608586	2946.002417
996.903928	2958.784262
997.199234	2959.321145
997.494504	2955.510033
997.789738	2942.279525
998.084936	2916.110895
998.380099	2888.455125
998.675225	2855.586802
998.970316	2826.332986
999.265371	2787.989970
999.560390	2751.819691
999.855373	2722.467573
1000.150320	2694.060671
1000.445232	2667.677792
1000.740108	2646.555358
1001.034948	2627.577934
1001.329752	2614.604525
1001.624521	2598.732452
1001.919254	2586.711820
1002.213951	2580.380131
1002.508613	2571.462330
1002.803239	2566.529561
1003.097829	2558.501523
1003.392384	2553.261244
1003.686903	2547.733619
1003.981386	2548.439380
1004.275834	2544.048535
1004.570246	2542.372352
1004.864623	2536.378420
1005.158964	2536.259953
1005.453270	2533.406660
1005.747540	2530.507996
1006.041775	2528.925074
1006.335974	2529.204858
1006.630138	2526.296112
1006.924266	2526.767460
1007.218359	2524.617408
1007.512416	2522.658920
1007.806438	2522.386697
1008.100425	2521.663292
1008.394376	2520.644979
1008.688292	2524.725793
1008.982172	2521.527181
1009.276017	2524.506503
1009.569827	2519.911491
1009.863602	2521.038189
1010.157341	2520.392921
1010.451045	2517.335461
1010.744714	2519.057015
1011.038347	2518.295801
1011.331945	2512.982425
1011.625508	2517.224556
1011.919036	2514.777076
1012.212528	2514.746829
1012.505986	2511.664163
1012.799408	2515.296314
1013.092795	2511.878412
1013.386147	2511.155007
1013.679464	2509.027640
1013.972745	2512.599297
1014.265992	2510.650891
1014.559204	2513.796571
1014.852380	2511.434791
1015.145521	2508.846158
1015.438628	2509.809018
1015.731699	2510.539986
1016.024736	2512.430418
1016.317737	2513.569719
1016.610703	2512.092661
1016.903635	2515.757580
1017.196531	2516.125584
1017.489393	2518.807478
1017.782219	2515.719771
1018.075011	2519.515760
1018.367768	2522.119516
1018.660490	2521.670853
1018.953177	2521.670853
1019.245829	2521.670853
