Dividing Wavelength (nm)	Counts (n)	Blue Motor Position (mm): 21.300000	Red Motor Position (mm): 0.000000	
326.493990	2187.122240
326.888308	2187.122240
327.282561	2187.122240
327.676750	2146.533390
328.070874	2143.687659
328.464933	2144.302679
328.858929	2145.928452
329.252859	2154.095121
329.646726	2162.589465
330.040528	2170.466268
330.434265	2186.361026
330.827938	2206.351722
331.221547	2221.049206
331.615091	2237.291803
332.008571	2259.553539
332.401986	2273.774634
332.795338	2294.186266
333.188625	2310.050777
333.581847	2329.252532
333.975006	2349.457476
334.368100	2369.095291
334.761129	2383.704555
335.154095	2405.116856
335.546996	2428.240629
335.939833	2460.846812
336.332606	2474.336939
336.725315	2488.724392
337.117960	2501.566732
337.510540	2511.603669
337.903056	2523.589012
338.295508	2534.815662
338.687896	2541.490150
339.080220	2545.049204
339.472480	2555.315514
339.864676	2561.470763
340.256807	2566.945456
340.648875	2569.806311
341.040879	2571.578277
341.432818	2575.223031
341.824694	2577.920048
342.216506	2579.351736
342.608253	2579.689493
342.999937	2580.533886
343.391557	2580.730491
343.783113	2578.348546
344.174605	2579.031622
344.566033	2581.017837
344.957397	2576.901735
345.348697	2576.221179
345.739934	2574.499625
346.131106	2571.651373
346.522215	2570.892680
346.913260	2569.372772
347.304241	2566.267421
347.695159	2564.026628
348.086012	2563.983778
348.476802	2562.849519
348.867528	2556.023796
349.258191	2554.793755
349.648789	2550.536500
350.039324	2550.097920
350.429796	2553.614125
350.820203	2551.595143
351.210548	2551.569937
351.600828	2548.104144
351.991045	2546.526263
352.381198	2547.436191
352.771288	2547.955430
353.161314	2546.715306
353.551276	2548.429298
353.941175	2543.451159
354.331010	2543.993083
354.720782	2545.765048
355.110490	2545.999462
355.500135	2543.831766
355.889717	2544.260264
356.279235	2546.745553
356.668689	2544.038453
357.058080	2545.071890
357.447408	2544.943340
357.836672	2546.831252
358.225873	2546.168341
358.615010	2547.095913
359.004084	2545.918803
359.393095	2548.227652
359.782043	2545.515511
360.170927	2547.985677
360.559748	2547.070707
360.948505	2548.278063
361.337199	2549.883671
361.725830	2546.047353
362.114398	2552.658826
362.502903	2551.824515
362.891344	2552.936090
363.279722	2553.064639
363.668037	2552.489948
364.056289	2551.111192
364.444478	2553.180586
364.832603	2552.421892
365.220665	2555.991029
365.608665	2553.208312
365.996601	2556.366595
366.384474	2556.106975
366.772284	2556.013714
367.160031	2553.379711
367.547715	2556.873231
367.935336	2555.686039
368.322893	2554.178734
368.710388	2552.618497
369.097820	2554.284598
369.485189	2556.308622
369.872495	2557.021945
370.259738	2558.567058
370.646918	2559.983623
371.034035	2558.254507
371.421090	2560.328942
371.808081	2558.710731
372.195010	2559.736606
372.581875	2562.126113
372.968678	2559.731565
373.355418	2562.027811
373.742096	2560.906154
374.128710	2560.394477
374.515262	2560.762481
374.901751	2561.168294
375.288177	2564.014025
375.674540	2560.984292
376.060841	2562.519323
376.447079	2561.853891
376.833254	2564.629046
377.219367	2562.680640
377.605417	2567.096691
377.991404	2565.914540
378.377329	2563.504869
378.763191	2565.218861
379.148991	2564.520661
379.534727	2565.838923
379.920402	2565.138202
380.306013	2565.324725
380.691563	2567.978893
381.077049	2563.227605
381.462474	2564.951680
381.847835	2564.422359
382.233134	2569.531568
382.618371	2568.067113
383.003545	2567.056362
383.388657	2562.448747
383.773706	2566.758933
384.158693	2568.644325
384.543618	2567.021073
384.928480	2568.374623
385.313280	2570.680951
385.698017	2568.861095
386.082692	2569.370251
386.467305	2569.682803
386.851856	2569.009809
387.236344	2568.888821
387.620770	2568.430076
388.005133	2564.424879
388.389435	2565.881773
388.773674	2563.797256
389.157851	2569.261866
389.541965	2570.262535
389.926018	2573.433421
390.310008	2571.681620
390.693936	2571.747155
391.077802	2570.570046
391.461606	2571.268246
391.845348	2571.805128
392.229027	2572.891497
392.612645	2574.602969
392.996200	2576.725295
393.379694	2574.277814
393.763125	2571.805128
394.146494	2572.344532
394.529801	2573.541806
394.913047	2574.234965
395.296230	2575.946436
395.679351	2574.303020
396.062410	2573.294789
396.445408	2575.835531
396.828343	2575.931313
397.211217	2575.817887
397.594028	2578.446849
397.976778	2575.091961
398.359466	2576.707651
398.742092	2574.713874
399.124656	2577.851992
399.507158	2576.135480
399.889598	2575.792681
400.271977	2577.756211
400.654294	2577.433577
401.036549	2577.100861
401.418742	2579.734863
401.800874	2576.639595
402.182944	2575.374265
402.564952	2577.809143
402.946898	2575.878381
403.328783	2578.530028
403.710606	2579.324009
404.092367	2578.963567
404.474067	2577.100861
404.855705	2579.921386
405.237282	2579.190419
405.618797	2578.900552
406.000250	2583.596387
406.381642	2580.614545
406.762972	2577.846951
407.144240	2581.663105
407.525447	2578.209914
407.906593	2576.884091
408.287677	2582.225193
408.668700	2584.912128
409.049661	2583.971953
409.430560	2583.911459
409.811399	2581.098496
410.192176	2585.922880
410.572891	2582.273084
410.953545	2582.618403
411.334138	2583.969433
411.714669	2583.999680
412.095139	2582.993969
412.475547	2583.364494
412.855894	2584.405492
413.236180	2581.330389
413.616405	2589.005545
413.996568	2586.626121
414.376670	2583.551017
414.756711	2585.353229
415.136691	2585.431367
415.516609	2584.879361
415.896466	2586.217787
416.276262	2586.953796
416.655997	2588.856831
417.035670	2586.855493
417.415283	2588.440936
417.794834	2586.845411
418.174324	2586.275761
418.553753	2587.709969
418.933121	2589.207192
419.312428	2588.493868
419.691674	2588.917325
420.070859	2589.587799
420.449983	2588.604774
420.829045	2587.341965
421.208047	2587.268868
421.586988	2588.637541
421.965867	2590.159970
422.344686	2589.718869
422.723444	2591.059816
423.102141	2587.631831
423.480777	2589.343303
423.859352	2592.612491
424.237866	2590.979157
424.616319	2590.966554
424.994712	2592.746082
425.373044	2588.740885
425.751314	2588.425813
426.129524	2590.064188
426.507673	2588.839187
426.885762	2584.649988
427.263789	2592.128540
427.641756	2589.318097
428.019662	2592.834302
428.397508	2592.516709
428.775292	2591.702563
429.153016	2594.412183
429.530679	2592.594847
429.908282	2593.842532
430.285824	2593.850094
430.663305	2595.165835
431.040726	2592.299939
431.418086	2594.281113
431.795385	2594.825557
432.172624	2594.712132
432.549802	2595.317070
432.926920	2593.608119
433.303977	2593.953438
433.680974	2595.034765
434.057910	2596.531988
434.434786	2595.614498
434.811601	2597.416711
435.188355	2596.017790
435.565050	2596.368151
435.941683	2595.745568
436.318257	2594.926381
436.694770	2597.086515
437.071222	2597.741865
437.447614	2596.405959
437.823946	2597.845209
438.200218	2599.932246
438.576429	2597.502410
438.952580	2598.114910
439.328670	2597.862853
439.704700	2597.764550
440.080670	2598.525764
440.456580	2600.199427
440.832429	2597.411669
441.208218	2598.303954
441.583947	2599.634818
441.959616	2600.741352
442.335224	2599.405446
442.710773	2602.014243
443.086261	2599.266814
443.461689	2602.586414
443.837057	2600.174222
444.212365	2600.310333
444.587612	2598.520723
444.962800	2595.022162
445.337927	2598.740013
445.712995	2599.468460
446.088002	2599.816300
446.462949	2602.730087
446.837837	2602.720004
447.212664	2601.147164
447.587431	2604.217227
447.962139	2603.408122
448.336786	2606.238730
448.711374	2609.626385
449.085901	2605.177567
449.460369	2604.048348
449.834776	2608.121601
450.209124	2602.961980
450.583412	2607.131014
450.957640	2607.511621
451.331808	2609.681838
451.705917	2609.180243
452.079965	2604.991044
452.453954	2606.100098
452.827883	2607.277207
453.201752	2608.429111
453.575562	2607.186467
453.949311	2609.255860
454.323001	2605.923658
454.696632	2607.151179
455.070202	2608.595469
455.443713	2611.060593
455.817164	2610.969853
456.190556	2610.806015
456.563888	2614.407920
456.937160	2611.877260
457.310373	2610.294338
457.683526	2608.986159
458.056619	2611.174019
458.429653	2612.343567
458.802628	2613.538321
459.175542	2612.467075
459.548398	2614.871706
459.921194	2612.484719
460.293930	2614.397837
460.666607	2617.994701
461.039224	2619.577623
461.411782	2620.734568
461.784280	2620.560648
462.156719	2620.474948
462.529099	2621.984774
462.901419	2620.548045
463.273680	2616.444546
463.645882	2614.060080
464.018024	2616.074021
464.390106	2615.791716
464.762130	2623.804630
465.134094	2624.424692
465.505999	2628.344189
465.877845	2631.620939
466.249631	2637.871970
466.621358	2639.843061
466.993026	2638.035808
467.364634	2641.173926
467.736184	2638.053452
468.107674	2637.521610
468.479105	2638.408853
468.850477	2639.565798
469.221790	2639.412043
469.593043	2637.577063
469.964238	2639.175108
470.335373	2638.101343
470.706449	2645.370687
471.077467	2642.222486
471.448425	2648.332364
471.819324	2662.964313
472.190164	2668.935560
472.560945	2664.171670
472.931667	2658.704538
473.302330	2660.345434
473.672934	2662.031700
474.043479	2666.288954
474.413965	2666.767864
474.784393	2672.270283
475.154761	2680.005934
475.525070	2683.476768
475.895321	2689.243848
476.265513	2696.457740
476.635645	2703.321271
477.005719	2710.946016
477.375734	2720.312480
477.745691	2729.149622
478.115588	2746.861716
478.485427	2756.412182
478.855207	2777.025460
479.224928	2810.299596
479.594591	2849.943230
479.964194	2864.096270
480.333739	2877.772920
480.703226	2888.918911
481.072653	2909.542272
481.442022	2941.644339
481.811333	2988.252327
482.180584	3011.774351
482.549777	3024.621732
482.918912	3045.653425
483.287988	3089.556834
483.657005	3116.700927
484.025964	3147.681338
484.394864	3178.329033
484.763706	3207.164433
485.132489	3237.701222
485.501213	3280.576236
485.869879	3330.864266
486.238487	3366.893393
486.607036	3432.072991
486.975527	3469.992550
487.343959	3543.149775
487.712333	3602.612705
488.080648	3643.504025
488.448905	3740.654621
488.817104	3792.301242
489.185244	3910.992689
489.553326	3991.232735
489.921350	4129.614928
490.289315	4402.164911
490.657222	4653.620185
491.025070	4787.702275
491.392861	4871.486252
491.760593	4903.915994
492.128267	4938.248773
492.495883	4931.869193
492.863440	4964.246003
493.230939	4978.809897
493.598380	5085.710084
493.965763	5142.259228
494.333088	5205.543353
494.700354	5308.335000
495.067563	5421.022432
495.434713	5512.267317
495.801805	5619.563236
496.168839	5750.781950
496.535815	5851.279872
496.902733	6001.433160
497.269593	6055.176901
497.636395	6239.428554
498.003139	6357.197469
498.369825	6485.462067
498.736453	6622.548684
499.103023	6734.059007
499.469535	6886.609364
499.835989	7071.566778
500.202385	7243.838128
500.568723	7278.629652
500.935003	7448.629962
501.301226	7538.738067
501.667390	7843.243923
502.033497	8114.820963
502.399546	8159.331831
502.765537	8258.486286
503.131470	8482.500040
503.497345	8692.532153
503.863163	8631.692988
504.228923	8974.385585
504.594625	9207.682623
504.960269	9209.958704
505.325856	9542.284169
505.691385	9553.914111
506.056856	9879.355880
506.422270	10092.195916
506.787625	10095.533159
507.152924	10466.554521
507.518164	10603.444533
507.883347	10713.124917
508.248472	10759.604356
508.613540	11235.648075
508.978550	11380.016639
509.343503	11545.585775
509.708398	11843.762463
510.073236	12071.811661
510.438016	12336.099192
510.802738	12426.335846
511.167403	12710.596429
511.532010	12761.764141
511.896561	13326.693485
512.261053	13548.862176
512.625488	13639.355928
512.989866	13773.339715
513.354186	13865.418911
513.718449	14146.425429
514.082655	14493.410569
514.446803	14597.258338
514.810894	15002.350338
515.174927	14915.624848
515.538904	15132.580986
515.902822	15574.937195
516.266684	15665.761143
516.630488	15770.602019
516.994235	15968.598378
517.357925	16312.528578
517.721558	16631.260572
518.085133	16865.066766
518.448651	17010.713263
518.812112	17031.717230
519.175516	17293.975697
519.538863	17633.305845
519.902152	17655.933064
520.265385	18069.675684
520.628560	18090.631760
520.991678	18288.136606
521.354739	18523.359365
521.717743	18754.327390
522.080690	18750.206247
522.443580	19198.256439
522.806413	19334.118056
523.169189	19614.426374
523.531908	19778.480644
523.894569	19680.979687
524.257174	19892.496421
524.619722	20212.171109
524.982213	20117.044536
525.344647	20371.224554
525.707025	20572.245605
526.069345	20749.469889
526.431608	20864.468691
526.793815	21161.606901
527.155964	20823.088379
527.518057	21125.111468
527.880093	21220.994214
528.242072	21490.401037
528.603995	21400.164384
528.965860	21361.171059
529.327669	21576.647618
529.689421	21663.236997
530.051117	21636.821351
530.412755	21934.486362
530.774337	21857.669260
531.135862	21867.784335
531.497331	22151.508035
531.858743	21861.553469
532.220098	22407.081932
532.581396	22189.525897
532.942638	22283.603910
533.303824	22440.585441
533.664953	22557.036095
534.026025	22351.334332
534.387040	22650.012616
534.747999	22823.370335
535.108902	23032.056460
535.469748	22651.018326
535.830537	22924.337084
536.191270	23080.025559
536.551947	23082.039500
536.912567	22837.049506
537.273131	23174.569879
537.633638	22996.700327
537.994089	23267.677470
538.354483	22911.945928
538.714821	23430.773920
539.075103	23543.673081
539.435328	23389.350759
539.795497	23017.406867
540.155609	23472.882678
540.515665	23789.474702
540.875665	23115.797587
541.235609	23418.483587
541.595496	23461.313230
541.955328	23839.251055
542.315102	23800.534993
542.674821	23441.950158
543.034483	23343.753523
543.394090	23541.742319
543.753640	23357.568805
544.113134	24021.382902
544.472571	23674.717876
544.831953	23986.687161
545.191278	23619.678558
545.550548	23608.860242
545.909761	23830.207225
546.268918	24075.224946
546.628019	24056.844899
546.987064	23814.352796
547.346053	23597.295835
547.704986	23741.608946
548.063863	23912.534308
548.422684	23913.744185
548.781449	23524.425956
549.140158	23922.997223
549.498811	23517.201982
549.857408	23266.752418
550.215949	23743.398556
550.574434	23420.797477
550.932864	23660.234641
551.291237	23814.930008
551.649555	23698.920455
552.007817	23759.167285
552.366022	23654.147447
552.724173	23700.639489
553.082267	23638.983657
553.440305	24117.641214
553.798288	23419.020470
554.156215	23944.545635
554.514086	24025.088150
554.871902	23400.325351
555.229661	23692.054404
555.587365	23563.777203
555.945014	23410.513523
556.302606	23696.316699
556.660143	23623.401450
557.017625	23897.688110
557.375050	23439.081742
557.732421	23840.912115
558.089735	23647.208299
558.446994	23710.757084
558.804197	23732.401278
559.161345	23705.650396
559.518437	23439.890847
559.875474	23645.466580
560.232455	23830.855013
560.589381	23673.444984
560.946251	23630.270022
561.303065	23965.494150
561.659825	24040.093145
562.016528	23664.796885
562.373177	23400.216966
562.729770	23751.489608
563.086307	23632.717502
563.442789	23802.014572
563.799216	23622.806594
564.155587	23644.501199
564.511904	23630.678356
564.868164	23560.601276
565.224370	23550.203896
565.580520	23446.613226
565.936615	23599.818932
566.292654	23257.764041
566.648638	23583.157919
567.004567	23402.019179
567.360441	23354.934802
567.716260	23078.190579
568.072023	23409.250714
568.427732	23156.628412
568.783385	22967.438950
569.138982	23177.234129
569.494525	23240.682091
569.850013	22968.545483
570.205445	23076.055651
570.560823	22888.670921
570.916145	22641.684629
571.271412	22818.982010
571.626625	22572.424217
571.981782	22690.114994
572.336884	22494.770283
572.691931	22624.242237
573.046923	22360.277339
573.401860	22248.187284
573.756743	22243.120924
574.111570	22162.502792
574.466342	22092.428233
574.821059	22192.288449
575.175722	21889.781410
575.530330	21874.070654
575.884882	21911.544071
576.239380	21808.835603
576.593823	21707.185776
576.948211	21680.346673
577.302544	21529.848066
577.656823	21397.840412
578.011047	21494.776759
578.365216	21367.890917
578.719330	21257.051067
579.073389	21154.082979
579.427394	21296.117489
579.781344	21086.339954
580.135239	20967.993826
580.489080	20941.613468
580.842866	20703.499607
581.196597	20873.925895
581.550273	20876.330526
581.903895	20762.652507
582.257463	21072.312943
582.610975	20607.760534
582.964434	20906.068292
583.317837	20623.309973
583.671186	20713.413036
584.024481	20674.901142
584.377721	20456.818306
584.730906	20495.415900
585.084037	20540.100688
585.437113	20437.311561
585.790135	20640.167592
586.143103	20114.108064
586.496016	20119.527305
586.848874	20370.130624
587.201679	20313.982252
587.554428	19973.084306
587.907124	20303.720984
588.259765	20091.634600
588.612352	20157.764457
588.964884	19729.841071
589.317362	19905.484953
589.669786	19958.548139
590.022155	20018.510143
590.374470	20177.664411
590.726731	19989.611729
591.078937	19737.087730
591.431090	19838.034315
591.783188	19583.017465
592.135232	19564.322346
592.487222	19661.404887
592.839157	19691.150215
593.191038	19569.812163
593.542866	19463.582448
593.894639	19191.269400
594.246358	19405.931813
594.598022	19308.418254
594.949633	19069.659125
595.301190	19025.796046
595.652692	19180.070477
596.004141	19433.827038
596.355535	18769.176109
596.706876	18772.702396
597.058162	18662.351538
597.409395	18880.159632
597.760573	18980.471031
598.111698	18759.360983
598.462768	18684.431792
598.813785	18650.338469
599.164748	18480.862438
599.515657	18500.984204
599.866511	18297.336712
600.217312	18659.657042
600.568060	18194.950877
600.918753	18503.847579
601.269392	18396.665087
601.619978	18167.365683
601.970510	18399.039470
602.320988	18334.099326
602.671412	18551.216781
603.021783	18446.728786
603.372100	18186.264969
603.722363	18312.888672
604.072572	18245.836284
604.422728	18382.363333
604.772830	18152.844640
605.122878	18099.610055
605.472872	18089.225278
605.822813	18081.300584
606.172701	18037.424902
606.522534	18248.787880
606.872314	18267.311600
607.222041	18095.977904
607.571714	18312.198033
607.921333	18145.144277
608.270899	18224.996154
608.620411	18413.676460
608.969870	18170.854162
609.319276	18177.377415
609.668627	18206.301035
610.017926	18339.788268
610.367171	18454.169529
610.716362	18486.243870
611.065500	18315.678950
611.414585	18449.491338
611.763616	18430.944933
612.112594	18382.696049
612.461518	18351.098097
612.810389	18546.886430
613.159207	18391.016474
613.507971	18294.836300
613.856682	18584.629549
614.205340	18512.397376
614.553945	18660.388009
614.902496	18396.818842
615.250994	18653.985744
615.599439	18576.263754
615.947830	18564.406960
616.296169	18602.165203
616.644454	18579.232994
616.992686	18543.466007
617.340864	18765.944729
617.688990	18520.942132
618.037063	18697.279173
618.385082	18546.704949
618.733048	18824.447320
619.080961	18685.319035
619.428821	18737.290811
619.776628	18625.152864
620.124382	18542.755205
620.472083	18579.404393
620.819731	18605.641078
621.167326	18299.264953
621.514868	18337.066045
621.862357	18085.290658
622.209793	18113.014483
622.557176	17939.306404
622.904506	17776.618287
623.251783	17679.565993
623.599007	17455.363197
623.946179	17396.369094
624.293297	17338.287440
624.640363	17096.690142
624.987376	17106.951410
625.334336	16903.785348
625.681243	16747.854898
626.028097	16753.095178
626.374899	16683.030701
626.721647	16565.682722
627.068343	16384.445679
627.414987	16318.721636
627.761577	16297.894109
628.108115	16341.099318
628.454600	16058.890484
628.801032	16154.248951
629.147412	16086.155565
629.493739	16105.788339
629.840014	15917.453352
630.186236	16015.869278
630.532405	15779.776919
630.878521	15975.033411
631.224585	15870.976434
631.570597	15692.905236
631.916556	15727.117026
632.262462	15710.519027
632.608316	15625.016017
632.954117	15566.079887
633.299866	15562.417489
633.645562	15494.820657
633.991206	15241.462347
634.336797	15105.847747
634.682336	15078.000413
635.027823	14972.136182
635.373257	14854.064797
635.718639	14743.492129
636.063968	14694.277865
636.409245	14458.571155
636.754470	14481.029495
637.099642	14328.143902
637.444762	14096.439868
637.789829	14146.180933
638.134845	13973.191218
638.479808	14004.431249
638.824719	13961.334425
639.169577	13801.224858
639.514383	13854.247714
639.859137	13668.234178
640.203839	13758.070060
640.548489	13603.067182
640.893086	13593.272221
641.237632	13447.532463
641.582125	13600.077778
641.926566	13435.786574
642.270955	13447.315693
642.615292	13403.734918
642.959576	13422.155294
643.303809	13456.757774
643.647990	13390.428793
643.992118	13444.979118
644.336195	13219.493348
644.680219	13413.678594
645.024192	13341.363242
645.368112	13587.427003
645.711981	13638.509015
646.055797	13817.739678
646.399562	13775.595632
646.743274	14051.986974
647.086935	14324.562162
647.430544	14298.882524
647.774101	14319.853724
648.117606	14476.207632
648.461059	14444.019864
648.804460	14435.482670
649.147810	14168.601465
649.491108	14070.888780
649.834354	14086.617180
650.177548	13786.270275
650.520690	13599.949229
650.863781	13522.547353
651.206820	13556.038258
651.549807	13384.034089
651.892742	13197.425697
652.235626	13136.329433
652.578458	13135.855565
652.921238	12817.158860
653.263967	13012.841328
653.606644	12844.504599
653.949269	12809.811378
654.291843	12616.810803
654.634365	12781.280968
654.976836	12620.321967
655.319255	12640.864668
655.661622	12595.159047
656.003938	12511.874144
656.346203	12448.438785
656.688416	12510.858352
657.030577	12473.216056
657.372687	12392.560115
657.714746	12371.314172
658.056753	12551.237994
658.398708	12376.985470
658.740612	12376.463711
659.082465	12473.228659
659.424266	12427.253336
659.766016	12453.880711
660.107715	12380.804144
660.449362	12445.381325
660.790958	12405.614183
661.132503	12351.565452
661.473996	12411.217426
661.815438	12427.651587
662.156829	12436.266919
662.498168	12419.923498
662.839456	12417.342427
663.180693	12437.446549
663.521879	12526.690096
663.863013	12506.901046
664.204097	12484.167963
664.545129	12601.647012
664.886110	12569.852455
665.227040	12650.110145
665.567918	12666.327537
665.908746	12703.594266
666.249522	12679.255576
666.590248	12731.391189
666.930922	12842.059639
667.271545	12821.680775
667.612118	12912.083787
667.952639	12815.197851
668.293109	12819.611381
668.633528	12780.434054
668.973896	12750.933222
669.314213	12845.785052
669.654480	12579.791090
669.994695	12642.976912
670.334859	12667.930623
670.674973	12610.562293
671.015035	12644.685863
671.355047	12588.892893
671.695008	12556.314436
672.034918	12565.610324
672.374777	12609.435595
672.714585	12520.333201
673.054342	12551.285885
673.394049	12496.430570
673.733705	12598.813884
674.073310	12506.102023
674.412864	12532.777289
674.752368	12398.417936
675.091820	12405.425140
675.431223	12403.060839
675.770574	12277.031992
676.109875	12190.180473
676.449125	12160.099908
676.788324	12090.839496
677.127473	11938.636979
677.466571	11922.117118
677.805619	11826.115904
678.144616	11741.043913
678.483562	11708.205837
678.822458	11586.056158
679.161303	11558.629761
679.500098	11549.737165
679.838842	11499.789413
680.177535	11524.140707
680.516179	11581.120869
680.854771	11532.614886
681.193314	11737.817574
681.531805	11893.387582
681.870247	12293.766103
682.208638	12697.512114
682.546978	13029.320860
682.885268	13091.011981
683.223508	12779.844239
683.561697	12620.652162
683.899836	12517.096780
684.237925	12319.065133
684.575963	12233.428532
684.913951	12167.686845
685.251889	12108.092845
685.589776	12199.557020
685.927614	12134.586629
686.265401	12096.435177
686.603137	12132.429015
686.940824	12287.872994
687.278460	12409.165676
687.616046	12459.683079
687.953582	12640.978094
688.291068	12557.799056
688.628504	12782.120320
688.965889	12791.643059
689.303224	12763.644491
689.640510	12657.596258
689.977745	12357.224147
690.314930	12125.696554
690.652065	12039.999459
690.989150	11753.528330
691.326185	11534.442305
691.663170	11329.037971
692.000105	11077.267624
692.336990	10968.973557
692.673825	10729.022196
693.010610	10606.239853
693.347345	10401.926928
693.684030	10199.511999
694.020665	10144.933947
694.357251	9950.073186
694.693786	9898.827336
695.030272	9720.849400
695.366707	9603.743396
695.703093	9539.163695
696.039429	9535.055154
696.375716	9471.677768
696.711952	9333.288013
697.048139	9366.834371
697.384276	9321.942896
697.720363	9334.129885
698.056400	9278.586452
698.392388	9234.252025
698.728326	9190.998925
699.064214	9121.032751
699.400053	9173.422942
699.735842	8995.145057
700.071581	8940.277138
700.407270	8868.677630
700.742910	8791.910939
701.078501	8707.728711
701.414042	8585.014424
701.749533	8512.734360
702.084974	8374.415181
702.420366	8485.151687
702.755709	8367.470991
703.091002	8245.485151
703.426246	8266.426104
703.761440	8216.710244
704.096584	8172.784150
704.431679	8111.425746
704.766725	8087.913805
705.101721	8043.886888
705.436668	8084.611849
705.771565	7980.438925
706.106413	8060.358858
706.441212	8109.661342
706.775961	8059.249804
707.110661	8092.024866
707.445311	8241.963905
707.779913	8134.771330
708.114465	8262.602388
708.448967	8300.476577
708.783421	8430.868542
709.117825	8622.674364
709.452180	8660.987133
709.786485	8741.151561
710.120742	9021.500209
710.454949	9023.325107
710.789107	9125.103482
711.123216	9336.786573
711.457275	9504.271348
711.791286	9664.950565
712.125247	9653.779368
712.459159	9644.266711
712.793023	9900.584178
713.126837	9478.470723
713.460602	9626.070666
713.794318	9452.919635
714.127985	9488.064039
714.461602	9175.935957
714.795171	9111.575546
715.128691	8869.295172
715.462162	8615.256306
715.795584	8561.084067
716.128957	8423.374867
716.462281	8245.525480
716.795556	8294.601113
717.128782	8102.097091
717.461960	7821.375398
717.795088	7894.557828
718.128167	7809.737894
718.461198	7642.689179
718.794180	7583.634583
719.127113	7576.622338
719.459997	7431.295955
719.792833	7195.382557
720.125619	7255.480673
720.458357	7115.591174
720.791046	7101.677590
721.123686	7104.205728
721.456278	6950.490865
721.788821	6963.239943
722.121315	6854.756833
722.453761	6923.356855
722.786158	6869.169492
723.118506	6880.028138
723.450805	6848.140319
723.783056	6911.091727
724.115259	6819.241904
724.447412	6813.038765
724.779518	6865.065993
725.111574	6860.453337
725.443582	6944.630524
725.775542	6924.980106
726.107453	7110.401307
726.439315	7029.211003
726.771129	7079.375525
727.102895	7248.102944
727.434612	7358.279882
727.766281	7394.583752
728.097901	7476.958726
728.429473	7462.984648
728.760996	7444.082841
729.092471	7419.270282
729.423897	7365.047631
729.755276	7379.354426
730.086606	7306.408930
730.417887	7401.603558
730.749120	7587.377639
731.080305	7779.846373
731.411442	7905.698778
731.742530	7903.092502
732.073570	8011.043770
732.404562	8090.673837
732.735506	7940.969211
733.066401	8086.993794
733.397249	8018.113989
733.728048	7786.399873
734.058798	7454.646579
734.389501	7233.050059
734.720156	7054.421814
735.050762	6824.804818
735.381320	6717.934877
735.711831	6673.529873
736.042293	6569.011630
736.372707	6591.749755
736.703073	6450.728517
737.033391	6484.562221
737.363661	6491.675289
737.693883	6521.319794
738.024056	6608.937569
738.354182	6650.852243
738.684260	6689.434713
739.014290	6793.446320
739.344272	6905.866572
739.674207	6937.454442
740.004093	7000.743608
740.333931	7018.712800
740.663722	7029.412649
740.993464	7103.951150
741.323159	7098.771365
741.652806	6845.801223
741.982405	6846.746440
742.311956	6915.258241
742.641460	6757.172698
742.970915	6563.327729
743.300323	6555.647532
743.629683	6496.998748
743.958996	6372.313369
744.288260	6282.558145
744.617477	6229.361369
744.946647	6238.558955
745.275768	6065.697789
745.604842	6024.695564
745.933869	6010.545046
746.262847	5961.746676
746.591778	5952.783505
746.920662	5908.806999
747.249498	5898.835597
747.578286	5946.232525
747.907027	6026.565833
748.235720	6083.155305
748.564365	6051.592641
748.892963	6074.305559
749.221514	6233.729529
749.550017	6076.979892
749.878473	5947.276044
750.206881	6002.557337
750.535242	5943.091887
750.863555	5872.404827
751.191821	5891.178084
751.520039	5897.716461
751.848210	5802.834384
752.176334	5818.043545
752.504411	5871.104210
752.832440	5797.145442
753.160421	5723.496704
753.488356	5777.507627
753.816243	5811.255631
754.144082	5665.694834
754.471875	5629.448938
754.799620	5672.883520
755.127318	5685.209141
755.454969	5638.223067
755.782572	5602.289722
756.110129	5645.784797
756.437638	5635.258868
756.765100	5573.434157
757.092515	5568.335030
757.419882	5620.281600
757.747203	5598.675215
758.074477	5661.205687
758.401703	5655.388195
758.728882	5608.323983
759.056014	5650.833513
759.383099	5785.724708
759.710138	5803.214991
760.037129	5782.780674
760.364073	5788.540192
760.690970	5869.685125
761.017820	5855.048135
761.344623	5803.028468
761.671379	5902.737450
761.998088	6013.756261
762.324751	6246.977682
762.651366	6828.638615
762.977935	8108.683359
763.304456	9727.256706
763.630931	10645.303754
763.957359	10282.653228
764.283740	9353.490437
764.610074	8540.838793
764.936362	7550.241980
765.262602	6954.042358
765.588796	6422.505617
765.914943	6075.109623
766.241044	5914.768164
766.567097	5724.550306
766.893104	5463.163958
767.219064	5282.776350
767.544978	5220.525662
767.870845	5147.852388
768.196665	5040.127971
768.522438	4970.058453
768.848165	4936.184420
769.173846	4874.016911
769.499479	4832.056867
769.825066	4771.429430
770.150607	4712.475657
770.476101	4687.952964
770.801548	4684.217469
771.126949	4611.544195
771.452303	4562.022420
771.777611	4520.523642
772.102872	4534.633831
772.428087	4497.193182
772.753256	4457.720947
773.078378	4417.689144
773.403453	4344.113504
773.728482	4330.242769
774.053465	4284.804329
774.378401	4271.382257
774.703291	4271.667082
775.028135	4209.416394
775.352932	4156.887571
775.677683	4139.873676
776.002388	4158.528466
776.327046	4171.343079
776.651658	4101.134930
776.976224	4035.070608
777.300743	4039.897513
777.625216	4060.425092
777.949643	4061.965164
778.274024	4015.886497
778.598359	3968.323211
778.922647	3988.830625
779.246889	3983.492043
779.571086	3981.432732
779.895236	3966.788180
780.219339	3952.068010
780.543397	3941.083336
780.867409	3991.169720
781.191374	4010.278214
781.515294	3953.759317
781.839167	3937.123510
782.162995	3961.588229
782.486776	3950.595993
782.810511	3956.496664
783.134201	3956.723516
783.457844	3912.552926
783.781441	3857.992518
784.104993	3862.577447
784.428498	3879.931619
784.751958	3877.370713
785.075372	3855.736602
785.398739	3819.531035
785.722061	3826.810461
786.045337	3868.896534
786.368568	3903.365423
786.691752	3817.688493
787.014891	3864.329248
787.337983	3985.095130
787.661030	4141.045745
787.984031	4300.550373
788.306987	4474.719718
788.629897	4555.426070
788.952760	4510.970655
789.275579	4445.438176
789.598351	4387.308631
789.921078	4249.218824
790.243759	4052.533165
790.566395	4028.207077
790.888984	4026.813198
791.211529	3919.696241
791.534027	3861.796068
791.856480	3850.367773
792.178888	3787.388638
792.501249	3738.859970
792.823566	3747.848348
793.145836	3779.143831
793.468062	3724.228021
793.790241	3680.982483
794.112375	3707.128427
794.434464	3770.488169
794.756507	3798.547232
795.078505	3781.283800
795.400457	3809.592400
795.722364	3942.497380
796.044226	4051.512332
796.366042	4119.900625
796.687812	4106.332359
797.009538	4112.517855
797.331218	4068.949683
797.652852	4040.590672
797.974442	4021.635933
798.295986	4025.449566
798.617484	3943.621557
798.938938	3855.706355
799.260346	3897.358888
799.581709	3893.366294
799.903026	3818.868123
800.224299	3785.808236
800.545526	3779.012761
800.866708	3739.820310
801.187845	3677.993079
801.508936	3715.398440
801.829983	3714.337277
802.150984	3634.051861
802.471940	3624.544245
802.792851	3634.606388
803.113717	3634.114876
803.434538	3640.620485
803.755314	3582.558995
804.076045	3556.052608
804.396731	3572.867377
804.717372	3601.778394
805.037967	3587.249789
805.358518	3578.095053
805.679024	3602.708487
805.999485	3615.722226
806.319901	3617.995786
806.640272	3634.137561
806.960598	3647.937719
807.280879	3623.631796
807.601115	3631.243938
807.921306	3648.895539
808.241453	3688.839121
808.561554	3672.142820
808.881611	3601.783435
809.201623	3637.260556
809.521590	3648.714057
809.841513	3620.990232
810.161390	3650.675066
810.481223	3630.780152
810.801011	3572.950556
811.120755	3566.666758
811.440453	3603.678909
811.760107	3605.662603
812.079716	3568.594999
812.399281	3531.731562
812.718801	3552.579253
813.038276	3527.194523
813.357707	3521.220756
813.677093	3545.496432
813.996434	3492.367712
814.315731	3501.661079
814.634983	3501.449350
814.954191	3514.329498
815.273354	3545.181360
815.592473	3541.869322
815.911547	3545.083058
816.230577	3582.962287
816.549562	3633.651089
816.868502	3676.503418
817.187399	3702.228426
817.506250	3700.849670
817.825058	3667.482273
818.143821	3760.294956
818.462539	3862.274978
818.781213	3906.929519
819.099843	3960.146459
819.418429	4197.234445
819.736970	4435.534829
820.055466	4672.930325
820.373919	5036.117733
820.692327	5440.826605
821.010691	5855.035532
821.329011	7177.630134
821.647286	9831.492644
821.965517	14290.468839
822.283704	18305.528587
822.601847	20552.829601
822.919945	18790.066651
823.237999	16274.984585
823.556010	13819.912415
823.873976	11753.099832
824.191897	9675.605044
824.509775	8321.367119
824.827609	7198.513114
825.145398	6649.319732
825.463144	6540.728237
825.780845	6651.220247
826.098502	6819.370454
826.416116	7657.754668
826.733685	8951.692831
827.051210	10072.840405
827.368692	10162.608232
827.686129	8952.368346
828.003522	7438.167047
828.320872	6428.645743
828.638177	5735.227469
828.955439	5187.780847
829.272656	4691.751473
829.589830	4406.510386
829.906960	4232.477152
830.224046	4047.524779
830.541088	3923.577929
830.858086	3876.218810
831.175041	3805.249446
831.491952	3783.312865
831.808819	3795.136891
832.125642	3863.988970
832.442421	4003.192872
832.759157	4271.606588
833.075849	4804.443947
833.392497	5646.896372
833.709101	6411.906591
834.025662	6764.396671
834.342179	6434.276712
834.658653	5780.045848
834.975083	5139.093383
835.291469	4574.358123
835.607811	4157.537879
835.924110	4019.805995
836.240366	3825.741736
836.556578	3619.921507
836.872746	3511.103160
837.188871	3472.203096
837.504952	3410.859816
837.820990	3328.411745
838.136984	3279.499949
838.452935	3304.405770
838.768842	3302.137251
839.084706	3320.285405
839.400526	3472.044300
839.716303	3798.983292
840.032037	4306.549346
840.347727	4583.568312
840.663373	4321.607273
840.978977	3947.352011
841.294537	3643.834220
841.610054	3415.076741
841.925527	3304.425935
842.240957	3238.346490
842.556344	3185.850434
842.871687	3128.731641
843.186987	3080.180288
843.502244	3043.382386
843.817458	3009.861233
844.132629	2976.874443
844.447756	2987.004642
844.762840	2974.038794
845.077881	2941.276335
845.392879	2923.067687
845.707833	2918.581060
846.022745	2915.090061
846.337613	2919.972419
846.652438	2908.397930
846.967221	2906.419277
847.281960	2890.269940
847.596656	2885.347254
847.911309	2886.806668
848.225919	2878.622354
848.540485	2877.183105
848.855009	2874.695296
849.169490	2865.782536
849.483928	2856.050588
849.798323	2852.557068
850.112675	2854.109744
850.426984	2863.027545
850.741251	2864.509644
851.055474	2849.766790
851.369654	2846.263188
851.683792	2850.913652
851.997887	2858.634179
852.311938	2861.464787
852.625947	2848.776203
852.939914	2851.516070
853.253837	2856.257275
853.567718	2844.879391
853.881555	2839.026612
854.195350	2856.549662
854.509103	2850.976667
854.822812	2844.957529
855.136479	2842.537775
855.450103	2843.460306
855.763685	2837.123576
856.077224	2833.879593
856.390720	2847.667149
856.704173	2855.790969
857.017584	2848.703106
857.330953	2843.397292
857.644278	2854.331555
857.957561	2860.554859
858.270802	2867.315046
858.584000	2864.590303
858.897155	2856.398428
859.210268	2852.146214
859.523339	2849.955833
859.836367	2850.374249
860.149352	2844.995338
860.462295	2840.347394
860.775195	2845.915348
861.088054	2845.106243
861.400869	2833.251970
861.713642	2829.214006
862.026373	2842.961232
862.339062	2846.053980
862.651708	2850.908611
862.964312	2853.653519
863.276873	2847.735205
863.589392	2854.739888
863.901869	2868.580376
864.214303	2889.357492
864.526696	2906.993968
864.839045	2900.422824
865.151353	2898.655900
865.463619	2898.613050
865.775842	2901.821744
866.088023	2915.299269
866.400162	2927.418203
866.712258	2900.382495
867.024313	2887.051164
867.336325	2892.946793
867.648296	2917.943354
867.960224	2907.067065
868.272110	2895.006104
868.583954	2901.214285
868.895755	2911.989752
869.207515	2901.655386
869.519233	2905.995820
869.830909	2913.897828
870.142542	2925.318563
870.454134	2925.240425
870.765684	2926.979623
871.077191	2927.077925
871.388657	2934.095211
871.700081	2949.122891
872.011463	2959.447174
872.322803	2959.905919
872.634101	2959.235446
872.945357	2972.947384
873.256571	3000.998885
873.567744	2991.584530
873.878874	2984.436174
874.189963	3010.345184
874.501010	3011.245030
874.812015	3002.473422
875.122979	3000.855212
875.433900	2997.775067
875.744780	3002.710356
876.055618	3008.858043
876.366415	3006.163547
876.677169	3021.382790
876.987882	3013.178312
877.298554	3005.982065
877.609183	3026.305477
877.919771	3051.077707
878.230317	3077.621903
878.540822	3131.466467
878.851285	3168.042558
879.161707	3204.701829
879.472087	3303.684885
879.782425	3518.458203
880.092722	3943.545940
880.402977	4459.934013
880.713191	5069.606118
881.023363	6189.483322
881.333494	7447.689787
881.643583	8022.885441
881.953631	7734.639826
882.263637	7128.312526
882.573602	6557.941257
882.883526	5987.648125
883.193408	5417.450775
883.503248	4957.541268
883.813048	4658.207635
884.122806	4370.307339
884.432522	4060.510791
884.742197	3828.121161
885.051831	3635.680154
885.361424	3504.148888
885.670975	3430.328752
885.980485	3346.764065
886.289954	3273.243877
886.599382	3226.877865
886.908768	3191.551979
887.218113	3148.452635
887.527417	3094.552618
887.836680	3044.188970
888.145901	3035.293854
888.455082	3025.892102
888.764221	2976.869402
889.073319	2947.970987
889.382376	2947.275308
889.691392	2950.627675
890.000366	2947.527366
890.309300	2937.666869
890.618193	2949.364866
890.927044	2967.475212
891.235855	2966.136785
891.544625	2951.918211
891.853353	2963.286013
892.162041	2981.711430
892.470687	3016.329033
892.779293	3068.825089
893.087858	3111.949640
893.396381	3180.035463
893.704864	3298.411838
894.013306	3527.801982
894.321707	3828.100996
894.630068	4031.047768
894.938387	4028.990977
895.246665	3984.079337
895.554903	3873.975496
895.863100	3675.611133
896.171256	3509.787419
896.479371	3376.703478
896.787446	3258.742998
897.095480	3154.234838
897.403473	3090.376022
897.711425	3054.299004
898.019336	3043.221069
898.327207	3016.502953
898.635038	2983.581698
898.942827	2969.786581
899.250576	2957.155970
899.558284	2928.227308
899.865952	2906.991448
900.173579	2889.528891
900.481165	2879.973384
900.788711	2866.427803
901.096216	2842.489884
901.403681	2832.715087
901.711105	2841.015347
902.018489	2840.397805
902.325832	2835.941425
902.633135	2845.207066
902.940397	2876.890718
903.247619	2955.459621
903.554800	3137.341932
903.861941	3468.308805
904.169041	3884.793812
904.476101	4187.691541
904.783121	4154.130059
905.090100	3917.919234
905.397039	3649.871002
905.703938	3405.299423
906.010796	3219.943758
906.317614	3112.582304
906.624391	3019.411699
906.931129	2949.135494
907.237826	2890.199364
907.544483	2844.211438
907.851099	2811.920327
908.157675	2790.029117
908.464211	2774.550254
908.770707	2758.600043
909.077163	2748.048908
909.383578	2732.040724
909.689954	2722.575958
909.996289	2720.773745
910.302584	2721.678632
910.608839	2722.858262
910.915054	2717.244937
911.221229	2708.304451
911.527363	2710.278063
911.833458	2715.483054
912.139513	2723.140567
912.445527	2726.218191
912.751502	2733.180025
913.057436	2742.269225
913.363331	2754.670464
913.669186	2774.492281
913.975000	2807.002682
914.280775	2866.400077
914.586510	2935.408432
914.892205	3011.507170
915.197859	3134.531488
915.503475	3321.127277
915.809050	3527.403731
916.114585	3671.555525
916.420081	3695.664843
916.725536	3640.310454
917.030952	3526.607229
917.336328	3399.960841
917.641665	3274.128600
917.946961	3172.246881
918.252218	3106.285903
918.557435	3032.019625
918.862612	2973.388485
919.167750	2921.661205
919.472848	2884.863303
919.777906	2859.667616
920.082925	2834.726507
920.387904	2804.454378
920.692843	2788.715896
920.997743	2778.318516
921.302603	2764.722524
921.607423	2752.207860
921.912204	2742.133114
922.216946	2732.577607
922.521647	2721.073694
922.826310	2716.425750
923.130932	2709.811756
923.435516	2700.662062
923.740059	2693.312060
924.044564	2685.236131
924.349028	2678.670028
924.653454	2672.061076
924.957840	2666.793070
925.262186	2664.796773
925.566493	2661.557832
925.870761	2655.889054
926.174989	2651.909063
926.479178	2642.943371
926.783328	2641.635192
927.087438	2641.057979
927.391509	2638.527320
927.695541	2635.810138
927.999533	2632.417442
928.303486	2631.331073
928.607400	2629.294447
928.911275	2628.666823
929.215110	2628.755043
929.518906	2627.875362
929.822663	2624.747326
930.126381	2623.920577
930.430060	2627.288068
930.733699	2626.889817
931.037299	2631.091618
931.340861	2628.434930
931.644383	2631.016001
931.947866	2627.978706
932.251309	2626.746144
932.554714	2626.718417
932.858080	2623.832357
933.161407	2623.287912
933.464694	2621.291615
933.767943	2619.310442
934.071153	2621.606687
934.374323	2620.474948
934.677455	2620.669033
934.980548	2618.982767
935.283602	2617.067128
935.586617	2619.368415
935.889593	2621.026955
936.192530	2619.496964
936.495428	2617.540997
936.798287	2619.237345
937.101108	2624.291102
937.403890	2627.983747
937.706632	2632.251084
938.009336	2636.541106
938.312002	2646.820018
938.614628	2654.689259
938.917216	2661.714107
939.219765	2663.617143
939.522275	2663.838954
939.824747	2659.284271
940.127179	2656.695639
940.429573	2655.523570
940.731929	2650.948723
941.034246	2647.810605
941.336524	2645.247178
941.638763	2641.723412
941.940964	2641.494039
942.243126	2640.228710
942.545250	2639.606127
942.847335	2636.901548
943.149381	2631.101701
943.451389	2626.879734
943.753359	2625.069960
944.055290	2623.781945
944.357182	2624.679271
944.659036	2622.559465
944.960851	2622.143570
945.262628	2620.094341
945.564367	2620.979064
945.866067	2619.489403
946.167729	2622.685494
946.469352	2620.764815
946.770937	2621.087448
947.072484	2619.275154
947.373992	2619.108796
947.675462	2617.762807
947.976893	2613.790378
948.278286	2614.251644
948.579641	2610.611931
948.880958	2610.448093
949.182236	2613.576129
949.483476	2608.807198
949.784678	2613.392127
950.085841	2608.945829
950.386967	2615.486727
950.688054	2615.668208
950.989103	2613.044287
951.290114	2614.271808
951.591087	2617.654423
951.892021	2619.804475
952.192917	2617.939248
952.493776	2623.222377
952.794596	2623.577778
953.095378	2622.325052
953.396122	2622.085597
953.696828	2621.432768
953.997496	2620.389249
954.298126	2618.569392
954.598718	2617.972015
954.899272	2613.563526
955.199788	2611.773917
955.500266	2608.277877
955.800706	2607.370469
956.101108	2604.295365
956.401472	2603.398040
956.701798	2603.254367
957.002087	2598.775302
957.302337	2597.578028
957.602550	2594.752461
957.902724	2595.992585
958.202861	2591.435382
958.502960	2593.431678
958.803022	2593.681216
959.103045	2591.407655
959.403031	2592.037799
959.702979	2591.208530
960.002889	2590.374219
960.302762	2588.014959
960.602596	2588.899681
960.902393	2586.285843
961.202153	2589.819692
961.501875	2586.515215
961.801559	2586.001018
962.101205	2588.445977
962.400814	2590.036461
962.700385	2585.761563
962.999918	2583.813157
963.299414	2584.914649
963.598873	2584.019844
963.898293	2579.218145
964.197677	2585.388517
964.497022	2586.575709
964.796331	2586.154773
965.095601	2585.360791
965.394835	2586.668971
965.694030	2585.726275
965.993189	2585.121336
966.292309	2583.825760
966.591393	2582.875502
966.890439	2587.009248
967.189447	2583.601428
967.488419	2584.690318
967.787353	2585.638055
968.086249	2585.265009
968.385108	2583.180492
968.683930	2583.382138
968.982714	2583.911459
969.281462	2584.213929
969.580172	2583.868610
969.878844	2585.829618
970.177480	2585.317941
970.476078	2584.329875
970.774639	2584.529001
971.073162	2584.690318
971.371649	2584.261820
971.670098	2581.874833
971.968510	2585.786769
972.266885	2584.871799
972.565223	2580.942220
972.863524	2582.774679
973.161788	2582.958681
973.460014	2584.828949
973.758204	2585.413723
974.056356	2585.501943
974.354471	2584.357602
974.652550	2586.384145
974.950591	2583.336768
975.248595	2584.597056
975.546563	2587.132757
975.844493	2587.387335
976.142386	2583.220821
976.440243	2586.729464
976.738062	2584.246696
977.035845	2583.709813
977.333590	2585.028075
977.631299	2581.229566
977.928971	2579.485326
978.226606	2578.653536
978.524204	2580.806109
978.821765	2576.765624
979.119290	2583.026737
979.416777	2582.177302
979.714228	2581.990780
980.011642	2581.892477
980.309020	2582.167220
980.606360	2583.145204
980.903664	2583.306521
981.200931	2582.661253
981.498162	2585.454052
981.795356	2585.998497
982.092513	2584.551686
982.389633	2588.221646
982.686717	2589.872624
982.983764	2595.256576
983.280775	2598.099787
983.577749	2598.039293
983.874686	2601.731938
984.171587	2598.162801
984.468451	2595.352358
984.765279	2588.912284
985.062070	2591.707604
985.358824	2587.551172
985.655543	2587.364650
985.952224	2584.574371
986.248869	2583.009093
986.545478	2584.433219
986.842050	2583.873651
987.138586	2579.034143
987.435086	2584.143352
987.731549	2578.903073
988.027975	2579.749987
988.324366	2578.812332
988.620719	2578.887950
988.917037	2577.360480
989.213318	2580.770821
989.509563	2577.831828
989.805772	2578.749318
990.101944	2577.763772
990.398080	2578.351067
990.694180	2577.418453
990.990244	2577.703278
991.286271	2578.373752
991.582262	2578.174626
991.878217	2578.623289
992.174136	2579.830645
992.470019	2579.306365
992.765865	2576.211097
993.061676	2575.578432
993.357450	2576.810994
993.653188	2574.171950
993.948890	2578.144379
994.244556	2580.223855
994.540186	2580.541448
994.835780	2579.732343
995.131337	2580.647312
995.426859	2579.054308
995.722345	2586.048909
996.017795	2582.540266
996.313208	2583.583784
996.608586	2585.247365
996.903928	2583.525811
997.199234	2585.754001
997.494504	2582.704103
997.789738	2582.268043
998.084936	2582.643609
998.380099	2582.005903
998.675225	2583.198136
998.970316	2578.023392
999.265371	2583.931624
999.560390	2580.503639
999.855373	2579.528176
1000.150320	2581.184195
1000.445232	2580.884247
1000.740108	2576.982393
1001.034948	2576.606827
1001.329752	2578.938361
1001.624521	2577.325192
1001.919254	2575.807805
1002.213951	2579.049267
1002.508613	2579.626479
1002.803239	2577.327712
1003.097829	2578.933320
1003.392384	2574.454255
1003.686903	2576.299317
1003.981386	2576.132959
1004.275834	2573.446024
1004.570246	2576.367373
1004.864623	2576.742939
1005.158964	2575.911148
1005.453270	2578.683783
1005.747540	2576.221179
1006.041775	2575.255798
1006.335974	2576.778227
1006.630138	2575.480130
1006.924266	2577.927610
1007.218359	2577.955336
1007.512416	2573.992989
1007.806438	2569.571897
1008.100425	2573.413257
1008.394376	2571.691702
1008.688292	2577.728484
1008.982172	2574.151786
1009.276017	2574.413926
1009.569827	2577.350398
1009.863602	2576.952147
1010.157341	2576.034657
1010.451045	2577.584811
1010.744714	2575.278483
1011.038347	2577.710840
1011.331945	2575.575912
1011.625508	2577.012640
1011.919036	2577.267219
1012.212528	2579.500450
1012.505986	2573.045252
1012.799408	2574.960891
1013.092795	2575.248237
1013.386147	2575.495253
1013.679464	2574.171950
1013.972745	2577.824266
1014.265992	2574.454255
1014.559204	2577.113463
1014.852380	2576.153124
1015.145521	2573.120870
1015.438628	2572.231106
1015.731699	2574.693710
1016.024736	2576.407702
1016.317737	2575.165057
1016.610703	2574.635736
1016.903635	2577.756211
1017.196531	2572.924265
1017.489393	2576.173288
1017.782219	2575.744790
1018.075011	2576.216138
1018.367768	2574.134142
1018.660490	2575.870819
1018.953177	2575.870819
1019.245829	2575.870819
