Dividing Wavelength (nm)	Counts (n)	Blue Motor Position (mm): 4.400000	Red Motor Position (mm): 0.000000	
326.493990	2124.846346
326.888308	2124.846346
327.282561	2124.846346
327.676750	2018.982115
328.070874	2061.831923
328.464933	2049.229038
328.858929	2031.585000
329.252859	2054.270192
329.646726	2051.749615
330.040528	2069.393654
330.434265	2071.914231
330.827938	2064.352500
331.221547	2079.475962
331.615091	2099.640577
332.008571	2102.161154
332.401986	2160.134423
332.795338	2145.010962
333.188625	2248.354615
333.581847	2318.930769
333.975006	2296.245577
334.368100	2293.725000
334.761129	2366.821731
335.154095	2288.683846
335.546996	2329.013077
335.939833	2301.286731
336.332606	2381.945192
336.725315	2402.109808
337.117960	2359.260000
337.510540	2339.095385
337.903056	2444.959615
338.295508	2409.671538
338.687896	2359.260000
339.080220	2404.630385
339.472480	2495.371154
339.864676	2518.056346
340.256807	2480.247692
340.648875	2414.712692
341.040879	2507.974038
341.432818	2482.768269
341.824694	2432.356731
342.216506	2434.877308
342.608253	2447.480192
342.999937	2523.097500
343.391557	2429.836154
343.783113	2460.083077
344.174605	2523.097500
344.566033	2523.097500
344.957397	2434.877308
345.348697	2565.947308
345.739934	2475.206538
346.131106	2434.877308
346.522215	2510.494615
346.913260	2518.056346
347.304241	2457.562500
347.695159	2427.315577
348.086012	2502.932885
348.476802	2429.836154
348.867528	2533.179808
349.258191	2457.562500
349.648789	2356.739423
350.039324	2434.877308
350.429796	2359.260000
350.820203	2364.301154
351.210548	2462.603654
351.600828	2518.056346
351.991045	2402.109808
352.381198	2439.918462
352.771288	2457.562500
353.161314	2374.383462
353.551276	2442.439038
353.941175	2500.412308
354.331010	2409.671538
354.720782	2457.562500
355.110490	2402.109808
355.500135	2505.453462
355.889717	2414.712692
356.279235	2419.753846
356.668689	2371.862885
357.058080	2480.247692
357.447408	2432.356731
357.836672	2442.439038
358.225873	2419.753846
358.615010	2470.165385
359.004084	2470.165385
359.393095	2475.206538
359.782043	2480.247692
360.170927	2429.836154
360.559748	2429.836154
360.948505	2455.041923
361.337199	2467.644808
361.725830	2439.918462
362.114398	2424.795000
362.502903	2500.412308
362.891344	2321.451346
363.279722	2513.015192
363.668037	2455.041923
364.056289	2432.356731
364.444478	2414.712692
364.832603	2394.548077
365.220665	2409.671538
365.608665	2422.274423
365.996601	2485.288846
366.384474	2417.233269
366.772284	2427.315577
367.160031	2485.288846
367.547715	2434.877308
367.935336	2452.521346
368.322893	2507.974038
368.710388	2457.562500
369.097820	2442.439038
369.485189	2412.192115
369.872495	2450.000769
370.259738	2447.480192
370.646918	2437.397885
371.034035	2470.165385
371.421090	2455.041923
371.808081	2399.589231
372.195010	2442.439038
372.581875	2467.644808
372.968678	2480.247692
373.355418	2437.397885
373.742096	2434.877308
374.128710	2369.342308
374.515262	2376.904038
374.901751	2429.836154
375.288177	2412.192115
375.674540	2376.904038
376.060841	2374.383462
376.447079	2472.685962
376.833254	2414.712692
377.219367	2505.453462
377.605417	2457.562500
377.991404	2402.109808
378.377329	2500.412308
378.763191	2412.192115
379.148991	2442.439038
379.534727	2568.467885
379.920402	2455.041923
380.306013	2389.506923
380.691563	2515.535769
381.077049	2424.795000
381.462474	2477.727115
381.847835	2412.192115
382.233134	2535.700385
382.618371	2437.397885
383.003545	2457.562500
383.388657	2442.439038
383.773706	2374.383462
384.158693	2477.727115
384.543618	2482.768269
384.928480	2518.056346
385.313280	2414.712692
385.698017	2477.727115
386.082692	2402.109808
386.467305	2419.753846
386.851856	2452.521346
387.236344	2533.179808
387.620770	2548.303269
388.005133	2540.741538
388.389435	2470.165385
388.773674	2505.453462
389.157851	2475.206538
389.541965	2487.809423
389.926018	2500.412308
390.310008	2450.000769
390.693936	2457.562500
391.077802	2407.150962
391.461606	2462.603654
391.845348	2490.330000
392.229027	2455.041923
392.612645	2467.644808
392.996200	2417.233269
393.379694	2444.959615
393.763125	2505.453462
394.146494	2523.097500
394.529801	2462.603654
394.913047	2462.603654
395.296230	2432.356731
395.679351	2487.809423
396.062410	2470.165385
396.445408	2465.124231
396.828343	2394.548077
397.211217	2485.288846
397.594028	2452.521346
397.976778	2470.165385
398.359466	2492.850577
398.742092	2502.932885
399.124656	2437.397885
399.507158	2429.836154
399.889598	2364.301154
400.271977	2460.083077
400.654294	2455.041923
401.036549	2462.603654
401.418742	2419.753846
401.800874	2477.727115
402.182944	2485.288846
402.564952	2452.521346
402.946898	2480.247692
403.328783	2490.330000
403.710606	2487.809423
404.092367	2492.850577
404.474067	2434.877308
404.855705	2510.494615
405.237282	2455.041923
405.618797	2422.274423
406.000250	2540.741538
406.381642	2492.850577
406.762972	2540.741538
407.144240	2487.809423
407.525447	2470.165385
407.906593	2475.206538
408.287677	2450.000769
408.668700	2419.753846
409.049661	2482.768269
409.430560	2460.083077
409.811399	2477.727115
410.192176	2535.700385
410.572891	2490.330000
410.953545	2444.959615
411.334138	2520.576923
411.714669	2442.439038
412.095139	2502.932885
412.475547	2394.548077
412.855894	2553.344423
413.236180	2470.165385
413.616405	2439.918462
413.996568	2540.741538
414.376670	2538.220962
414.756711	2520.576923
415.136691	2505.453462
415.516609	2470.165385
415.896466	2525.618077
416.276262	2462.603654
416.655997	2470.165385
417.035670	2518.056346
417.415283	2520.576923
417.794834	2477.727115
418.174324	2470.165385
418.553753	2470.165385
418.933121	2407.150962
419.312428	2444.959615
419.691674	2402.109808
420.070859	2414.712692
420.449983	2419.753846
420.829045	2432.356731
421.208047	2447.480192
421.586988	2525.618077
421.965867	2452.521346
422.344686	2525.618077
422.723444	2470.165385
423.102141	2588.632500
423.480777	2492.850577
423.859352	2500.412308
424.237866	2452.521346
424.616319	2480.247692
424.994712	2457.562500
425.373044	2495.371154
425.751314	2424.795000
426.129524	2470.165385
426.507673	2470.165385
426.885762	2407.150962
427.263789	2568.467885
427.641756	2472.685962
428.019662	2475.206538
428.397508	2505.453462
428.775292	2381.945192
429.153016	2497.891731
429.530679	2455.041923
429.908282	2502.932885
430.285824	2437.397885
430.663305	2475.206538
431.040726	2442.439038
431.418086	2513.015192
431.795385	2570.988462
432.172624	2477.727115
432.549802	2392.027500
432.926920	2535.700385
433.303977	2450.000769
433.680974	2480.247692
434.057910	2492.850577
434.434786	2500.412308
434.811601	2502.932885
435.188355	2576.029615
435.565050	2490.330000
435.941683	2515.535769
436.318257	2475.206538
436.694770	2424.795000
437.071222	2477.727115
437.447614	2525.618077
437.823946	2487.809423
438.200218	2507.974038
438.576429	2427.315577
438.952580	2558.385577
439.328670	2447.480192
439.704700	2492.850577
440.080670	2492.850577
440.456580	2502.932885
440.832429	2417.233269
441.208218	2452.521346
441.583947	2490.330000
441.959616	2404.630385
442.335224	2460.083077
442.710773	2477.727115
443.086261	2444.959615
443.461689	2429.836154
443.837057	2528.138654
444.212365	2480.247692
444.587612	2457.562500
444.962800	2462.603654
445.337927	2465.124231
445.712995	2467.644808
446.088002	2485.288846
446.462949	2427.315577
446.837837	2465.124231
447.212664	2427.315577
447.587431	2548.303269
447.962139	2513.015192
448.336786	2573.509038
448.711374	2432.356731
449.085901	2472.685962
449.460369	2487.809423
449.834776	2495.371154
450.209124	2525.618077
450.583412	2455.041923
450.957640	2460.083077
451.331808	2497.891731
451.705917	2518.056346
452.079965	2528.138654
452.453954	2513.015192
452.827883	2520.576923
453.201752	2452.521346
453.575562	2492.850577
453.949311	2447.480192
454.323001	2500.412308
454.696632	2545.782692
455.070202	2475.206538
455.443713	2455.041923
455.817164	2477.727115
456.190556	2409.671538
456.563888	2523.097500
456.937160	2472.685962
457.310373	2588.632500
457.683526	2523.097500
458.056619	2500.412308
458.429653	2490.330000
458.802628	2485.288846
459.175542	2472.685962
459.548398	2525.618077
459.921194	2465.124231
460.293930	2480.247692
460.666607	2472.685962
461.039224	2510.494615
461.411782	2593.673654
461.784280	2518.056346
462.156719	2490.330000
462.529099	2475.206538
462.901419	2530.659231
463.273680	2495.371154
463.645882	2523.097500
464.018024	2485.288846
464.390106	2492.850577
464.762130	2500.412308
465.134094	2513.015192
465.505999	2419.753846
465.877845	2548.303269
466.249631	2475.206538
466.621358	2510.494615
466.993026	2439.918462
467.364634	2505.453462
467.736184	2513.015192
468.107674	2548.303269
468.479105	2475.206538
468.850477	2520.576923
469.221790	2553.344423
469.593043	2505.453462
469.964238	2513.015192
470.335373	2437.397885
470.706449	2460.083077
471.077467	2591.153077
471.448425	2422.274423
471.819324	2500.412308
472.190164	2412.192115
472.560945	2419.753846
472.931667	2455.041923
473.302330	2540.741538
473.672934	2424.795000
474.043479	2510.494615
474.413965	2409.671538
474.784393	2487.809423
475.154761	2530.659231
475.525070	2548.303269
475.895321	2495.371154
476.265513	2490.330000
476.635645	2487.809423
477.005719	2515.535769
477.375734	2442.439038
477.745691	2558.385577
478.115588	2475.206538
478.485427	2452.521346
478.855207	2482.768269
479.224928	2485.288846
479.594591	2543.262115
479.964194	2457.562500
480.333739	2505.453462
480.703226	2485.288846
481.072653	2442.439038
481.442022	2495.371154
481.811333	2502.932885
482.180584	2472.685962
482.549777	2538.220962
482.918912	2606.276538
483.287988	2477.727115
483.657005	2480.247692
484.025964	2515.535769
484.394864	2497.891731
484.763706	2568.467885
485.132489	2497.891731
485.501213	2475.206538
485.869879	2528.138654
486.238487	2437.397885
486.607036	2568.467885
486.975527	2482.768269
487.343959	2487.809423
487.712333	2447.480192
488.080648	2502.932885
488.448905	2497.891731
488.817104	2490.330000
489.185244	2432.356731
489.553326	2467.644808
489.921350	2490.330000
490.289315	2538.220962
490.657222	2505.453462
491.025070	2419.753846
491.392861	2502.932885
491.760593	2470.165385
492.128267	2447.480192
492.495883	2477.727115
492.863440	2490.330000
493.230939	2576.029615
493.598380	2485.288846
493.965763	2447.480192
494.333088	2467.644808
494.700354	2485.288846
495.067563	2502.932885
495.434713	2487.809423
495.801805	2457.562500
496.168839	2477.727115
496.535815	2518.056346
496.902733	2460.083077
497.269593	2457.562500
497.636395	2447.480192
498.003139	2518.056346
498.369825	2492.850577
498.736453	2505.453462
499.103023	2538.220962
499.469535	2472.685962
499.835989	2523.097500
500.202385	2490.330000
500.568723	2553.344423
500.935003	2507.974038
501.301226	2434.877308
501.667390	2465.124231
502.033497	2490.330000
502.399546	2455.041923
502.765537	2477.727115
503.131470	2482.768269
503.497345	2558.385577
503.863163	2434.877308
504.228923	2513.015192
504.594625	2487.809423
504.960269	2480.247692
505.325856	2528.138654
505.691385	2437.397885
506.056856	2460.083077
506.422270	2492.850577
506.787625	2485.288846
507.152924	2477.727115
507.518164	2487.809423
507.883347	2500.412308
508.248472	2520.576923
508.613540	2528.138654
508.978550	2513.015192
509.343503	2513.015192
509.708398	2510.494615
510.073236	2530.659231
510.438016	2397.068654
510.802738	2485.288846
511.167403	2434.877308
511.532010	2525.618077
511.896561	2424.795000
512.261053	2497.891731
512.625488	2457.562500
512.989866	2543.262115
513.354186	2492.850577
513.718449	2548.303269
514.082655	2528.138654
514.446803	2502.932885
514.810894	2515.535769
515.174927	2490.330000
515.538904	2492.850577
515.902822	2523.097500
516.266684	2530.659231
516.630488	2518.056346
516.994235	2465.124231
517.357925	2384.465769
517.721558	2490.330000
518.085133	2394.548077
518.448651	2442.439038
518.812112	2482.768269
519.175516	2432.356731
519.538863	2465.124231
519.902152	2528.138654
520.265385	2616.358846
520.628560	2515.535769
520.991678	2500.412308
521.354739	2462.603654
521.717743	2507.974038
522.080690	2422.274423
522.443580	2588.632500
522.806413	2475.206538
523.169189	2550.823846
523.531908	2487.809423
523.894569	2530.659231
524.257174	2447.480192
524.619722	2402.109808
524.982213	2460.083077
525.344647	2513.015192
525.707025	2510.494615
526.069345	2427.315577
526.431608	2540.741538
526.793815	2485.288846
527.155964	2530.659231
527.518057	2540.741538
527.880093	2573.509038
528.242072	2500.412308
528.603995	2608.797115
528.965860	2409.671538
529.327669	2530.659231
529.689421	2485.288846
530.051117	2505.453462
530.412755	2472.685962
530.774337	2525.618077
531.135862	2475.206538
531.497331	2568.467885
531.858743	2482.768269
532.220098	2490.330000
532.581396	2513.015192
532.942638	2376.904038
533.303824	2472.685962
533.664953	2505.453462
534.026025	2409.671538
534.387040	2525.618077
534.747999	2492.850577
535.108902	2520.576923
535.469748	2457.562500
535.830537	2500.412308
536.191270	2558.385577
536.551947	2591.153077
536.912567	2555.865000
537.273131	2467.644808
537.633638	2485.288846
537.994089	2513.015192
538.354483	2475.206538
538.714821	2467.644808
539.075103	2407.150962
539.435328	2472.685962
539.795497	2480.247692
540.155609	2482.768269
540.515665	2402.109808
540.875665	2513.015192
541.235609	2434.877308
541.595496	2460.083077
541.955328	2490.330000
542.315102	2550.823846
542.674821	2439.918462
543.034483	2507.974038
543.394090	2586.111923
543.753640	2525.618077
544.113134	2520.576923
544.472571	2520.576923
544.831953	2442.439038
545.191278	2477.727115
545.550548	2492.850577
545.909761	2460.083077
546.268918	2576.029615
546.628019	2555.865000
546.987064	2432.356731
547.346053	2510.494615
547.704986	2500.412308
548.063863	2513.015192
548.422684	2507.974038
548.781449	2606.276538
549.140158	2480.247692
549.498811	2515.535769
549.857408	2535.700385
550.215949	2482.768269
550.574434	2457.562500
550.932864	2480.247692
551.291237	2543.262115
551.649555	2533.179808
552.007817	2510.494615
552.366022	2523.097500
552.724173	2480.247692
553.082267	2530.659231
553.440305	2444.959615
553.798288	2515.535769
554.156215	2535.700385
554.514086	2550.823846
554.871902	2545.782692
555.229661	2523.097500
555.587365	2492.850577
555.945014	2578.550192
556.302606	2510.494615
556.660143	2472.685962
557.017625	2565.947308
557.375050	2434.877308
557.732421	2477.727115
558.089735	2434.877308
558.446994	2515.535769
558.804197	2533.179808
559.161345	2477.727115
559.518437	2482.768269
559.875474	2467.644808
560.232455	2528.138654
560.589381	2576.029615
560.946251	2497.891731
561.303065	2460.083077
561.659825	2492.850577
562.016528	2523.097500
562.373177	2502.932885
562.729770	2518.056346
563.086307	2480.247692
563.442789	2525.618077
563.799216	2475.206538
564.155587	2475.206538
564.511904	2538.220962
564.868164	2535.700385
565.224370	2402.109808
565.580520	2573.509038
565.936615	2437.397885
566.292654	2588.632500
566.648638	2513.015192
567.004567	2586.111923
567.360441	2510.494615
567.716260	2452.521346
568.072023	2538.220962
568.427732	2520.576923
568.783385	2538.220962
569.138982	2470.165385
569.494525	2409.671538
569.850013	2412.192115
570.205445	2515.535769
570.560823	2422.274423
570.916145	2455.041923
571.271412	2530.659231
571.626625	2475.206538
571.981782	2553.344423
572.336884	2525.618077
572.691931	2548.303269
573.046923	2439.918462
573.401860	2462.603654
573.756743	2555.865000
574.111570	2573.509038
574.466342	2497.891731
574.821059	2576.029615
575.175722	2409.671538
575.530330	2497.891731
575.884882	2576.029615
576.239380	2487.809423
576.593823	2543.262115
576.948211	2530.659231
577.302544	2437.397885
577.656823	2543.262115
578.011047	2472.685962
578.365216	2525.618077
578.719330	2429.836154
579.073389	2482.768269
579.427394	2500.412308
579.781344	2570.988462
580.135239	2523.097500
580.489080	2505.453462
580.842866	2465.124231
581.196597	2500.412308
581.550273	2505.453462
581.903895	2475.206538
582.257463	2543.262115
582.610975	2578.550192
582.964434	2495.371154
583.317837	2548.303269
583.671186	2588.632500
584.024481	2520.576923
584.377721	2553.344423
584.730906	2432.356731
585.084037	2538.220962
585.437113	2497.891731
585.790135	2505.453462
586.143103	2505.453462
586.496016	2545.782692
586.848874	2548.303269
587.201679	2543.262115
587.554428	2558.385577
587.907124	2518.056346
588.259765	2543.262115
588.612352	2482.768269
588.964884	2485.288846
589.317362	2477.727115
589.669786	2477.727115
590.022155	2525.618077
590.374470	2525.618077
590.726731	2528.138654
591.078937	2533.179808
591.431090	2507.974038
591.783188	2553.344423
592.135232	2502.932885
592.487222	2543.262115
592.839157	2581.070769
593.191038	2513.015192
593.542866	2530.659231
593.894639	2455.041923
594.246358	2475.206538
594.598022	2434.877308
594.949633	2540.741538
595.301190	2565.947308
595.652692	2487.809423
596.004141	2457.562500
596.355535	2422.274423
596.706876	2545.782692
597.058162	2523.097500
597.409395	2492.850577
597.760573	2477.727115
598.111698	2384.465769
598.462768	2487.809423
598.813785	2560.906154
599.164748	2505.453462
599.515657	2523.097500
599.866511	2528.138654
600.217312	2543.262115
600.568060	2485.288846
600.918753	2497.891731
601.269392	2455.041923
601.619978	2523.097500
601.970510	2520.576923
602.320988	2513.015192
602.671412	2492.850577
603.021783	2487.809423
603.372100	2515.535769
603.722363	2510.494615
604.072572	2540.741538
604.422728	2485.288846
604.772830	2533.179808
605.122878	2578.550192
605.472872	2586.111923
605.822813	2439.918462
606.172701	2452.521346
606.522534	2581.070769
606.872314	2497.891731
607.222041	2523.097500
607.571714	2520.576923
607.921333	2520.576923
608.270899	2530.659231
608.620411	2507.974038
608.969870	2520.576923
609.319276	2460.083077
609.668627	2520.576923
610.017926	2500.412308
610.367171	2507.974038
610.716362	2530.659231
611.065500	2530.659231
611.414585	2444.959615
611.763616	2460.083077
612.112594	2578.550192
612.461518	2555.865000
612.810389	2530.659231
613.159207	2487.809423
613.507971	2485.288846
613.856682	2513.015192
614.205340	2462.603654
614.553945	2510.494615
614.902496	2467.644808
615.250994	2548.303269
615.599439	2389.506923
615.947830	2555.865000
616.296169	2450.000769
616.644454	2457.562500
616.992686	2518.056346
617.340864	2409.671538
617.688990	2518.056346
618.037063	2510.494615
618.385082	2528.138654
618.733048	2558.385577
619.080961	2525.618077
619.428821	2558.385577
619.776628	2520.576923
620.124382	2568.467885
620.472083	2528.138654
620.819731	2538.220962
621.167326	2558.385577
621.514868	2515.535769
621.862357	2563.426731
622.209793	2513.015192
622.557176	2472.685962
622.904506	2543.262115
623.251783	2528.138654
623.599007	2505.453462
623.946179	2480.247692
624.293297	2520.576923
624.640363	2495.371154
624.987376	2487.809423
625.334336	2487.809423
625.681243	2480.247692
626.028097	2500.412308
626.374899	2548.303269
626.721647	2553.344423
627.068343	2487.809423
627.414987	2470.165385
627.761577	2505.453462
628.108115	2528.138654
628.454600	2520.576923
628.801032	2457.562500
629.147412	2505.453462
629.493739	2513.015192
629.840014	2523.097500
630.186236	2379.424615
630.532405	2487.809423
630.878521	2462.603654
631.224585	2429.836154
631.570597	2485.288846
631.916556	2450.000769
632.262462	2528.138654
632.608316	2550.823846
632.954117	2480.247692
633.299866	2472.685962
633.645562	2570.988462
633.991206	2518.056346
634.336797	2455.041923
634.682336	2500.412308
635.027823	2520.576923
635.373257	2480.247692
635.718639	2578.550192
636.063968	2477.727115
636.409245	2495.371154
636.754470	2414.712692
637.099642	2515.535769
637.444762	2573.509038
637.789829	2472.685962
638.134845	2462.603654
638.479808	2518.056346
638.824719	2477.727115
639.169577	2525.618077
639.514383	2565.947308
639.859137	2439.918462
640.203839	2482.768269
640.548489	2518.056346
640.893086	2492.850577
641.237632	2497.891731
641.582125	2480.247692
641.926566	2389.506923
642.270955	2528.138654
642.615292	2450.000769
642.959576	2573.509038
643.303809	2560.906154
643.647990	2560.906154
643.992118	2573.509038
644.336195	2485.288846
644.680219	2505.453462
645.024192	2530.659231
645.368112	2500.412308
645.711981	2419.753846
646.055797	2513.015192
646.399562	2492.850577
646.743274	2470.165385
647.086935	2455.041923
647.430544	2591.153077
647.774101	2490.330000
648.117606	2485.288846
648.461059	2404.630385
648.804460	2513.015192
649.147810	2490.330000
649.491108	2535.700385
649.834354	2558.385577
650.177548	2507.974038
650.520690	2535.700385
650.863781	2429.836154
651.206820	2497.891731
651.549807	2518.056346
651.892742	2442.439038
652.235626	2523.097500
652.578458	2586.111923
652.921238	2462.603654
653.263967	2523.097500
653.606644	2444.959615
653.949269	2576.029615
654.291843	2447.480192
654.634365	2520.576923
654.976836	2606.276538
655.319255	2467.644808
655.661622	2528.138654
656.003938	2513.015192
656.346203	2495.371154
656.688416	2492.850577
657.030577	2437.397885
657.372687	2452.521346
657.714746	2490.330000
658.056753	2497.891731
658.398708	2500.412308
658.740612	2477.727115
659.082465	2505.453462
659.424266	2475.206538
659.766016	2502.932885
660.107715	2485.288846
660.449362	2497.891731
660.790958	2507.974038
661.132503	2497.891731
661.473996	2429.836154
661.815438	2472.685962
662.156829	2523.097500
662.498168	2518.056346
662.839456	2467.644808
663.180693	2520.576923
663.521879	2540.741538
663.863013	2475.206538
664.204097	2462.603654
664.545129	2422.274423
664.886110	2429.836154
665.227040	2515.535769
665.567918	2497.891731
665.908746	2424.795000
666.249522	2450.000769
666.590248	2485.288846
666.930922	2502.932885
667.271545	2492.850577
667.612118	2477.727115
667.952639	2465.124231
668.293109	2492.850577
668.633528	2465.124231
668.973896	2409.671538
669.314213	2523.097500
669.654480	2523.097500
669.994695	2560.906154
670.334859	2533.179808
670.674973	2475.206538
671.015035	2520.576923
671.355047	2525.618077
671.695008	2505.453462
672.034918	2455.041923
672.374777	2513.015192
672.714585	2480.247692
673.054342	2513.015192
673.394049	2452.521346
673.733705	2543.262115
674.073310	2434.877308
674.412864	2419.753846
674.752368	2535.700385
675.091820	2535.700385
675.431223	2520.576923
675.770574	2507.974038
676.109875	2555.865000
676.449125	2492.850577
676.788324	2497.891731
677.127473	2540.741538
677.466571	2548.303269
677.805619	2487.809423
678.144616	2540.741538
678.483562	2497.891731
678.822458	2409.671538
679.161303	2548.303269
679.500098	2533.179808
679.838842	2530.659231
680.177535	2472.685962
680.516179	2611.317692
680.854771	2457.562500
681.193314	2525.618077
681.531805	2520.576923
681.870247	2475.206538
682.208638	2530.659231
682.546978	2528.138654
682.885268	2507.974038
683.223508	2555.865000
683.561697	2487.809423
683.899836	2525.618077
684.237925	2598.714808
684.575963	2583.591346
684.913951	2553.344423
685.251889	2487.809423
685.589776	2477.727115
685.927614	2538.220962
686.265401	2450.000769
686.603137	2540.741538
686.940824	2492.850577
687.278460	2487.809423
687.616046	2492.850577
687.953582	2485.288846
688.291068	2419.753846
688.628504	2530.659231
688.965889	2518.056346
689.303224	2455.041923
689.640510	2472.685962
689.977745	2540.741538
690.314930	2444.959615
690.652065	2523.097500
690.989150	2528.138654
691.326185	2444.959615
691.663170	2455.041923
692.000105	2543.262115
692.336990	2480.247692
692.673825	2497.891731
693.010610	2482.768269
693.347345	2381.945192
693.684030	2470.165385
694.020665	2510.494615
694.357251	2502.932885
694.693786	2510.494615
695.030272	2495.371154
695.366707	2490.330000
695.703093	2470.165385
696.039429	2485.288846
696.375716	2444.959615
696.711952	2492.850577
697.048139	2505.453462
697.384276	2581.070769
697.720363	2467.644808
698.056400	2528.138654
698.392388	2550.823846
698.728326	2528.138654
699.064214	2470.165385
699.400053	2462.603654
699.735842	2482.768269
700.071581	2394.548077
700.407270	2528.138654
700.742910	2505.453462
701.078501	2540.741538
701.414042	2535.700385
701.749533	2598.714808
702.084974	2437.397885
702.420366	2543.262115
702.755709	2525.618077
703.091002	2528.138654
703.426246	2467.644808
703.761440	2513.015192
704.096584	2545.782692
704.431679	2477.727115
704.766725	2402.109808
705.101721	2563.426731
705.436668	2455.041923
705.771565	2507.974038
706.106413	2568.467885
706.441212	2530.659231
706.775961	2525.618077
707.110661	2422.274423
707.445311	2502.932885
707.779913	2432.356731
708.114465	2460.083077
708.448967	2472.685962
708.783421	2495.371154
709.117825	2515.535769
709.452180	2470.165385
709.786485	2480.247692
710.120742	2475.206538
710.454949	2437.397885
710.789107	2502.932885
711.123216	2419.753846
711.457275	2465.124231
711.791286	2497.891731
712.125247	2427.315577
712.459159	2570.988462
712.793023	2444.959615
713.126837	2492.850577
713.460602	2472.685962
713.794318	2361.780577
714.127985	2475.206538
714.461602	2543.262115
714.795171	2565.947308
715.128691	2510.494615
715.462162	2455.041923
715.795584	2568.467885
716.128957	2540.741538
716.462281	2452.521346
716.795556	2495.371154
717.128782	2462.603654
717.461960	2518.056346
717.795088	2520.576923
718.128167	2485.288846
718.461198	2432.356731
718.794180	2505.453462
719.127113	2472.685962
719.459997	2510.494615
719.792833	2492.850577
720.125619	2555.865000
720.458357	2371.862885
720.791046	2465.124231
721.123686	2460.083077
721.456278	2439.918462
721.788821	2457.562500
722.121315	2540.741538
722.453761	2442.439038
722.786158	2490.330000
723.118506	2535.700385
723.450805	2437.397885
723.783056	2560.906154
724.115259	2545.782692
724.447412	2596.194231
724.779518	2422.274423
725.111574	2502.932885
725.443582	2560.906154
725.775542	2523.097500
726.107453	2543.262115
726.439315	2490.330000
726.771129	2525.618077
727.102895	2591.153077
727.434612	2520.576923
727.766281	2434.877308
728.097901	2500.412308
728.429473	2462.603654
728.760996	2505.453462
729.092471	2485.288846
729.423897	2437.397885
729.755276	2535.700385
730.086606	2460.083077
730.417887	2583.591346
730.749120	2513.015192
731.080305	2467.644808
731.411442	2447.480192
731.742530	2414.712692
732.073570	2475.206538
732.404562	2530.659231
732.735506	2553.344423
733.066401	2497.891731
733.397249	2497.891731
733.728048	2477.727115
734.058798	2480.247692
734.389501	2455.041923
734.720156	2507.974038
735.050762	2467.644808
735.381320	2497.891731
735.711831	2465.124231
736.042293	2487.809423
736.372707	2482.768269
736.703073	2472.685962
737.033391	2507.974038
737.363661	2523.097500
737.693883	2472.685962
738.024056	2450.000769
738.354182	2480.247692
738.684260	2492.850577
739.014290	2540.741538
739.344272	2444.959615
739.674207	2540.741538
740.004093	2460.083077
740.333931	2455.041923
740.663722	2490.330000
740.993464	2553.344423
741.323159	2490.330000
741.652806	2485.288846
741.982405	2467.644808
742.311956	2439.918462
742.641460	2434.877308
742.970915	2465.124231
743.300323	2507.974038
743.629683	2502.932885
743.958996	2409.671538
744.288260	2487.809423
744.617477	2528.138654
744.946647	2477.727115
745.275768	2450.000769
745.604842	2525.618077
745.933869	2497.891731
746.262847	2497.891731
746.591778	2502.932885
746.920662	2515.535769
747.249498	2497.891731
747.578286	2507.974038
747.907027	2568.467885
748.235720	2475.206538
748.564365	2523.097500
748.892963	2543.262115
749.221514	2502.932885
749.550017	2528.138654
749.878473	2487.809423
750.206881	2495.371154
750.535242	2490.330000
750.863555	2510.494615
751.191821	2492.850577
751.520039	2477.727115
751.848210	2533.179808
752.176334	2439.918462
752.504411	2450.000769
752.832440	2505.453462
753.160421	2376.904038
753.488356	2520.576923
753.816243	2520.576923
754.144082	2444.959615
754.471875	2548.303269
754.799620	2462.603654
755.127318	2455.041923
755.454969	2515.535769
755.782572	2492.850577
756.110129	2472.685962
756.437638	2530.659231
756.765100	2432.356731
757.092515	2502.932885
757.419882	2560.906154
757.747203	2490.330000
758.074477	2500.412308
758.401703	2510.494615
758.728882	2490.330000
759.056014	2475.206538
759.383099	2424.795000
759.710138	2510.494615
760.037129	2520.576923
760.364073	2510.494615
760.690970	2558.385577
761.017820	2472.685962
761.344623	2565.947308
761.671379	2500.412308
761.998088	2515.535769
762.324751	2507.974038
762.651366	2505.453462
762.977935	2518.056346
763.304456	2460.083077
763.630931	2543.262115
763.957359	2477.727115
764.283740	2558.385577
764.610074	2467.644808
764.936362	2555.865000
765.262602	2475.206538
765.588796	2598.714808
765.914943	2457.562500
766.241044	2502.932885
766.567097	2533.179808
766.893104	2548.303269
767.219064	2583.591346
767.544978	2492.850577
767.870845	2439.918462
768.196665	2495.371154
768.522438	2452.521346
768.848165	2550.823846
769.173846	2399.589231
769.499479	2586.111923
769.825066	2523.097500
770.150607	2545.782692
770.476101	2450.000769
770.801548	2450.000769
771.126949	2467.644808
771.452303	2419.753846
771.777611	2533.179808
772.102872	2455.041923
772.428087	2485.288846
772.753256	2477.727115
773.078378	2465.124231
773.403453	2490.330000
773.728482	2482.768269
774.053465	2477.727115
774.378401	2558.385577
774.703291	2447.480192
775.028135	2490.330000
775.352932	2520.576923
775.677683	2487.809423
776.002388	2507.974038
776.327046	2523.097500
776.651658	2439.918462
776.976224	2495.371154
777.300743	2412.192115
777.625216	2462.603654
777.949643	2555.865000
778.274024	2495.371154
778.598359	2548.303269
778.922647	2444.959615
779.246889	2424.795000
779.571086	2472.685962
779.895236	2462.603654
780.219339	2457.562500
780.543397	2482.768269
780.867409	2462.603654
781.191374	2555.865000
781.515294	2480.247692
781.839167	2482.768269
782.162995	2460.083077
782.486776	2480.247692
782.810511	2507.974038
783.134201	2439.918462
783.457844	2525.618077
783.781441	2460.083077
784.104993	2424.795000
784.428498	2568.467885
784.751958	2515.535769
785.075372	2467.644808
785.398739	2550.823846
785.722061	2422.274423
786.045337	2558.385577
786.368568	2507.974038
786.691752	2502.932885
787.014891	2490.330000
787.337983	2535.700385
787.661030	2518.056346
787.984031	2397.068654
788.306987	2535.700385
788.629897	2455.041923
788.952760	2518.056346
789.275579	2553.344423
789.598351	2437.397885
789.921078	2533.179808
790.243759	2548.303269
790.566395	2502.932885
790.888984	2480.247692
791.211529	2563.426731
791.534027	2535.700385
791.856480	2462.603654
792.178888	2505.453462
792.501249	2540.741538
792.823566	2439.918462
793.145836	2447.480192
793.468062	2581.070769
793.790241	2528.138654
794.112375	2480.247692
794.434464	2535.700385
794.756507	2482.768269
795.078505	2520.576923
795.400457	2548.303269
795.722364	2465.124231
796.044226	2588.632500
796.366042	2490.330000
796.687812	2576.029615
797.009538	2432.356731
797.331218	2472.685962
797.652852	2492.850577
797.974442	2444.959615
798.295986	2502.932885
798.617484	2419.753846
798.938938	2515.535769
799.260346	2439.918462
799.581709	2462.603654
799.903026	2465.124231
800.224299	2525.618077
800.545526	2558.385577
800.866708	2429.836154
801.187845	2500.412308
801.508936	2513.015192
801.829983	2502.932885
802.150984	2487.809423
802.471940	2455.041923
802.792851	2581.070769
803.113717	2460.083077
803.434538	2510.494615
803.755314	2497.891731
804.076045	2472.685962
804.396731	2495.371154
804.717372	2520.576923
805.037967	2439.918462
805.358518	2518.056346
805.679024	2485.288846
805.999485	2538.220962
806.319901	2434.877308
806.640272	2394.548077
806.960598	2578.550192
807.280879	2452.521346
807.601115	2462.603654
807.921306	2533.179808
808.241453	2533.179808
808.561554	2573.509038
808.881611	2586.111923
809.201623	2550.823846
809.521590	2540.741538
809.841513	2475.206538
810.161390	2560.906154
810.481223	2482.768269
810.801011	2581.070769
811.120755	2404.630385
811.440453	2492.850577
811.760107	2510.494615
812.079716	2555.865000
812.399281	2465.124231
812.718801	2523.097500
813.038276	2470.165385
813.357707	2515.535769
813.677093	2487.809423
813.996434	2518.056346
814.315731	2429.836154
814.634983	2550.823846
814.954191	2462.603654
815.273354	2518.056346
815.592473	2507.974038
815.911547	2570.988462
816.230577	2465.124231
816.549562	2485.288846
816.868502	2497.891731
817.187399	2518.056346
817.506250	2515.535769
817.825058	2462.603654
818.143821	2452.521346
818.462539	2477.727115
818.781213	2447.480192
819.099843	2437.397885
819.418429	2530.659231
819.736970	2515.535769
820.055466	2502.932885
820.373919	2407.150962
820.692327	2523.097500
821.010691	2520.576923
821.329011	2482.768269
821.647286	2500.412308
821.965517	2492.850577
822.283704	2460.083077
822.601847	2450.000769
822.919945	2485.288846
823.237999	2525.618077
823.556010	2485.288846
823.873976	2490.330000
824.191897	2505.453462
824.509775	2467.644808
824.827609	2472.685962
825.145398	2513.015192
825.463144	2384.465769
825.780845	2523.097500
826.098502	2452.521346
826.416116	2550.823846
826.733685	2535.700385
827.051210	2492.850577
827.368692	2450.000769
827.686129	2490.330000
828.003522	2455.041923
828.320872	2462.603654
828.638177	2505.453462
828.955439	2535.700385
829.272656	2485.288846
829.589830	2467.644808
829.906960	2409.671538
830.224046	2472.685962
830.541088	2452.521346
830.858086	2533.179808
831.175041	2538.220962
831.491952	2465.124231
831.808819	2485.288846
832.125642	2429.836154
832.442421	2545.782692
832.759157	2417.233269
833.075849	2386.986346
833.392497	2492.850577
833.709101	2550.823846
834.025662	2497.891731
834.342179	2507.974038
834.658653	2492.850577
834.975083	2550.823846
835.291469	2444.959615
835.607811	2583.591346
835.924110	2497.891731
836.240366	2560.906154
836.556578	2475.206538
836.872746	2422.274423
837.188871	2490.330000
837.504952	2492.850577
837.820990	2475.206538
838.136984	2543.262115
838.452935	2490.330000
838.768842	2550.823846
839.084706	2550.823846
839.400526	2538.220962
839.716303	2414.712692
840.032037	2550.823846
840.347727	2470.165385
840.663373	2550.823846
840.978977	2507.974038
841.294537	2412.192115
841.610054	2495.371154
841.925527	2429.836154
842.240957	2475.206538
842.556344	2457.562500
842.871687	2429.836154
843.186987	2482.768269
843.502244	2560.906154
843.817458	2462.603654
844.132629	2548.303269
844.447756	2550.823846
844.762840	2470.165385
845.077881	2545.782692
845.392879	2475.206538
845.707833	2442.439038
846.022745	2505.453462
846.337613	2490.330000
846.652438	2472.685962
846.967221	2518.056346
847.281960	2500.412308
847.596656	2533.179808
847.911309	2570.988462
848.225919	2495.371154
848.540485	2513.015192
848.855009	2439.918462
849.169490	2510.494615
849.483928	2414.712692
849.798323	2447.480192
850.112675	2470.165385
850.426984	2510.494615
850.741251	2485.288846
851.055474	2452.521346
851.369654	2507.974038
851.683792	2505.453462
851.997887	2495.371154
852.311938	2502.932885
852.625947	2465.124231
852.939914	2518.056346
853.253837	2523.097500
853.567718	2518.056346
853.881555	2545.782692
854.195350	2558.385577
854.509103	2528.138654
854.822812	2530.659231
855.136479	2543.262115
855.450103	2457.562500
855.763685	2507.974038
856.077224	2533.179808
856.390720	2480.247692
856.704173	2429.836154
857.017584	2518.056346
857.330953	2442.439038
857.644278	2555.865000
857.957561	2465.124231
858.270802	2460.083077
858.584000	2477.727115
858.897155	2470.165385
859.210268	2472.685962
859.523339	2427.315577
859.836367	2424.795000
860.149352	2538.220962
860.462295	2465.124231
860.775195	2455.041923
861.088054	2482.768269
861.400869	2477.727115
861.713642	2452.521346
862.026373	2543.262115
862.339062	2507.974038
862.651708	2581.070769
862.964312	2457.562500
863.276873	2510.494615
863.589392	2450.000769
863.901869	2482.768269
864.214303	2455.041923
864.526696	2513.015192
864.839045	2414.712692
865.151353	2455.041923
865.463619	2485.288846
865.775842	2603.755962
866.088023	2485.288846
866.400162	2548.303269
866.712258	2573.509038
867.024313	2523.097500
867.336325	2475.206538
867.648296	2457.562500
867.960224	2472.685962
868.272110	2515.535769
868.583954	2429.836154
868.895755	2528.138654
869.207515	2437.397885
869.519233	2505.453462
869.830909	2492.850577
870.142542	2570.988462
870.454134	2538.220962
870.765684	2462.603654
871.077191	2533.179808
871.388657	2434.877308
871.700081	2510.494615
872.011463	2518.056346
872.322803	2520.576923
872.634101	2500.412308
872.945357	2548.303269
873.256571	2505.453462
873.567744	2628.961731
873.878874	2540.741538
874.189963	2555.865000
874.501010	2523.097500
874.812015	2497.891731
875.122979	2447.480192
875.433900	2500.412308
875.744780	2502.932885
876.055618	2515.535769
876.366415	2452.521346
876.677169	2472.685962
876.987882	2550.823846
877.298554	2475.206538
877.609183	2507.974038
877.919771	2475.206538
878.230317	2465.124231
878.540822	2414.712692
878.851285	2482.768269
879.161707	2513.015192
879.472087	2528.138654
879.782425	2548.303269
880.092722	2472.685962
880.402977	2450.000769
880.713191	2450.000769
881.023363	2467.644808
881.333494	2492.850577
881.643583	2460.083077
881.953631	2434.877308
882.263637	2455.041923
882.573602	2482.768269
882.883526	2374.383462
883.193408	2475.206538
883.503248	2538.220962
883.813048	2502.932885
884.122806	2530.659231
884.432522	2442.439038
884.742197	2462.603654
885.051831	2518.056346
885.361424	2495.371154
885.670975	2510.494615
885.980485	2450.000769
886.289954	2545.782692
886.599382	2442.439038
886.908768	2457.562500
887.218113	2439.918462
887.527417	2500.412308
887.836680	2573.509038
888.145901	2545.782692
888.455082	2467.644808
888.764221	2424.795000
889.073319	2550.823846
889.382376	2364.301154
889.691392	2386.986346
890.000366	2528.138654
890.309300	2482.768269
890.618193	2510.494615
890.927044	2462.603654
891.235855	2482.768269
891.544625	2457.562500
891.853353	2510.494615
892.162041	2500.412308
892.470687	2505.453462
892.779293	2500.412308
893.087858	2518.056346
893.396381	2495.371154
893.704864	2439.918462
894.013306	2563.426731
894.321707	2565.947308
894.630068	2432.356731
894.938387	2502.932885
895.246665	2540.741538
895.554903	2540.741538
895.863100	2523.097500
896.171256	2455.041923
896.479371	2525.618077
896.787446	2500.412308
897.095480	2419.753846
897.403473	2470.165385
897.711425	2523.097500
898.019336	2538.220962
898.327207	2490.330000
898.635038	2505.453462
898.942827	2515.535769
899.250576	2505.453462
899.558284	2487.809423
899.865952	2439.918462
900.173579	2548.303269
900.481165	2467.644808
900.788711	2502.932885
901.096216	2487.809423
901.403681	2555.865000
901.711105	2487.809423
902.018489	2563.426731
902.325832	2424.795000
902.633135	2568.467885
902.940397	2482.768269
903.247619	2462.603654
903.554800	2535.700385
903.861941	2502.932885
904.169041	2523.097500
904.476101	2475.206538
904.783121	2450.000769
905.090100	2507.974038
905.397039	2389.506923
905.703938	2414.712692
906.010796	2523.097500
906.317614	2475.206538
906.624391	2513.015192
906.931129	2485.288846
907.237826	2437.397885
907.544483	2485.288846
907.851099	2417.233269
908.157675	2525.618077
908.464211	2472.685962
908.770707	2543.262115
909.077163	2467.644808
909.383578	2437.397885
909.689954	2477.727115
909.996289	2429.836154
910.302584	2495.371154
910.608839	2487.809423
910.915054	2497.891731
911.221229	2437.397885
911.527363	2555.865000
911.833458	2482.768269
912.139513	2513.015192
912.445527	2492.850577
912.751502	2502.932885
913.057436	2533.179808
913.363331	2520.576923
913.669186	2530.659231
913.975000	2414.712692
914.280775	2550.823846
914.586510	2465.124231
914.892205	2364.301154
915.197859	2560.906154
915.503475	2513.015192
915.809050	2455.041923
916.114585	2422.274423
916.420081	2492.850577
916.725536	2510.494615
917.030952	2515.535769
917.336328	2457.562500
917.641665	2520.576923
917.946961	2485.288846
918.252218	2495.371154
918.557435	2482.768269
918.862612	2442.439038
919.167750	2510.494615
919.472848	2477.727115
919.777906	2558.385577
920.082925	2505.453462
920.387904	2576.029615
920.692843	2429.836154
920.997743	2497.891731
921.302603	2502.932885
921.607423	2427.315577
921.912204	2457.562500
922.216946	2500.412308
922.521647	2467.644808
922.826310	2515.535769
923.130932	2497.891731
923.435516	2583.591346
923.740059	2490.330000
924.044564	2563.426731
924.349028	2538.220962
924.653454	2447.480192
924.957840	2374.383462
925.262186	2485.288846
925.566493	2460.083077
925.870761	2502.932885
926.174989	2553.344423
926.479178	2482.768269
926.783328	2543.262115
927.087438	2586.111923
927.391509	2490.330000
927.695541	2525.618077
927.999533	2460.083077
928.303486	2500.412308
928.607400	2477.727115
928.911275	2455.041923
929.215110	2447.480192
929.518906	2505.453462
929.822663	2611.317692
930.126381	2492.850577
930.430060	2523.097500
930.733699	2513.015192
931.037299	2543.262115
931.340861	2591.153077
931.644383	2490.330000
931.947866	2444.959615
932.251309	2500.412308
932.554714	2500.412308
932.858080	2490.330000
933.161407	2455.041923
933.464694	2518.056346
933.767943	2510.494615
934.071153	2535.700385
934.374323	2520.576923
934.677455	2452.521346
934.980548	2467.644808
935.283602	2475.206538
935.586617	2573.509038
935.889593	2450.000769
936.192530	2515.535769
936.495428	2482.768269
936.798287	2492.850577
937.101108	2581.070769
937.403890	2495.371154
937.706632	2437.397885
938.009336	2465.124231
938.312002	2515.535769
938.614628	2450.000769
938.917216	2417.233269
939.219765	2457.562500
939.522275	2482.768269
939.824747	2513.015192
940.127179	2450.000769
940.429573	2558.385577
940.731929	2507.974038
941.034246	2540.741538
941.336524	2495.371154
941.638763	2465.124231
941.940964	2452.521346
942.243126	2457.562500
942.545250	2520.576923
942.847335	2477.727115
943.149381	2477.727115
943.451389	2515.535769
943.753359	2482.768269
944.055290	2510.494615
944.357182	2482.768269
944.659036	2543.262115
944.960851	2507.974038
945.262628	2500.412308
945.564367	2434.877308
945.866067	2525.618077
946.167729	2434.877308
946.469352	2543.262115
946.770937	2581.070769
947.072484	2523.097500
947.373992	2442.439038
947.675462	2558.385577
947.976893	2455.041923
948.278286	2515.535769
948.579641	2505.453462
948.880958	2576.029615
949.182236	2432.356731
949.483476	2452.521346
949.784678	2507.974038
950.085841	2472.685962
950.386967	2492.850577
950.688054	2480.247692
950.989103	2510.494615
951.290114	2467.644808
951.591087	2460.083077
951.892021	2505.453462
952.192917	2409.671538
952.493776	2515.535769
952.794596	2472.685962
953.095378	2500.412308
953.396122	2442.439038
953.696828	2560.906154
953.997496	2487.809423
954.298126	2510.494615
954.598718	2460.083077
954.899272	2530.659231
955.199788	2555.865000
955.500266	2407.150962
955.800706	2450.000769
956.101108	2490.330000
956.401472	2485.288846
956.701798	2528.138654
957.002087	2427.315577
957.302337	2439.918462
957.602550	2505.453462
957.902724	2502.932885
958.202861	2538.220962
958.502960	2442.439038
958.803022	2500.412308
959.103045	2462.603654
959.403031	2520.576923
959.702979	2568.467885
960.002889	2429.836154
960.302762	2485.288846
960.602596	2439.918462
960.902393	2475.206538
961.202153	2477.727115
961.501875	2480.247692
961.801559	2523.097500
962.101205	2530.659231
962.400814	2477.727115
962.700385	2513.015192
962.999918	2444.959615
963.299414	2570.988462
963.598873	2450.000769
963.898293	2482.768269
964.197677	2465.124231
964.497022	2432.356731
964.796331	2490.330000
965.095601	2480.247692
965.394835	2475.206538
965.694030	2432.356731
965.993189	2475.206538
966.292309	2450.000769
966.591393	2485.288846
966.890439	2432.356731
967.189447	2450.000769
967.488419	2533.179808
967.787353	2444.959615
968.086249	2457.562500
968.385108	2490.330000
968.683930	2540.741538
968.982714	2520.576923
969.281462	2447.480192
969.580172	2543.262115
969.878844	2470.165385
970.177480	2465.124231
970.476078	2470.165385
970.774639	2482.768269
971.073162	2444.959615
971.371649	2495.371154
971.670098	2533.179808
971.968510	2510.494615
972.266885	2444.959615
972.565223	2482.768269
972.863524	2523.097500
973.161788	2439.918462
973.460014	2520.576923
973.758204	2548.303269
974.056356	2419.753846
974.354471	2591.153077
974.652550	2450.000769
974.950591	2434.877308
975.248595	2462.603654
975.546563	2500.412308
975.844493	2510.494615
976.142386	2455.041923
976.440243	2548.303269
976.738062	2495.371154
977.035845	2444.959615
977.333590	2535.700385
977.631299	2487.809423
977.928971	2422.274423
978.226606	2407.150962
978.524204	2442.439038
978.821765	2497.891731
979.119290	2417.233269
979.416777	2434.877308
979.714228	2513.015192
980.011642	2455.041923
980.309020	2543.262115
980.606360	2417.233269
980.903664	2538.220962
981.200931	2470.165385
981.498162	2533.179808
981.795356	2444.959615
982.092513	2507.974038
982.389633	2462.603654
982.686717	2500.412308
982.983764	2470.165385
983.280775	2472.685962
983.577749	2487.809423
983.874686	2525.618077
984.171587	2555.865000
984.468451	2480.247692
984.765279	2555.865000
985.062070	2422.274423
985.358824	2472.685962
985.655543	2457.562500
985.952224	2439.918462
986.248869	2502.932885
986.545478	2455.041923
986.842050	2460.083077
987.138586	2432.356731
987.435086	2535.700385
987.731549	2485.288846
988.027975	2412.192115
988.324366	2475.206538
988.620719	2490.330000
988.917037	2528.138654
989.213318	2442.439038
989.509563	2409.671538
989.805772	2417.233269
990.101944	2460.083077
990.398080	2452.521346
990.694180	2460.083077
990.990244	2490.330000
991.286271	2417.233269
991.582262	2490.330000
991.878217	2495.371154
992.174136	2444.959615
992.470019	2475.206538
992.765865	2447.480192
993.061676	2455.041923
993.357450	2447.480192
993.653188	2467.644808
993.948890	2507.974038
994.244556	2513.015192
994.540186	2477.727115
994.835780	2447.480192
995.131337	2513.015192
995.426859	2442.439038
995.722345	2490.330000
996.017795	2487.809423
996.313208	2528.138654
996.608586	2515.535769
996.903928	2525.618077
997.199234	2439.918462
997.494504	2487.809423
997.789738	2402.109808
998.084936	2528.138654
998.380099	2513.015192
998.675225	2465.124231
998.970316	2502.932885
999.265371	2545.782692
999.560390	2477.727115
999.855373	2465.124231
1000.150320	2507.974038
1000.445232	2495.371154
1000.740108	2543.262115
1001.034948	2487.809423
1001.329752	2518.056346
1001.624521	2457.562500
1001.919254	2543.262115
1002.213951	2450.000769
1002.508613	2533.179808
1002.803239	2432.356731
1003.097829	2442.439038
1003.392384	2515.535769
1003.686903	2439.918462
1003.981386	2434.877308
1004.275834	2369.342308
1004.570246	2490.330000
1004.864623	2462.603654
1005.158964	2480.247692
1005.453270	2492.850577
1005.747540	2480.247692
1006.041775	2535.700385
1006.335974	2460.083077
1006.630138	2434.877308
1006.924266	2545.782692
1007.218359	2450.000769
1007.512416	2497.891731
1007.806438	2505.453462
1008.100425	2492.850577
1008.394376	2452.521346
1008.688292	2450.000769
1008.982172	2452.521346
1009.276017	2467.644808
1009.569827	2485.288846
1009.863602	2560.906154
1010.157341	2535.700385
1010.451045	2490.330000
1010.744714	2462.603654
1011.038347	2518.056346
1011.331945	2560.906154
1011.625508	2477.727115
1011.919036	2475.206538
1012.212528	2465.124231
1012.505986	2482.768269
1012.799408	2434.877308
1013.092795	2402.109808
1013.386147	2578.550192
1013.679464	2467.644808
1013.972745	2555.865000
1014.265992	2538.220962
1014.559204	2545.782692
1014.852380	2492.850577
1015.145521	2513.015192
1015.438628	2528.138654
1015.731699	2543.262115
1016.024736	2502.932885
1016.317737	2465.124231
1016.610703	2515.535769
1016.903635	2472.685962
1017.196531	2485.288846
1017.489393	2535.700385
1017.782219	2437.397885
1018.075011	2492.850577
1018.367768	2525.618077
1018.660490	2412.192115
1018.953177	2412.192115
1019.245829	2412.192115
