Dividing Wavelength (nm)	Counts (n)	Blue Motor Position (mm): 42.500000	Red Motor Position (mm): 0.000000	
326.493990	2093.119844
326.888308	2093.119844
327.282561	2093.119844
327.676750	2069.804508
328.070874	2073.177040
328.464933	2080.746332
328.858929	2088.189596
329.252859	2101.430187
329.646726	2115.794954
330.040528	2131.730042
330.434265	2153.243166
330.827938	2170.904848
331.221547	2192.486028
331.615091	2211.985211
332.008571	2235.313150
332.401986	2253.599936
332.795338	2274.180447
333.188625	2294.241718
333.581847	2311.772331
333.975006	2327.200782
334.368100	2348.234997
334.761129	2363.923067
335.154095	2379.815305
335.546996	2425.919177
335.939833	2514.164575
336.332606	2523.314270
336.725315	2536.819521
337.117960	2546.138094
337.510540	2551.403579
337.903056	2560.817934
338.295508	2566.902606
338.687896	2575.424677
339.080220	2584.135791
339.472480	2587.619228
339.864676	2588.778693
340.256807	2593.726586
340.648875	2595.163315
341.040879	2599.113059
341.432818	2597.658686
341.824694	2598.651793
342.216506	2599.498707
342.608253	2597.472163
342.999937	2598.742534
343.391557	2598.649273
343.783113	2595.579210
344.174605	2594.293716
344.566033	2591.127871
344.957397	2589.794486
345.348697	2589.454208
345.739934	2588.604774
346.131106	2586.666450
346.522215	2584.889443
346.913260	2583.787951
347.304241	2583.107395
347.695159	2582.686459
348.086012	2580.881726
348.476802	2578.686303
348.867528	2576.480799
349.258191	2575.694379
349.648789	2575.717064
350.039324	2572.596590
350.429796	2572.652042
350.820203	2569.700447
351.210548	2571.729511
351.600828	2570.600293
351.991045	2567.815055
352.381198	2570.985941
352.771288	2570.668348
353.161314	2567.101732
353.551276	2570.612896
353.941175	2568.407391
354.331010	2568.324212
354.720782	2572.730180
355.110490	2573.370407
355.500135	2569.221537
355.889717	2569.269428
356.279235	2570.065930
356.668689	2571.994172
357.058080	2570.867474
357.447408	2567.636094
357.836672	2571.487536
358.225873	2572.127762
358.615010	2568.228430
359.004084	2574.817218
359.393095	2575.119687
359.782043	2578.499781
360.170927	2577.274780
360.559748	2578.212435
360.948505	2580.962384
361.337199	2578.159503
361.725830	2580.594380
362.114398	2581.403485
362.502903	2582.918352
362.891344	2581.854669
363.279722	2581.403485
363.668037	2583.079669
364.056289	2583.248548
364.444478	2583.568661
364.832603	2586.290884
365.220665	2585.496902
365.608665	2588.864393
365.996601	2588.456060
366.384474	2588.907243
366.772284	2588.395566
367.160031	2588.529156
367.547715	2589.441605
367.935336	2589.678539
368.322893	2592.859507
368.710388	2594.215578
369.097820	2594.034096
369.485189	2594.397059
369.872495	2594.815475
370.259738	2592.108376
370.646918	2594.911257
371.034035	2600.706063
371.421090	2600.161619
371.808081	2596.940322
372.195010	2600.922833
372.581875	2601.797473
372.968678	2601.263111
373.355418	2601.452154
373.742096	2602.818307
374.128710	2604.842330
374.515262	2606.006837
374.901751	2602.210848
375.288177	2604.824686
375.674540	2607.478854
376.060841	2605.974069
376.447079	2610.246447
376.833254	2609.190325
377.219367	2608.056066
377.605417	2609.074379
377.991404	2609.245778
378.377329	2610.193515
378.763191	2611.529421
379.148991	2615.975718
379.534727	2617.304062
379.920402	2618.418157
380.306013	2618.922273
380.691563	2621.435288
381.077049	2619.628034
381.462474	2620.989146
381.847835	2624.565845
382.233134	2627.653551
382.618371	2627.877883
383.003545	2631.389046
383.388657	2631.686474
383.773706	2633.410549
384.158693	2637.662762
384.543618	2642.288021
384.928480	2645.448824
385.313280	2647.485451
385.698017	2657.217398
386.082692	2664.953049
386.467305	2669.961435
386.851856	2678.969977
387.236344	2688.603622
387.620770	2701.377906
388.005133	2716.443394
388.389435	2737.192783
388.773674	2756.807913
389.157851	2774.275511
389.541965	2803.935140
389.926018	2823.641010
390.310008	2861.469828
390.693936	2899.807803
391.077802	2939.706016
391.461606	2989.532780
391.845348	3032.133051
392.229027	3089.559355
392.612645	3161.496620
392.996200	3225.829305
393.379694	3300.952580
393.763125	3389.119840
394.146494	3463.587764
394.529801	3548.090106
394.913047	3660.822909
395.296230	3728.452508
395.679351	3802.358344
396.062410	3940.543933
396.445408	3982.423318
396.828343	4104.691464
397.211217	4218.722364
397.594028	4267.326648
397.976778	4411.107918
398.359466	4556.580494
398.742092	4635.257782
399.124656	4774.355820
399.507158	4944.250266
399.889598	5045.733734
400.271977	5231.033947
400.654294	5348.013922
401.036549	5540.182707
401.418742	5652.373585
401.800874	5901.923304
402.182944	6050.533998
402.564952	6347.384863
402.946898	6371.201795
403.328783	6510.488875
403.710606	6727.301341
404.092367	6988.191134
404.474067	7314.958727
404.855705	7306.787016
405.237282	7386.560755
405.618797	7780.524408
406.000250	8064.492604
406.381642	8415.233403
406.762972	8498.503183
407.144240	8482.595822
407.525447	8776.611037
407.906593	8836.870470
408.287677	9133.214699
408.668700	9355.726188
409.049661	9451.913924
409.430560	9676.714098
409.811399	9750.670345
410.192176	9971.485487
410.572891	10137.432710
410.953545	10627.919335
411.334138	10291.024064
411.714669	10868.344565
412.095139	10393.019210
412.475547	10886.671679
412.855894	10843.166522
413.236180	11196.947137
413.616405	10999.911118
413.996568	11311.814868
414.376670	11358.889163
414.756711	11318.111270
415.136691	11633.720268
415.516609	11845.496620
415.896466	11964.873664
416.276262	12285.024742
416.655997	12767.415274
417.035670	12853.543388
417.415283	13498.286800
417.794834	13618.568731
418.174324	13412.927462
418.553753	13371.453890
418.933121	13862.006050
419.312428	13731.530906
419.691674	13676.478985
420.070859	14154.360205
420.449983	13845.138349
420.829045	14410.234051
421.208047	14194.364282
421.586988	14650.187933
421.965867	14912.620320
422.344686	14934.995481
422.723444	15518.506518
423.102141	14236.730139
423.480777	15422.671663
423.859352	14948.205825
424.237866	16042.269800
424.616319	15774.574449
424.994712	16422.302224
425.373044	16219.867130
425.751314	16908.702994
426.129524	16059.669343
426.507673	17130.256664
426.885762	16867.299998
427.263789	17063.337868
427.641756	17245.981392
428.019662	17301.960885
428.397508	17358.157147
428.775292	17649.795459
429.153016	17629.096482
429.530679	17711.602526
429.908282	17751.412518
430.285824	17485.801683
430.663305	18196.690075
431.040726	17806.605591
431.418086	17646.995098
431.795385	18281.003373
432.172624	18717.779025
432.549802	18282.798024
432.926920	18494.143358
433.303977	18388.407677
433.680974	18645.446029
434.057910	18947.494323
434.434786	18973.957861
434.811601	18924.670499
435.188355	19959.299271
435.565050	19628.755854
435.941683	19593.311502
436.318257	20490.790641
436.694770	20287.657347
437.071222	20876.801874
437.447614	19953.360792
437.823946	19983.703497
438.200218	20155.594240
438.576429	19927.171997
438.952580	20237.603731
439.328670	20209.464010
439.704700	20640.946450
440.080670	20202.701302
440.456580	20815.569498
440.832429	20984.894294
441.208218	19994.567183
441.583947	20443.721388
441.959616	20562.349820
442.335224	20815.060342
442.710773	20945.616144
443.086261	21507.603975
443.461689	20840.064465
443.837057	21000.748723
444.212365	21649.726705
444.587612	21655.342550
444.962800	21256.501581
445.337927	21681.990089
445.712995	20402.232692
446.088002	22301.275675
446.462949	22500.494513
446.837837	22697.099513
447.212664	22719.852761
447.587431	25717.758898
447.962139	28690.050932
448.336786	30949.415427
448.711374	29231.783406
449.085901	25522.797314
449.460369	25549.918722
449.834776	25586.222591
450.209124	28130.656775
450.583412	27606.432227
450.957640	28064.489110
451.331808	26716.988687
451.705917	25349.008576
452.079965	25401.534879
452.453954	25784.637365
452.827883	25693.901637
453.201752	25492.273127
453.575562	25659.825958
453.949311	26799.393908
454.323001	26879.402061
454.696632	26661.127661
455.070202	28261.023534
455.443713	28445.446585
455.817164	29043.282061
456.190556	29593.239178
456.563888	28992.321037
456.937160	29418.154864
457.310373	27711.623464
457.683526	28153.672163
458.056619	28157.329520
458.429653	28139.201530
458.802628	28765.428785
459.175542	28916.451672
459.548398	30288.273141
459.921194	31933.607454
460.293930	32683.211908
460.666607	34792.798681
461.039224	36565.346511
461.411782	36882.747640
461.784280	35574.986632
462.156719	35009.560735
462.529099	34429.376859
462.901419	33094.466718
463.273680	32057.763512
463.645882	32211.052397
464.018024	32220.103789
464.390106	33182.144986
464.762130	36144.876472
465.134094	40535.053519
465.505999	46053.380303
465.877845	50538.946063
466.249631	51454.081844
466.621358	49555.996681
466.993026	47301.214594
467.364634	45166.797617
467.736184	43208.543762
468.107674	41940.010493
468.479105	41148.085553
468.850477	40418.965828
469.221790	38960.776790
469.593043	37185.978085
469.964238	36296.839534
470.335373	36243.451194
470.706449	38145.455855
471.077467	41008.052382
471.448425	45648.913407
471.819324	48342.865693
472.190164	46273.426668
472.560945	42639.316834
472.931667	39504.245942
473.302330	38424.521529
473.672934	37591.702749
474.043479	38120.108934
474.413965	37360.979220
474.784393	36976.654254
475.154761	37910.223014
475.525070	37951.376473
475.895321	37481.543455
476.265513	38110.450083
476.635645	39108.636353
477.005719	38963.627563
477.375734	39482.964711
477.745691	40220.510725
478.115588	41599.964502
478.485427	43745.628292
478.855207	47281.244063
479.224928	49926.758423
479.594591	51423.908018
479.964194	50287.790737
480.333739	50417.708834
480.703226	50502.332163
481.072653	51173.513907
481.442022	51636.291830
481.811333	51837.880010
482.180584	50554.619011
482.549777	50034.399660
482.918912	49494.786991
483.287988	49189.469508
483.657005	48348.761322
484.025964	47677.526646
484.394864	47662.226744
484.763706	47216.588744
485.132489	46345.464757
485.501213	46186.199583
485.869879	46333.091245
486.238487	45932.221212
486.607036	46134.840308
486.975527	45577.497901
487.343959	45788.954140
487.712333	45853.763214
488.080648	45737.574700
488.448905	46211.720425
488.817104	46016.058121
489.185244	47046.429638
489.553326	48855.939208
489.921350	51618.118470
490.289315	54418.865080
490.657222	54919.338231
491.025070	55130.023173
491.392861	54200.268046
491.760593	52925.574488
492.128267	51217.190463
492.495883	49661.757568
492.863440	48235.862161
493.230939	46860.295114
493.598380	45762.563699
493.965763	45429.744202
494.333088	44617.190860
494.700354	44120.249038
495.067563	43825.013863
495.434713	43669.214482
495.801805	43756.663378
496.168839	43358.853325
496.535815	43000.613810
496.902733	43041.689131
497.269593	42611.436733
497.636395	42521.026159
498.003139	42939.895632
498.369825	42367.707027
498.736453	42680.067001
499.103023	42203.491440
499.469535	42076.950917
499.835989	42166.955678
500.202385	41827.582680
500.568723	41845.297295
500.935003	42040.866338
501.301226	41829.536127
501.667390	42451.070067
502.033497	42693.415977
502.399546	42102.887653
502.765537	41394.091340
503.131470	41765.924327
503.497345	42134.389824
503.863163	40772.572524
504.228923	41412.816706
504.594625	41815.143633
504.960269	41077.819430
505.325856	41792.415591
505.691385	41128.417491
506.056856	41282.011367
506.422270	41723.321536
506.787625	41277.328135
507.152924	41497.228307
507.518164	41587.742224
507.883347	40778.516044
508.248472	41003.737154
508.613540	41511.867817
508.978550	41828.878257
509.343503	41567.512074
509.708398	41763.391148
510.073236	42299.855616
510.438016	42293.677682
510.802738	41749.732141
511.167403	42380.738409
511.532010	42593.908641
511.896561	42898.575815
512.261053	43765.185449
512.625488	43304.701251
512.989866	43175.551930
513.354186	43019.235832
513.718449	42992.830268
514.082655	43685.409189
514.446803	43348.060215
514.810894	43883.803799
515.174927	43788.934325
515.538904	43677.431563
515.902822	44352.731930
516.266684	43795.076971
516.630488	44213.974170
516.994235	44076.701030
517.357925	44652.723433
517.721558	44820.949258
518.085133	45137.400129
518.448651	45260.686587
518.812112	45026.862748
519.175516	45124.192306
519.538863	45448.976204
519.902152	45421.143993
520.265385	45873.653086
520.628560	45914.925013
520.991678	45697.590788
521.354739	45922.441373
521.717743	46242.952893
522.080690	46130.913249
522.443580	46669.646237
522.806413	46711.684419
523.169189	46670.367122
523.531908	46848.826489
523.894569	46701.143367
524.257174	46859.175978
524.619722	47140.028741
524.982213	47119.551574
525.344647	47041.854790
525.707025	47102.565406
526.069345	47492.402874
526.431608	47412.460257
526.793815	47732.853310
527.155964	47266.604552
527.518057	47424.793439
527.880093	47202.085345
528.242072	47732.323989
528.603995	47417.627439
528.965860	47408.059329
529.327669	47510.949279
529.689421	47425.713450
530.051117	47390.395126
530.412755	47523.279942
530.774337	47591.083461
531.135862	47389.260867
531.497331	47569.756859
531.858743	47471.935790
532.220098	47810.693766
532.581396	47530.947537
532.942638	47181.058692
533.303824	47493.338008
533.664953	47470.466293
534.026025	47177.807148
534.387040	47644.151687
534.747999	47593.026826
535.108902	47763.621992
535.469748	47271.749050
535.830537	47374.913743
536.191270	47561.917865
536.551947	47247.123013
536.912567	47530.934934
537.273131	47668.129936
537.633638	47151.419228
537.994089	47480.863673
538.354483	47054.321564
538.714821	47655.983275
539.075103	47993.604472
539.435328	47744.775639
539.795497	47614.212275
540.155609	47615.938870
540.515665	48083.354654
540.875665	47529.044501
541.235609	47840.262654
541.595496	47809.630083
541.955328	48505.140435
542.315102	47848.149539
542.674821	47621.365672
543.034483	47668.170265
543.394090	47638.709762
543.753640	47586.443079
544.113134	48587.676726
544.472571	47563.709995
544.831953	48832.424746
545.191278	48018.805200
545.550548	47734.108557
545.909761	48209.973316
546.268918	48404.955064
546.628019	48702.078151
546.987064	48249.201054
547.346053	47515.866925
547.704986	48403.278880
548.063863	47938.421481
548.422684	48123.439389
548.781449	47958.586097
549.140158	48349.930870
549.498811	48199.908652
549.857408	47609.682798
550.215949	48452.402404
550.574434	48397.993231
550.932864	48139.881113
551.291237	48844.364718
551.649555	48443.257751
552.007817	48682.452939
552.366022	48312.323862
552.724173	48491.801542
553.082267	48875.365294
553.440305	49138.720212
553.798288	48445.937124
554.156215	48771.235220
554.514086	48953.387232
554.871902	48699.812152
555.229661	48711.469821
555.587365	48533.693530
555.945014	48625.666862
556.302606	48562.042459
556.660143	48775.318555
557.017625	48840.452783
557.375050	48618.586561
557.732421	48951.897571
558.089735	48929.267832
558.446994	48849.262199
558.804197	49301.879677
559.161345	49213.576306
559.518437	48445.503585
559.875474	48772.268657
560.232455	48933.509963
560.589381	49109.042939
560.946251	48784.624525
561.303065	49465.359255
561.659825	49235.548175
562.016528	48917.884906
562.373177	48617.059092
562.729770	49087.411348
563.086307	48602.714488
563.442789	49054.144774
563.799216	49091.592985
564.155587	48876.096261
564.511904	48887.020442
564.868164	48954.561821
565.224370	49192.736176
565.580520	48928.362944
565.936615	49118.497623
566.292654	48819.448816
566.648638	49079.857179
567.004567	49046.956089
567.360441	49095.149519
567.716260	48928.030228
568.072023	49211.900122
568.427732	49168.715077
568.783385	48709.564265
569.138982	49088.616184
569.494525	49035.326147
569.850013	48778.519687
570.205445	48771.308317
570.560823	48699.474395
570.916145	48574.428574
571.271412	48598.172409
571.626625	48334.570474
571.981782	48349.938432
572.336884	48056.215603
572.691931	48365.140031
573.046923	47941.554558
573.401860	47793.470664
573.756743	47738.635513
574.111570	47848.797328
574.466342	47698.447435
574.821059	47791.875139
575.175722	47290.161864
575.530330	47312.032910
575.884882	47014.473763
576.239380	46960.102398
576.593823	46928.824559
576.948211	46849.053341
577.302544	46365.725154
577.656823	46359.925307
578.011047	46587.538444
578.365216	46296.479865
578.719330	46056.964563
579.073389	45910.486277
579.427394	45981.009498
579.781344	45952.842051
580.135239	45587.504591
580.489080	45652.795095
580.842866	45127.451412
581.196597	45558.727164
581.550273	45502.699780
581.903895	45365.156939
582.257463	45770.160718
582.610975	45137.251415
582.964434	45430.273523
583.317837	45040.037804
583.671186	44884.099792
584.024481	45086.093785
584.377721	44599.476246
584.730906	44879.416560
585.084037	44910.575932
585.437113	44607.768944
585.790135	44626.900123
586.143103	44202.177870
586.496016	44317.794213
586.848874	44334.593858
587.201679	44337.537892
587.554428	43823.947659
587.907124	43989.723482
588.259765	43751.498716
588.612352	43989.584851
588.964884	43350.512736
589.317362	43644.379238
589.669786	43572.694030
590.022155	43326.340404
590.374470	43730.714039
590.726731	43261.604427
591.078937	42742.282401
591.431090	42869.967267
591.783188	42505.310362
592.135232	42162.693382
592.487222	42431.502828
592.839157	42511.127853
593.191038	42149.687205
593.542866	41892.038873
593.894639	41302.707824
594.246358	41565.500653
594.598022	41546.739999
594.949633	41132.266412
595.301190	41107.141302
595.652692	40921.848651
596.004141	41225.552964
596.355535	40259.002455
596.706876	40185.338594
597.058162	40016.401967
597.409395	40485.015026
597.760573	40549.599768
598.111698	40154.514459
598.462768	40146.453654
598.813785	40182.326505
599.164748	39632.946600
599.515657	40012.802583
599.866511	39496.585909
600.217312	40109.633067
600.568060	39080.123587
600.918753	39832.566210
601.269392	39758.531825
601.619978	39422.745608
601.970510	39630.594902
602.320988	39806.110235
602.671412	40109.501997
603.021783	39863.203823
603.372100	39501.432978
603.722363	39598.908729
604.072572	39665.320890
604.422728	39698.040499
604.772830	39477.800049
605.122878	39602.399728
605.472872	39524.619766
605.822813	39798.800562
606.172701	39616.237696
606.522534	39871.302436
606.872314	40119.554057
607.222041	39876.983817
607.571714	40262.221232
607.921333	39703.759688
608.270899	40003.199185
608.620411	40350.874963
608.969870	40134.546449
609.319276	40151.479685
609.668627	40175.291575
610.017926	40657.561119
610.367171	40818.172281
610.716362	40890.139793
611.065500	40843.388132
611.414585	41030.505681
611.763616	41330.668584
612.112594	41261.075455
612.461518	41474.086890
612.810389	41774.461521
613.159207	41637.379945
613.507971	41712.372150
613.856682	42178.230218
614.205340	42078.705238
614.553945	42783.274544
614.902496	42212.356309
615.250994	42710.140004
615.599439	42751.515275
615.947830	42953.751243
616.296169	43028.244374
616.644454	43140.999862
616.992686	43317.772963
617.340864	43846.095968
617.688990	43532.621898
618.037063	44156.873020
618.385082	44100.132313
618.733048	44406.299230
619.080961	44419.718782
619.428821	44423.819761
619.776628	44535.743458
620.124382	44361.725348
620.472083	44471.556967
620.819731	44591.342344
621.167326	44262.409576
621.514868	44248.004479
621.862357	43802.381602
622.209793	43829.117362
622.557176	43484.108354
622.904506	43227.425403
623.251783	42881.254410
623.599007	42650.235973
623.946179	42443.004221
624.293297	42372.743139
624.640363	41794.447176
624.987376	41774.640482
625.334336	41545.101624
625.681243	41179.960769
626.028097	41149.605461
626.374899	41012.362568
626.721647	40998.055773
627.068343	40888.803887
627.414987	40663.698724
627.761577	40434.076687
628.108115	40767.259147
628.454600	40219.343698
628.801032	40408.543243
629.147412	40363.624041
629.493739	40367.271316
629.840014	40001.117189
630.186236	40352.646929
630.532405	39946.216503
630.878521	40164.102734
631.224585	40048.438500
631.570597	39744.277962
631.916556	39903.056664
632.262462	39854.250733
632.608316	39877.979444
632.954117	39769.390470
633.299866	39740.726469
633.645562	39675.188949
633.991206	39184.661994
634.336797	38724.782735
634.682336	38717.465500
635.027823	38482.875406
635.373257	38294.011097
635.718639	38059.494100
636.063968	37935.073382
636.409245	37345.689400
636.754470	37396.322750
637.099642	37148.832343
637.444762	36674.737029
637.789829	36838.007399
638.134845	36503.068097
638.479808	36435.262057
638.824719	36323.318195
639.169577	35958.797401
639.514383	36027.745262
639.859137	35713.073919
640.203839	35947.555628
640.548489	35589.215289
640.893086	35660.020816
641.237632	35400.792082
641.582125	35522.172984
641.926566	35472.920911
642.270955	35416.328918
642.615292	35442.681550
642.959576	35418.375627
643.303809	35416.021408
643.647990	35564.811063
643.992118	35531.393255
644.336195	35530.145569
644.680219	35611.056088
645.024192	35924.986382
645.368112	36437.265916
645.711981	36462.592672
646.055797	37317.690832
646.399562	37256.902078
646.743274	38211.565547
647.086935	38651.706168
647.430544	38521.757825
647.774101	38626.369329
648.117606	38863.837922
648.461059	39155.564454
648.804460	38749.539841
649.147810	38131.837178
649.491108	37860.151753
649.834354	37496.918975
650.177548	36683.637186
650.520690	36232.446355
650.863781	36247.912615
651.206820	36104.922807
651.549807	35647.072612
651.892742	35183.278896
652.235626	34994.422150
652.578458	34882.173298
652.921238	34259.535345
653.263967	34597.912715
653.606644	34267.621356
653.949269	34219.977411
654.291843	33802.514420
654.634365	34213.388623
654.976836	33814.451872
655.319255	33815.881039
655.661622	33820.813808
656.003938	33600.568317
656.346203	33468.754747
656.688416	33684.506049
657.030577	33488.170751
657.372687	33317.625996
657.714746	33581.951336
658.056753	33704.350551
658.398708	33156.243538
658.740612	33223.784917
659.082465	33487.250740
659.424266	33303.150322
659.766016	33439.420273
660.107715	33313.840089
660.449362	33424.606842
660.790958	33412.528238
661.132503	33423.792696
661.473996	33462.554128
661.815438	33574.840788
662.156829	33766.480252
662.498168	33531.905281
662.839456	33558.167172
663.180693	33714.808425
663.521879	33875.049062
663.863013	33844.489587
664.204097	33824.624920
664.545129	34281.444200
664.886110	34244.608488
665.227040	34323.222762
665.567918	34442.453612
665.908746	34489.472454
666.249522	34650.852392
666.590248	34658.424205
666.930922	34753.399543
667.271545	34723.321499
667.612118	34785.851971
667.952639	34575.136782
668.293109	34621.568329
668.633528	34519.220303
668.973896	34450.915189
669.314213	34496.179709
669.654480	34213.549940
669.994695	34239.854680
670.334859	34132.888958
670.674973	34024.199160
671.015035	34183.875187
671.355047	34134.852487
671.695008	34091.075107
672.034918	33987.149200
672.374777	34090.397072
672.714585	33899.453287
673.054342	34131.399297
673.394049	33898.679470
673.733705	34159.927186
674.073310	33826.467462
674.412864	33887.047008
674.752368	33504.912423
675.091820	33794.849345
675.431223	33362.111658
675.770574	33082.287290
676.109875	32930.077212
676.449125	32663.221212
676.788324	32580.916814
677.127473	32049.266647
677.466571	31982.473879
677.805619	31622.739661
678.144616	31636.108801
678.483562	31552.690308
678.822458	31221.990616
679.161303	31150.862455
679.500098	31078.274881
679.838842	30970.477368
680.177535	31123.405811
680.516179	31409.939954
680.854771	31677.685717
681.193314	32553.072001
681.531805	33694.943758
681.870247	34455.966425
682.208638	35152.795039
682.546978	35343.418710
682.885268	35425.549188
683.223508	34900.674332
683.561697	34554.183226
683.899836	34375.118920
684.237925	33862.753688
684.575963	33703.440623
684.913951	33256.260030
685.251889	33407.666045
685.589776	33403.285282
685.927614	33405.246291
686.265401	33559.014086
686.603137	33647.004906
686.940824	34168.116541
687.278460	34556.035850
687.616046	34674.818037
687.953582	35273.137464
688.291068	35122.641377
688.628504	35394.006689
688.965889	35319.069937
689.303224	34921.005306
689.640510	34563.915173
689.977745	33806.297806
690.314930	32985.744153
690.652065	32484.199757
690.989150	31752.556934
691.326185	30814.395683
691.663170	30126.643667
692.000105	29380.976354
692.336990	28697.796665
692.673825	28251.465506
693.010610	27734.996774
693.347345	27154.351633
693.684030	26511.400351
694.020665	26225.055250
694.357251	25561.435238
694.693786	25516.241293
695.030272	25282.306549
695.366707	24731.910852
695.703093	24459.794408
696.039429	24453.066988
696.375716	24192.368758
696.711952	24168.864378
697.048139	23995.872143
697.384276	23835.913811
697.720363	23948.452529
698.056400	23752.270986
698.392388	23523.425287
698.728326	23489.450431
699.064214	23283.935191
699.400053	23220.577970
699.735842	22869.723744
700.071581	22578.919743
700.407270	22282.431842
700.742910	22111.095625
701.078501	21841.600582
701.414042	21553.579298
701.749533	21250.679049
702.084974	20902.358003
702.420366	21111.286104
702.755709	20667.856129
703.091002	20372.227744
703.426246	20384.470186
703.761440	20291.418048
704.096584	20031.922133
704.431679	19973.250664
704.766725	19883.772704
705.101721	19826.391770
705.436668	19923.560011
705.771565	19599.020608
706.106413	19946.600604
706.441212	19938.149110
706.775961	20070.250026
707.110661	20150.568209
707.445311	20502.317240
707.779913	20334.172074
708.114465	20588.062225
708.448967	20887.269830
708.783421	21574.300961
709.117825	21841.013288
709.452180	22069.001991
709.786485	22480.292089
710.120742	23262.490123
710.454949	23287.849647
710.789107	23745.853598
711.123216	24453.568583
711.457275	24562.500356
711.791286	25096.676141
712.125247	25163.174001
712.459159	24835.831718
712.793023	25483.672919
713.126837	24370.810481
713.460602	24620.629901
713.794318	24238.376849
714.127985	23846.359082
714.461602	22938.462398
714.795171	22895.375656
715.128691	21880.500646
715.462162	21342.448213
715.795584	20916.407699
716.128957	20650.935496
716.462281	20265.798904
716.795556	20032.229643
717.128782	19520.910450
717.461960	18990.145006
717.795088	18901.778620
718.128167	18501.584101
718.461198	18045.959575
718.794180	17904.872803
719.127113	17548.770736
719.459997	17343.870518
719.792833	16995.156262
720.125619	16976.209085
720.458357	16658.870971
720.791046	16479.925133
721.123686	16323.251113
721.456278	16081.527786
721.788821	16061.252265
722.121315	15793.539269
722.453761	15875.702515
722.786158	15798.653520
723.118506	15805.839685
723.450805	15677.310426
723.783056	15833.079560
724.115259	15728.541152
724.447412	15661.614794
724.779518	15910.829275
725.111574	15929.620176
725.443582	16135.841177
725.775542	16120.805936
726.107453	16586.840444
726.439315	16476.139227
726.771129	16872.386522
727.102895	17240.070639
727.434612	17442.288964
727.766281	17560.226758
728.097901	17810.134398
728.429473	17845.903906
728.760996	17832.169282
729.092471	17908.184841
729.423897	17784.084236
729.755276	17657.669742
730.086606	17777.518133
730.417887	18310.211819
730.749120	18815.958017
731.080305	18994.971910
731.411442	19311.972267
731.742530	19373.151710
732.073570	19470.861875
732.404562	19754.010883
732.735506	19555.512930
733.066401	19251.443133
733.397249	18706.345688
733.728048	18069.496723
734.058798	17248.938029
734.389501	16567.699183
734.720156	16118.794516
735.050762	15598.655823
735.381320	15244.786988
735.711831	15019.860786
736.042293	14681.117932
736.372707	14697.877248
736.703073	14493.468542
737.033391	14683.509960
737.363661	14653.550383
737.693883	14750.731226
738.024056	14929.964410
738.354182	15111.493839
738.684260	15397.496141
739.014290	15616.819101
739.344272	15800.821216
739.674207	16074.510500
740.004093	16182.847416
740.333931	16178.446489
740.663722	16202.512957
740.993464	16186.766913
741.323159	16007.269069
741.652806	15721.133177
741.982405	15507.458830
742.311956	15169.280586
742.641460	15049.964036
742.970915	14747.126801
743.300323	14417.087500
743.629683	14210.785840
743.958996	13931.173201
744.288260	13660.869052
744.617477	13370.339795
744.946647	13291.438175
745.275768	13020.077905
745.604842	12834.787775
745.933869	12672.462621
746.262847	12630.058955
746.591778	12550.784290
746.920662	12453.674023
747.249498	12463.252216
747.578286	12574.379411
747.907027	12715.672871
748.235720	12944.117799
748.564365	12969.714257
748.892963	12863.159388
749.221514	12917.999581
749.550017	12773.691511
749.878473	12732.149882
750.206881	12513.141995
750.535242	12422.706215
750.863555	12337.011641
751.191821	12239.717372
751.520039	12256.491811
751.848210	12172.798575
752.176334	12194.634333
752.504411	12110.782300
752.832440	11951.648197
753.160421	12000.595280
753.488356	11891.073692
753.816243	11805.278295
754.144082	11659.677169
754.471875	11594.840369
754.799620	11543.891948
755.127318	11519.893535
755.454969	11477.764612
755.782572	11430.193764
756.110129	11434.211563
756.437638	11355.380520
756.765100	11354.440345
757.092515	11359.524348
757.419882	11371.292922
757.747203	11379.562935
758.074477	11454.880294
758.401703	11408.305074
758.728882	11569.934548
759.056014	11613.061619
759.383099	11725.310472
759.710138	11828.039105
760.037129	11903.565672
760.364073	11926.392016
760.690970	11910.890468
761.017820	11919.863722
761.344623	12099.792585
761.671379	12443.105244
761.998088	13105.051594
762.324751	14733.450151
762.651366	17659.978590
762.977935	21250.968915
763.304456	23332.211801
763.630931	23667.753522
763.957359	22439.446140
764.283740	20525.645179
764.610074	18646.918046
764.936362	16561.014613
765.262602	15062.824019
765.588796	13627.423517
765.914943	12618.575207
766.241044	11793.497118
766.567097	11173.079794
766.893104	10634.235901
767.219064	10286.981059
767.544978	9912.067927
767.870845	9616.439542
768.196665	9420.076517
768.522438	9235.388805
768.848165	9068.496366
769.173846	8903.164164
769.499479	8782.368035
769.825066	8630.833471
770.150607	8450.060215
770.476101	8387.970843
770.801548	8273.087988
771.126949	8136.235785
771.452303	8051.700676
771.777611	7885.279585
772.102872	7872.953964
772.428087	7748.167762
772.753256	7621.768391
773.078378	7544.817698
773.403453	7399.433342
773.728482	7295.434338
774.053465	7228.177784
774.378401	7145.727192
774.703291	7052.238994
775.028135	6960.545447
775.352932	6919.878459
775.677683	6838.093299
776.002388	6750.014259
776.327046	6752.965855
776.651658	6667.714902
776.976224	6590.345793
777.300743	6575.731488
777.625216	6517.115472
777.949643	6472.791127
778.274024	6472.592001
778.598359	6406.152114
778.922647	6413.005563
779.246889	6370.372525
779.571086	6378.017435
779.895236	6389.722994
780.219339	6386.947839
780.543397	6387.572942
780.867409	6437.770231
781.191374	6433.480209
781.515294	6401.635240
781.839167	6444.706859
782.162995	6420.037972
782.486776	6372.784717
782.810511	6323.817469
783.134201	6252.424648
783.457844	6240.182206
783.781441	6193.917017
784.104993	6151.155429
784.428498	6122.766171
784.751958	6106.601712
785.075372	6079.041723
785.398739	6040.549993
785.722061	6068.866154
786.045337	6070.267595
786.368568	6182.889493
786.691752	6206.472010
787.014891	6458.759075
787.337983	6748.683395
787.661030	7180.627100
787.984031	7598.208558
788.306987	7845.731733
788.629897	7920.643279
788.952760	7828.826223
789.275579	7644.408213
789.598351	7346.297060
789.921078	7083.070691
790.243759	6805.275388
790.566395	6604.854234
790.888984	6414.071767
791.211529	6280.413134
791.534027	6121.112673
791.856480	5989.714998
792.178888	5927.444145
792.501249	5866.536924
792.823566	5765.519763
793.145836	5759.666983
793.468062	5739.149487
793.790241	5706.089600
794.112375	5744.379684
794.434464	5845.096897
794.756507	5877.201485
795.078505	6003.351319
795.400457	6218.795111
795.722364	6459.351411
796.044226	6645.526263
796.366042	6793.862215
796.687812	6734.384162
797.009538	6760.966166
797.331218	6667.639285
797.652852	6603.291477
797.974442	6480.274720
798.295986	6405.670684
798.617484	6278.734430
798.938938	6173.853224
799.260346	6104.804540
799.581709	5967.407892
799.903026	5918.521303
800.224299	5839.917111
800.545526	5732.384259
800.866708	5664.648795
801.187845	5617.980313
801.508936	5545.453233
801.829983	5515.027349
802.150984	5412.568417
802.471940	5386.959356
802.792851	5371.785483
803.113717	5346.862018
803.434538	5324.464172
803.755314	5290.325478
804.076045	5285.924551
804.396731	5250.202934
804.717372	5260.083596
805.037967	5270.153301
805.358518	5297.914935
805.679024	5353.682699
805.999485	5362.592939
806.319901	5381.628336
806.640272	5397.845728
806.960598	5447.357420
807.280879	5433.713537
807.601115	5466.339885
807.921306	5431.661788
808.241453	5426.666004
808.561554	5438.447181
808.881611	5403.930400
809.201623	5397.487806
809.521590	5346.955280
809.841513	5333.079504
810.161390	5351.008367
810.481223	5261.996714
810.801011	5247.977265
811.120755	5221.833841
811.440453	5168.644627
811.760107	5141.770236
812.079716	5117.106391
812.399281	5066.442794
812.718801	5062.019182
813.038276	5028.228328
813.357707	4993.787165
813.677093	5014.730638
813.996434	4955.108912
814.315731	4974.923167
814.634983	4974.151870
814.954191	4978.872911
815.273354	5035.558165
815.592473	5079.350669
815.911547	5150.572090
816.230577	5208.323549
816.549562	5293.972753
816.868502	5340.812634
817.187399	5394.079986
817.506250	5476.689374
817.825058	5506.187686
818.143821	5658.387682
818.462539	5835.155742
818.781213	6068.843469
819.099843	6434.561537
819.418429	7065.608134
819.736970	7677.127822
820.055466	8382.357519
820.373919	9305.110483
820.692327	10796.747577
821.010691	13609.035909
821.329011	20015.563589
821.647286	29546.119513
821.965517	39566.388246
822.283704	44497.483621
822.601847	45573.800214
822.919945	40889.930585
823.237999	35827.918965
823.556010	30784.466353
823.873976	26234.393988
824.191897	22155.815701
824.509775	19180.128450
824.827609	16525.557658
825.145398	15050.843717
825.463144	14380.561820
825.780845	14741.062293
826.098502	16063.815692
826.416116	18509.455863
826.733685	20675.707726
827.051210	21028.654030
827.368692	19518.430202
827.686129	16978.790156
828.003522	14568.536364
828.320872	12419.777305
828.638177	10836.161838
828.955439	9629.372622
829.272656	8597.783667
829.589830	7782.566075
829.906960	7068.184164
830.224046	6549.482200
830.541088	6156.110883
830.858086	5910.531074
831.175041	5716.542433
831.491952	5665.026882
831.808819	5708.176638
832.125642	5968.201874
832.442421	6544.037754
832.759157	7685.165942
833.075849	9461.557652
833.392497	11255.311096
833.709101	12271.108637
834.025662	11933.336206
834.342179	10857.901814
834.658653	9575.865815
834.975083	8510.264195
835.291469	7632.591748
835.607811	6920.584220
835.924110	6412.824081
836.240366	5937.811278
836.556578	5495.470192
836.872746	5151.358510
837.188871	4888.336308
837.504952	4674.301519
837.820990	4511.033669
838.136984	4399.546032
838.452935	4358.747973
838.768842	4402.331269
839.084706	4707.414338
839.400526	5468.013548
839.716303	6349.681109
840.032037	6862.600869
840.347727	6666.963770
840.663373	6062.032870
840.978977	5502.671481
841.294537	5076.411676
841.610054	4762.090693
841.925527	4526.610835
842.240957	4330.295701
842.556344	4147.710150
842.871687	3991.920852
843.186987	3847.176722
843.502244	3730.731110
843.817458	3648.179695
844.132629	3576.096236
844.447756	3530.093187
844.762840	3487.588698
845.077881	3448.774334
845.392879	3415.449786
845.707833	3389.732340
846.022745	3365.388608
846.337613	3354.071218
846.652438	3328.746981
846.967221	3320.711382
847.281960	3300.052734
847.596656	3291.631486
847.911309	3278.703447
848.225919	3267.562497
848.540485	3261.334152
848.855009	3252.509612
849.169490	3235.785584
849.483928	3234.298443
849.798323	3226.449367
850.112675	3217.098027
850.426984	3216.997203
850.741251	3210.957901
851.055474	3210.179043
851.369654	3208.326419
851.683792	3206.214175
851.997887	3209.518652
852.311938	3209.725339
852.625947	3213.591904
852.939914	3202.876932
853.253837	3210.778940
853.567718	3205.097560
853.881555	3202.229143
854.195350	3205.319371
854.509103	3204.795091
854.822812	3201.304092
855.136479	3194.286805
855.450103	3203.774257
855.763685	3194.891744
856.077224	3196.033565
856.390720	3202.519010
856.704173	3215.189950
857.017584	3220.011813
857.330953	3225.199161
857.644278	3233.330542
857.957561	3233.252404
858.270802	3231.384657
858.584000	3231.601426
858.897155	3224.644634
859.210268	3216.228427
859.523339	3205.692416
859.836367	3205.788198
860.149352	3194.811085
860.462295	3193.893595
860.775195	3184.484282
861.088054	3180.811801
861.400869	3179.037315
861.713642	3176.685617
862.026373	3184.378417
862.339062	3192.509799
862.651708	3199.474153
862.964312	3218.577605
863.276873	3226.595560
863.589392	3258.876589
863.901869	3279.419291
864.214303	3300.962662
864.526696	3323.277329
864.839045	3337.432889
865.151353	3349.090558
865.463619	3350.355887
865.775842	3350.726412
866.088023	3353.887216
866.400162	3352.420240
866.712258	3347.298428
867.024313	3349.415712
867.336325	3347.752131
867.648296	3350.023171
867.960224	3344.301462
868.272110	3349.912266
868.583954	3349.226669
868.895755	3355.475179
869.207515	3354.991228
869.519233	3371.475801
869.830909	3380.466699
870.142542	3388.298132
870.454134	3397.039493
870.765684	3411.495001
871.077191	3430.706838
871.388657	3441.434414
871.700081	3455.927731
872.011463	3478.134014
872.322803	3498.447343
872.634101	3512.897811
872.945357	3532.732231
873.256571	3560.730799
873.567744	3576.935588
873.878874	3582.884150
874.189963	3598.123558
874.501010	3600.490379
874.812015	3596.734720
875.122979	3609.463633
875.433900	3610.610496
875.744780	3609.700568
876.055618	3617.942854
876.366415	3616.813636
876.677169	3623.145325
876.987882	3641.018736
877.298554	3662.746109
877.609183	3699.541491
877.919771	3747.329109
878.230317	3818.444666
878.540822	3922.894853
878.851285	4077.491918
879.161707	4303.252431
879.472087	4688.424312
879.782425	5336.507488
880.092722	6544.592281
880.402977	8493.053695
880.713191	10837.742240
881.023363	13132.586376
881.333494	14332.260004
881.643583	14711.934506
881.953631	14265.515127
882.263637	13430.034618
882.573602	12423.621185
882.883526	11495.731284
883.193408	10568.035468
883.503248	9675.219396
883.813048	8873.481850
884.122806	8122.400338
884.432522	7377.095989
884.742197	6736.415747
885.051831	6189.838723
885.361424	5707.705290
885.670975	5325.815201
885.980485	5011.990771
886.289954	4751.650463
886.599382	4540.731107
886.908768	4368.202658
887.218113	4209.096280
887.527417	4078.202721
887.836680	3959.420533
888.145901	3859.686346
888.455082	3785.578863
888.764221	3719.665777
889.073319	3659.660923
889.382376	3627.253865
889.691392	3607.331225
890.000366	3592.810182
890.309300	3591.121395
890.618193	3597.440481
890.927044	3590.965119
891.235855	3598.070626
891.544625	3612.884056
891.853353	3643.393119
892.162041	3708.824776
892.470687	3800.344403
892.779293	3920.810336
893.087858	4098.755505
893.396381	4378.564749
893.704864	4801.787259
894.013306	5373.108786
894.321707	5925.016829
894.630068	6249.357106
894.938387	6264.256236
895.246665	6077.519295
895.554903	5761.461634
895.863100	5431.326551
896.171256	5169.181510
896.479371	4937.817754
896.787446	4713.655287
897.095480	4524.105381
897.403473	4377.400243
897.711425	4242.090632
898.019336	4118.761324
898.327207	3996.896471
898.635038	3896.237232
898.942827	3790.004997
899.250576	3708.494580
899.558284	3627.450470
899.865952	3572.012901
900.173579	3506.979496
900.481165	3467.083805
900.788711	3424.405396
901.096216	3392.225191
901.403681	3368.647714
901.711105	3356.352340
902.018489	3354.880323
902.325832	3388.283008
902.633135	3456.194912
902.940397	3632.597488
903.247619	4057.932241
903.554800	4822.163602
903.861941	5770.875989
904.169041	6418.369351
904.476101	6583.232725
904.783121	6297.661442
905.090100	5897.930710
905.397039	5496.254092
905.703938	5150.887163
906.010796	4840.200851
906.317614	4592.372687
906.624391	4357.883416
906.931129	4168.918284
907.237826	3992.697190
907.544483	3825.073783
907.851099	3652.903256
908.157675	3497.297960
908.464211	3358.525077
908.770707	3260.749378
909.077163	3188.282791
909.383578	3124.938172
909.689954	3081.959815
909.996289	3053.474776
910.302584	3034.227650
910.608839	3020.102337
910.915054	3014.390710
911.221229	3006.143382
911.527363	3012.810308
911.833458	3019.116792
912.139513	3032.375026
912.445527	3044.546892
912.751502	3079.076275
913.057436	3125.210395
913.363331	3181.941020
913.669186	3270.556942
913.975000	3391.229563
914.280775	3586.100406
914.586510	3854.342722
914.892205	4234.145774
915.197859	4731.148090
915.503475	5303.205626
915.809050	5774.261124
916.114585	6043.219284
916.420081	6091.362303
916.725536	6018.646180
917.030952	5783.312515
917.336328	5582.505714
917.641665	5375.538622
917.946961	5155.028470
918.252218	4958.975477
918.557435	4732.945262
918.862612	4542.732445
919.167750	4370.733317
919.472848	4186.078372
919.777906	4016.269625
920.082925	3862.332951
920.387904	3714.198646
920.692843	3603.207561
920.997743	3508.017974
921.302603	3415.235537
921.607423	3352.836135
921.912204	3285.330044
922.216946	3238.396902
922.521647	3190.251362
922.826310	3151.825167
923.130932	3113.061214
923.435516	3075.008064
923.740059	3047.125442
924.044564	3016.276101
924.349028	2991.216526
924.653454	2963.991774
924.957840	2941.422528
925.262186	2919.470824
925.566493	2896.342010
925.870761	2873.795450
926.174989	2860.610312
926.479178	2845.751511
926.783328	2831.822803
927.087438	2816.883343
927.391509	2805.805408
927.695541	2794.727472
927.999533	2785.602984
928.303486	2776.836417
928.607400	2770.356014
928.911275	2763.419386
929.215110	2759.872934
929.518906	2755.943355
929.822663	2758.642893
930.126381	2758.148860
930.430060	2761.186155
930.733699	2762.491814
931.037299	2768.059768
931.340861	2765.965169
931.644383	2768.120262
931.947866	2766.917947
932.251309	2762.580034
932.554714	2763.817637
932.858080	2760.465270
933.161407	2757.317069
933.464694	2753.604260
933.767943	2749.732653
934.071153	2746.924731
934.374323	2744.688979
934.677455	2741.818042
934.980548	2737.333936
935.283602	2736.103894
935.586617	2733.860581
935.889593	2738.874008
936.192530	2738.027094
936.495428	2742.022209
936.798287	2753.195926
937.101108	2766.852412
937.403890	2789.429219
937.706632	2815.055925
938.009336	2847.873837
938.312002	2880.255688
938.614628	2902.129255
938.917216	2918.271029
939.219765	2924.975764
939.522275	2940.479833
939.824747	2936.804832
940.127179	2932.681168
940.429573	2925.613470
940.731929	2923.710434
941.034246	2916.693148
941.336524	2910.263157
941.638763	2904.498597
941.940964	2899.792680
942.243126	2881.500853
942.545250	2872.709081
942.847335	2858.719879
943.149381	2846.704289
943.451389	2832.997392
943.753359	2820.404589
944.055290	2809.450162
944.357182	2801.414563
944.659036	2798.263842
944.960851	2791.997687
945.262628	2789.514919
945.564367	2791.062553
945.866067	2788.680608
946.167729	2788.547017
946.469352	2787.629527
946.770937	2785.618107
947.072484	2778.633588
947.373992	2778.081582
947.675462	2773.811725
947.976893	2770.845006
948.278286	2766.509613
948.579641	2760.674478
948.880958	2760.664396
949.182236	2759.547780
949.483476	2754.957809
949.784678	2754.826739
950.085841	2756.152563
950.386967	2760.578696
950.688054	2766.383585
950.989103	2770.885335
951.290114	2781.517128
951.591087	2794.336783
951.892021	2806.407826
952.192917	2818.662871
952.493776	2832.982268
952.794596	2831.979078
953.095378	2833.864470
953.396122	2830.030672
953.696828	2826.612770
953.997496	2823.005825
954.298126	2811.698517
954.598718	2805.150058
954.899272	2793.779735
955.199788	2784.430915
955.500266	2768.205962
955.800706	2756.180289
956.101108	2740.129255
956.401472	2728.539643
956.701798	2718.359032
957.002087	2703.782536
957.302337	2693.642255
957.602550	2686.856862
957.902724	2673.432269
958.202861	2666.588903
958.502960	2658.031544
958.803022	2649.527118
959.103045	2642.708957
959.403031	2637.267032
959.702979	2633.471043
960.002889	2626.625156
960.302762	2624.477624
960.602596	2618.914711
960.902393	2615.080914
961.202153	2611.168978
961.501875	2611.627723
961.801559	2607.798967
962.101205	2607.110849
962.400814	2605.472474
962.700385	2600.731269
962.999918	2600.784201
963.299414	2597.139447
963.598873	2595.795980
963.898293	2595.642224
964.197677	2593.784559
964.497022	2594.054261
964.796331	2588.221646
965.095601	2591.621904
965.394835	2591.904209
965.694030	2590.674167
965.993189	2589.973447
966.292309	2588.501430
966.591393	2589.134095
966.890439	2586.767273
967.189447	2588.927407
967.488419	2587.725092
967.787353	2588.859352
968.086249	2590.061667
968.385108	2590.550659
968.683930	2589.736513
968.982714	2591.747933
969.281462	2592.090732
969.580172	2594.540732
969.878844	2598.130034
970.177480	2595.770774
970.476078	2601.502566
970.774639	2606.324429
971.073162	2607.614965
971.371649	2607.259563
971.670098	2606.987341
971.968510	2609.192846
972.266885	2611.920110
972.565223	2615.491768
972.863524	2615.436315
973.161788	2614.460852
973.460014	2616.913373
973.758204	2617.420009
974.056356	2616.799947
974.354471	2619.363374
974.652550	2618.990328
974.950591	2620.056532
975.248595	2617.155348
975.546563	2618.448404
975.844493	2614.375152
976.142386	2614.609566
976.440243	2611.973042
976.738062	2611.312651
977.035845	2609.422218
977.333590	2604.116404
977.631299	2602.624222
977.928971	2600.514500
978.226606	2598.601382
978.524204	2596.390836
978.821765	2598.762699
979.119290	2594.465115
979.416777	2598.172884
979.714228	2597.273038
980.011642	2598.034252
980.309020	2604.010540
980.606360	2606.725201
980.903664	2613.752570
981.200931	2630.471556
981.498162	2647.704741
981.795356	2676.948474
982.092513	2714.497509
982.389633	2752.147366
982.686717	2797.300981
982.983764	2824.934066
983.280775	2844.816377
983.577749	2841.451407
983.874686	2832.092504
984.171587	2814.251861
984.468451	2799.816517
984.765279	2781.628034
985.062070	2766.774274
985.358824	2748.570667
985.655543	2724.786504
985.952224	2705.267156
986.248869	2680.227745
986.545478	2650.890750
986.842050	2634.093625
987.138586	2616.232817
987.435086	2604.497011
987.731549	2593.950917
988.027975	2590.185175
988.324366	2583.898857
988.620719	2580.097827
988.917037	2571.905952
989.213318	2569.017370
989.509563	2569.425704
989.805772	2568.440158
990.101944	2564.424879
990.398080	2567.207596
990.694180	2565.397822
990.990244	2563.053685
991.286271	2563.646021
991.582262	2566.678275
991.878217	2567.835220
992.174136	2567.598286
992.470019	2567.857905
992.765865	2568.916547
993.061676	2572.684810
993.357450	2575.780078
993.653188	2577.045408
993.948890	2583.283836
994.244556	2589.544949
994.540186	2601.169850
994.835780	2608.368617
995.131337	2622.544342
995.426859	2641.730973
995.722345	2657.146822
996.017795	2677.069462
996.313208	2690.476411
996.608586	2699.149716
996.903928	2703.606096
997.199234	2700.271372
997.494504	2697.854139
997.789738	2690.909950
998.084936	2682.050122
998.380099	2670.463030
998.675225	2656.057933
998.970316	2648.763383
999.265371	2635.421969
999.560390	2622.841770
999.855373	2611.945316
1000.150320	2598.803028
1000.445232	2590.590988
1000.740108	2583.699731
1001.034948	2577.413412
1001.329752	2573.201528
1001.624521	2567.363872
1001.919254	2562.680640
1002.213951	2561.168294
1002.508613	2555.612942
1002.803239	2557.153015
1003.097829	2552.961295
1003.392384	2559.429096
1003.686903	2553.490617
1003.981386	2552.104299
1004.275834	2548.819987
1004.570246	2550.478527
1004.864623	2549.157745
1005.158964	2547.242106
1005.453270	2544.900490
1005.747540	2546.241437
1006.041775	2547.426108
1006.335974	2547.736139
1006.630138	2546.634647
1006.924266	2546.556509
1007.218359	2544.940820
1007.512416	2545.828063
1007.806438	2546.566592
1008.100425	2543.032743
1008.394376	2543.899821
1008.688292	2546.417878
1008.982172	2544.678680
1009.276017	2543.743546
1009.569827	2543.791437
1009.863602	2541.991745
1010.157341	2541.762372
1010.451045	2543.851930
1010.744714	2543.718340
1011.038347	2543.047866
1011.331945	2540.305479
1011.625508	2540.055942
1011.919036	2543.683052
1012.212528	2541.127187
1012.505986	2540.633154
1012.799408	2540.542413
1013.092795	2539.244316
1013.386147	2539.463606
1013.679464	2539.937474
1013.972745	2538.140303
1014.265992	2538.846065
1014.559204	2538.959491
1014.852380	2538.999820
1015.145521	2541.606096
1015.438628	2538.959491
1015.731699	2541.028884
1016.024736	2536.920344
1016.317737	2540.161806
1016.610703	2541.422094
1016.903635	2535.856660
1017.196531	2536.398584
1017.489393	2539.022505
1017.782219	2537.800025
1018.075011	2542.705068
1018.367768	2543.115922
1018.660490	2540.978473
1018.953177	2540.978473
1019.245829	2540.978473
