Dividing Wavelength (nm)	Counts (n)	Blue Motor Position (mm): 44.800000	Red Motor Position (mm): 0.000000	
326.493990	2051.936138
326.888308	2051.936138
327.282561	2051.936138
327.676750	2022.337003
328.070874	2027.695750
328.464933	2031.927798
328.858929	2040.550692
329.252859	2051.845397
329.646726	2062.114228
330.040528	2080.101065
330.434265	2097.069588
330.827938	2120.533639
331.221547	2140.557102
331.615091	2158.690133
332.008571	2181.695438
332.401986	2201.958356
332.795338	2223.814278
333.188625	2242.438821
333.581847	2261.554877
333.975006	2278.082300
334.368100	2296.295988
334.761129	2312.115129
335.154095	2327.301605
335.546996	2376.649460
335.939833	2490.004846
336.332606	2494.007522
336.725315	2512.372445
337.117960	2526.414579
337.510540	2531.158305
337.903056	2539.619882
338.295508	2545.258412
338.687896	2554.501368
339.080220	2557.644527
339.472480	2562.501679
339.864676	2565.284396
340.256807	2570.446537
340.648875	2571.762279
341.040879	2572.314285
341.432818	2574.252609
341.824694	2576.319482
342.216506	2574.426528
342.608253	2572.490725
342.999937	2573.446024
343.391557	2570.350756
343.783113	2572.094995
344.174605	2569.413101
344.566033	2567.840261
344.957397	2566.038048
345.348697	2563.386402
345.739934	2562.521844
346.131106	2560.540670
346.522215	2557.694939
346.913260	2557.059753
347.304241	2560.974209
347.695159	2554.697973
348.086012	2553.215874
348.476802	2549.377035
348.867528	2551.149001
349.258191	2545.081972
349.648789	2545.633978
350.039324	2541.785057
350.429796	2545.596170
350.820203	2545.223124
351.210548	2544.928217
351.600828	2543.171375
351.991045	2541.288504
352.381198	2543.340253
352.771288	2541.074255
353.161314	2541.885880
353.551276	2543.365459
353.941175	2538.732639
354.331010	2542.289173
354.720782	2544.978628
355.110490	2548.318393
355.500135	2541.222969
355.889717	2543.882177
356.279235	2541.832948
356.668689	2544.792106
357.058080	2542.402599
357.447408	2546.911911
357.836672	2544.645912
358.225873	2542.775644
358.615010	2546.727909
359.004084	2547.920142
359.393095	2546.622044
359.782043	2547.877292
360.170927	2550.228990
360.559748	2550.034906
360.948505	2549.704710
361.337199	2553.732592
361.725830	2551.164124
362.114398	2553.349464
362.502903	2551.259906
362.891344	2552.497509
363.279722	2550.949875
363.668037	2549.555996
364.056289	2553.190668
364.444478	2554.632438
364.832603	2554.299722
365.220665	2553.994732
365.608665	2555.509599
365.996601	2555.318035
366.384474	2556.399362
366.772284	2556.202757
367.160031	2555.171841
367.547715	2559.169476
367.935336	2557.483210
368.322893	2555.996070
368.710388	2557.115206
369.097820	2556.969013
369.485189	2555.938097
369.872495	2560.003787
370.259738	2558.980433
370.646918	2561.995043
371.034035	2562.965465
371.421090	2561.816082
371.808081	2558.859445
372.195010	2561.833726
372.581875	2563.701474
372.968678	2562.506720
373.355418	2563.764488
373.742096	2566.348079
374.128710	2565.140723
374.515262	2569.168605
374.901751	2567.051320
375.288177	2567.487380
375.674540	2565.937225
376.060841	2566.711043
376.447079	2569.622309
376.833254	2569.282031
377.219367	2571.152299
377.605417	2572.223544
377.991404	2569.982751
378.377329	2570.282700
378.763191	2571.951322
379.148991	2572.452917
379.534727	2573.572053
379.920402	2572.604151
380.306013	2573.756055
380.691563	2577.509194
381.077049	2576.004410
381.462474	2580.503639
381.847835	2580.697724
382.233134	2586.197623
382.618371	2586.356419
383.003545	2589.797007
383.388657	2595.808582
383.773706	2597.688933
384.158693	2601.860488
384.543618	2607.998092
384.928480	2611.789040
385.313280	2620.515277
385.698017	2628.119858
386.082692	2635.358955
386.467305	2639.497742
386.851856	2650.248003
387.236344	2661.910712
387.620770	2667.309788
388.005133	2673.235664
388.389435	2688.359126
388.773674	2695.205013
389.157851	2713.975749
389.541965	2727.861607
389.926018	2739.511714
390.310008	2753.153076
390.693936	2771.213010
391.077802	2787.813530
391.461606	2800.371044
391.845348	2817.871409
392.229027	2840.196159
392.612645	2863.148533
392.996200	2886.458828
393.379694	2908.609658
393.763125	2939.005295
394.146494	2962.955817
394.529801	2987.773418
394.913047	3023.827750
395.296230	3037.035573
395.679351	3061.013821
396.062410	3098.716611
396.445408	3106.328753
396.828343	3142.405771
397.211217	3176.690658
397.594028	3177.098991
397.976778	3217.365208
398.359466	3257.230652
398.742092	3273.475771
399.124656	3301.262611
399.507158	3355.722196
399.889598	3376.204404
400.271977	3436.007612
400.654294	3446.767955
401.036549	3502.976820
401.418742	3521.187988
401.800874	3584.235179
402.182944	3619.550982
402.564952	3701.706666
402.946898	3711.042883
403.328783	3727.802199
403.710606	3779.363121
404.092367	3846.760827
404.474067	3916.974018
404.855705	3918.430911
405.237282	3910.975045
405.618797	4003.611288
406.000250	4076.521496
406.381642	4162.221111
406.762972	4177.470602
407.144240	4154.803053
407.525447	4222.518353
407.906593	4245.319491
408.287677	4332.992718
408.668700	4362.710320
409.049661	4407.150612
409.430560	4450.277683
409.811399	4446.852219
410.192176	4496.895753
410.572891	4571.577927
410.953545	4675.266900
411.334138	4579.502621
411.714669	4692.948747
412.095139	4625.901401
412.475547	4723.319178
412.855894	4736.211929
413.236180	4831.777083
413.616405	4773.493783
413.996568	4868.287640
414.376670	4876.928177
414.756711	4871.493813
415.136691	4936.035706
415.516609	5024.722205
415.896466	5062.064552
416.276262	5139.743692
416.655997	5250.880970
417.035670	5331.365511
417.415283	5461.873423
417.794834	5518.286455
418.174324	5479.910671
418.553753	5484.414942
418.933121	5632.239217
419.312428	5645.280682
419.691674	5586.210962
420.070859	5790.793588
420.449983	5686.388771
420.829045	5861.629361
421.208047	5800.719620
421.586988	5952.942301
421.965867	6016.420510
422.344686	6092.478919
422.723444	6250.791314
423.102141	5901.204939
423.480777	6260.588797
423.859352	6093.920689
424.237866	6435.657988
424.616319	6427.370331
424.994712	6578.370533
425.373044	6508.868144
425.751314	6793.398429
426.129524	6533.292535
426.507673	6785.017511
426.885762	6823.869684
427.263789	6856.601896
427.641756	6948.726462
428.019662	7004.758887
428.397508	7050.330917
428.775292	7047.989301
429.153016	7193.610592
429.530679	7146.546380
429.908282	7193.255191
430.285824	7135.644884
430.663305	7383.397431
431.040726	7291.633308
431.418086	7287.693646
431.795385	7422.758761
432.172624	7602.453210
432.549802	7480.961402
432.926920	7607.852286
433.303977	7562.537354
433.680974	7612.951413
434.057910	7798.191132
434.434786	7846.626538
434.811601	7807.517266
435.188355	8137.080178
435.565050	8032.443468
435.941683	8046.178092
436.318257	8356.511523
436.694770	8298.472719
437.071222	8513.553548
437.447614	8283.145090
437.823946	8263.479549
438.200218	8399.328563
438.576429	8296.884755
438.952580	8449.530894
439.328670	8461.354920
439.704700	8547.425060
440.080670	8441.613762
440.456580	8683.949589
440.832429	8670.930809
441.208218	8416.692817
441.583947	8534.426445
441.959616	8635.010067
442.335224	8673.285028
442.710773	8752.874765
443.086261	8924.029499
443.461689	8664.319336
443.837057	8811.906676
444.212365	9012.849589
444.587612	9009.005709
444.962800	8903.088546
445.337927	9034.720635
445.712995	8599.238039
446.088002	9235.174556
446.462949	9293.329307
446.837837	9310.973345
447.212664	9364.429741
447.587431	10261.293860
447.962139	11229.709596
448.336786	11972.672329
448.711374	11572.424878
449.085901	10436.814234
449.460369	10415.354042
449.834776	10330.859262
450.209124	11245.062430
450.583412	11022.878615
450.957640	11221.784902
451.331808	10815.205762
451.705917	10337.110293
452.079965	10261.187995
452.453954	10457.999683
452.827883	10410.806921
453.201752	10378.558660
453.575562	10396.091793
453.949311	10747.999619
454.323001	10826.961733
454.696632	10751.548592
455.070202	11317.067751
455.443713	11385.516538
455.817164	11531.233610
456.190556	11851.467867
456.563888	11676.330621
456.937160	11888.540512
457.310373	11398.570606
457.683526	11429.394741
458.056619	11477.457102
458.429653	11552.010726
458.802628	11726.480019
459.175542	11790.858074
459.548398	12328.250116
459.921194	12909.104465
460.293930	13239.158889
460.666607	14060.468715
461.039224	14781.600732
461.411782	15040.153951
461.784280	14637.350635
462.156719	14550.670515
462.529099	14445.449031
462.901419	13877.832752
463.273680	13533.509342
463.645882	13761.064506
464.018024	13716.450294
464.390106	14140.348318
464.762130	15295.566531
465.134094	16969.547200
465.505999	19252.741230
465.877845	21246.119325
466.249631	22119.708437
466.621358	21463.370371
466.993026	20629.223247
467.364634	19920.046326
467.736184	19223.928515
468.107674	18676.653292
468.479105	18533.350932
468.850477	18266.114326
469.221790	17843.128750
469.593043	17213.375209
469.964238	16875.562449
470.335373	16984.963049
470.706449	17851.749123
471.077467	18999.163630
471.448425	21333.369095
471.819324	22821.129542
472.190164	22290.298562
472.560945	20621.187647
472.931667	19219.293174
473.302330	18973.486513
473.672934	18522.260394
474.043479	18965.990317
474.413965	18774.272716
474.784393	18622.382750
475.154761	19246.207895
475.525070	19383.654954
475.895321	19224.299040
476.265513	19742.358256
476.635645	20318.975515
477.005719	20392.601567
477.375734	20769.120307
477.745691	21365.917305
478.115588	22031.712576
478.485427	23292.999186
478.855207	25171.204559
479.224928	26883.278708
479.594591	28046.038487
479.964194	27505.248708
480.333739	27876.721252
480.703226	28167.495006
481.072653	28677.543829
481.442022	29158.406892
481.811333	29464.311669
482.180584	28952.919378
482.549777	28751.018646
482.918912	28554.537155
483.287988	28505.829526
483.657005	28339.862139
484.025964	27986.840217
484.394864	28176.042283
484.763706	28112.841337
485.132489	27635.922977
485.501213	27692.439353
485.869879	27901.127999
486.238487	27858.908335
486.607036	28137.406880
486.975527	27848.279062
487.343959	28190.011320
487.712333	28503.180400
488.080648	28476.313570
488.448905	28901.582788
488.817104	28845.205044
489.185244	29736.037423
489.553326	30894.950801
489.921350	32815.506908
490.289315	35210.420469
490.657222	35868.603597
491.025070	36273.821626
491.392861	35876.087190
491.760593	35067.929735
492.128267	34067.328752
492.495883	33120.995790
492.863440	32286.097534
493.230939	31404.379562
493.598380	30900.579249
493.965763	30795.410698
494.333088	30339.902118
494.700354	30163.325623
495.067563	30160.323616
495.434713	30062.275694
495.801805	30359.691168
496.168839	30227.441538
496.535815	30098.695510
496.902733	30245.705638
497.269593	30084.265207
497.636395	30217.034076
498.003139	30529.126869
498.369825	30295.214810
498.736453	30706.797295
499.103023	30551.048327
499.469535	30647.258748
499.835989	30798.327005
500.202385	30662.798105
500.568723	30733.454917
500.935003	31058.500955
501.301226	30973.988532
501.667390	31653.304177
502.033497	31857.367564
502.399546	31666.872442
502.765537	31264.293458
503.131470	31741.300038
503.497345	32174.841789
503.863163	31177.346157
504.228923	31940.907045
504.594625	32337.860102
504.960269	31842.407940
505.325856	32516.836187
505.691385	32202.868084
506.056856	32519.951620
506.422270	33014.261960
506.787625	32556.381518
507.152924	33027.237890
507.518164	33235.611464
507.883347	32802.573828
508.248472	32959.847746
508.613540	33643.554236
508.978550	33890.926176
509.343503	33753.968108
509.708398	34109.419866
510.073236	34729.547324
510.438016	34829.319320
510.802738	34524.694996
511.167403	35089.707519
511.532010	35331.357749
511.896561	35841.754412
512.261053	36575.025527
512.625488	36369.447273
512.989866	36294.989431
513.354186	36364.658177
513.718449	36330.098547
514.082655	37218.528815
514.446803	36939.372400
514.810894	37554.350320
515.174927	37576.735563
515.538904	37564.099911
515.902822	38220.558965
516.266684	37921.066536
516.630488	38290.983884
516.994235	38296.987899
517.357925	38900.585413
517.721558	39159.730968
518.085133	39540.315398
518.448651	39730.455118
518.812112	39623.938058
519.175516	39785.159199
519.538863	40239.336914
519.902152	40297.418568
520.265385	40842.619356
520.628560	40867.268078
520.991678	40823.566315
521.354739	41064.427605
521.717743	41419.125710
522.080690	41340.985305
522.443580	42000.451407
522.806413	42038.088662
523.169189	42187.362268
523.531908	42404.525094
523.894569	42277.934159
524.257174	42480.654078
524.619722	42818.708814
524.982213	42956.362561
525.344647	42991.804393
525.707025	43123.628046
526.069345	43562.372268
526.431608	43471.407167
526.793815	43862.194893
527.155964	43422.341617
527.518057	43695.483935
527.880093	43530.098801
528.242072	44156.774718
528.603995	43894.642280
528.965860	43833.011653
529.327669	44047.376638
529.689421	44112.740239
530.051117	44069.822376
530.412755	44341.613665
530.774337	44420.948823
531.135862	44355.219739
531.497331	44502.373540
531.858743	44509.705899
532.220098	44907.649542
532.581396	44642.615920
532.942638	44411.511783
533.303824	44638.724149
533.664953	44715.301797
534.026025	44398.639197
534.387040	44968.955014
534.747999	45055.723354
535.108902	45362.185179
535.469748	44684.144945
535.830537	44943.257732
536.191270	45196.144694
536.551947	44920.968271
536.912567	45225.960599
537.273131	45360.166197
537.633638	44991.529301
537.994089	45182.463003
538.354483	44924.348364
538.714821	45588.210353
539.075103	45880.083078
539.435328	45739.233239
539.795497	45482.426780
540.155609	45597.891888
540.515665	46187.583380
540.875665	45495.407751
541.235609	45789.289377
541.595496	45891.854172
541.955328	46462.230483
542.315102	45916.795281
542.674821	45796.833463
543.034483	45688.148707
543.394090	45697.555500
543.753640	45689.547627
544.113134	46746.251611
544.472571	45854.264808
544.831953	46974.691498
545.191278	46244.543378
545.550548	45941.481811
545.909761	46580.793380
546.268918	46738.795745
546.628019	47130.679921
546.987064	46589.023064
547.346053	45866.754267
547.704986	46766.033099
548.063863	46414.515962
548.422684	46611.869573
548.781449	46199.941769
549.140158	46758.461286
549.498811	46513.163781
549.857408	45883.382513
550.215949	46754.715708
550.574434	46578.870180
550.932864	46512.062289
551.291237	47242.094462
551.649555	46977.328021
552.007817	47161.158737
552.366022	46831.109354
552.724173	46897.287101
553.082267	47313.222622
553.440305	47645.931215
553.798288	46910.162208
554.156215	47294.484654
554.514086	47494.802463
554.871902	47108.148484
555.229661	47278.337838
555.587365	46972.523802
555.945014	47102.487268
556.302606	47122.515773
556.660143	47214.947849
557.017625	47447.760936
557.375050	47134.067577
557.732421	47539.401552
558.089735	47604.225749
558.446994	47478.388467
558.804197	47962.240933
559.161345	47824.614913
559.518437	47162.847524
559.875474	47411.192406
560.232455	47648.855084
560.589381	47686.777164
560.946251	47499.851179
561.303065	48162.155451
561.659825	47852.134572
562.016528	47654.944798
562.373177	47235.430057
562.729770	47860.437352
563.086307	47391.993172
563.442789	47930.438814
563.799216	47786.060168
564.155587	47667.068773
564.511904	47651.451278
564.868164	47683.815486
565.224370	48007.893623
565.580520	47729.911797
565.936615	47927.371272
566.292654	47580.955783
566.648638	47958.172722
567.004567	47882.562976
567.360441	47979.665682
567.716260	47713.417141
568.072023	48065.405626
568.427732	47994.237137
568.783385	47532.227990
569.138982	47938.681101
569.494525	48077.169159
569.850013	47667.237651
570.205445	47799.691448
570.560823	47580.426462
570.916145	47443.387735
571.271412	47674.791820
571.626625	47329.014037
571.981782	47419.689271
572.336884	46999.635127
572.691931	47339.696242
573.046923	46996.587749
573.401860	46837.067998
573.756743	46838.073708
574.111570	47005.918925
574.466342	46910.252949
574.821059	47044.307312
575.175722	46556.774803
575.530330	46663.206163
575.884882	46299.514640
576.239380	46178.544591
576.593823	46271.395083
576.948211	46208.274796
577.302544	45762.692249
577.656823	45753.928203
578.011047	46006.986564
578.365216	45833.860738
578.719330	45562.056846
579.073389	45530.854625
579.427394	45599.535305
579.781344	45515.010278
580.135239	45284.679959
580.489080	45347.235637
580.842866	44836.937277
581.196597	45320.663715
581.550273	45322.360063
581.903895	45260.139622
582.257463	45703.385594
582.610975	45119.360360
582.964434	45459.086238
583.317837	44966.169777
583.671186	44928.424137
584.024481	45185.770000
584.377721	44740.636115
584.730906	44963.845805
585.084037	45059.650413
585.437113	44784.625224
585.790135	44905.958235
586.143103	44457.403928
586.496016	44611.998472
586.848874	44734.009518
587.201679	44765.478921
587.554428	44252.193678
587.907124	44524.594947
588.259765	44319.858565
588.612352	44462.329135
588.964884	43915.860496
589.317362	44217.797885
589.669786	44225.899019
590.022155	44092.132002
590.374470	44520.635120
590.726731	44099.900420
591.078937	43438.531282
591.431090	43768.313485
591.783188	43327.315867
592.135232	43087.273765
592.487222	43382.135894
592.839157	43523.935990
593.191038	43157.398735
593.542866	42970.916372
593.894639	42374.068963
594.246358	42669.150383
594.598022	42653.873166
594.949633	42242.676329
595.301190	42213.692215
595.652692	42161.120542
596.004141	42648.411076
596.355535	41546.487942
596.706876	41552.532285
597.058162	41284.794084
597.409395	41774.585030
597.760573	41977.236894
598.111698	41602.631272
598.462768	41509.707683
598.813785	41539.939483
599.164748	41127.144600
599.515657	41417.462129
599.866511	40916.474781
600.217312	41615.990330
600.568060	40553.557074
600.918753	41377.974771
601.269392	41283.528754
601.619978	41000.263799
601.970510	41212.745913
602.320988	41342.784997
602.671412	41614.472942
603.021783	41500.931034
603.372100	41056.497870
603.722363	41163.327482
604.072572	41188.593745
604.422728	41188.389578
604.772830	40972.078708
605.122878	41121.866512
605.472872	40980.711684
605.822813	41247.756726
606.172701	40990.831800
606.522534	41321.846564
606.872314	41540.504092
607.222041	41365.770138
607.571714	41690.170908
607.921333	41190.733715
608.270899	41404.017372
608.620411	41799.904225
608.969870	41509.891685
609.319276	41550.954404
609.668627	41570.100706
610.017926	41987.097391
610.367171	42106.151800
610.716362	42148.610919
611.065500	42039.054043
611.414585	42268.817232
611.763616	42446.795169
612.112594	42351.524923
612.461518	42457.028711
612.810389	42858.425545
613.159207	42643.984943
613.507971	42627.036583
613.856682	43115.925163
614.205340	42955.374495
614.553945	43631.310047
614.902496	42962.989158
615.250994	43384.999270
615.599439	43456.797903
615.947830	43557.736927
616.296169	43566.082557
616.644454	43602.212507
616.992686	43767.900110
617.340864	44214.455600
617.688990	43753.742030
618.037063	44417.304069
618.385082	44249.068163
618.733048	44585.217342
619.080961	44444.080158
619.428821	44465.900792
619.776628	44497.090411
620.124382	44307.689220
620.472083	44414.410447
620.819731	44499.472356
621.167326	44050.020723
621.514868	44047.653902
621.862357	43506.465872
622.209793	43593.645066
622.557176	43166.918954
622.904506	42926.738221
623.251783	42553.733165
623.599007	42218.410735
623.946179	42152.419510
624.293297	41892.016188
624.640363	41349.714063
624.987376	41193.057687
625.334336	40991.540082
625.681243	40582.798287
626.028097	40493.355615
626.374899	40320.048308
626.721647	40276.054158
627.068343	40082.458727
627.414987	39781.280031
627.761577	39528.516578
628.108115	39860.519408
628.454600	39108.064182
628.801032	39337.293009
629.147412	39236.548070
629.493739	39149.227724
629.840014	38705.056700
630.186236	39142.099532
630.532405	38574.526103
630.878521	38815.556271
631.224585	38585.798123
631.570597	38252.046012
631.916556	38420.281919
632.262462	38310.848551
632.608316	38239.642253
632.954117	38091.099614
633.299866	38061.039213
633.645562	37973.323137
633.991206	37438.093750
634.336797	37031.428911
634.682336	36909.808554
635.027823	36685.988885
635.373257	36558.649338
635.718639	36223.520992
636.063968	36113.394466
636.409245	35458.697296
636.754470	35421.785967
637.099642	35191.012026
637.444762	34629.823218
637.789829	34773.957369
638.134845	34397.930142
638.479808	34306.723066
638.824719	34260.961992
639.169577	33751.586163
639.514383	33850.352449
639.859137	33470.393122
640.203839	33634.500324
640.548489	33334.019828
640.893086	33330.012111
641.237632	33065.376740
641.582125	33169.511855
641.926566	32965.909733
642.270955	33009.331712
642.615292	32926.770215
642.959576	32802.384785
643.303809	32824.565862
643.647990	32907.326484
643.992118	32851.619214
644.336195	32697.054916
644.680219	32787.646971
645.024192	33001.170084
645.368112	33521.540669
645.711981	33552.420257
646.055797	34272.115544
646.399562	34089.030919
646.743274	34945.175118
647.086935	35353.894228
647.430544	35313.287733
647.774101	35355.764496
648.117606	35627.031505
648.461059	35776.080780
648.804460	35359.608376
649.147810	34854.789750
649.491108	34496.409082
649.834354	34353.157134
650.177548	33510.278731
650.520690	33030.779301
650.863781	33009.951774
651.206820	32820.800120
651.549807	32419.093255
651.892742	31857.017204
652.235626	31754.346544
652.578458	31636.985962
652.921238	30948.848297
653.263967	31237.141803
653.606644	30958.360955
653.949269	30866.080113
654.291843	30479.093417
654.634365	30844.468686
654.976836	30371.336233
655.319255	30446.404055
655.661622	30333.315851
656.003938	30199.919358
656.346203	30015.425731
656.688416	30258.691651
657.030577	30031.030622
657.372687	29845.596819
657.714746	30004.080614
658.056753	30204.083352
658.398708	29582.004967
658.740612	29653.130607
659.082465	29866.691527
659.424266	29759.108263
659.766016	29762.430384
660.107715	29618.530647
660.449362	29728.314375
660.790958	29708.525326
661.132503	29634.422885
661.473996	29702.380159
661.815438	29786.317891
662.156829	29903.844831
662.498168	29705.296467
662.839456	29681.010708
663.180693	29811.165738
663.521879	29903.799461
663.863013	29860.160713
664.204097	29840.081797
664.545129	30251.601268
664.886110	30192.057679
665.227040	30289.130138
665.567918	30287.539653
665.908746	30362.864574
666.249522	30452.521495
666.590248	30481.515692
666.930922	30574.303169
667.271545	30560.591231
667.612118	30638.086368
667.952639	30444.982450
668.293109	30478.901853
668.633528	30324.690437
668.973896	30296.994338
669.314213	30271.486099
669.654480	30087.877194
669.994695	30079.710524
670.334859	29997.514511
670.674973	29821.472378
671.015035	30019.206596
671.355047	29947.082808
671.695008	29884.499403
672.034918	29790.766709
672.374777	29894.806043
672.714585	29762.763100
673.054342	29892.882842
673.394049	29752.695916
673.733705	29975.585492
674.073310	29687.876759
674.412864	29746.394473
674.752368	29437.205384
675.091820	29673.645582
675.431223	29264.346740
675.770574	29057.304031
676.109875	28895.745132
676.449125	28703.014259
676.788324	28591.506456
677.127473	28112.513662
677.466571	28015.531944
677.805619	27731.684736
678.144616	27663.598912
678.483562	27628.794786
678.822458	27296.209702
679.161303	27244.590807
679.500098	27167.967789
679.838842	27101.807686
680.177535	27186.496550
680.516179	27426.697449
680.854771	27560.461945
681.193314	28339.078239
681.531805	29366.346926
681.870247	30114.436513
682.208638	30837.262357
682.546978	31111.107916
682.885268	31225.393394
683.223508	30788.161518
683.561697	30520.894665
683.899836	30354.481135
684.237925	29945.719176
684.575963	29806.832867
684.913951	29435.191443
685.251889	29608.423134
685.589776	29652.087088
685.927614	29644.278340
686.265401	29828.749283
686.603137	29957.034046
686.940824	30450.757092
687.278460	30783.523657
687.616046	30962.338425
687.953582	31633.242905
688.291068	31542.045912
688.628504	31866.824769
688.965889	31857.208768
689.303224	31580.867837
689.640510	31290.860339
689.977745	30656.615129
690.314930	29906.819112
690.652065	29461.203797
690.989150	28795.499267
691.326185	27952.076420
691.663170	27315.270305
692.000105	26576.209424
692.336990	25985.383673
692.673825	25553.692025
693.010610	25064.841254
693.347345	24572.413785
693.684030	23942.388021
694.020665	23731.289704
694.357251	23073.023397
694.693786	23065.859917
695.030272	22837.725020
695.366707	22347.508097
695.703093	22067.565262
696.039429	22148.992499
696.375716	21904.617526
696.711952	21909.953587
697.048139	21783.781068
697.384276	21616.838217
697.720363	21735.078481
698.056400	21632.856483
698.392388	21468.789611
698.728326	21467.340279
699.064214	21308.523768
699.400053	21306.197276
699.735842	20911.328736
700.071581	20719.911084
700.407270	20471.203238
700.742910	20296.960797
701.078501	20045.618948
701.414042	19842.652012
701.749533	19543.323420
702.084974	19231.228106
702.420366	19458.894175
702.755709	19046.368994
703.091002	18743.897243
703.426246	18807.642633
703.761440	18741.296008
704.096584	18495.141507
704.431679	18439.542621
704.766725	18388.011946
705.101721	18326.038521
705.436668	18441.364998
705.771565	18168.590684
706.106413	18485.490217
706.441212	18552.025887
706.775961	18658.505138
707.110661	18747.725999
707.445311	19120.967989
707.779913	18991.869080
708.114465	19284.402197
708.448967	19605.634602
708.783421	20232.923019
709.117825	20605.454206
709.452180	20832.071716
709.786485	21288.354112
710.120742	22058.871792
710.454949	22172.000326
710.789107	22671.611439
711.123216	23390.724474
711.457275	23610.334779
711.791286	24165.370859
712.125247	24319.821730
712.459159	24034.590725
712.793023	24770.483240
713.126837	23748.911057
713.460602	23994.793336
713.794318	23652.385564
714.127985	23381.108473
714.461602	22481.998520
714.795171	22459.547741
715.128691	21470.453192
715.462162	20953.954213
715.795584	20527.064264
716.128957	20264.437793
716.462281	19885.650534
716.795556	19600.051524
717.128782	19122.598802
717.461960	18527.064613
717.795088	18488.779570
718.128167	18142.346437
718.461198	17684.292075
718.794180	17564.123570
719.127113	17228.854072
719.459997	17042.817851
719.792833	16677.838312
720.125619	16713.917851
720.458357	16383.200514
720.791046	16248.115235
721.123686	16105.306908
721.456278	15880.995727
721.788821	15871.674633
722.121315	15603.162615
722.453761	15715.154368
722.786158	15598.469301
723.118506	15675.077195
723.450805	15562.984619
723.783056	15738.419293
724.115259	15631.065402
724.447412	15636.643438
724.779518	15846.040366
725.111574	15895.630197
725.443582	16168.820406
725.775542	16116.218486
726.107453	16642.535112
726.439315	16570.076087
726.771129	16976.355279
727.102895	17398.458652
727.434612	17676.405190
727.766281	17840.605653
728.097901	18166.478440
728.429473	18245.732941
728.760996	18259.709540
729.092471	18377.881748
729.423897	18276.400800
729.755276	18142.288464
730.086606	18261.126104
730.417887	18839.994238
730.749120	19396.214989
731.080305	19610.554768
731.411442	19997.861577
731.742530	20119.267685
732.073570	20279.430184
732.404562	20608.564598
732.735506	20443.575194
733.066401	20226.205682
733.397249	19734.577235
733.728048	19101.446121
734.058798	18242.252024
734.389501	17483.505438
734.720156	16962.844986
735.050762	16396.776342
735.381320	16017.384144
735.711831	15740.443317
736.042293	15372.441606
736.372707	15415.931641
736.703073	15206.935484
737.033391	15395.837601
737.363661	15403.106945
737.693883	15535.412028
738.024056	15727.653909
738.354182	15952.486850
738.684260	16319.984445
739.014290	16595.982577
739.344272	16822.824418
739.674207	17167.979619
740.004093	17345.229108
740.333931	17397.934372
740.663722	17473.241649
740.993464	17509.381681
741.323159	17349.632556
741.652806	17050.296403
741.982405	16877.745268
742.311956	16523.455497
742.641460	16412.769402
742.970915	16083.682879
743.300323	15741.388533
743.629683	15507.121072
743.958996	15206.380958
744.288260	14882.625455
744.617477	14583.947172
744.946647	14557.839036
745.275768	14226.531884
745.604842	14032.359241
745.933869	13856.576727
746.262847	13835.955887
746.591778	13745.535231
746.920662	13632.094146
747.249498	13641.634530
747.578286	13798.641267
747.907027	13973.236589
748.235720	14242.961005
748.564365	14316.980267
748.892963	14243.278598
749.221514	14347.804402
749.550017	14202.722515
749.878473	14177.451211
750.206881	13955.426192
750.535242	13885.906160
750.863555	13794.578097
751.191821	13692.182180
751.520039	13715.595819
751.848210	13645.725426
752.176334	13691.917519
752.504411	13615.866672
752.832440	13438.894446
753.160421	13554.198237
753.488356	13440.540382
753.816243	13349.366074
754.144082	13189.301878
754.471875	13137.816573
754.799620	13108.454373
755.127318	13076.422881
755.454969	13066.905183
755.782572	13028.632743
756.110129	13046.095300
756.437638	12956.282103
756.765100	12959.021970
757.092515	12987.282678
757.419882	13032.844627
757.747203	13036.474258
758.074477	13133.554278
758.401703	13114.707924
758.728882	13309.261175
759.056014	13349.134181
759.383099	13528.846274
759.710138	13649.856652
760.037129	13771.708902
760.364073	13825.858456
760.690970	13858.499927
761.017820	13886.611922
761.344623	14105.725674
761.671379	14488.087111
761.998088	15182.589232
762.324751	16965.491592
762.651366	20377.460462
762.977935	24873.461410
763.304456	27844.072220
763.630931	28889.592404
763.957359	27677.560387
764.283740	25400.824076
764.610074	23126.048773
764.936362	20484.123715
765.262602	18607.839021
765.588796	16679.665731
765.914943	15390.854421
766.241044	14287.224856
766.567097	13500.535154
766.893104	12784.713993
767.219064	12314.132364
767.544978	11835.099241
767.870845	11454.373658
768.196665	11240.059085
768.522438	11007.452684
768.848165	10796.152721
769.173846	10590.186298
769.499479	10465.531167
769.825066	10290.083889
770.150607	10055.438342
770.476101	9991.357715
770.801548	9855.503660
771.126949	9701.929949
771.452303	9587.102547
771.777611	9394.525429
772.102872	9378.066062
772.428087	9235.726562
772.753256	9082.357018
773.078378	8997.179162
773.403453	8808.541706
773.728482	8702.001961
774.053465	8625.499930
774.378401	8525.070063
774.703291	8401.929798
775.028135	8284.284391
775.352932	8247.216787
775.677683	8139.406671
776.002388	8032.738376
776.327046	8043.370169
776.651658	7948.198226
776.976224	7845.767021
777.300743	7848.338009
777.625216	7756.709997
777.949643	7711.410189
778.274024	7728.257725
778.598359	7644.365363
778.922647	7658.853639
779.246889	7612.041485
779.571086	7620.311498
779.895236	7627.835420
780.219339	7633.625185
780.543397	7645.744119
780.867409	7721.222795
781.191374	7731.436172
781.515294	7694.613064
781.839167	7790.732744
782.162995	7761.234433
782.486776	7706.185033
782.810511	7655.647465
783.134201	7573.317861
783.457844	7563.129689
783.781441	7511.770414
784.104993	7442.416740
784.428498	7418.299860
784.751958	7407.385762
785.075372	7379.472893
785.398739	7323.294275
785.722061	7367.487550
786.045337	7373.441153
786.368568	7531.476284
786.691752	7551.993781
787.014891	7901.786843
787.337983	8262.710773
787.661030	8852.276236
787.984031	9483.363163
788.306987	9894.239886
788.629897	10096.342265
788.952760	10039.344459
789.275579	9813.548657
789.598351	9417.714737
789.921078	9062.908247
790.243759	8650.173858
790.566395	8360.241977
790.888984	8101.252698
791.211529	7892.458188
791.534027	7673.687234
791.856480	7473.437480
792.178888	7398.820842
792.501249	7301.355173
792.823566	7143.574619
793.145836	7150.934704
793.468062	7119.855991
793.790241	7075.496357
794.112375	7138.493136
794.434464	7290.995602
794.756507	7340.098961
795.078505	7495.933629
795.400457	7816.813154
795.722364	8162.117069
796.044226	8452.212788
796.366042	8733.857012
796.687812	8675.067076
797.009538	8758.530939
797.331218	8642.949884
797.652852	8562.591372
797.974442	8403.966425
798.295986	8318.438208
798.617484	8126.682798
798.938938	7981.452197
799.260346	7879.724233
799.581709	7681.566558
799.903026	7605.185515
800.224299	7493.954976
800.545526	7318.487534
800.866708	7227.635860
801.187845	7161.876528
801.508936	7056.765950
801.829983	7017.717172
802.150984	6860.841506
802.471940	6821.669220
802.792851	6806.114740
803.113717	6772.717096
803.434538	6739.006900
803.755314	6685.132089
804.076045	6685.036307
804.396731	6630.211238
804.717372	6663.071999
805.037967	6668.307238
805.358518	6711.799793
805.679024	6791.134951
805.999485	6806.429812
806.319901	6845.460946
806.640272	6866.643874
806.960598	6949.492717
807.280879	6951.700742
807.601115	7029.974738
807.921306	6972.422405
808.241453	6987.298850
808.561554	7007.556727
808.881611	6966.874615
809.201623	6978.865000
809.521590	6926.547905
809.841513	6905.992600
810.161390	6940.267405
810.481223	6812.622869
810.801011	6793.595034
811.120755	6769.936899
811.440453	6692.421597
811.760107	6659.233161
812.079716	6630.324664
812.399281	6563.857051
812.718801	6552.998405
813.038276	6506.834039
813.357707	6450.393280
813.677093	6487.876780
813.996434	6391.744497
814.315731	6440.212670
814.634983	6431.027688
814.954191	6445.601664
815.273354	6552.433796
815.592473	6611.856397
815.911547	6737.116467
816.230577	6819.183931
816.549562	6970.617672
816.868502	7069.169709
817.187399	7164.737383
817.506250	7322.558266
817.825058	7350.279571
818.143821	7616.845704
818.462539	7891.825523
818.781213	8259.184486
819.099843	8809.484402
819.418429	9814.546806
819.736970	10793.480909
820.055466	11978.232722
820.373919	13513.919418
820.692327	15855.447159
821.010691	19990.050309
821.329011	29010.895168
821.647286	42026.662887
821.965517	55521.113368
822.283704	60923.982606
822.601847	62902.915274
822.919945	60214.046992
823.237999	56014.697783
823.556010	49858.576817
823.873976	43116.961120
824.191897	36560.577580
824.509775	31701.898379
824.827609	27172.298140
825.145398	24566.855913
825.463144	23194.051418
825.780845	23496.923941
826.098502	25274.815394
826.416116	29071.578058
826.733685	32768.828344
827.051210	33959.798420
827.368692	32175.131656
827.686129	28201.285861
828.003522	24054.634353
828.320872	20319.177162
828.638177	17459.340667
828.955439	15292.529236
829.272656	13465.574753
829.589830	11989.968528
829.906960	10711.678106
830.224046	9768.195917
830.541088	9012.766410
830.858086	8551.377325
831.175041	8170.979417
831.491952	8053.611273
831.808819	8096.357737
832.125642	8504.476950
832.442421	9387.861024
832.759157	11192.853720
833.075849	14128.362975
833.392497	17367.934465
833.709101	19574.555889
834.025662	19427.656666
834.342179	17726.489053
834.658653	15509.276166
834.975083	13569.896390
835.291469	11935.236721
835.607811	10614.015832
835.924110	9699.507675
836.240366	8827.783790
836.556578	8026.149588
836.872746	7372.652212
837.188871	6865.960798
837.504952	6452.906296
837.820990	6138.572709
838.136984	5918.811169
838.452935	5824.090409
838.768842	5857.956880
839.084706	6281.333145
839.400526	7487.764439
839.716303	9083.834076
840.032037	10186.155462
840.347727	10117.769689
840.663373	9141.792222
840.978977	8089.728620
841.294537	7274.710154
841.610054	6666.762124
841.925527	6236.406382
842.240957	5871.603284
842.556344	5539.580289
842.871687	5256.927834
843.186987	4978.078929
843.502244	4748.288013
843.817458	4583.704423
844.132629	4446.985810
844.447756	4353.132128
844.762840	4274.384264
845.077881	4198.572872
845.392879	4132.523674
845.707833	4085.063731
846.022745	4042.861712
846.337613	4013.461702
846.652438	3969.805310
846.967221	3955.743012
847.281960	3920.601128
847.596656	3903.627563
847.911309	3884.196436
848.225919	3857.964792
848.540485	3841.313860
848.855009	3831.163497
849.169490	3812.112977
849.483928	3797.319711
849.798323	3788.449801
850.112675	3769.089249
850.426984	3778.755662
850.741251	3763.208743
851.055474	3755.662136
851.369654	3761.608177
851.683792	3756.617435
851.997887	3764.279988
852.311938	3765.688991
852.625947	3768.680916
852.939914	3761.572889
853.253837	3768.595216
853.567718	3769.323663
853.881555	3754.855551
854.195350	3770.720063
854.509103	3765.583127
854.822812	3767.680247
855.136479	3757.318155
855.450103	3767.143364
855.763685	3754.323710
856.077224	3762.623969
856.390720	3775.143675
856.704173	3795.943476
857.017584	3807.112152
857.330953	3819.785613
857.644278	3839.131041
857.957561	3848.373996
858.270802	3846.891897
858.584000	3851.368442
858.897155	3842.057431
859.210268	3823.667301
859.523339	3805.738438
859.836367	3800.919095
860.149352	3793.677477
860.462295	3786.771096
860.775195	3779.118625
861.088054	3773.754837
861.400869	3770.536060
861.713642	3771.382974
862.026373	3784.058956
862.339062	3786.060294
862.651708	3807.147440
862.964312	3840.923171
863.276873	3854.274667
863.589392	3912.832710
863.901869	3958.434988
864.214303	4003.273531
864.526696	4039.224519
864.839045	4083.697578
865.151353	4113.168164
865.463619	4118.398361
865.775842	4125.090493
866.088023	4144.488853
866.400162	4134.514930
866.712258	4142.232936
867.024313	4146.223010
867.336325	4143.972134
867.648296	4147.430366
867.960224	4147.952125
868.272110	4157.169875
868.583954	4159.619876
868.895755	4173.354500
869.207515	4173.377185
869.519233	4214.069379
869.830909	4227.037747
870.142542	4252.034308
870.454134	4263.780197
870.765684	4294.914363
871.077191	4329.491637
871.388657	4356.242520
871.700081	4392.382552
872.011463	4436.732103
872.322803	4470.936332
872.634101	4502.370447
872.945357	4543.970048
873.256571	4600.647741
873.567744	4627.680928
873.878874	4643.058968
874.189963	4684.335936
874.501010	4696.792627
874.812015	4694.640054
875.122979	4735.478442
875.433900	4731.783276
875.744780	4741.855501
876.055618	4776.674751
876.366415	4771.925984
876.677169	4792.327533
876.987882	4840.480635
877.298554	4892.868306
877.609183	4976.901820
877.919771	5084.134724
878.230317	5229.428339
878.540822	5445.361123
878.851285	5767.165700
879.161707	6232.779272
879.472087	6991.435117
879.782425	8229.141730
880.092722	10420.798488
880.402977	13733.179363
880.713191	17521.699740
881.023363	21273.170157
881.333494	23516.143340
881.643583	24753.471867
881.953631	24736.609207
882.263637	23886.111100
882.573602	22402.186972
882.883526	20829.614153
883.193408	19145.833480
883.503248	17436.574816
883.813048	15867.687081
884.122806	14436.866467
884.432522	12965.784678
884.742197	11687.053155
885.051831	10595.066135
885.361424	9580.924613
885.670975	8756.600177
885.980485	8067.086278
886.289954	7488.787794
886.599382	7013.023858
886.908768	6630.296938
887.218113	6272.720334
887.527417	5980.111600
887.836680	5711.806269
888.145901	5493.204194
888.455082	5326.906611
888.764221	5173.746275
889.073319	5042.603178
889.382376	4969.176252
889.691392	4908.309360
890.000366	4883.708529
890.309300	4865.913256
890.618193	4871.463567
890.927044	4855.165516
891.235855	4876.502200
891.544625	4909.378085
891.853353	4973.559535
892.162041	5088.422225
892.470687	5274.055154
892.779293	5528.041088
893.087858	5899.014558
893.396381	6479.579041
893.704864	7285.828419
894.013306	8449.140204
894.321707	9638.408890
894.630068	10467.650972
894.938387	10677.519248
895.246665	10441.875552
895.554903	9834.285444
895.863100	9127.419893
896.171256	8564.088594
896.479371	8052.240080
896.787446	7544.290898
897.095480	7116.244004
897.403473	6799.220962
897.711425	6477.287836
898.019336	6206.217432
898.327207	5933.564106
898.635038	5698.270771
898.942827	5452.068378
899.250576	5259.970170
899.558284	5063.733174
899.865952	4939.156180
900.173579	4785.584990
900.481165	4681.858209
900.788711	4590.290690
901.096216	4511.694061
901.403681	4447.988999
901.711105	4425.102161
902.018489	4410.941560
902.325832	4486.148013
902.633135	4605.638483
902.940397	4949.856029
903.247619	5739.507409
903.554800	7190.490118
903.861941	9123.192885
904.169041	10657.866309
904.476101	11298.987652
904.783121	10937.063053
905.090100	10193.868427
905.397039	9349.059262
905.703938	8590.975588
906.010796	7894.905668
906.317614	7336.242478
906.624391	6799.659542
906.931129	6370.937134
907.237826	5965.411595
907.544483	5588.005612
907.851099	5214.090629
908.157675	4856.093088
908.464211	4533.373543
908.770707	4293.908653
909.077163	4093.308538
909.383578	3948.244295
909.689954	3833.822706
909.996289	3760.985594
910.302584	3697.872869
910.608839	3664.840708
910.915054	3634.245946
911.221229	3617.408492
911.527363	3629.663537
911.833458	3640.433962
912.139513	3674.250022
912.445527	3700.741285
912.751502	3783.557361
913.057436	3887.712640
913.363331	4024.673229
913.669186	4227.625041
913.975000	4485.195235
914.280775	4906.320625
914.586510	5489.133462
914.892205	6287.627026
915.197859	7335.254412
915.503475	8570.606806
915.809050	9639.475094
916.114585	10293.252254
916.420081	10568.532022
916.725536	10530.491475
917.030952	10081.357435
917.336328	9667.680350
917.641665	9245.919775
917.946961	8768.076364
918.252218	8340.805808
918.557435	7829.226995
918.862612	7396.932929
919.167750	7013.790114
919.472848	6593.451144
919.777906	6215.415017
920.082925	5852.474626
920.387904	5478.002594
920.692843	5212.084250
920.997743	4965.339933
921.302603	4729.429057
921.607423	4565.770518
921.912204	4402.389242
922.216946	4282.417343
922.521647	4159.854290
922.826310	4054.191705
923.130932	3963.082932
923.435516	3859.454452
923.740059	3792.908701
924.044564	3712.595559
924.349028	3652.779748
924.653454	3587.728698
924.957840	3520.673791
925.262186	3467.282930
925.566493	3412.014240
925.870761	3351.795137
926.174989	3317.157369
926.479178	3280.150258
926.783328	3240.302458
927.087438	3210.279866
927.391509	3171.480625
927.695541	3146.131183
927.999533	3117.668829
928.303486	3097.423555
928.607400	3081.662387
928.911275	3070.932291
929.215110	3049.819939
929.518906	3044.932540
929.822663	3041.456665
930.126381	3042.384237
930.430060	3048.315155
930.733699	3051.654919
931.037299	3061.061712
931.340861	3058.266392
931.644383	3065.757547
931.947866	3064.393915
932.251309	3059.420817
932.554714	3056.950651
932.858080	3051.662481
933.161407	3044.188970
933.464694	3035.709749
933.767943	3031.286137
934.071153	3028.016949
934.374323	3015.086389
934.677455	3012.134793
934.980548	3002.745644
935.283602	2996.444202
935.586617	2994.415138
935.889593	3002.728000
936.192530	3007.466685
936.495428	3022.378418
936.798287	3044.433466
937.101108	3076.631316
937.403890	3128.787093
937.706632	3194.432999
938.009336	3275.308230
938.312002	3345.297089
938.614628	3409.473498
938.917216	3461.583906
939.219765	3493.897702
939.522275	3527.988505
939.824747	3532.616284
940.127179	3529.077394
940.429573	3522.324768
940.731929	3520.207484
941.034246	3506.550998
941.336524	3491.619100
941.638763	3479.817759
941.940964	3463.534832
942.243126	3419.888522
942.545250	3399.444123
942.847335	3356.921990
943.149381	3323.022751
943.451389	3289.418420
943.753359	3257.613780
944.055290	3233.501941
944.357182	3206.607385
944.659036	3189.401927
944.960851	3181.182326
945.262628	3168.743279
945.564367	3170.956345
945.866067	3162.136847
946.167729	3161.259686
946.469352	3156.909170
946.770937	3156.193326
947.072484	3137.576345
947.373992	3141.780667
947.675462	3135.842188
947.976893	3120.096144
948.278286	3107.291613
948.579641	3103.112497
948.880958	3096.871548
949.182236	3099.571086
949.483476	3090.688573
949.784678	3090.287802
950.085841	3093.259562
950.386967	3104.511417
950.688054	3120.842235
950.989103	3142.887201
951.290114	3163.591220
951.591087	3188.965867
951.892021	3218.706155
952.192917	3244.894949
952.493776	3271.784463
952.794596	3280.649333
953.095378	3289.244500
953.396122	3278.146400
953.696828	3272.298661
953.997496	3260.154522
954.298126	3238.427148
954.598718	3217.246741
954.899272	3192.963502
955.199788	3163.860921
955.500266	3131.479070
955.800706	3095.205447
956.101108	3057.542987
956.401472	3025.140970
956.701798	2994.455467
957.002087	2951.484672
957.302337	2923.203798
957.602550	2895.187586
957.902724	2865.233050
958.202861	2839.886128
958.502960	2819.734116
958.803022	2797.880714
959.103045	2776.891870
959.403031	2761.571803
959.702979	2746.428177
960.002889	2736.156826
960.302762	2721.111502
960.602596	2710.005841
960.902393	2702.129038
961.202153	2692.634024
961.501875	2683.196984
961.801559	2679.547189
962.101205	2673.149965
962.400814	2668.469253
962.700385	2659.561535
962.999918	2653.123981
963.299414	2647.450162
963.598873	2646.240286
963.898293	2636.311733
964.197677	2639.878349
964.497022	2635.810138
964.796331	2633.617236
965.095601	2630.698408
965.394835	2629.664972
965.694030	2628.069447
965.993189	2627.865280
966.292309	2624.719600
966.591393	2625.259003
966.890439	2624.404528
967.189447	2622.735906
967.488419	2626.985598
967.787353	2623.890330
968.086249	2629.400311
968.385108	2627.840074
968.683930	2630.378295
968.982714	2636.979686
969.281462	2640.049749
969.580172	2643.286169
969.878844	2650.303456
970.177480	2659.306956
970.476078	2665.500014
970.774639	2671.972855
971.073162	2682.166068
971.371649	2685.641944
971.670098	2694.234591
971.968510	2697.395394
972.266885	2702.262628
972.565223	2706.358566
972.863524	2706.650953
973.161788	2711.593804
973.460014	2713.539689
973.758204	2718.233004
974.056356	2719.780638
974.354471	2724.365567
974.652550	2724.632748
974.950591	2720.244424
975.248595	2718.023796
975.546563	2717.849876
975.844493	2713.214535
976.142386	2706.739173
976.440243	2704.513503
976.738062	2699.638708
977.035845	2691.071267
977.333590	2684.608507
977.631299	2679.527024
977.928971	2673.563339
978.226606	2666.649397
978.524204	2664.411125
978.821765	2660.050527
979.119290	2663.050013
979.416777	2662.001453
979.714228	2664.612771
980.011642	2667.342556
980.309020	2674.067455
980.606360	2690.826771
980.903664	2714.058928
981.200931	2750.723240
981.498162	2799.932463
981.795356	2875.907693
982.092513	2964.750468
982.389633	3070.564287
982.686717	3168.045079
982.983764	3245.663725
983.280775	3291.767597
983.577749	3296.929739
983.874686	3285.831639
984.171587	3249.121956
984.468451	3212.656770
984.765279	3172.325019
985.062070	3121.565641
985.358824	3076.679207
985.655543	3019.933458
985.952224	2965.216775
986.248869	2903.250912
986.545478	2839.986951
986.842050	2789.005762
987.138586	2739.892321
987.435086	2703.117104
987.731549	2670.747855
988.027975	2646.888074
988.324366	2629.241515
988.620719	2614.090327
988.917037	2601.792432
989.213318	2596.151381
989.509563	2586.772314
989.805772	2580.685121
990.101944	2575.754872
990.398080	2574.224882
990.694180	2573.556929
990.990244	2573.488874
991.286271	2572.843606
991.582262	2573.478792
991.878217	2577.877198
992.174136	2582.252920
992.470019	2585.181830
992.765865	2587.687284
993.061676	2588.337592
993.357450	2599.962493
993.653188	2605.525407
993.948890	2627.648510
994.244556	2645.549647
994.540186	2667.642504
994.835780	2700.165508
995.131337	2735.239336
995.426859	2778.454627
995.722345	2827.638645
996.017795	2877.969525
996.313208	2916.211718
996.608586	2943.877570
996.903928	2958.910291
997.199234	2958.073460
997.494504	2954.678243
997.789738	2938.901952
998.084936	2917.303128
998.380099	2884.142418
998.675225	2853.845083
998.970316	2824.813078
999.265371	2783.871347
999.560390	2750.982860
999.855373	2721.673591
1000.150320	2691.615711
1000.445232	2664.007832
1000.740108	2645.138793
1001.034948	2625.896709
1001.329752	2613.258537
1001.624521	2596.181628
1001.919254	2585.721234
1002.213951	2579.006417
1002.508613	2567.767164
1002.803239	2563.595609
1003.097829	2557.614280
1003.392384	2551.509443
1003.686903	2549.235883
1003.981386	2545.059287
1004.275834	2539.501415
1004.570246	2536.943029
1004.864623	2537.616023
1005.158964	2535.511341
1005.453270	2530.266021
1005.747540	2530.475229
1006.041775	2527.576565
1006.335974	2525.761750
1006.630138	2526.926256
1006.924266	2525.512213
1007.218359	2522.588343
1007.512416	2521.239835
1007.806438	2518.701614
1008.100425	2518.260513
1008.394376	2514.887981
1008.688292	2520.957530
1008.982172	2520.796213
1009.276017	2521.776718
1009.569827	2520.312262
1009.863602	2518.242869
1010.157341	2518.426871
1010.451045	2516.778414
1010.744714	2517.864782
1011.038347	2515.830677
1011.331945	2513.945285
1011.625508	2513.728516
1011.919036	2510.310613
1012.212528	2511.429749
1012.505986	2510.292969
1012.799408	2510.340860
1013.092795	2509.753566
1013.386147	2510.567712
1013.679464	2506.086126
1013.972745	2510.308093
1014.265992	2506.547392
1014.559204	2506.701147
1014.852380	2508.513442
1015.145521	2506.060921
1015.438628	2511.497805
1015.731699	2505.763492
1016.024736	2510.711385
1016.317737	2509.141066
1016.610703	2511.177692
1016.903635	2515.102230
1017.196531	2513.983094
1017.489393	2516.377642
1017.782219	2517.194309
1018.075011	2517.882426
1018.367768	2519.477952
1018.660490	2521.363343
1018.953177	2521.363343
1019.245829	2521.363343
