Dividing Wavelength (nm)	Counts (n)	Blue Motor Position (mm): 38.900000	Red Motor Position (mm): 0.000000	
326.493990	2244.656929
326.888308	2244.656929
327.282561	2244.656929
327.676750	2202.530527
328.070874	2200.700588
328.464933	2202.278469
328.858929	2205.114118
329.252859	2209.570498
329.646726	2215.917311
330.040528	2232.941288
330.434265	2242.098543
330.827938	2263.120155
331.221547	2278.931734
331.615091	2297.921761
332.008571	2316.846252
332.401986	2332.546926
332.795338	2353.172807
333.188625	2371.721732
333.581847	2392.546739
333.975006	2411.672877
334.368100	2429.326997
334.761129	2449.441201
335.154095	2468.368213
335.546996	2491.953252
335.939833	2530.213089
336.332606	2547.151366
336.725315	2560.160063
337.117960	2573.125911
337.510540	2584.939855
337.903056	2592.254569
338.295508	2604.373503
338.687896	2611.786520
339.080220	2617.309104
339.472480	2624.845629
339.864676	2630.711011
340.256807	2634.635549
340.648875	2639.656539
341.040879	2644.375059
341.432818	2644.675007
341.824694	2650.212715
342.216506	2650.386635
342.608253	2650.797489
342.999937	2650.578198
343.391557	2648.183650
343.783113	2649.396048
344.174605	2648.007210
344.566033	2648.070224
344.957397	2649.055770
345.348697	2646.409164
345.739934	2643.578556
346.131106	2645.834473
346.522215	2640.382465
346.913260	2640.316930
347.304241	2636.717546
347.695159	2634.179325
348.086012	2634.391053
348.476802	2631.774695
348.867528	2627.454426
349.258191	2626.441154
349.648789	2624.770011
350.039324	2623.832357
350.429796	2625.170783
350.820203	2623.600464
351.210548	2621.014352
351.600828	2618.508898
351.991045	2619.262551
352.381198	2618.229114
352.771288	2618.249279
353.161314	2620.076697
353.551276	2617.299021
353.941175	2618.002262
354.331010	2620.250617
354.720782	2617.125102
355.110490	2617.546038
355.500135	2617.533435
355.889717	2617.646861
356.279235	2617.369597
356.668689	2617.122581
357.058080	2616.744494
357.447408	2616.696603
357.836672	2617.598970
358.225873	2616.436984
358.615010	2616.981429
359.004084	2619.519650
359.393095	2618.667695
359.782043	2621.541152
360.170927	2619.532252
360.559748	2622.017541
360.948505	2621.321862
361.337199	2626.252111
361.725830	2624.533077
362.114398	2625.163221
362.502903	2621.218518
362.891344	2623.343365
363.279722	2624.180196
363.668037	2626.065588
364.056289	2626.526853
364.444478	2625.843777
364.832603	2626.703294
365.220665	2626.988119
365.608665	2627.792183
365.996601	2627.940897
366.384474	2629.942235
366.772284	2628.432410
367.160031	2629.347379
367.547715	2630.973151
367.935336	2629.992647
368.322893	2631.081536
368.710388	2629.791001
369.097820	2630.562297
369.485189	2628.061885
369.872495	2632.283851
370.259738	2633.150930
370.646918	2634.083543
371.034035	2634.610344
371.421090	2636.568832
371.808081	2634.058337
372.195010	2637.307361
372.581875	2635.547998
372.968678	2638.111425
373.355418	2637.892135
373.742096	2637.030098
374.128710	2638.854995
374.515262	2639.228041
374.901751	2640.188380
375.288177	2642.270377
375.674540	2642.502270
376.060841	2644.576705
376.447079	2642.051087
376.833254	2643.964205
377.219367	2643.734832
377.605417	2642.230048
377.991404	2645.481592
378.377329	2646.578043
378.763191	2644.974956
379.148991	2644.123001
379.534727	2645.277425
379.920402	2646.565440
380.306013	2645.199287
380.691563	2649.292704
381.077049	2650.061480
381.462474	2651.435195
381.847835	2648.118115
382.233134	2650.724392
382.618371	2652.037612
383.003545	2651.364618
383.388657	2650.520225
383.773706	2652.491316
384.158693	2653.812099
384.543618	2655.263951
384.928480	2653.645741
385.313280	2656.264620
385.698017	2654.495175
386.082692	2655.727737
386.467305	2658.472645
386.851856	2660.166473
387.236344	2657.371153
387.620770	2656.609939
388.005133	2655.069867
388.389435	2659.276709
388.773674	2657.764363
389.157851	2661.111689
389.541965	2661.651093
389.926018	2665.394150
390.310008	2665.610919
390.693936	2671.320026
391.077802	2674.742969
391.461606	2677.603824
391.845348	2683.832170
392.229027	2694.390867
392.612645	2703.230530
392.996200	2717.363405
393.379694	2735.713205
393.763125	2757.397728
394.146494	2783.536111
394.529801	2815.398723
394.913047	2852.572192
395.296230	2884.044115
395.679351	2934.843823
396.062410	2990.046978
396.445408	3033.141282
396.828343	3096.927001
397.211217	3163.218174
397.594028	3196.668751
397.976778	3284.881381
398.359466	3359.205633
398.742092	3429.247424
399.124656	3464.437199
399.507158	3566.765060
399.889598	3662.231911
400.271977	3780.709109
400.654294	3843.791588
401.036549	3941.035445
401.418742	3970.727841
401.800874	4139.125065
402.182944	4245.090119
402.564952	4384.319226
402.946898	4491.007686
403.328783	4471.102690
403.710606	4552.154361
404.092367	4828.517977
404.474067	4917.098612
404.855705	4916.712963
405.237282	4938.430254
405.618797	5181.421431
406.000250	5235.523094
406.381642	5446.412204
406.762972	5525.354152
407.144240	5631.120081
407.525447	5673.203633
407.906593	5756.044914
408.287677	5938.915291
408.668700	5904.476648
409.049661	6063.832562
409.430560	6124.444876
409.811399	6033.573036
410.192176	6325.012222
410.572891	6362.004209
410.953545	6586.156595
411.334138	6364.280290
411.714669	6549.610750
412.095139	6383.739144
412.475547	6640.318752
412.855894	6720.704991
413.236180	6905.279277
413.616405	6627.383151
413.996568	6855.928902
414.376670	6889.197996
414.756711	6801.025695
415.136691	6905.357415
415.516609	7110.338292
415.896466	7117.216947
416.276262	7311.162738
416.655997	7303.268291
417.035670	7496.659555
417.415283	7834.835279
417.794834	7886.814616
418.174324	7752.369564
418.553753	7671.897625
418.933121	7992.951069
419.312428	8096.025021
419.691674	7877.758183
420.070859	8349.400975
420.449983	8037.167030
420.829045	8395.709015
421.208047	8184.774535
421.586988	8475.139955
421.965867	8488.864497
422.344686	8612.327395
422.723444	8633.172567
423.102141	8012.127618
423.480777	8761.031352
423.859352	8281.148793
424.237866	8900.071416
424.616319	8770.496118
424.994712	9172.858333
425.373044	8748.927541
425.751314	9204.352941
426.129524	9069.391171
426.507673	9205.603147
426.885762	9350.279222
427.263789	9264.536757
427.641756	9183.767390
428.019662	9281.767420
428.397508	9523.768011
428.775292	9218.185868
429.153016	9596.519422
429.530679	9428.986757
429.908282	9463.523702
430.285824	9187.114716
430.663305	9866.296771
431.040726	9320.148245
431.418086	9309.776071
431.795385	9624.641499
432.172624	9719.057270
432.549802	9634.597778
432.926920	9710.852792
433.303977	9587.221014
433.680974	9797.265730
434.057910	9876.089212
434.434786	9944.096898
434.811601	9784.725860
435.188355	10357.443787
435.565050	10081.044883
435.941683	10014.920068
436.318257	10497.918059
436.694770	10637.394183
437.071222	10698.903822
437.447614	10548.929495
437.823946	10441.194996
438.200218	10574.515872
438.576429	10397.442822
438.952580	10633.144491
439.328670	10681.090905
439.704700	10474.569955
440.080670	10462.932452
440.456580	11013.093736
440.832429	10774.337128
441.208218	10374.429955
441.583947	10703.624863
441.959616	10853.856288
442.335224	10653.125104
442.710773	10797.039964
443.086261	11002.300625
443.461689	10282.154154
443.837057	10934.671026
444.212365	11203.540966
444.587612	10853.561381
444.962800	11076.440875
445.337927	10847.670793
445.712995	10443.254308
446.088002	11520.027125
446.462949	11183.852740
446.837837	11154.379634
447.212664	11128.652105
447.587431	11658.636171
447.962139	12382.704659
448.336786	14653.411751
448.711374	15184.794737
449.085901	13038.243703
449.460369	12652.620639
449.834776	12099.396854
450.209124	12984.701608
450.583412	13398.691244
450.957640	14343.738711
451.331808	13469.133807
451.705917	12467.869913
452.079965	11766.277408
452.453954	12672.218125
452.827883	12311.090028
453.201752	12603.199688
453.575562	12122.366872
453.949311	12542.897405
454.323001	12505.025737
454.696632	12733.054769
455.070202	13020.473635
455.443713	13243.968150
455.817164	13716.044481
456.190556	13697.114949
456.563888	14062.369230
456.937160	14228.755033
457.310373	13577.619438
457.683526	13663.490453
458.056619	13205.574722
458.429653	13365.086912
458.802628	12782.485803
459.175542	13166.646932
459.548398	14112.203556
459.921194	14457.220126
460.293930	14526.528429
460.666607	15401.970165
461.039224	16443.371727
461.411782	17139.751678
461.784280	16990.732649
462.156719	17061.502888
462.529099	16746.342552
462.901419	15675.606516
463.273680	15459.547704
463.645882	15332.654300
464.018024	15064.943825
464.390106	15289.605366
464.762130	16012.771488
465.134094	16785.852595
465.505999	18799.622158
465.877845	22057.414899
466.249631	24884.428441
466.621358	24537.692838
466.993026	23111.318522
467.364634	22530.181868
467.736184	21071.879404
468.107674	20270.527506
468.479105	20403.157743
468.850477	19862.441061
469.221790	19453.180027
469.593043	18775.752294
469.964238	18209.119040
470.335373	17863.026185
470.706449	18318.154157
471.077467	17888.146254
471.448425	19723.395956
471.819324	23789.696513
472.190164	25745.669246
472.560945	22173.056447
472.931667	19814.870213
473.302330	19190.064564
473.672934	18757.097504
474.043479	19041.836997
474.413965	18854.064099
474.784393	18466.691755
475.154761	19194.833496
475.525070	19154.577362
475.895321	18842.814764
476.265513	19422.360933
476.635645	20014.545276
477.005719	19791.670823
477.375734	19969.517690
477.745691	20467.351797
478.115588	20997.424082
478.485427	21527.085514
478.855207	22594.822063
479.224928	24372.912642
479.594591	26604.767561
479.964194	26588.829953
480.333739	26804.346842
480.703226	26380.446297
481.072653	26053.961009
481.442022	26648.141649
481.811333	27570.874449
482.180584	27474.774933
482.549777	26526.599429
482.918912	26180.924990
483.287988	26312.073127
483.657005	25958.836957
484.025964	25729.169549
484.394864	25622.793642
484.763706	25298.029908
485.132489	24746.696556
485.501213	24926.091057
485.869879	24822.868390
486.238487	24664.097250
486.607036	24796.999709
486.975527	24511.302398
487.343959	24826.026673
487.712333	24754.278451
488.080648	24429.171919
488.448905	24918.115951
488.817104	24679.069477
489.185244	25360.676327
489.553326	25317.617311
489.921350	26323.362792
490.289315	28636.713003
490.657222	30385.912730
491.025070	30884.646683
491.392861	30666.190801
491.760593	29800.964964
492.128267	28904.940197
492.495883	27844.145316
492.863440	26974.546278
493.230939	26112.372859
493.598380	25951.129033
493.965763	25555.930298
494.333088	25086.677012
494.700354	25046.491454
495.067563	24913.006742
495.434713	24651.512009
495.801805	24818.122144
496.168839	24615.646720
496.535815	24462.246929
496.902733	24683.258676
497.269593	24359.576270
497.636395	24532.462641
498.003139	24491.896476
498.369825	24243.818774
498.736453	24450.498520
499.103023	24309.605832
499.469535	24309.215143
499.835989	24541.004876
500.202385	24568.401027
500.568723	24073.513474
500.935003	24303.362363
501.301226	23943.247538
501.667390	24777.863489
502.033497	24999.449927
502.399546	24737.559464
502.765537	24286.708911
503.131470	24677.804147
503.497345	24819.402597
503.863163	24058.100146
504.228923	24618.825168
504.594625	24837.820453
504.960269	24374.394741
505.325856	24871.288673
505.691385	24259.804273
506.056856	24868.848755
506.422270	24837.001265
506.787625	24399.053545
507.152924	24824.347969
507.518164	24857.574214
507.883347	24660.394523
508.248472	24347.580844
508.613540	25130.048579
508.978550	24918.612505
509.343503	24927.910913
509.708398	25155.135882
510.073236	25318.635624
510.438016	25523.727407
510.802738	25197.264804
511.167403	25455.427334
511.532010	25179.358626
511.896561	25934.893997
512.261053	25897.821351
512.625488	25733.020991
512.989866	25627.812110
513.354186	25464.952594
513.718449	25580.702527
514.082655	25966.234850
514.446803	25700.969335
514.810894	26163.495200
515.174927	25646.908001
515.538904	25689.110020
515.902822	26175.528434
516.266684	25926.160198
516.630488	25840.606776
516.994235	25803.967670
517.357925	26119.985001
517.721558	26290.255014
518.085133	26394.450622
518.448651	26288.490610
518.812112	26037.680603
519.175516	26264.325839
519.538863	26412.003920
519.902152	26191.342534
520.265385	26465.515768
520.628560	26255.481134
520.991678	26259.768636
521.354739	26319.566803
521.717743	26390.964665
522.080690	26176.337540
522.443580	26516.474272
522.806413	26487.417061
523.169189	26598.831602
523.531908	26638.225699
523.894569	26253.391576
524.257174	26350.809354
524.619722	26506.144948
524.982213	26213.810957
525.344647	26252.935352
525.707025	26413.233962
526.069345	26384.010393
526.431608	26337.039442
526.793815	26515.342533
527.155964	25997.353893
527.518057	26158.965723
527.880093	26093.428203
528.242072	26307.954505
528.603995	26023.721648
528.965860	25822.602295
529.327669	25863.133172
529.689421	25863.491094
530.051117	25690.566914
530.412755	25864.380857
530.774337	25657.199517
531.135862	25528.650093
531.497331	25730.954118
531.858743	25315.036240
532.220098	25779.807940
532.581396	25454.028414
532.942638	25377.584357
533.303824	25504.901218
533.664953	25491.015359
534.026025	25158.518496
534.387040	25394.976337
534.747999	25444.931652
535.108902	25616.739216
535.469748	25116.001404
535.830537	25286.321828
536.191270	25412.542238
536.551947	25266.772233
536.912567	24908.094137
537.273131	25297.422449
537.633638	24977.896474
537.994089	25198.583066
538.354483	24709.167686
538.714821	25218.566200
539.075103	25260.410297
539.435328	25048.124788
539.795497	24623.092505
540.155609	24996.624361
540.515665	25300.124507
540.875665	24527.560119
541.235609	24833.336346
541.595496	24784.585868
541.955328	25141.108871
542.315102	25066.449382
542.674821	24581.510547
543.034483	24472.372087
543.394090	24646.012111
543.753640	24439.367653
544.113134	25064.022067
544.472571	24666.708568
544.831953	24971.572347
545.191278	24602.191881
545.550548	24504.854762
545.909761	24702.140318
546.268918	24937.910042
546.628019	24904.177161
546.987064	24603.782365
547.346053	24344.735113
547.704986	24455.083450
548.063863	24610.199754
548.422684	24635.965091
548.781449	24147.809999
549.140158	24561.797115
549.498811	24138.582167
549.857408	23882.985585
550.215949	24291.752586
550.574434	23982.137519
550.932864	24193.437483
551.291237	24365.706313
551.649555	24220.095104
552.007817	24272.959164
552.366022	24126.748059
552.724173	24160.133100
553.082267	24120.812100
553.440305	24600.798002
553.798288	23848.985523
554.156215	24357.022925
554.514086	24473.902077
554.871902	23854.775288
555.229661	24134.264419
555.587365	23978.281037
555.945014	23863.395661
556.302606	24096.017185
556.660143	24066.347474
557.017625	24296.750890
557.375050	23837.461445
557.732421	24209.181006
558.089735	24040.909812
558.446994	24094.126752
558.804197	24119.498879
559.161345	24046.823085
559.518437	23825.773530
559.875474	23995.063038
560.232455	24179.367622
560.589381	24004.863041
560.946251	24001.714840
561.303065	24293.970693
561.659825	24385.812955
562.016528	23990.984744
562.373177	23744.898299
562.729770	24100.095478
563.086307	23960.987358
563.442789	24119.506441
563.799216	23967.888698
564.155587	23957.755979
564.511904	23941.556231
564.868164	23894.305496
565.224370	23854.069527
565.580520	23790.926554
565.936615	23899.881012
566.292654	23593.900618
566.648638	23869.213153
567.004567	23700.505898
567.360441	23649.375995
567.716260	23362.148693
568.072023	23690.360576
568.427732	23467.304642
568.783385	23224.653742
569.138982	23477.865859
569.494525	23523.667262
569.850013	23268.804168
570.205445	23359.890256
570.560823	23192.438249
570.916145	22942.555814
571.271412	23128.586994
571.626625	22876.884703
571.981782	22989.229337
572.336884	22783.164612
572.691931	22939.677316
573.046923	22666.187158
573.401860	22536.538763
573.756743	22561.694121
574.111570	22469.884627
574.466342	22386.168706
574.821059	22479.319146
575.175722	22178.805883
575.530330	22163.599243
575.884882	22167.690139
576.239380	22080.223599
576.593823	21971.705201
576.948211	21946.058331
577.302544	21803.139099
577.656823	21666.203716
578.011047	21777.126745
578.365216	21644.345273
578.719330	21526.352026
579.073389	21405.061865
579.427394	21569.637894
579.781344	21325.767035
580.135239	21205.943849
580.489080	21166.509423
580.842866	20945.711926
581.196597	21149.019140
581.550273	21107.661514
581.903895	21004.743838
582.257463	21302.587810
582.610975	20839.814928
582.964434	21157.120274
583.317837	20851.631393
583.671186	20936.809248
584.024481	20919.253430
584.377721	20684.612924
584.730906	20761.707290
585.084037	20754.286712
585.437113	20665.925367
585.790135	20885.543234
586.143103	20334.711477
586.496016	20355.760815
586.848874	20595.253431
587.201679	20518.148983
587.554428	20203.026456
587.907124	20540.622447
588.259765	20304.031015
588.612352	20377.052128
588.964884	19951.672005
589.317362	20114.317272
589.669786	20176.915800
590.022155	20193.062616
590.374470	20413.900442
590.726731	20183.370997
591.078937	19964.395877
591.431090	20062.020342
591.783188	19820.017231
592.135232	19778.014337
592.487222	19883.543331
592.839157	19898.886083
593.191038	19778.815881
593.542866	19672.881074
593.894639	19380.337875
594.246358	19599.912893
594.598022	19476.704572
594.949633	19246.091948
595.301190	19220.041786
595.652692	19384.708555
596.004141	19621.461305
596.355535	18946.465928
596.706876	18973.373087
597.058162	18865.046252
597.409395	19090.786601
597.760573	19153.823709
598.111698	18924.105890
598.462768	18869.706799
598.813785	18837.607252
599.164748	18647.790166
599.515657	18701.589359
599.866511	18494.218975
600.217312	18847.629066
600.568060	18356.933233
600.918753	18673.532818
601.269392	18571.527590
601.619978	18358.228809
601.970510	18555.229540
602.320988	18503.434205
602.671412	18706.426347
603.021783	18635.477147
603.372100	18344.284978
603.722363	18496.618565
604.072572	18437.594215
604.422728	18586.293130
604.772830	18336.864399
605.122878	18291.602399
605.472872	18280.653013
605.822813	18258.829858
606.172701	18244.596160
606.522534	18423.567204
606.872314	18451.046534
607.222041	18285.636194
607.571714	18510.138939
607.921333	18337.058484
608.270899	18409.489782
608.620411	18580.165607
608.969870	18357.979272
609.319276	18355.804014
609.668627	18379.963744
610.017926	18520.329632
610.367171	18633.652250
610.716362	18687.247277
611.065500	18494.642432
611.414585	18634.090830
611.763616	18624.222771
612.112594	18568.901149
612.461518	18531.095016
612.810389	18720.652483
613.159207	18581.819106
613.507971	18489.104725
613.856682	18755.065919
614.205340	18682.049847
614.553945	18832.205656
614.902496	18576.087314
615.250994	18791.238719
615.599439	18750.730527
615.947830	18720.171052
616.296169	18800.373290
616.644454	18756.056506
616.992686	18735.027333
617.340864	18947.910219
617.688990	18701.279328
618.037063	18873.182675
618.385082	18724.352690
618.733048	19007.602521
619.080961	18887.696157
619.428821	18915.674560
619.776628	18794.936405
620.124382	18726.843020
620.472083	18777.413354
620.819731	18780.584240
621.167326	18477.000914
621.514868	18520.354837
621.862357	18297.913924
622.209793	18293.737328
622.557176	18136.460890
622.904506	17968.066187
623.251783	17888.206748
623.599007	17634.079662
623.946179	17570.271257
624.293297	17511.070467
624.640363	17251.584635
624.987376	17278.103624
625.334336	17078.431082
625.681243	16921.734377
626.028097	16943.512161
626.374899	16860.106271
626.721647	16723.770786
627.068343	16555.043367
627.414987	16500.896333
627.761577	16458.016278
628.108115	16497.904408
628.454600	16221.409723
628.801032	16324.821432
629.147412	16259.147800
629.493739	16272.582475
629.840014	16083.672797
630.186236	16182.930595
630.532405	15945.658607
630.878521	16145.868032
631.224585	16047.167281
631.570597	15868.032400
631.916556	15897.482821
632.262462	15876.284769
632.608316	15787.252951
632.954117	15742.411887
633.299866	15719.671242
633.645562	15642.655014
633.991206	15404.422686
634.336797	15277.970383
634.682336	15239.970166
635.027823	15112.832266
635.373257	14987.148738
635.718639	14902.424586
636.063968	14847.100443
636.409245	14605.001551
636.754470	14629.748575
637.099642	14476.167302
637.444762	14256.186472
637.789829	14288.172593
638.134845	14120.050112
638.479808	14158.299867
638.824719	14083.531994
639.169577	13953.170276
639.514383	13988.281913
639.859137	13820.371160
640.203839	13907.227720
640.548489	13752.096293
640.893086	13736.720774
641.237632	13612.297535
641.582125	13765.253705
641.926566	13587.432044
642.270955	13594.713991
642.615292	13562.019587
642.959576	13572.038881
643.303809	13597.781533
643.647990	13521.193803
643.992118	13598.000823
644.336195	13368.283004
644.680219	13582.965582
645.024192	13497.470133
645.368112	13735.014343
645.711981	13782.403710
646.055797	13971.762051
646.399562	13939.123101
646.743274	14206.573956
647.086935	14480.341378
647.430544	14451.306852
647.774101	14494.549870
648.117606	14627.520385
648.461059	14607.507004
648.804460	14583.243931
649.147810	14308.664883
649.491108	14219.572572
649.834354	14243.346653
650.177548	13914.774328
650.520690	13736.153644
650.863781	13645.357422
651.206820	13694.160832
651.549807	13531.011450
651.892742	13312.658912
652.235626	13253.241352
652.578458	13264.636881
652.921238	12959.342083
653.263967	13158.379440
653.606644	12986.047596
653.949269	12970.931696
654.291843	12767.385027
654.634365	12934.756376
654.976836	12781.742233
655.319255	12772.262343
655.661622	12740.803023
656.003938	12659.224551
656.346203	12588.683685
656.688416	12665.931806
657.030577	12626.061320
657.372687	12527.955425
657.714746	12509.008248
658.056753	12705.782127
658.398708	12512.529494
658.740612	12517.742047
659.082465	12625.179118
659.424266	12590.143099
659.766016	12617.161163
660.107715	12529.611444
660.449362	12609.284360
660.790958	12555.414590
661.132503	12492.982420
661.473996	12572.688104
661.815438	12577.005852
662.156829	12609.390224
662.498168	12581.464753
662.839456	12580.771594
663.180693	12597.218358
663.521879	12694.152185
663.863013	12664.023729
664.204097	12634.633802
664.545129	12774.004062
664.886110	12742.108682
665.227040	12829.391219
665.567918	12835.049915
665.908746	12857.099922
666.249522	12849.727234
666.590248	12898.563412
666.930922	13019.359540
667.271545	12989.735200
667.612118	13075.979260
667.952639	12979.499137
668.293109	12988.817710
668.633528	12942.975977
668.973896	12924.069130
669.314213	12991.053462
669.654480	12729.057134
669.994695	12813.322542
670.334859	12841.547962
670.674973	12779.922377
671.015035	12811.641317
671.355047	12758.956218
671.695008	12727.214593
672.034918	12739.812436
672.374777	12787.095939
672.714585	12699.495808
673.054342	12734.254564
673.394049	12685.350331
673.733705	12781.502778
674.073310	12690.419211
674.412864	12697.401209
674.752368	12555.890979
675.091820	12592.930857
675.431223	12571.079976
675.770574	12439.253803
676.109875	12354.902696
676.449125	12312.420893
676.788324	12262.286617
677.127473	12099.164961
677.466571	12089.798497
677.805619	11975.815488
678.144616	11905.446022
678.483562	11878.201106
678.822458	11744.676064
679.161303	11722.767209
679.500098	11704.225846
679.838842	11666.641523
680.177535	11700.026564
680.516179	11767.038622
680.854771	11704.934128
681.193314	11915.535891
681.531805	12081.657034
681.870247	12518.442768
682.208638	12924.258173
682.546978	13233.021284
682.885268	13264.359617
683.223508	12967.803660
683.561697	12803.774596
683.899836	12715.768653
684.237925	12509.257786
684.575963	12425.405753
684.913951	12337.457783
685.251889	12296.722739
685.589776	12395.206721
685.927614	12325.444713
686.265401	12286.988271
686.603137	12338.181189
686.940824	12489.811535
687.278460	12625.456382
687.616046	12662.118173
687.953582	12816.150629
688.291068	12758.323553
688.628504	12985.301505
688.965889	13001.644926
689.303224	12960.093215
689.640510	12852.358716
689.977745	12523.143644
690.314930	12297.332719
690.652065	12210.173690
690.989150	11923.516038
691.326185	11695.529855
691.663170	11495.693476
692.000105	11252.712381
692.336990	11127.749739
692.673825	10876.647345
693.010610	10764.756415
693.347345	10554.341174
693.684030	10365.454180
694.020665	10293.663108
694.357251	10100.395352
694.693786	10031.573520
695.030272	9879.640705
695.366707	9762.930432
695.703093	9694.267396
696.039429	9686.420840
696.375716	9604.819682
696.711952	9475.672883
697.048139	9524.249441
697.384276	9476.325712
697.720363	9499.394032
698.056400	9436.341800
698.392388	9382.971104
698.728326	9346.581535
699.064214	9281.719529
699.400053	9319.739912
699.735842	9136.748548
700.071581	9102.869473
700.407270	9024.434161
700.742910	8942.848127
701.078501	8845.011933
701.414042	8713.652067
701.749533	8663.963934
702.084974	8524.747430
702.420366	8641.876119
702.755709	8517.180658
703.091002	8383.204433
703.426246	8419.082324
703.761440	8366.182977
704.096584	8317.046850
704.431679	8259.151719
704.766725	8238.954336
705.101721	8199.545116
705.436668	8244.902897
705.771565	8128.641287
706.106413	8217.242086
706.441212	8249.691993
706.775961	8212.372332
707.110661	8254.949917
707.445311	8389.780618
707.779913	8289.612891
708.114465	8420.236749
708.448967	8450.231614
708.783421	8611.077189
709.117825	8790.217112
709.452180	8819.634765
709.786485	8913.536338
710.120742	9193.491775
710.454949	9200.098208
710.789107	9297.319380
711.123216	9522.190130
711.457275	9691.373773
711.791286	9840.680147
712.125247	9840.967493
712.459159	9828.478034
712.793023	10062.125433
713.126837	9639.414601
713.460602	9802.163211
713.794318	9627.565368
714.127985	9654.815326
714.461602	9316.208583
714.795171	9267.395091
715.128691	9022.173203
715.462162	8776.056511
715.795584	8717.967295
716.128957	8559.173469
716.462281	8390.178869
716.795556	8442.473278
717.128782	8227.379847
717.461960	7974.074469
717.795088	8041.983852
718.128167	7954.275337
718.461198	7795.720966
718.794180	7733.250988
719.127113	7722.241108
719.459997	7553.619553
719.792833	7337.535534
720.125619	7405.639002
720.458357	7257.822289
720.791046	7246.109168
721.123686	7239.522901
721.456278	7077.558189
721.788821	7097.730366
722.121315	6995.442834
722.453761	7065.477064
722.786158	6998.223031
723.118506	7011.642582
723.450805	6978.111347
723.783056	7031.645881
724.115259	6957.583769
724.447412	6955.471525
724.779518	7006.475399
725.111574	7008.529670
725.443582	7083.002635
725.775542	7061.282824
726.107453	7259.712722
726.439315	7170.673342
726.771129	7234.847230
727.102895	7410.652430
727.434612	7512.219077
727.766281	7561.269504
728.097901	7635.271122
728.429473	7636.521328
728.760996	7621.929708
729.092471	7589.762105
729.423897	7525.704163
729.755276	7533.825462
730.086606	7454.717155
730.417887	7556.828247
730.749120	7770.311030
731.080305	7956.337169
731.411442	8070.310096
731.742530	8056.484731
732.073570	8172.769027
732.404562	8257.289012
732.735506	8111.322403
733.066401	8239.105570
733.397249	8167.800970
733.728048	7925.092097
734.058798	7597.278466
734.389501	7364.488063
734.720156	7189.192021
735.050762	6956.613347
735.381320	6876.365739
735.711831	6812.103631
736.042293	6712.734927
736.372707	6722.179528
736.703073	6588.563746
737.033391	6628.653522
737.363661	6635.829604
737.693883	6671.236148
738.024056	6754.279075
738.354182	6798.333719
738.684260	6826.836403
739.014290	6948.870134
739.344272	7060.509007
739.674207	7093.082422
740.004093	7165.244019
740.333931	7179.434867
740.663722	7179.074425
740.993464	7259.080057
741.323159	7238.580205
741.652806	6995.478122
741.982405	7016.840012
742.311956	7070.636685
742.641460	6893.266208
742.970915	6698.539037
743.300323	6691.559560
743.629683	6645.095245
743.958996	6510.584657
744.288260	6420.751296
744.617477	6363.887080
744.946647	6364.015630
745.275768	6201.395568
745.604842	6155.200955
745.933869	6141.390714
746.262847	6094.702068
746.591778	6078.552732
746.920662	6041.180138
747.249498	6038.160486
747.578286	6086.890800
747.907027	6163.990207
748.235720	6224.242078
748.564365	6195.278128
748.892963	6232.189457
749.221514	6373.402258
749.550017	6192.797881
749.878473	6084.760913
750.206881	6146.797352
750.535242	6090.961532
750.863555	6012.029665
751.191821	6029.477099
751.520039	6025.275297
751.848210	5932.875988
752.176334	5962.805319
752.504411	6007.296022
752.832440	5930.884733
753.160421	5863.882757
753.488356	5909.953862
753.816243	5941.909736
754.144082	5788.532630
754.471875	5766.626296
754.799620	5810.726310
755.127318	5816.596734
755.454969	5772.713489
755.782572	5741.816258
756.110129	5785.422238
756.437638	5764.829125
756.765100	5707.770825
757.092515	5710.477925
757.419882	5762.880719
757.747203	5745.801290
758.074477	5800.651564
758.401703	5792.973887
758.728882	5745.292133
759.056014	5809.740764
759.383099	5924.069093
759.710138	5937.791113
760.037129	5925.185708
760.364073	5928.991779
760.690970	6016.599471
761.017820	5992.172560
761.344623	5948.506086
761.671379	6050.032404
761.998088	6177.800448
762.324751	6435.239572
762.651366	7065.850109
762.977935	8417.978312
763.304456	10068.560466
763.630931	10943.674527
763.957359	10498.220529
764.283740	9545.477740
764.610074	8688.224487
764.936362	7684.175355
765.262602	7089.699808
765.588796	6560.121556
765.914943	6221.010698
766.241044	6054.022477
766.567097	5844.653275
766.893104	5584.980920
767.219064	5411.504734
767.544978	5349.216237
767.870845	5265.555768
768.196665	5158.048122
768.522438	5087.930713
768.848165	5054.119694
769.173846	4984.917254
769.499479	4941.429741
769.825066	4892.263367
770.150607	4829.238862
770.476101	4809.023835
770.801548	4800.910098
771.126949	4717.557140
771.452303	4669.083925
771.777611	4627.464159
772.102872	4645.677847
772.428087	4607.972537
772.753256	4563.428902
773.078378	4519.298641
773.403453	4450.519659
773.728482	4438.113379
774.053465	4393.519332
774.378401	4378.214389
774.703291	4375.653483
775.028135	4302.294612
775.352932	4252.639247
775.677683	4239.950663
776.002388	4258.282818
776.327046	4270.253038
776.651658	4196.281667
776.976224	4135.465187
777.300743	4138.658758
777.625216	4159.319927
777.949643	4152.305162
778.274024	4113.279069
778.598359	4070.099066
778.922647	4097.313735
779.246889	4083.841251
779.571086	4078.699274
779.895236	4059.260585
780.219339	4051.068710
780.543397	4045.452865
780.867409	4100.320783
781.191374	4111.859984
781.515294	4048.343967
781.839167	4038.554046
782.162995	4061.400555
782.486776	4050.325140
782.810511	4057.387797
783.134201	4051.149369
783.457844	4006.083974
783.781441	3953.093885
784.104993	3954.144966
784.428498	3976.910817
784.751958	3972.303202
785.075372	3952.851910
785.398739	3914.282042
785.722061	3924.656736
786.045337	3970.385043
786.368568	3999.699352
786.691752	3910.508738
787.014891	3969.664158
787.337983	4098.538735
787.661030	4261.519239
787.984031	4421.233075
788.306987	4591.976956
788.629897	4674.936704
788.952760	4629.505826
789.275579	4561.556113
789.598351	4493.296370
789.921078	4341.366075
790.243759	4147.591683
790.566395	4133.080722
790.888984	4123.938589
791.211529	4014.928678
791.534027	3955.092703
791.856480	3943.238429
792.178888	3880.476064
792.501249	3833.961338
792.823566	3847.143955
793.145836	3874.262842
793.468062	3820.690500
793.790241	3778.604427
794.112375	3807.603665
794.434464	3875.031618
794.756507	3896.499372
795.078505	3873.529354
795.400457	3914.657608
795.722364	4054.789082
796.044226	4158.919156
796.366042	4235.363213
796.687812	4206.850446
797.009538	4214.134914
797.331218	4172.840302
797.652852	4144.665293
797.974442	4128.707521
798.295986	4122.247282
798.617484	4038.453223
798.938938	3953.096406
799.260346	4001.567100
799.581709	3991.290708
799.903026	3916.411929
800.224299	3879.850961
800.545526	3874.477091
800.866708	3832.471677
801.187845	3778.122997
801.508936	3808.695074
801.829983	3801.607212
802.150984	3722.183833
802.471940	3718.367680
802.792851	3725.737847
803.113717	3729.294381
803.434538	3725.223649
803.755314	3670.408663
804.076045	3645.883449
804.396731	3666.448836
804.717372	3689.471786
805.037967	3675.112059
805.358518	3665.982530
805.679024	3695.805996
805.999485	3707.388047
806.319901	3712.855178
806.640272	3723.091241
806.960598	3736.614136
807.280879	3710.579097
807.601115	3729.047364
807.921306	3744.806011
808.241453	3785.203298
808.561554	3756.224225
808.881611	3689.920449
809.201623	3733.793611
809.521590	3741.483891
809.841513	3711.090774
810.161390	3744.218717
810.481223	3721.490675
810.801011	3663.610667
811.120755	3662.030265
811.440453	3697.454453
811.760107	3697.048640
812.079716	3651.786640
812.399281	3624.481231
812.718801	3643.561998
813.038276	3618.240282
813.357707	3616.543934
813.677093	3633.555307
813.996434	3577.517841
814.315731	3591.743977
814.634983	3597.541304
814.954191	3613.120990
815.273354	3638.881287
815.592473	3632.322745
815.911547	3642.558808
816.230577	3685.007844
816.549562	3734.315370
816.868502	3776.028398
817.187399	3799.482366
817.506250	3795.237714
817.825058	3774.289199
818.143821	3869.062892
818.462539	3971.229436
818.781213	4013.212165
819.099843	4078.021239
819.418429	4339.483204
819.736970	4582.131583
820.055466	4832.986960
820.373919	5204.464546
820.692327	5620.266477
821.010691	6095.798519
821.329011	7540.394086
821.647286	10388.018385
821.965517	15083.341516
822.283704	19096.997303
822.601847	21157.563896
822.919945	19254.543443
823.237999	16619.252543
823.556010	14113.990645
823.873976	11974.479583
824.191897	9855.642292
824.509775	8514.629834
824.827609	7387.014459
825.145398	6850.063519
825.463144	6733.615386
825.780845	6843.777200
826.098502	7058.968934
826.416116	7986.258937
826.733685	9344.968366
827.051210	10441.094173
827.368692	10428.705538
827.686129	9115.747101
828.003522	7602.889270
828.320872	6574.405665
828.638177	5865.926945
828.955439	5297.085665
829.272656	4793.638233
829.589830	4520.687479
829.906960	4342.016384
830.224046	4151.715347
830.541088	4027.803785
830.858086	3981.062207
831.175041	3902.367275
831.491952	3884.299779
831.808819	3898.364598
832.125642	3975.506855
832.442421	4130.993684
832.759157	4421.296090
833.075849	4990.233151
833.392497	5879.142329
833.709101	6669.131466
834.025662	6980.828529
834.342179	6582.378250
834.658653	5906.296505
834.975083	5250.971710
835.291469	4664.534283
835.607811	4263.535701
835.924110	4118.295017
836.240366	3918.498967
836.556578	3712.464489
836.872746	3603.545319
837.188871	3563.276582
837.504952	3493.882578
837.820990	3412.036925
838.136984	3366.595964
838.452935	3393.858524
838.768842	3386.569016
839.084706	3409.002151
839.400526	3577.898448
839.716303	3931.638734
840.032037	4479.264318
840.347727	4724.637440
840.663373	4422.548817
840.978977	4032.338303
841.294537	3723.799523
841.610054	3494.076663
841.925527	3388.950961
842.240957	3318.553768
842.556344	3263.179214
842.871687	3202.211499
843.186987	3156.508398
843.502244	3117.699076
843.817458	3082.814291
844.132629	3052.627862
844.447756	3059.503996
844.762840	3044.151162
845.077881	3011.862571
845.392879	2995.798934
845.707833	2991.904643
846.022745	2989.101762
846.337613	2991.206443
846.652438	2979.316882
846.967221	2973.665748
847.281960	2962.885241
847.596656	2955.857873
847.911309	2957.718058
848.225919	2951.885443
848.540485	2943.249947
848.855009	2947.890329
849.169490	2934.911878
849.483928	2927.082966
849.798323	2925.799993
850.112675	2923.140784
850.426984	2935.708381
850.741251	2932.028338
851.055474	2918.780186
851.369654	2913.655853
851.683792	2924.007863
851.997887	2931.952721
852.311938	2933.880962
852.625947	2920.118612
852.939914	2924.096083
853.253837	2930.795776
853.567718	2910.449679
853.881555	2915.042170
854.195350	2928.804520
854.509103	2922.924014
854.822812	2918.815474
855.136479	2911.019330
855.450103	2913.237437
855.763685	2910.154772
856.077224	2903.608833
856.390720	2918.303797
856.704173	2926.742688
857.017584	2917.517377
857.330953	2917.275402
857.644278	2927.188831
857.957561	2935.796601
858.270802	2938.233999
858.584000	2938.977569
858.897155	2922.624066
859.210268	2924.776638
859.523339	2919.490989
859.836367	2921.119281
860.149352	2916.095772
860.462295	2909.774165
860.775195	2917.698858
861.088054	2919.927048
861.400869	2900.495921
861.713642	2900.541291
862.026373	2916.554517
862.339062	2918.286153
862.651708	2921.676329
862.964312	2922.694642
863.276873	2918.591143
863.589392	2930.914243
863.901869	2941.462858
864.214303	2962.570169
864.526696	2978.180102
864.839045	2977.905359
865.151353	2975.145327
865.463619	2973.068372
865.775842	2973.721201
866.088023	2994.558811
866.400162	2998.188441
866.712258	2971.268680
867.024313	2957.609673
867.336325	2968.813638
867.648296	2989.719303
867.960224	2981.434167
868.272110	2969.227013
868.583954	2974.217755
868.895755	2987.700321
869.207515	2972.975110
869.519233	2982.248313
869.830909	2991.778614
870.142542	3002.917044
870.454134	2999.030314
870.765684	3002.763288
871.077191	2999.713390
871.388657	3012.684279
871.700081	3024.994777
872.011463	3033.854605
872.322803	3034.920809
872.634101	3034.351158
872.945357	3051.239024
873.256571	3079.948395
873.567744	3070.871797
873.878874	3063.350396
874.189963	3089.844180
874.501010	3091.109510
874.812015	3081.208683
875.122979	3077.352201
875.433900	3074.347673
875.744780	3084.001483
876.055618	3090.320569
876.366415	3087.731937
876.677169	3098.031014
876.987882	3092.402566
877.298554	3089.022472
877.609183	3112.826800
877.919771	3138.443424
878.230317	3164.228926
878.540822	3214.779096
878.851285	3254.621855
879.161707	3301.849905
879.472087	3411.374013
879.782425	3652.797392
880.092722	4108.827730
880.402977	4643.948732
880.713191	5294.050891
881.023363	6497.638974
881.333494	7799.232130
881.643583	8331.860281
881.953631	8010.312803
882.263637	7350.163625
882.573602	6736.382979
882.883526	6153.063506
883.193408	5578.495476
883.503248	5123.848934
883.813048	4812.416532
884.122806	4491.824353
884.432522	4171.075898
884.742197	3927.668826
885.051831	3735.195051
885.361424	3603.794856
885.670975	3531.217364
885.980485	3439.208744
886.289954	3363.024307
886.599382	3315.183757
886.908768	3280.147738
887.218113	3235.042014
887.527417	3173.844927
887.836680	3125.056640
888.145901	3119.526494
888.455082	3107.034515
888.764221	3055.715568
889.073319	3027.563245
889.382376	3025.506454
889.691392	3028.677340
890.000366	3029.405787
890.309300	3016.974301
890.618193	3029.872093
890.927044	3042.648898
891.235855	3044.362890
891.544625	3032.460726
891.853353	3042.338867
892.162041	3063.620098
892.470687	3104.171139
892.779293	3154.476813
893.087858	3203.018084
893.396381	3278.922737
893.704864	3407.167171
894.013306	3658.579595
894.321707	3965.175010
894.630068	4169.800486
894.938387	4156.146521
895.246665	4119.197384
895.554903	3989.206191
895.863100	3782.874284
896.171256	3609.382975
896.479371	3472.666883
896.787446	3345.866740
897.095480	3241.524937
897.403473	3174.248219
897.711425	3138.163640
898.019336	3126.856332
898.327207	3096.561517
898.635038	3060.194634
898.942827	3049.399003
899.250576	3035.485418
899.558284	3006.541633
899.865952	2984.957933
900.173579	2961.884572
900.481165	2952.681946
900.788711	2940.189966
901.096216	2918.429826
901.403681	2908.849113
901.711105	2913.605442
902.018489	2910.570667
902.325832	2912.859351
902.633135	2921.746905
902.940397	2957.496248
903.247619	3046.044115
903.554800	3248.484250
903.861941	3612.193418
904.169041	4051.340932
904.476101	4348.017878
904.783121	4287.398003
905.090100	4027.158517
905.397039	3747.692072
905.703938	3492.914677
906.010796	3307.075061
906.317614	3194.508616
906.624391	3096.014552
906.931129	3025.322452
907.237826	2958.365847
907.544483	2912.120822
907.851099	2884.074362
908.157675	2861.701722
908.464211	2840.975017
908.770707	2826.529591
909.077163	2814.468631
909.383578	2797.129582
909.689954	2786.903601
909.996289	2788.602470
910.302584	2789.472069
910.608839	2787.332099
910.915054	2780.574433
911.221229	2775.535799
911.527363	2775.838269
911.833458	2788.282357
912.139513	2787.284208
912.445527	2792.751340
912.751502	2802.705098
913.057436	2809.629123
913.363331	2824.487924
913.669186	2847.483147
913.975000	2886.710886
914.280775	2947.449228
914.586510	3018.128725
914.892205	3101.832044
915.197859	3235.099987
915.503475	3441.373920
915.809050	3659.935666
916.114585	3808.629539
916.420081	3819.982218
916.725536	3755.528545
917.030952	3633.920791
917.336328	3501.524968
917.641665	3368.572097
917.946961	3266.897065
918.252218	3192.784542
918.557435	3110.079372
918.862612	3051.493602
919.167750	3001.351765
919.472848	2963.381795
919.777906	2934.765685
920.082925	2908.541603
920.387904	2875.895090
920.692843	2858.326669
920.997743	2848.219156
921.302603	2835.212979
921.607423	2822.305104
921.912204	2807.592497
922.216946	2796.403656
922.521647	2788.501647
922.826310	2782.477468
923.130932	2773.942795
923.435516	2763.018614
923.740059	2756.152563
924.044564	2748.091758
924.349028	2743.605131
924.653454	2736.401322
924.957840	2728.282544
925.262186	2727.639797
925.566493	2720.892212
925.870761	2715.372149
926.174989	2712.816284
926.479178	2707.512990
926.783328	2703.003678
927.087438	2702.832279
927.391509	2699.719366
927.695541	2697.254242
927.999533	2694.703418
928.303486	2690.889785
928.607400	2690.000022
928.911275	2692.220650
929.215110	2689.442974
929.518906	2687.106399
929.822663	2688.601101
930.126381	2687.504650
930.430060	2690.705783
930.733699	2690.937676
931.037299	2691.255269
931.340861	2689.475742
931.644383	2690.496575
931.947866	2690.136133
932.251309	2690.995649
932.554714	2686.209074
932.858080	2685.415092
933.161407	2684.464835
933.464694	2684.946265
933.767943	2680.157169
934.071153	2680.588187
934.374323	2682.823939
934.677455	2681.523321
934.980548	2681.472910
935.283602	2679.554751
935.586617	2680.217662
935.889593	2679.378310
936.192530	2679.373269
936.495428	2679.917714
936.798287	2682.219001
937.101108	2684.948785
937.403890	2691.141843
937.706632	2695.358768
938.009336	2701.322453
938.312002	2709.037939
938.614628	2716.440873
938.917216	2724.655434
939.219765	2725.436812
939.522275	2725.245249
939.824747	2720.083107
940.127179	2721.247614
940.429573	2715.866182
940.731929	2716.768548
941.034246	2711.898794
941.336524	2706.666076
941.638763	2705.574666
941.940964	2703.396888
942.243126	2698.499407
942.545250	2701.844212
942.847335	2695.772143
943.149381	2690.128571
943.451389	2688.328879
943.753359	2688.079342
944.055290	2685.677232
944.357182	2683.312931
944.659036	2684.263188
944.960851	2680.845286
945.262628	2681.626665
945.564367	2681.861079
945.866067	2682.458455
946.167729	2685.450380
946.469352	2683.063394
946.770937	2684.449711
947.072484	2682.440811
947.373992	2680.676407
947.675462	2680.752025
947.976893	2676.005778
948.278286	2673.986796
948.579641	2675.005109
948.880958	2669.351455
949.182236	2673.086950
949.483476	2671.930006
949.784678	2671.602331
950.085841	2672.068637
950.386967	2673.646518
950.688054	2672.799605
950.989103	2676.252795
951.290114	2674.831190
951.591087	2680.096675
951.892021	2681.452745
952.192917	2682.909639
952.493776	2684.076666
952.794596	2685.324351
953.095378	2684.265709
953.396122	2685.669670
953.696828	2682.997859
953.997496	2679.970646
954.298126	2680.520132
954.598718	2676.492250
954.899272	2674.558967
955.199788	2672.350942
955.500266	2668.927998
955.800706	2665.981444
956.101108	2665.610919
956.401472	2661.625887
956.701798	2659.869045
957.002087	2657.179589
957.302337	2660.194199
957.602550	2658.719662
957.902724	2656.083138
958.202861	2654.200267
958.502960	2653.257572
958.803022	2653.131543
959.103045	2650.651295
959.403031	2652.226656
959.702979	2652.917294
960.002889	2651.490647
960.302762	2648.473517
960.602596	2649.907725
960.902393	2646.991417
961.202153	2645.821870
961.501875	2647.046870
961.801559	2644.727939
962.101205	2648.478558
962.400814	2649.300266
962.700385	2649.005358
962.999918	2643.029071
963.299414	2642.898001
963.598873	2643.598721
963.898293	2641.151241
964.197677	2643.762558
964.497022	2641.703247
964.796331	2641.877167
965.095601	2646.240286
965.394835	2646.063845
965.694030	2644.916983
965.993189	2646.068886
966.292309	2643.704585
966.591393	2644.753145
966.890439	2643.165182
967.189447	2642.729122
967.488419	2643.160141
967.787353	2642.290542
968.086249	2643.906231
968.385108	2641.186529
968.683930	2642.245171
968.982714	2642.376241
969.281462	2643.422281
969.580172	2644.382620
969.878844	2645.889925
970.177480	2645.831952
970.476078	2643.739873
970.774639	2643.260964
971.073162	2644.891777
971.371649	2643.954122
971.670098	2646.285656
971.968510	2644.538896
972.266885	2645.158958
972.565223	2644.528814
972.863524	2642.638381
973.161788	2645.342960
973.460014	2645.471510
973.758204	2646.210039
974.056356	2645.516880
974.354471	2644.218783
974.652550	2643.729791
974.950591	2645.181643
975.248595	2645.163999
975.546563	2646.598207
975.844493	2642.988741
976.142386	2645.824390
976.440243	2643.202990
976.738062	2642.431694
977.035845	2644.304482
977.333590	2644.133083
977.631299	2645.227014
977.928971	2640.291724
978.226606	2639.497742
978.524204	2640.203504
978.821765	2635.505148
979.119290	2640.185860
979.416777	2641.917496
979.714228	2641.945223
980.011642	2639.633853
980.309020	2644.410347
980.606360	2644.778351
980.903664	2643.306334
981.200931	2642.411529
981.498162	2644.803557
981.795356	2643.820532
982.092513	2647.976963
982.389633	2651.949392
982.686717	2650.245482
982.983764	2653.418889
983.280775	2662.563542
983.577749	2657.739158
983.874686	2661.832574
984.171587	2659.523726
984.468451	2654.737150
984.765279	2651.553662
985.062070	2654.427119
985.358824	2648.241624
985.655543	2648.554175
985.952224	2645.083341
986.248869	2642.887918
986.545478	2643.351704
986.842050	2642.358597
987.138586	2642.996303
987.435086	2641.557054
987.731549	2641.955305
988.027975	2640.269039
988.324366	2640.505973
988.620719	2639.265849
988.917037	2640.614358
989.213318	2638.239974
989.509563	2638.587814
989.805772	2638.063534
990.101944	2639.807773
990.398080	2641.564615
990.694180	2637.128400
990.990244	2639.575880
991.286271	2639.850623
991.582262	2638.444141
991.878217	2637.403143
992.174136	2637.511528
992.470019	2639.132259
992.765865	2637.693009
993.061676	2634.441465
993.357450	2635.502628
993.653188	2635.185035
993.948890	2636.447844
994.244556	2639.633853
994.540186	2639.805253
994.835780	2639.313740
995.131337	2642.111581
995.426859	2642.202321
995.722345	2640.624440
996.017795	2641.007568
996.313208	2640.808442
996.608586	2641.952784
996.903928	2644.899339
997.199234	2644.107877
997.494504	2643.883546
997.789738	2641.277270
998.084936	2642.083854
998.380099	2642.683752
998.675225	2641.801550
998.970316	2639.676703
999.265371	2641.234420
999.560390	2639.709471
999.855373	2639.326343
1000.150320	2638.285345
1000.445232	2641.035294
1000.740108	2636.606641
1001.034948	2640.705099
1001.329752	2639.152423
1001.624521	2636.899027
1001.919254	2636.893986
1002.213951	2637.057824
1002.508613	2639.437248
1002.803239	2639.676703
1003.097829	2636.591517
1003.392384	2635.384161
1003.686903	2636.863739
1003.981386	2638.469347
1004.275834	2636.536064
1004.570246	2637.196456
1004.864623	2638.625623
1005.158964	2636.266363
1005.453270	2639.182670
1005.747540	2635.951291
1006.041775	2637.264511
1006.335974	2636.657052
1006.630138	2637.224182
1006.924266	2638.292907
1007.218359	2636.621764
1007.512416	2632.929119
1007.806438	2633.561784
1008.100425	2634.799387
1008.394376	2634.088584
1008.688292	2638.522279
1008.982172	2635.235447
1009.276017	2636.397433
1009.569827	2635.719397
1009.863602	2635.636218
1010.157341	2637.844244
1010.451045	2634.680920
1010.744714	2636.097484
1011.038347	2637.808956
1011.331945	2635.792494
1011.625508	2636.793163
1011.919036	2636.079840
1012.212528	2635.003554
1012.505986	2633.735703
1012.799408	2635.575725
1013.092795	2636.036990
1013.386147	2636.352062
1013.679464	2634.370889
1013.972745	2636.967083
1014.265992	2634.519603
1014.559204	2636.031949
1014.852380	2634.184366
1015.145521	2635.555560
1015.438628	2634.675879
1015.731699	2635.989099
1016.024736	2635.081692
1016.317737	2636.314254
1016.610703	2635.071609
1016.903635	2635.343832
1017.196531	2636.430200
1017.489393	2636.599079
1017.782219	2635.114459
1018.075011	2633.125724
1018.367768	2634.199490
1018.660490	2633.849129
1018.953177	2633.849129
1019.245829	2633.849129
