Dividing Wavelength (nm)	Counts (n)	Blue Motor Position (mm): 16.800000	Red Motor Position (mm): 0.000000	
326.493990	2060.261604
326.888308	2060.261604
327.282561	2060.261604
327.676750	2037.982224
328.070874	2039.328212
328.464933	2044.323996
328.858929	2054.557538
329.252859	2062.583055
329.646726	2075.806002
330.040528	2092.837540
330.434265	2111.356218
330.827938	2132.801287
331.221547	2151.398103
331.615091	2169.962153
332.008571	2192.992664
332.401986	2213.973946
332.795338	2230.710577
333.188625	2252.011973
333.581847	2273.673811
333.975006	2289.621501
334.368100	2308.311579
334.761129	2322.600729
335.154095	2340.343070
335.546996	2384.564072
335.939833	2469.109263
336.332606	2478.541262
336.725315	2493.480721
337.117960	2501.846516
337.510540	2513.146262
337.903056	2518.767149
338.295508	2528.728469
338.687896	2535.410518
339.080220	2539.773637
339.472480	2544.189688
339.864676	2547.388300
340.256807	2551.345606
340.648875	2550.531459
341.040879	2551.821995
341.432818	2557.551266
341.824694	2555.479352
342.216506	2557.299208
342.608253	2554.342572
342.999937	2553.046995
343.391557	2552.232849
343.783113	2550.750749
344.174605	2547.804195
344.566033	2549.077086
344.957397	2546.342260
345.348697	2544.741694
345.739934	2543.201622
346.131106	2541.107022
346.522215	2539.582073
346.913260	2541.152393
347.304241	2535.234078
347.695159	2533.366330
348.086012	2534.777853
348.476802	2529.595547
348.867528	2527.440454
349.258191	2524.519105
349.648789	2527.697553
350.039324	2519.644310
350.429796	2525.081194
350.820203	2527.899199
351.210548	2527.309384
351.600828	2520.841584
351.991045	2522.522808
352.381198	2520.720596
352.771288	2524.695546
353.161314	2521.670853
353.551276	2520.312263
353.941175	2520.317304
354.331010	2521.068436
354.720782	2523.674712
355.110490	2525.817203
355.500135	2521.501975
355.889717	2522.331245
356.279235	2522.164887
356.668689	2523.261338
357.058080	2522.973992
357.447408	2525.711338
357.836672	2523.092459
358.225873	2526.094466
358.615010	2522.837881
359.004084	2524.546832
359.393095	2526.868283
359.782043	2524.158663
360.170927	2526.762419
360.559748	2528.257121
360.948505	2530.134951
361.337199	2531.538912
361.725830	2531.002029
362.114398	2527.321987
362.502903	2530.031607
362.891344	2530.278624
363.279722	2532.741227
363.668037	2531.057482
364.056289	2532.408511
364.444478	2531.927081
364.832603	2532.748789
365.220665	2529.777029
365.608665	2533.706608
365.996601	2534.533357
366.384474	2533.096629
366.772284	2533.048738
367.160031	2533.436907
367.547715	2534.956814
367.935336	2535.309695
368.322893	2535.130734
368.710388	2532.925229
369.097820	2532.158974
369.485189	2531.322143
369.872495	2534.815662
370.259738	2535.203831
370.646918	2535.226516
371.034035	2539.002340
371.421090	2537.270704
371.808081	2537.237937
372.195010	2536.010416
372.581875	2538.818338
372.968678	2537.406815
373.355418	2538.954449
373.742096	2540.892773
374.128710	2538.790612
374.515262	2540.605427
374.901751	2542.916796
375.288177	2538.929244
375.674540	2539.554347
376.060841	2541.689275
376.447079	2537.910931
376.833254	2541.724563
377.219367	2541.336395
377.605417	2540.015612
377.991404	2543.310006
378.377329	2539.526620
378.763191	2539.945036
379.148991	2541.822866
379.534727	2546.107847
379.920402	2542.924358
380.306013	2542.334543
380.691563	2546.369987
381.077049	2543.146169
381.462474	2542.135418
381.847835	2545.520552
382.233134	2544.121632
382.618371	2540.718853
383.003545	2544.484595
383.388657	2542.957126
383.773706	2543.078113
384.158693	2545.507949
384.543618	2544.197249
384.928480	2548.751932
385.313280	2546.007024
385.698017	2541.704399
386.082692	2543.340253
386.467305	2545.775131
386.851856	2547.068187
387.236344	2544.749256
387.620770	2544.325799
388.005133	2542.085006
388.389435	2546.891746
388.773674	2543.531817
389.157851	2549.150183
389.541965	2549.210677
389.926018	2547.690769
390.310008	2546.818649
390.693936	2547.675646
391.077802	2549.276212
391.461606	2549.883671
391.845348	2548.000800
392.229027	2548.187323
392.612645	2547.673125
392.996200	2550.682694
393.379694	2551.310317
393.763125	2549.876109
394.146494	2550.533980
394.529801	2552.575647
394.913047	2548.721685
395.296230	2550.793599
395.679351	2550.760832
396.062410	2552.792417
396.445408	2550.997766
396.828343	2552.799978
397.211217	2554.390462
397.594028	2551.869886
397.976778	2553.808209
398.359466	2554.100596
398.742092	2552.691594
399.124656	2549.651778
399.507158	2553.271326
399.889598	2554.428271
400.271977	2553.447767
400.654294	2553.641851
401.036549	2555.267623
401.418742	2552.467262
401.800874	2553.810730
402.182944	2553.470452
402.564952	2551.622869
402.946898	2554.418189
403.328783	2557.906667
403.710606	2553.951882
404.092367	2557.563869
404.474067	2554.229146
404.855705	2555.071018
405.237282	2555.534804
405.618797	2556.278375
406.000250	2558.355330
406.381642	2557.745350
406.762972	2556.916081
407.144240	2554.130843
407.525447	2556.043961
407.906593	2551.648075
408.287677	2557.959599
408.668700	2558.511606
409.049661	2559.169476
409.430560	2561.196020
409.811399	2555.146636
410.192176	2560.586041
410.572891	2559.315670
410.953545	2557.939435
411.334138	2558.383056
411.714669	2558.597305
412.095139	2558.335165
412.475547	2559.968499
412.855894	2558.302398
413.236180	2559.368602
413.616405	2561.448078
413.996568	2557.868859
414.376670	2559.577810
414.756711	2561.523695
415.136691	2561.594271
415.516609	2561.062430
415.896466	2561.594271
416.276262	2562.121072
416.655997	2559.129147
417.035670	2561.170814
417.415283	2560.669220
417.794834	2559.560166
418.174324	2561.473284
418.553753	2561.516133
418.933121	2561.112841
419.312428	2562.746175
419.691674	2561.843808
420.070859	2560.122254
420.449983	2562.083263
420.829045	2558.584703
421.208047	2560.949004
421.586988	2559.892882
421.965867	2561.730382
422.344686	2558.657799
422.723444	2560.560835
423.102141	2562.761298
423.480777	2564.989488
423.859352	2562.239539
424.237866	2560.165104
424.616319	2562.617626
424.994712	2563.046124
425.373044	2561.606874
425.751314	2559.620660
426.129524	2557.142932
426.507673	2560.654096
426.885762	2557.281564
427.263789	2559.489590
427.641756	2562.748696
428.019662	2562.040413
428.397508	2559.476987
428.775292	2562.935218
429.153016	2564.961762
429.530679	2564.208110
429.908282	2562.466391
430.285824	2564.021587
430.663305	2561.332131
431.040726	2562.234498
431.418086	2564.739951
431.795385	2564.818089
432.172624	2564.440003
432.549802	2560.845660
432.926920	2564.568552
433.303977	2561.102759
433.680974	2562.710887
434.057910	2560.318859
434.434786	2561.511092
434.811601	2564.198027
435.188355	2562.731052
435.565050	2561.659806
435.941683	2564.402194
436.318257	2562.892368
436.694770	2562.536967
437.071222	2563.875393
437.447614	2564.462688
437.823946	2562.456309
438.200218	2561.097718
438.576429	2562.234498
438.952580	2561.533777
439.328670	2564.389591
439.704700	2563.953531
440.080670	2563.182235
440.456580	2562.068140
440.832429	2564.276165
441.208218	2567.063923
441.583947	2561.606874
441.959616	2563.280537
442.335224	2565.644838
442.710773	2564.661813
443.086261	2563.204920
443.461689	2564.109807
443.837057	2563.373799
444.212365	2564.523182
444.587612	2564.863460
444.962800	2561.279199
445.337927	2563.459498
445.712995	2559.582851
446.088002	2563.179714
446.462949	2565.720456
446.837837	2568.180539
447.212664	2565.014694
447.587431	2563.966134
447.962139	2564.223233
448.336786	2563.204920
448.711374	2566.922771
449.085901	2568.276321
449.460369	2565.070147
449.834776	2567.174829
450.209124	2565.743141
450.583412	2566.605178
450.957640	2562.867163
451.331808	2566.501835
451.705917	2565.254149
452.079965	2567.074006
452.453954	2566.816907
452.827883	2564.916392
453.201752	2566.141392
453.575562	2564.918912
453.949311	2566.327915
454.323001	2568.603996
454.696632	2566.358162
455.070202	2565.854046
455.443713	2567.535271
455.817164	2566.854715
456.190556	2564.429920
456.563888	2566.713563
456.937160	2568.722463
457.310373	2569.682803
457.683526	2567.096691
458.056619	2567.867987
458.429653	2567.628532
458.802628	2567.270611
459.175542	2567.305899
459.548398	2566.660631
459.921194	2569.738255
460.293930	2567.003429
460.666607	2568.742627
461.039224	2569.541650
461.411782	2570.691033
461.784280	2569.498801
462.156719	2569.955025
462.529099	2569.539130
462.901419	2569.650035
463.273680	2566.093501
463.645882	2566.506876
464.018024	2569.251784
464.390106	2563.479663
464.762130	2571.845458
465.134094	2568.893862
465.505999	2572.667166
465.877845	2574.018195
466.249631	2573.269584
466.621358	2576.490881
466.993026	2572.145406
467.364634	2578.477096
467.736184	2573.892166
468.107674	2574.953329
468.479105	2575.626323
468.850477	2573.130952
469.221790	2571.855540
469.593043	2571.595921
469.964238	2572.238668
470.335373	2572.833524
470.706449	2574.469378
471.077467	2573.221693
471.448425	2575.470047
471.819324	2576.606828
472.190164	2577.521797
472.560945	2573.168761
472.931667	2575.379307
473.302330	2573.841755
473.672934	2574.358473
474.043479	2576.810994
474.413965	2573.977866
474.784393	2572.412587
475.154761	2576.374934
475.525070	2575.485171
475.895321	2575.845613
476.265513	2576.705130
476.635645	2578.451890
477.005719	2577.965418
477.375734	2577.514235
477.745691	2581.955492
478.115588	2580.193608
478.485427	2580.909452
478.855207	2583.727457
479.224928	2585.068404
479.594591	2584.085379
479.964194	2582.573033
480.333739	2586.056470
480.703226	2587.021851
481.072653	2585.953127
481.442022	2587.674681
481.811333	2587.286512
482.180584	2584.176120
482.549777	2586.333734
482.918912	2583.016655
483.287988	2591.216091
483.657005	2588.561924
484.025964	2591.178283
484.394864	2589.739033
484.763706	2591.765577
485.132489	2589.673498
485.501213	2589.819692
485.869879	2591.526122
486.238487	2592.620053
486.607036	2593.106524
486.975527	2593.499734
487.343959	2592.226843
487.712333	2595.826227
488.080648	2595.337235
488.448905	2597.353696
488.817104	2597.240270
489.185244	2598.122472
489.553326	2600.680858
489.921350	2604.852412
490.289315	2610.070007
490.657222	2610.763165
491.025070	2610.884153
491.392861	2613.296345
491.760593	2610.112857
492.128267	2612.618310
492.495883	2611.610079
492.863440	2610.977414
493.230939	2612.842641
493.598380	2611.085799
493.965763	2612.439349
494.333088	2612.318361
494.700354	2611.857096
495.067563	2615.287601
495.434713	2614.609566
495.801805	2614.072683
496.168839	2614.980091
496.535815	2616.968826
496.902733	2617.752725
497.269593	2621.402521
497.636395	2620.981584
498.003139	2622.609877
498.369825	2620.391769
498.736453	2625.357306
499.103023	2624.739764
499.469535	2623.905453
499.835989	2624.903602
500.202385	2625.004425
500.568723	2622.970319
500.935003	2625.319497
501.301226	2626.156329
501.667390	2633.161012
502.033497	2636.815848
502.399546	2633.145888
502.765537	2632.576238
503.131470	2635.842906
503.497345	2638.945736
503.863163	2635.593369
504.228923	2638.610499
504.594625	2643.807929
504.960269	2643.041673
505.325856	2645.874802
505.691385	2644.942188
506.056856	2648.599546
506.422270	2651.790596
506.787625	2650.376552
507.152924	2654.487613
507.518164	2656.405772
507.883347	2653.315545
508.248472	2658.006339
508.613540	2660.789056
508.978550	2662.155208
509.343503	2665.820127
509.708398	2666.258707
510.073236	2670.392454
510.438016	2673.291117
510.802738	2676.575429
511.167403	2682.110616
511.532010	2685.026923
511.896561	2688.782583
512.261053	2692.661751
512.625488	2694.191741
512.989866	2699.076619
513.354186	2704.649615
513.718449	2705.274718
514.082655	2709.899976
514.446803	2712.889381
514.810894	2722.575958
515.174927	2728.060733
515.538904	2728.995867
515.902822	2738.440469
516.266684	2737.366703
516.630488	2747.259967
516.994235	2752.618714
517.357925	2763.479880
517.721558	2770.900458
518.085133	2780.559309
518.448651	2787.722789
518.812112	2792.267389
519.175516	2800.544964
519.538863	2808.436890
519.902152	2823.890547
520.265385	2836.516117
520.628560	2845.091120
520.991678	2854.840711
521.354739	2868.401415
521.717743	2879.413816
522.080690	2892.316649
522.443580	2910.739546
522.806413	2922.588778
523.169189	2938.329781
523.531908	2958.748974
523.894569	2971.447641
524.257174	2987.261740
524.619722	3008.248064
524.982213	3023.162317
525.344647	3040.763506
525.707025	3063.612536
526.069345	3087.537852
526.431608	3106.439658
526.793815	3129.137454
527.155964	3149.241575
527.518057	3172.559432
527.880093	3193.888554
528.242072	3224.647154
528.603995	3248.343098
528.965860	3270.693054
529.327669	3301.023156
529.689421	3327.975685
530.051117	3359.036754
530.412755	3392.134450
530.774337	3425.421189
531.135862	3456.777166
531.497331	3492.408041
531.858743	3527.486910
532.220098	3573.424424
532.581396	3601.848970
532.942638	3634.256028
533.303824	3676.624405
533.664953	3722.183833
534.026025	3752.302207
534.387040	3809.882266
534.747999	3854.067980
535.108902	3910.644849
535.469748	3934.993622
535.830537	3992.641737
536.191270	4050.441087
536.551947	4083.581632
536.912567	4143.780571
537.273131	4205.393553
537.633638	4245.258998
537.994089	4313.773319
538.354483	4357.127242
538.714821	4440.555818
539.075103	4512.530892
539.435328	4572.074481
539.795497	4621.071976
540.155609	4687.894990
540.515665	4783.523158
540.875665	4816.915761
541.235609	4894.433584
541.595496	4969.259431
541.955328	5070.637034
542.315102	5113.388540
542.674821	5175.664434
543.034483	5242.830247
543.394090	5316.683151
543.753640	5393.623761
544.113134	5541.271596
544.472571	5562.167178
544.831953	5722.405295
545.191278	5757.010295
545.550548	5817.710829
545.909761	5949.322753
546.268918	6056.134720
546.628019	6179.877403
546.987064	6224.347942
547.346053	6252.888434
547.704986	6426.909065
548.063863	6496.320713
548.422684	6606.540500
548.781449	6676.428537
549.140158	6826.118038
549.498811	6906.572333
549.857408	6947.047757
550.215949	7140.444063
550.574434	7231.419246
550.932864	7333.046387
551.291237	7522.303905
551.649555	7615.408975
552.007817	7752.719924
552.366022	7834.527768
552.724173	7960.342366
553.082267	8134.559601
553.440305	8311.060480
553.798288	8338.496960
554.156215	8512.449535
554.514086	8667.880911
554.871902	8745.388651
555.229661	8904.237929
555.587365	8986.194488
555.945014	9154.117843
556.302606	9286.606928
556.660143	9447.482750
557.017625	9622.100758
557.375050	9721.504750
557.732421	9931.632645
558.089735	10085.534031
558.446994	10208.759995
558.804197	10450.410226
559.161345	10583.179094
559.518437	10609.420821
559.875474	10815.697274
560.232455	11014.981648
560.589381	11196.107785
560.946251	11307.577779
561.303065	11612.522216
561.659825	11707.885723
562.016528	11843.016373
562.373177	11919.029411
562.729770	12216.490255
563.086307	12286.895010
563.442789	12582.538518
563.799216	12741.720513
564.155587	12894.245664
564.511904	13068.014237
564.868164	13265.773661
565.224370	13522.731355
565.580520	13638.793840
565.936615	13870.765055
566.292654	13970.098471
566.648638	14250.593312
567.004567	14425.269293
567.360441	14645.217355
567.716260	14764.072640
568.072023	15057.218256
568.427732	15242.520989
568.783385	15301.036183
569.138982	15610.923471
569.494525	15852.079668
569.850013	15921.090544
570.205445	16162.065260
570.560823	16304.273689
570.916145	16473.830378
571.271412	16735.347796
571.626625	16832.878999
571.981782	17061.444914
572.336884	17129.485368
572.691931	17443.193851
573.046923	17544.591620
573.401860	17688.708126
573.756743	17914.594668
574.111570	18187.600875
574.466342	18364.217700
574.821059	18615.047871
575.175722	18640.475451
575.530330	18900.034381
575.884882	18964.054514
576.239380	19134.347211
576.593823	19394.291789
576.948211	19565.857378
577.302544	19593.833261
577.656823	19798.186514
578.011047	20114.755853
578.365216	20236.187166
578.719330	20336.243988
579.073389	20536.171108
579.427394	20770.718353
579.781344	20941.958787
580.135239	21041.327491
580.489080	21283.249944
580.842866	21258.477714
581.196597	21692.576512
581.550273	21893.582440
581.903895	22077.012384
582.257463	22490.124860
582.610975	22419.931833
582.964434	22804.287047
583.317837	22763.720882
583.671186	22943.236370
584.024481	23285.734883
584.377721	23258.358897
584.730906	23567.550507
585.084037	23847.838660
585.437113	23902.693976
585.790135	24179.418034
586.143103	24138.809019
586.496016	24428.947588
586.848874	24693.724111
587.201679	24906.186061
587.554428	24826.452651
587.907124	25181.019686
588.259765	25242.123512
588.612352	25534.230651
588.964884	25414.727578
589.317362	25783.107375
589.669786	25976.715409
590.022155	26086.113489
590.374470	26542.015278
590.726731	26493.731106
591.078937	26285.223942
591.431090	26677.425711
591.783188	26583.786279
592.135232	26636.393240
592.487222	27004.863777
592.839157	27279.785623
593.191038	27242.339932
593.542866	27305.230847
593.894639	27106.178367
594.246358	27478.949008
594.598022	27643.038566
594.949633	27560.030927
595.301190	27720.755514
595.652692	27859.440177
596.004141	28353.627009
596.355535	27801.958420
596.706876	27974.854874
597.058162	27945.134751
597.409395	28475.615371
597.760573	28797.858527
598.111698	28672.729527
598.462768	28775.979920
598.813785	28966.858169
599.164748	28832.697942
599.515657	29199.794765
599.866511	28998.680453
600.217312	29647.479473
600.568060	29039.755774
600.918753	29786.726225
601.269392	29892.585414
601.619978	29831.789099
601.970510	30121.375661
602.320988	30374.635668
602.671412	30707.596318
603.021783	30764.420204
603.372100	30574.910628
603.722363	30810.012400
604.072572	30973.534828
604.422728	31105.171958
604.772830	31069.087378
605.122878	31344.470489
605.472872	31367.909334
605.822813	31712.124360
606.172701	31648.290749
606.522534	32031.063040
606.872314	32321.844356
607.222041	32322.587926
607.571714	32705.435834
607.921333	32420.265323
608.270899	32731.251583
608.620411	33154.915194
608.969870	33053.721592
609.319276	33196.000597
609.668627	33345.475850
610.017926	33782.133035
610.367171	34008.775750
610.716362	34162.377187
611.065500	34176.724311
611.414585	34487.944985
611.763616	34735.180813
612.112594	34759.403558
612.461518	34968.407275
612.810389	35397.568264
613.159207	35336.388821
613.507971	35419.925781
613.856682	35934.388134
614.205340	35901.761787
614.553945	36567.161327
614.902496	36103.405420
615.250994	36559.080357
615.599439	36709.362194
615.947830	36898.687768
616.296169	36987.152457
616.644454	37135.664849
616.992686	37343.688062
617.340864	37823.666402
617.688990	37496.283789
618.037063	38164.438320
618.385082	38093.138761
618.733048	38480.795930
619.080961	38457.236097
619.428821	38560.640245
619.776628	38648.951178
620.124382	38583.136394
620.472083	38771.146227
620.819731	38955.410482
621.167326	38666.302829
621.514868	38740.170857
621.862357	38374.500680
622.209793	38527.653455
622.557176	38231.755368
622.904506	38118.394941
623.251783	37864.444296
623.599007	37665.601023
623.946179	37682.279681
624.293297	37523.140536
624.640363	37114.963351
624.987376	37040.810498
625.334336	36951.461087
625.681243	36637.876112
626.028097	36641.190671
626.374899	36535.485237
626.721647	36570.014620
627.068343	36443.615249
627.414987	36232.726139
627.761577	36058.947484
628.108115	36419.868894
628.454600	35806.814174
628.801032	36052.918264
629.147412	36018.527513
629.493739	35994.329974
629.840014	35630.983769
630.186236	36067.141880
630.532405	35606.022496
630.878521	35876.384618
631.224585	35715.786059
631.570597	35457.842820
631.916556	35641.474411
632.262462	35580.673054
632.608316	35567.283749
632.954117	35479.839895
633.299866	35489.609651
633.645562	35462.851206
633.991206	35017.175398
634.336797	34676.426165
634.682336	34632.794979
635.027823	34461.834328
635.373257	34391.457300
635.718639	34123.966115
636.063968	34074.091460
636.409245	33497.660723
636.754470	33513.893238
637.099642	33334.029910
637.444762	32835.611030
637.789829	33009.180477
638.134845	32683.269881
638.479808	32637.445793
638.824719	32615.325209
639.169577	32184.924097
639.514383	32303.509679
639.859137	31973.296458
640.203839	32170.312312
640.548489	31911.743970
640.893086	31947.092541
641.237632	31713.056973
641.582125	31834.803359
641.926566	31658.748623
642.270955	31719.192058
642.615292	31688.362881
642.959576	31620.685391
643.303809	31641.512918
643.647990	31755.944590
643.992118	31736.110170
644.336195	31608.702568
644.680219	31720.951420
645.024192	31949.169496
645.368112	32478.619199
645.711981	32506.900072
646.055797	33228.556369
646.399562	33057.779721
646.743274	33914.919547
647.086935	34325.115715
647.430544	34301.112261
647.774101	34361.585943
648.117606	34674.495403
648.461059	34824.633568
648.804460	34445.430414
649.147810	33979.058148
649.491108	33663.161804
649.834354	33537.485838
650.177548	32760.699483
650.520690	32307.981183
650.863781	32328.949862
651.206820	32166.755778
651.549807	31787.744188
651.892742	31239.014592
652.235626	31148.530922
652.578458	31052.917877
652.921238	30398.687013
653.263967	30721.741796
653.606644	30445.219384
653.949269	30365.861540
654.291843	29989.118469
654.634365	30382.043644
654.976836	29932.231569
655.319255	30026.317143
655.661622	29916.694732
656.003938	29806.913525
656.346203	29628.136566
656.688416	29896.961136
657.030577	29673.764049
657.372687	29524.276194
657.714746	29689.999085
658.056753	29889.603572
658.398708	29298.021647
658.740612	29373.548214
659.082465	29594.340670
659.424266	29486.936367
659.766016	29508.285654
660.107715	29364.945485
660.449362	29491.851492
660.790958	29475.329110
661.132503	29429.230279
661.473996	29506.647279
661.815438	29592.472923
662.156829	29727.850589
662.498168	29539.871003
662.839456	29537.254644
663.180693	29666.086372
663.521879	29769.223338
663.863013	29739.833412
664.204097	29732.415354
664.545129	30141.555400
664.886110	30089.157647
665.227040	30181.567038
665.567918	30190.903255
665.908746	30282.102769
666.249522	30367.278104
666.590248	30410.168241
666.930922	30513.849653
667.271545	30513.153973
667.612118	30579.813151
667.952639	30393.837423
668.293109	30430.932754
668.633528	30310.038323
668.973896	30267.032240
669.314213	30260.254408
669.654480	30080.209599
669.994695	30063.644367
670.334859	29998.053914
670.674973	29849.029845
671.015035	30034.418278
671.355047	29972.170110
671.695008	29910.554607
672.034918	29821.971452
672.374777	29930.038667
672.714585	29804.057712
673.054342	29930.560426
673.394049	29807.823453
673.733705	30031.600273
674.073310	29732.322092
674.412864	29789.816452
674.752368	29498.614200
675.091820	29733.390817
675.431223	29336.508336
675.770574	29135.157090
676.109875	28989.566046
676.449125	28780.113666
676.788324	28674.521657
677.127473	28211.433703
677.466571	28124.695610
677.805619	27843.759668
678.144616	27794.994066
678.483562	27735.498369
678.822458	27421.157221
679.161303	27366.541360
679.500098	27279.470551
679.838842	27217.116519
680.177535	27298.758005
680.516179	27551.455924
680.854771	27699.892699
681.193314	28479.252563
681.531805	29499.824077
681.870247	30240.752705
682.208638	30975.037092
682.546978	31241.013410
682.885268	31387.169062
683.223508	30933.311461
683.561697	30660.824493
683.899836	30507.704486
684.237925	30091.615209
684.575963	29948.733786
684.913951	29583.978579
685.251889	29768.946075
685.589776	29782.985688
685.927614	29795.623861
686.265401	29964.021085
686.603137	30104.878485
686.940824	30600.716295
687.278460	30936.774734
687.616046	31095.591245
687.953582	31776.227672
688.291068	31681.937931
688.628504	32018.840763
688.965889	32005.108660
689.303224	31733.652608
689.640510	31460.611112
689.977745	30810.241772
690.314930	30068.221735
690.652065	29638.667536
690.989150	28976.534664
691.326185	28129.305745
691.663170	27483.695255
692.000105	26747.200322
692.336990	26155.184858
692.673825	25726.792645
693.010610	25250.544759
693.347345	24753.590334
693.684030	24112.315235
694.020665	23923.445886
694.357251	23233.906780
694.693786	23242.943049
695.030272	23009.494776
695.366707	22519.479498
695.703093	22255.373448
696.039429	22317.477943
696.375716	22078.456675
696.711952	22077.534144
697.048139	21933.256321
697.384276	21785.837859
697.720363	21897.259962
698.056400	21790.155607
698.392388	21630.585444
698.728326	21628.508488
699.064214	21465.459929
699.400053	21462.515895
699.735842	21083.874830
700.071581	20885.515508
700.407270	20635.164246
700.742910	20462.348451
701.078501	20210.714216
701.414042	20006.378607
701.749533	19703.533810
702.084974	19394.705163
702.420366	19626.885586
702.755709	19212.981650
703.091002	18913.564837
703.426246	18973.862079
703.761440	18904.384896
704.096584	18672.149021
704.431679	18611.103168
704.766725	18556.053768
705.101721	18493.344335
705.436668	18605.787272
705.771565	18341.235080
706.106413	18650.865269
706.441212	18719.382112
706.775961	18840.468107
707.110661	18923.667310
707.445311	19276.938768
707.779913	19160.591458
708.114465	19469.427666
708.448967	19782.659761
708.783421	20423.148439
709.117825	20786.713934
709.452180	21014.611896
709.786485	21468.096452
710.120742	22247.330288
710.454949	22351.137727
710.789107	22858.383669
711.123216	23573.057967
711.457275	23778.432054
711.791286	24329.962011
712.125247	24485.779036
712.459159	24205.780748
712.793023	24965.822911
713.126837	23937.293935
713.460602	24195.174160
713.794318	23852.247149
714.127985	23582.031221
714.461602	22682.525537
714.795171	22666.131705
715.128691	21684.941685
715.462162	21153.185654
715.795584	20731.087322
716.128957	20450.237079
716.462281	20071.129707
716.795556	19793.899013
717.128782	19323.692950
717.461960	18722.016115
717.795088	18679.098252
718.128167	18337.663422
718.461198	17871.117237
718.794180	17746.119306
719.127113	17408.954334
719.459997	17216.064665
719.792833	16846.724528
720.125619	16899.157569
720.458357	16542.241356
720.791046	16406.626756
721.123686	16251.898621
721.456278	16031.648089
721.788821	16030.803696
722.121315	15751.783392
722.453761	15862.250196
722.786158	15747.294245
723.118506	15830.047306
723.450805	15721.468413
723.783056	15892.169444
724.115259	15779.872701
724.447412	15781.082578
724.779518	15994.527553
725.111574	16048.785492
725.443582	16317.776420
725.775542	16280.469361
726.107453	16800.429092
726.439315	16719.014457
726.771129	17140.956513
727.102895	17568.816884
727.434612	17836.756732
727.766281	18002.048605
728.097901	18323.661617
728.429473	18411.533970
728.760996	18414.336852
729.092471	18550.558911
729.423897	18441.254092
729.755276	18311.058733
730.086606	18429.359490
730.417887	19018.478811
730.749120	19581.749615
731.080305	19800.218099
731.411442	20205.599965
731.742530	20316.704476
732.073570	20491.506485
732.404562	20807.763272
732.735506	20651.094293
733.066401	20433.709656
733.397249	19934.811866
733.728048	19302.510021
734.058798	18440.714689
734.389501	17670.806988
734.720156	17149.513872
735.050762	16566.227166
735.381320	16193.721185
735.711831	15910.960345
736.042293	15538.356062
736.372707	15576.000878
736.703073	15356.319996
737.033391	15560.348095
737.363661	15560.564865
737.693883	15685.794688
738.024056	15885.726850
738.354182	16101.876403
738.684260	16464.625231
739.014290	16751.023263
739.344272	16974.931153
739.674207	17322.732959
740.004093	17500.980598
740.333931	17552.632260
740.663722	17631.985063
740.993464	17671.885795
741.323159	17525.541099
741.652806	17214.307823
741.982405	17049.610806
742.311956	16679.101122
742.641460	16577.998261
742.970915	16242.953094
743.300323	15903.731331
743.629683	15673.267421
743.958996	15365.182345
744.288260	15048.693665
744.617477	14734.259256
744.946647	14702.832703
745.275768	14386.764959
745.604842	14181.589998
745.933869	14007.710519
746.262847	13976.334378
746.591778	13894.198858
746.920662	13766.829065
747.249498	13779.484882
747.578286	13944.996045
747.907027	14111.497795
748.235720	14381.675915
748.564365	14447.851141
748.892963	14374.197363
749.221514	14485.105268
749.550017	14344.840203
749.878473	14314.391634
750.206881	14084.956120
750.535242	14008.444007
750.863555	13933.028346
751.191821	13824.704032
751.520039	13850.628166
751.848210	13772.545734
752.176334	13817.064163
752.504411	13741.358635
752.832440	13563.100915
753.160421	13670.290969
753.488356	13571.602821
753.816243	13475.846103
754.144082	13314.720744
754.471875	13265.536727
754.799620	13224.002660
755.127318	13195.210110
755.454969	13188.288606
755.782572	13160.819358
756.110129	13178.125640
756.437638	13073.546903
756.765100	13087.460488
757.092515	13119.282771
757.419882	13157.766940
757.747203	13163.561746
758.074477	13251.242535
758.401703	13225.429307
758.728882	13426.747786
759.056014	13465.947798
759.383099	13648.029234
759.710138	13765.896452
760.037129	13891.771543
760.364073	13938.906331
760.690970	13968.875991
761.017820	13997.945804
761.344623	14224.354106
761.671379	14613.379948
761.998088	15329.773280
762.324751	17145.075136
762.651366	20592.390056
762.977935	25102.649908
763.304456	28078.178363
763.630931	29136.684560
763.957359	27907.394153
764.283740	25625.266327
764.610074	23326.893384
764.936362	20670.459885
765.262602	18774.524773
765.588796	16821.790981
765.914943	15537.952769
766.241044	14421.528756
766.567097	13625.553249
766.893104	12898.069379
767.219064	12426.774426
767.544978	11944.608226
767.870845	11555.133721
768.196665	11334.058960
768.522438	11094.750346
768.848165	10901.522919
769.173846	10682.189877
769.499479	10555.336802
769.825066	10382.105112
770.150607	10158.081276
770.476101	10068.106762
770.801548	9942.690416
771.126949	9786.364235
771.452303	9675.801649
771.777611	9472.985948
772.102872	9460.647723
772.428087	9321.254778
772.753256	9156.799737
773.078378	9069.003002
773.403453	8886.808140
773.728482	8775.958208
774.053465	8699.234367
774.378401	8592.964323
774.703291	8468.868760
775.028135	8352.836522
775.352932	8314.496026
775.677683	8207.008544
776.002388	8098.185156
776.327046	8109.832742
776.651658	8016.563834
776.976224	7908.700786
777.300743	7908.909993
777.625216	7823.505286
777.949643	7776.844366
778.274024	7790.561345
778.598359	7703.868622
778.922647	7720.975778
779.246889	7668.918303
779.571086	7675.829725
779.895236	7683.716610
780.219339	7693.947632
780.543397	7696.022067
780.867409	7777.378728
781.191374	7789.888351
781.515294	7758.108917
781.839167	7852.199533
782.162995	7822.358423
782.486776	7765.549660
782.810511	7715.614511
783.134201	7629.854402
783.457844	7622.080942
783.781441	7564.347128
784.104993	7503.235741
784.428498	7480.837894
784.751958	7464.554967
785.075372	7437.431039
785.398739	7376.773355
785.722061	7425.337311
786.045337	7429.216479
786.368568	7592.764112
786.691752	7618.660520
787.014891	7957.068136
787.337983	8325.067326
787.661030	8921.866844
787.984031	9556.613649
788.306987	9965.032810
788.629897	10169.635600
788.952760	10119.314803
789.275579	9884.795285
789.598351	9483.433739
789.921078	9131.843505
790.243759	8718.088283
790.566395	8424.562059
790.888984	8169.701485
791.211529	7960.985113
791.534027	7729.893579
791.856480	7529.343876
792.178888	7459.407949
792.501249	7358.279882
792.823566	7201.154679
793.145836	7197.449431
793.468062	7172.893970
793.790241	7124.299768
794.112375	7197.404060
794.434464	7346.347471
794.756507	7391.180973
795.078505	7553.450674
795.400457	7873.392544
795.722364	8219.981953
796.044226	8508.275459
796.366042	8787.172255
796.687812	8729.579593
797.009538	8817.335999
797.331218	8700.242598
797.652852	8620.894836
797.974442	8461.911968
798.295986	8373.323771
798.617484	8182.768156
798.938938	8037.106536
799.260346	7940.303779
799.581709	7734.990186
799.903026	7656.045717
800.224299	7546.314921
800.545526	7369.882098
800.866708	7277.931452
801.187845	7203.708023
801.508936	7094.554439
801.829983	7061.655869
802.150984	6905.443115
802.471940	6865.313009
802.792851	6853.080650
803.113717	6816.194527
803.434538	6777.644823
803.755314	6721.287244
804.076045	6726.968624
804.396731	6672.466190
804.717372	6700.643719
805.037967	6707.257713
805.358518	6746.798003
805.679024	6829.634243
805.999485	6840.737384
806.319901	6878.140225
806.640272	6903.383803
806.960598	6987.150136
807.280879	6987.813048
807.601115	7067.821201
807.921306	7009.807602
808.241453	7026.788729
808.561554	7048.379991
808.881611	7013.485124
809.201623	7021.984509
809.521590	6962.932433
809.841513	6941.459638
810.161390	6983.374312
810.481223	6854.126689
810.801011	6836.674214
811.120755	6810.077087
811.440453	6729.728656
811.760107	6702.950047
812.079716	6670.338823
812.399281	6598.769562
812.718801	6590.086174
813.038276	6548.237035
813.357707	6484.738662
813.677093	6530.414036
813.996434	6433.442401
814.315731	6475.621735
814.634983	6471.036805
814.954191	6483.238918
815.273354	6595.182781
815.592473	6655.444734
815.911547	6783.243025
816.230577	6868.486416
816.549562	7017.180290
816.868502	7113.862059
817.187399	7213.936524
817.506250	7372.750514
817.825058	7404.169506
818.143821	7678.602359
818.462539	7951.570758
818.781213	8324.777459
819.099843	8882.182881
819.418429	9897.751050
819.736970	10879.876204
820.055466	12065.235475
820.373919	13622.276499
820.692327	16021.250709
821.010691	20226.145188
821.329011	29287.054617
821.647286	42269.437294
821.965517	55574.693272
822.283704	60883.043395
822.601847	62848.183467
822.919945	60185.332580
823.237999	56048.574336
823.556010	49953.521908
823.873976	43241.827980
824.191897	36694.221089
824.509775	31853.198530
824.827609	27319.517477
825.145398	24724.366765
825.463144	23357.591490
825.780845	23674.677546
826.098502	25469.240095
826.416116	29291.440421
826.733685	32935.617440
827.051210	34096.441415
827.368692	32294.352423
827.686129	28293.927145
828.003522	24152.321832
828.320872	20411.785678
828.638177	17548.702681
828.955439	15383.506939
829.272656	13542.351526
829.589830	12052.330122
829.906960	10768.539801
830.224046	9822.468979
830.541088	9068.425790
830.858086	8608.410419
831.175041	8229.408911
831.491952	8118.526212
831.808819	8164.262080
832.125642	8572.998834
832.442421	9480.023398
832.759157	11297.548403
833.075849	14243.918824
833.392497	17495.533631
833.709101	19668.069293
834.025662	19492.485904
834.342179	17790.335267
834.658653	15565.986626
834.975083	13629.263538
835.291469	12000.963284
835.607811	10668.745119
835.924110	9752.782589
836.240366	8877.824804
836.556578	8066.544354
836.872746	7413.593943
837.188871	6906.078300
837.504952	6488.489280
837.820990	6172.741650
838.136984	5949.428617
838.452935	5856.363876
838.768842	5891.523403
839.084706	6321.823693
839.400526	7544.447173
839.716303	9134.275862
840.032037	10234.222863
840.347727	10157.899794
840.663373	9170.385647
840.978977	8122.044937
841.294537	7307.097047
841.610054	6700.313523
841.925527	6262.970742
842.240957	5899.727881
842.556344	5561.731119
842.871687	5275.759064
843.186987	4990.371783
843.502244	4764.114716
843.817458	4600.559521
844.132629	4462.631031
844.447756	4367.733830
844.762840	4289.394299
845.077881	4212.967887
845.392879	4148.486488
845.707833	4100.139302
846.022745	4055.149524
846.337613	4028.701111
846.652438	3986.433556
846.967221	3967.080567
847.281960	3934.300464
847.596656	3913.583842
847.911309	3897.910895
848.225919	3869.967779
848.540485	3852.880788
848.855009	3842.067513
849.169490	3820.277125
849.483928	3804.405053
849.798323	3803.048982
850.112675	3780.182308
850.426984	3785.508287
850.741251	3772.852471
851.055474	3766.556069
851.369654	3771.524127
851.683792	3769.734517
851.997887	3776.030918
852.311938	3778.216258
852.625947	3778.057462
852.939914	3767.607150
853.253837	3779.143831
853.567718	3778.448151
853.881555	3768.665792
854.195350	3779.605096
854.509103	3777.427318
854.822812	3775.153757
855.136479	3769.943725
855.450103	3777.737349
855.763685	3762.261006
856.077224	3767.506327
856.390720	3784.883184
856.704173	3805.531750
857.017584	3815.460303
857.330953	3827.831294
857.644278	3850.624872
857.957561	3855.953371
858.270802	3851.491950
858.584000	3860.674412
858.897155	3852.195191
859.210268	3835.766071
859.523339	3813.985765
859.836367	3812.473419
860.149352	3800.399856
860.462295	3792.855769
860.775195	3784.666415
861.088054	3780.414201
861.400869	3780.343625
861.713642	3780.331022
862.026373	3792.366777
862.339062	3797.317190
862.651708	3816.256805
862.964312	3849.271322
863.276873	3859.217518
863.589392	3919.252619
863.901869	3968.076194
864.214303	4012.493801
864.526696	4045.410015
864.839045	4094.160493
865.151353	4118.892394
865.463619	4126.307931
865.775842	4132.014517
866.088023	4152.471520
866.400162	4144.128410
866.712258	4150.424811
867.024313	4152.002693
867.336325	4150.878515
867.648296	4157.827746
867.960224	4155.803723
868.272110	4170.037420
868.583954	4171.262421
868.895755	4186.244730
869.207515	4181.082588
869.519233	4224.353333
869.830909	4236.605857
870.142542	4262.270371
870.454134	4276.562042
870.765684	4305.825940
871.077191	4345.000747
871.388657	4364.784755
871.700081	4405.368564
872.011463	4444.986992
872.322803	4481.326150
872.634101	4516.334443
872.945357	4553.729722
873.256571	4606.424903
873.567744	4635.890447
873.878874	4654.714116
874.189963	4692.794992
874.501010	4703.635993
874.812015	4700.558369
875.122979	4745.618722
875.433900	4744.078650
875.744780	4757.334364
876.055618	4786.817552
876.366415	4784.123056
876.677169	4807.072908
876.987882	4855.664590
877.298554	4908.417745
877.609183	4986.437162
877.919771	5097.972691
878.230317	5245.867542
878.540822	5461.384431
878.851285	5792.089164
879.161707	6255.245174
879.472087	7019.317739
879.782425	8271.878112
880.092722	10463.522267
880.402977	13769.442903
880.713191	17493.035739
881.023363	21168.142757
881.333494	23346.760571
881.643583	24546.451843
881.953631	24560.499018
882.263637	23756.762654
882.573602	22275.177621
882.883526	20725.975592
883.193408	19069.649043
883.503248	17373.124333
883.813048	15827.090669
884.122806	14402.863884
884.432522	12943.182665
884.742197	11672.690908
885.051831	10580.005688
885.361424	9582.643647
885.670975	8764.534953
885.980485	8068.696926
886.289954	7494.582600
886.599382	7019.751278
886.908768	6643.729092
887.218113	6272.490961
887.527417	5987.096118
887.836680	5718.934460
888.145901	5494.855172
888.455082	5336.595708
888.764221	5183.513510
889.073319	5048.282038
889.382376	4973.065502
889.691392	4913.128703
890.000366	4889.465527
890.309300	4872.340727
890.618193	4879.400863
890.927044	4864.292525
891.235855	4885.283890
891.544625	4916.662552
891.853353	4974.489628
892.162041	5098.496971
892.470687	5284.414725
892.779293	5532.502509
893.087858	5914.523668
893.396381	6494.654611
893.704864	7300.825852
894.013306	8454.292263
894.321707	9634.441502
894.630068	10441.656262
894.938387	10650.372634
895.246665	10414.973435
895.554903	9813.825921
895.863100	9109.367521
896.171256	8549.880102
896.479371	8040.405971
896.787446	7544.137142
897.095480	7110.555062
897.403473	6795.644263
897.711425	6476.327496
898.019336	6205.738522
898.327207	5929.911790
898.635038	5702.858221
898.942827	5455.821517
899.250576	5255.932206
899.558284	5063.367691
899.865952	4942.664823
900.173579	4794.016320
900.481165	4681.953991
900.788711	4593.484261
901.096216	4518.446686
901.403681	4452.906645
901.711105	4429.674488
902.018489	4415.753341
902.325832	4485.200277
902.633135	4606.651755
902.940397	4960.215601
903.247619	5757.922744
903.554800	7196.567229
903.861941	9122.093913
904.169041	10633.492330
904.476101	11251.378996
904.783121	10888.539427
905.090100	10155.530452
905.397039	9320.488523
905.703938	8563.241680
906.010796	7873.044704
906.317614	7322.699418
906.624391	6787.059178
906.931129	6357.121852
907.237826	5958.114525
907.544483	5583.249284
907.851099	5204.230132
908.157675	4852.128221
908.464211	4528.516391
908.770707	4294.614414
909.077163	4095.277109
909.383578	3948.022484
909.689954	3835.720700
909.996289	3762.129936
910.302584	3694.926314
910.608839	3664.240811
910.915054	3634.165287
911.221229	3620.833956
911.527363	3628.405769
911.833458	3641.669045
912.139513	3672.074764
912.445527	3701.472253
912.751502	3784.366466
913.057436	3888.075603
913.363331	4022.026623
913.669186	4227.367943
913.975000	4491.965505
914.280775	4916.281945
914.586510	5498.391541
914.892205	6292.713550
915.197859	7327.526323
915.503475	8546.414309
915.809050	9594.497920
916.114585	10239.505993
916.420081	10499.314459
916.725536	10470.368154
917.030952	10019.963743
917.336328	9615.088513
917.641665	9202.439823
917.946961	8727.384170
918.252218	8309.265829
918.557435	7799.595093
918.862612	7368.203394
919.167750	6991.803121
919.472848	6568.086579
919.777906	6193.574218
920.082925	5834.039126
920.387904	5469.919104
920.692843	5203.584864
920.997743	4958.085713
921.302603	4720.508735
921.607423	4559.756421
921.912204	4397.514447
922.216946	4278.079430
922.521647	4159.259433
922.826310	4048.583421
923.130932	3956.179071
923.435516	3862.416130
923.740059	3787.847383
924.044564	3713.487843
924.349028	3656.114471
924.653454	3584.661156
924.957840	3517.886032
925.262186	3475.081595
925.566493	3409.206317
925.870761	3355.510467
926.174989	3319.287256
926.479178	3279.537758
926.783328	3238.056624
927.087438	3210.945298
927.391509	3174.553209
927.695541	3144.195380
927.999533	3118.793006
928.303486	3098.265428
928.607400	3080.830597
928.911275	3068.129410
929.215110	3051.962429
929.518906	3040.836603
929.822663	3041.759134
930.126381	3036.392826
930.430060	3045.106460
930.733699	3050.871020
931.037299	3060.728996
931.340861	3055.713048
931.644383	3065.414748
931.947866	3064.250242
932.251309	3056.862431
932.554714	3056.315466
932.858080	3052.743808
933.161407	3043.692417
933.464694	3037.915254
933.767943	3027.800179
934.071153	3022.592667
934.374323	3013.626975
934.677455	3008.202693
934.980548	3000.323370
935.283602	2997.497803
935.586617	2990.120075
935.889593	3002.415449
936.192530	3009.334433
936.495428	3022.665764
936.798287	3042.616130
937.101108	3074.609813
937.403890	3127.352885
937.706632	3189.964016
938.009336	3269.747837
938.312002	3340.520596
938.614628	3406.400915
938.917216	3456.719192
939.219765	3492.012310
939.522275	3522.286960
939.824747	3527.101262
940.127179	3524.789893
940.429573	3521.114892
940.731929	3516.449304
941.034246	3498.792662
941.336524	3487.286229
941.638763	3473.700319
941.940964	3457.200623
942.243126	3416.218562
942.545250	3392.520098
942.847335	3355.699510
943.149381	3320.693738
943.451389	3290.383801
943.753359	3253.175044
944.055290	3230.298288
944.357182	3204.545553
944.659036	3192.855118
944.960851	3180.834486
945.262628	3166.646159
945.564367	3167.251097
945.866067	3160.203564
946.167729	3155.842966
946.469352	3155.689211
946.770937	3149.007162
947.072484	3136.149699
947.373992	3143.401398
947.675462	3132.693988
947.976893	3115.899384
948.278286	3104.241715
948.579641	3099.661827
948.880958	3090.885178
949.182236	3097.796600
949.483476	3089.710589
949.784678	3090.625559
950.085841	3090.169334
950.386967	3102.021087
950.688054	3115.188581
950.989103	3140.288486
951.290114	3160.690036
951.591087	3188.242462
951.892021	3215.620968
952.192917	3244.945360
952.493776	3270.380502
952.794596	3277.486008
953.095378	3281.904580
953.396122	3275.126748
953.696828	3269.468053
953.997496	3256.088831
954.298126	3231.717373
954.598718	3212.036708
954.899272	3187.965198
955.199788	3160.231291
955.500266	3128.761888
955.800706	3092.795776
956.101108	3056.829663
956.401472	3024.447812
956.701798	2986.379538
957.002087	2951.177161
957.302337	2922.147677
957.602550	2894.842267
957.902724	2865.285982
958.202861	2842.386541
958.502960	2818.249496
958.803022	2801.361631
959.103045	2780.007303
959.403031	2762.980806
959.702979	2749.876326
960.002889	2735.317474
960.302762	2721.913046
960.602596	2708.899307
960.902393	2702.718853
961.202153	2695.205013
961.501875	2685.672191
961.801559	2679.264884
962.101205	2673.661642
962.400814	2668.754079
962.700385	2659.896771
962.999918	2656.070536
963.299414	2647.324134
963.598873	2644.841365
963.898293	2639.724594
964.197677	2640.274080
964.497022	2637.521610
964.796331	2637.965232
965.095601	2635.618574
965.394835	2632.044396
965.694030	2631.825106
965.993189	2628.263531
966.292309	2626.037862
966.591393	2627.666154
966.890439	2627.497276
967.189447	2625.400156
967.488419	2623.983591
967.787353	2628.381998
968.086249	2627.461987
968.385108	2629.448202
968.683930	2632.094808
968.982714	2638.807104
969.281462	2642.643422
969.580172	2647.566109
969.878844	2650.159783
970.177480	2661.474652
970.476078	2669.157371
970.774639	2674.995027
971.073162	2684.237983
971.371649	2688.860721
971.670098	2691.701411
971.968510	2699.595858
972.266885	2700.732638
972.565223	2706.398895
972.863524	2708.901828
973.161788	2713.975749
973.460014	2715.503219
973.758204	2720.395659
974.056356	2722.250803
974.354471	2722.094527
974.652550	2723.518653
974.950591	2720.957747
975.248595	2720.320041
975.546563	2717.103785
975.844493	2714.003476
976.142386	2708.274204
976.440243	2703.248174
976.738062	2699.474870
977.035845	2693.438088
977.333590	2686.080524
977.631299	2681.886284
977.928971	2675.166426
978.226606	2668.101249
978.524204	2668.083605
978.821765	2661.502379
979.119290	2665.250477
979.416777	2664.804335
979.714228	2666.099911
980.011642	2670.596620
980.309020	2678.818742
980.606360	2692.644107
980.903664	2714.956254
981.200931	2751.413878
981.498162	2800.358441
981.795356	2872.570449
982.092513	2963.923719
982.389633	3066.082701
982.686717	3161.879748
982.983764	3234.235429
983.280775	3282.446504
983.577749	3288.823563
983.874686	3275.285545
984.171587	3243.387644
984.468451	3204.613609
984.765279	3160.891682
985.062070	3113.819908
985.358824	3069.177970
985.655543	3013.180833
985.952224	2962.325673
986.248869	2899.591034
986.545478	2838.782116
986.842050	2786.351595
987.138586	2743.358114
987.435086	2703.381764
987.731549	2673.855726
988.027975	2647.992087
988.324366	2629.927112
988.620719	2617.483023
988.917037	2606.614296
989.213318	2596.615167
989.509563	2591.067377
989.805772	2585.373394
990.101944	2582.600759
990.398080	2581.605132
990.694180	2580.012127
990.990244	2580.256623
991.286271	2579.472723
991.582262	2579.119843
991.878217	2582.265523
992.174136	2588.304825
992.470019	2589.003025
992.765865	2592.511668
993.061676	2597.908223
993.357450	2604.645725
993.653188	2610.695110
993.948890	2631.593213
994.244556	2647.843372
994.540186	2669.923626
994.835780	2702.537371
995.131337	2739.940212
995.426859	2780.513939
995.722345	2826.832060
996.017795	2876.431973
996.313208	2914.535534
996.608586	2940.852878
996.903928	2954.942903
997.199234	2954.380814
997.494504	2953.218828
997.789738	2935.857095
998.084936	2915.173240
998.380099	2881.450442
998.675225	2851.629496
998.970316	2821.637151
999.265371	2783.808333
999.560390	2748.663929
999.855373	2723.216184
1000.150320	2693.906916
1000.445232	2666.604027
1000.740108	2648.329844
1001.034948	2627.928294
1001.329752	2613.828187
1001.624521	2602.173039
1001.919254	2590.888416
1002.213951	2584.236614
1002.508613	2572.967114
1002.803239	2568.087278
1003.097829	2561.647203
1003.392384	2558.713252
1003.686903	2555.381049
1003.981386	2548.666232
1004.275834	2545.586087
1004.570246	2542.785726
1004.864623	2543.511652
1005.158964	2539.148534
1005.453270	2538.369676
1005.747540	2535.599562
1006.041775	2533.840199
1006.335974	2532.133768
1006.630138	2530.581093
1006.924266	2529.928263
1007.218359	2527.256452
1007.512416	2528.577234
1007.806438	2524.211595
1008.100425	2528.667975
1008.394376	2523.689836
1008.688292	2528.310053
1008.982172	2527.541277
1009.276017	2528.607481
1009.569827	2525.754188
1009.863602	2524.289733
1010.157341	2524.667819
1010.451045	2523.273940
1010.744714	2523.329393
1011.038347	2524.360309
1011.331945	2519.611542
1011.625508	2520.859228
1011.919036	2520.602129
1012.212528	2517.791686
1012.505986	2518.232787
1012.799408	2515.591222
1013.092795	2516.002076
1013.386147	2517.214473
1013.679464	2510.960922
1013.972745	2512.644668
1014.265992	2516.392765
1014.559204	2516.589370
1014.852380	2516.173475
1015.145521	2514.880419
1015.438628	2515.876047
1015.731699	2513.138701
1016.024736	2513.715913
1016.317737	2516.251613
1016.610703	2518.996521
1016.903635	2518.676408
1017.196531	2524.002387
1017.489393	2519.230935
1017.782219	2522.394259
1018.075011	2524.125895
1018.367768	2525.121523
1018.660490	2526.071781
1018.953177	2526.071781
1019.245829	2526.071781
