Dividing Wavelength (nm)	Counts (n)	Blue Motor Position (mm): 34.800000	Red Motor Position (mm): 0.000000	
326.493990	2228.409290
326.888308	2228.409290
327.282561	2228.409290
327.676750	2190.633404
328.070874	2186.499658
328.464933	2186.839936
328.858929	2189.090811
329.252859	2194.515092
329.646726	2205.376258
330.040528	2216.643237
330.434265	2229.107490
330.827938	2245.713051
331.221547	2261.938004
331.615091	2279.335026
332.008571	2296.810186
332.401986	2316.904225
332.795338	2336.042966
333.188625	2356.762108
333.581847	2376.843545
333.975006	2394.376678
334.368100	2411.579615
334.761129	2433.150713
335.154095	2448.548917
335.546996	2476.802064
335.939833	2514.076355
336.332606	2527.793335
336.725315	2543.675490
337.117960	2553.977088
337.510540	2566.648028
337.903056	2578.141859
338.295508	2584.816347
338.687896	2594.523088
339.080220	2601.225302
339.472480	2609.051694
339.864676	2614.614607
340.256807	2619.648199
340.648875	2621.147942
341.040879	2624.754888
341.432818	2630.252266
341.824694	2632.230919
342.216506	2633.750827
342.608253	2632.266207
342.999937	2633.750827
343.391557	2635.447175
343.783113	2633.302164
344.174605	2631.920888
344.566033	2633.720580
344.957397	2630.466515
345.348697	2628.525671
345.739934	2628.583644
346.131106	2626.967954
346.522215	2626.173973
346.913260	2622.556945
347.304241	2621.926801
347.695159	2620.779938
348.086012	2619.375977
348.476802	2615.388424
348.867528	2612.086468
349.258191	2608.356014
349.648789	2607.942640
350.039324	2605.830396
350.429796	2607.932557
350.820203	2605.563215
351.210548	2605.805191
351.600828	2605.225458
351.991045	2605.427104
352.381198	2602.346959
352.771288	2601.210179
353.161314	2599.942329
353.551276	2600.401074
353.941175	2601.338728
354.331010	2600.126331
354.720782	2599.455857
355.110490	2600.582555
355.500135	2598.712287
355.889717	2598.135075
356.279235	2599.360075
356.668689	2599.062647
357.058080	2602.399891
357.447408	2599.377719
357.836672	2599.581886
358.225873	2598.432503
358.615010	2599.849067
359.004084	2599.864191
359.393095	2602.959459
359.782043	2602.737648
360.170927	2604.386106
360.559748	2602.349480
360.948505	2601.915940
361.337199	2605.709409
361.725830	2605.777464
362.114398	2606.009357
362.502903	2605.144799
362.891344	2610.750562
363.279722	2607.771241
363.668037	2608.686210
364.056289	2609.102105
364.444478	2611.085799
364.832603	2608.643360
365.220665	2610.795933
365.608665	2607.466251
365.996601	2611.325254
366.384474	2608.570263
366.772284	2612.013372
367.160031	2612.479678
367.547715	2613.853393
367.935336	2615.385903
368.322893	2610.243927
368.710388	2609.926334
369.097820	2612.048660
369.485189	2611.121087
369.872495	2615.776593
370.259738	2613.727364
370.646918	2615.703496
371.034035	2616.515122
371.421090	2616.976387
371.808081	2618.897067
372.195010	2617.288939
372.581875	2616.651233
372.968678	2617.591408
373.355418	2617.576285
373.742096	2616.681480
374.128710	2618.345061
374.515262	2619.131481
374.901751	2617.873713
375.288177	2619.650720
375.674540	2617.220883
376.060841	2621.868827
376.447079	2623.240021
376.833254	2619.149125
377.219367	2620.361522
377.605417	2624.006277
377.991404	2620.981584
378.377329	2622.950155
378.763191	2619.338168
379.148991	2621.183230
379.534727	2622.314969
379.920402	2623.545011
380.306013	2622.118364
380.691563	2626.489045
381.077049	2622.728344
381.462474	2625.669857
381.847835	2624.893520
382.233134	2628.049282
382.618371	2627.537605
383.003545	2627.018366
383.388657	2627.295629
383.773706	2629.022225
384.158693	2627.842595
384.543618	2626.549539
384.928480	2630.106073
385.313280	2631.273100
385.698017	2628.084570
386.082692	2629.677575
386.467305	2631.000877
386.851856	2631.096659
387.236344	2634.295272
387.620770	2628.714714
388.005133	2630.373254
388.389435	2631.464664
388.773674	2629.115486
389.157851	2635.323667
389.541965	2637.022536
389.926018	2639.217958
390.310008	2638.366003
390.693936	2639.863226
391.077802	2640.185860
391.461606	2639.540592
391.845348	2639.948926
392.229027	2642.681231
392.612645	2643.830614
392.996200	2643.323978
393.379694	2641.756179
393.763125	2644.123001
394.146494	2642.938330
394.529801	2645.330357
394.913047	2644.901859
395.296230	2647.782879
395.679351	2648.002169
396.062410	2648.559216
396.445408	2648.796151
396.828343	2650.076604
397.211217	2648.347488
397.594028	2648.153403
397.976778	2653.348313
398.359466	2650.240441
398.742092	2652.445946
399.124656	2654.296049
399.507158	2654.827891
399.889598	2653.527273
400.271977	2655.896616
400.654294	2654.278405
401.036549	2658.442398
401.418742	2659.488438
401.800874	2663.506237
402.182944	2660.453819
402.564952	2663.228974
402.946898	2665.671413
403.328783	2669.842968
403.710606	2669.739624
404.092367	2674.206087
404.474067	2680.152127
404.855705	2682.781089
405.237282	2690.234435
405.618797	2702.179449
406.000250	2714.744525
406.381642	2730.430075
406.762972	2746.559247
407.144240	2767.555653
407.525447	2789.230094
407.906593	2816.512818
408.287677	2855.962368
408.668700	2888.432440
409.049661	2935.579831
409.430560	2981.872747
409.811399	3016.412213
410.192176	3092.669747
410.572891	3156.422699
410.953545	3246.215731
411.334138	3270.814041
411.714669	3366.676623
412.095139	3398.219123
412.475547	3516.179602
412.855894	3607.484980
413.236180	3729.067529
413.616405	3736.193200
413.996568	3870.585320
414.376670	3961.089155
414.756711	4015.805839
415.136691	4133.405876
415.516609	4284.259884
415.896466	4380.283783
416.276262	4543.392836
416.655997	4628.631186
417.035670	4807.498886
417.415283	5057.265374
417.794834	5177.716183
418.174324	5225.080344
418.553753	5285.395229
418.933121	5556.727773
419.312428	5706.200506
419.691674	5681.450961
420.070859	6064.384569
420.449983	5990.521583
420.829045	6306.919521
421.208047	6273.542042
421.586988	6571.136477
421.965867	6674.938876
422.344686	6854.368664
422.723444	6981.652758
423.102141	6615.168435
423.480777	7243.714620
423.859352	6973.501212
424.237866	7547.300466
424.616319	7518.729727
424.994712	7927.743744
425.373044	7666.075092
425.751314	8122.612067
426.129524	8082.106396
426.507673	8281.302549
426.885762	8477.615162
427.263789	8454.380484
427.641756	8444.444369
428.019662	8604.395140
428.397508	8863.500365
428.775292	8645.079772
429.153016	9038.030152
429.530679	8932.012167
429.908282	9025.465077
430.285824	8790.118809
430.663305	9464.831881
431.040726	8986.562492
431.418086	9002.510183
431.795385	9335.760699
432.172624	9440.921688
432.549802	9388.546621
432.926920	9493.213577
433.303977	9386.993945
433.680974	9616.515159
434.057910	9711.598883
434.434786	9784.362897
434.811601	9654.359101
435.188355	10221.050328
435.565050	9959.802613
435.941683	9900.992512
436.318257	10399.855014
436.694770	10520.076451
437.071222	10606.640624
437.447614	10459.713675
437.823946	10356.816163
438.200218	10513.775009
438.576429	10327.774076
438.952580	10561.691176
439.328670	10633.290684
439.704700	10410.580069
440.080670	10401.158153
440.456580	10975.504372
440.832429	10712.794722
441.208218	10328.837759
441.583947	10668.092290
441.959616	10798.758998
442.335224	10603.101734
442.710773	10758.371793
443.086261	10953.484612
443.461689	10247.342466
443.837057	10880.355114
444.212365	11175.703715
444.587612	10816.304733
444.962800	11052.376927
445.337927	10840.010759
445.712995	10401.906764
446.088002	11494.972591
446.462949	11145.998716
446.837837	11120.918975
447.212664	11122.390992
447.587431	11617.349121
447.962139	12325.676607
448.336786	14583.042284
448.711374	15146.837369
449.085901	13003.865554
449.460369	12612.477931
449.834776	12062.046946
450.209124	12922.682813
450.583412	13331.437210
450.957640	14285.725113
451.331808	13450.446250
451.705917	12421.463571
452.079965	11742.936866
452.453954	12640.022796
452.827883	12268.895570
453.201752	12564.362638
453.575562	12071.347874
453.949311	12495.881084
454.323001	12448.148919
454.696632	12672.447497
455.070202	12955.924181
455.443713	13211.508160
455.817164	13661.040452
456.190556	13660.894258
456.563888	14025.316749
456.937160	14201.565570
457.310373	13527.449875
457.683526	13609.671094
458.056619	13171.125997
458.429653	13306.155824
458.802628	12750.973551
459.175542	13118.629942
459.548398	14064.088263
459.921194	14385.678591
460.293930	14456.905053
460.666607	15343.928840
461.039224	16380.909310
461.411782	17073.768015
461.784280	16967.871017
462.156719	17016.689551
462.529099	16701.206581
462.901419	15633.613705
463.273680	15419.278967
463.645882	15280.869047
464.018024	15019.908677
464.390106	15238.228447
464.762130	15964.189889
465.134094	16724.494191
465.505999	18701.390234
465.877845	21959.344292
466.249631	24796.621623
466.621358	24494.127186
466.993026	23050.562536
467.364634	22489.461948
467.736184	21032.167715
468.107674	20232.353369
468.479105	20355.720486
468.850477	19822.943621
469.221790	19401.649353
469.593043	18725.975941
469.964238	18167.859717
470.335373	17827.496132
470.706449	18258.353469
471.077467	17808.218760
471.448425	19646.924173
471.819324	23660.486698
472.190164	25694.478849
472.560945	22158.258140
472.931667	19784.277971
473.302330	19143.378438
473.672934	18665.416560
474.043479	18997.681531
474.413965	18805.001069
474.784393	18440.573537
475.154761	19117.794583
475.525070	19118.701990
475.895321	18780.463253
476.265513	19377.290498
476.635645	19942.918041
477.005719	19730.761082
477.375734	19919.209495
477.745691	20405.698485
478.115588	20914.514746
478.485427	21447.561312
478.855207	22499.148525
479.224928	24257.986937
479.594591	26491.248338
479.964194	26528.494903
480.333739	26728.106952
480.703226	26297.176518
481.072653	25956.800331
481.442022	26535.912961
481.811333	27447.628319
482.180584	27374.518986
482.549777	26420.641937
482.918912	26071.615130
483.287988	26206.092950
483.657005	25873.006272
484.025964	25609.449707
484.394864	25529.892738
484.763706	25211.589243
485.132489	24630.472754
485.501213	24820.741023
485.869879	24735.689196
486.238487	24544.425299
486.607036	24700.968249
486.975527	24390.327308
487.343959	24716.915939
487.712333	24657.848740
488.080648	24322.385157
488.448905	24791.330932
488.817104	24543.822881
489.185244	25224.872683
489.553326	25202.139600
489.921350	26191.193820
490.289315	28471.161511
490.657222	30260.483781
491.025070	30753.715314
491.392861	30544.514991
491.760593	29681.411480
492.128267	28796.943558
492.495883	27757.732378
492.863440	26877.065486
493.230939	25987.753015
493.598380	25851.054567
493.965763	25454.272910
494.333088	24988.848381
494.700354	24923.273052
495.067563	24805.998169
495.434713	24546.277923
495.801805	24706.102664
496.168839	24519.695919
496.535815	24346.764177
496.902733	24560.123452
497.269593	24227.871084
497.636395	24412.740278
498.003139	24391.055755
498.369825	24144.639114
498.736453	24344.140257
499.103023	24212.419948
499.469535	24231.387289
499.835989	24433.222486
500.202385	24457.004129
500.568723	23972.559327
500.935003	24210.804258
501.301226	23826.527183
501.667390	24674.600494
502.033497	24910.455918
502.399546	24632.474092
502.765537	24190.443038
503.131470	24577.724641
503.497345	24712.212543
503.863163	23935.481641
504.228923	24528.439800
504.594625	24737.309927
504.960269	24271.706437
505.325856	24773.618838
505.691385	24159.515559
506.056856	24770.231182
506.422270	24730.007816
506.787625	24316.691174
507.152924	24728.263577
507.518164	24757.419090
507.883347	24569.505039
508.248472	24244.262396
508.613540	25026.858681
508.978550	24807.102182
509.343503	24818.033924
509.708398	25062.630708
510.073236	25220.010490
510.438016	25430.082933
510.802738	25110.032678
511.167403	25366.198911
511.532010	25052.868514
511.896561	25840.747928
512.261053	25805.059079
512.625488	25633.483408
512.989866	25531.165629
513.354186	25373.657298
513.718449	25486.377498
514.082655	25872.965942
514.446803	25599.871515
514.810894	26079.756594
515.174927	25547.599791
515.538904	25579.003659
515.902822	26080.212818
516.266684	25830.791649
516.630488	25733.961166
516.994235	25706.680962
517.357925	26006.851427
517.721558	26185.860279
518.085133	26284.200588
518.448651	26192.638111
518.812112	25923.463180
519.175516	26146.141028
519.538863	26294.194675
519.902152	26077.450266
520.265385	26358.628183
520.628560	26148.485165
520.991678	26164.526116
521.354739	26231.971713
521.717743	26298.782125
522.080690	26088.813027
522.443580	26425.489007
522.806413	26407.918065
523.169189	26513.641143
523.531908	26546.869909
523.894569	26152.792831
524.257174	26235.838278
524.619722	26421.849294
524.982213	26118.805371
525.344647	26164.009398
525.707025	26304.488712
526.069345	26293.609902
526.431608	26244.100730
526.793815	26421.448522
527.155964	25882.526491
527.518057	26063.100621
527.880093	25988.932645
528.242072	26223.091721
528.603995	25936.706292
528.965860	25732.242133
529.327669	25764.800425
529.689421	25756.177531
530.051117	25594.033859
530.412755	25778.814832
530.774337	25560.152264
531.135862	25442.895025
531.497331	25643.885829
531.858743	25202.358890
532.220098	25683.721027
532.581396	25352.618042
532.942638	25289.049092
533.303824	25384.510902
533.664953	25403.011937
534.026025	25063.757406
534.387040	25308.202956
534.747999	25354.064853
535.108902	25518.555183
535.469748	25020.247207
535.830537	25199.356883
536.191270	25318.252497
536.551947	25182.350551
536.912567	24835.909855
537.273131	25196.901841
537.633638	24899.599793
537.994089	25099.683189
538.354483	24642.127902
538.714821	25146.258410
539.075103	25183.199985
539.435328	24964.507169
539.795497	24527.383678
540.155609	24917.632000
540.515665	25226.115328
540.875665	24444.567603
541.235609	24747.258644
541.595496	24710.125505
541.955328	25073.431381
542.315102	24981.548790
542.674821	24522.750858
543.034483	24407.542848
543.394090	24579.562141
543.753640	24364.451065
544.113134	24999.885987
544.472571	24599.081489
544.831953	24900.608024
545.191278	24509.364074
545.550548	24433.356077
545.909761	24638.861234
546.268918	24872.407809
546.628019	24832.234854
546.987064	24531.711509
547.346053	24288.301916
547.704986	24401.788371
548.063863	24557.491970
548.422684	24572.043260
548.781449	24095.782771
549.140158	24506.155379
549.498811	24073.987343
549.857408	23830.653367
550.215949	24243.687704
550.574434	23931.168933
550.932864	24137.742815
551.291237	24304.607528
551.649555	24167.087372
552.007817	24224.642225
552.366022	24086.088632
552.724173	24130.723008
553.082267	24070.685387
553.440305	24548.249014
553.798288	23802.871568
554.156215	24320.366175
554.514086	24415.313787
554.871902	23777.983392
555.229661	24077.793414
555.587365	23933.525673
555.945014	23800.981135
556.302606	24040.123392
556.660143	23995.163861
557.017625	24248.058385
557.375050	23776.506333
557.732421	24160.581763
558.089735	23978.283557
558.446994	24046.432396
558.804197	24075.691252
559.161345	24007.212219
559.518437	23773.494244
559.875474	23958.456699
560.232455	24145.160873
560.589381	23975.694925
560.946251	23948.182828
561.303065	24268.107054
561.659825	24365.449214
562.016528	23959.250681
562.373177	23695.227810
562.729770	24046.540780
563.086307	23899.034098
563.442789	24083.643673
563.799216	23916.398353
564.155587	23918.311471
564.511904	23907.203288
564.868164	23835.702083
565.224370	23814.123423
565.580520	23734.989911
565.936615	23873.314131
566.292654	23549.520820
566.648638	23838.913298
567.004567	23672.822402
567.360441	23619.670996
567.716260	23339.299663
568.072023	23673.583616
568.427732	23427.809722
568.783385	23207.425599
569.138982	23444.669861
569.494525	23485.276355
569.850013	23232.764959
570.205445	23325.975894
570.560823	23138.356750
570.916145	22888.764182
571.271412	23072.075660
571.626625	22826.873937
571.981782	22945.603192
572.336884	22750.692020
572.691931	22885.414336
573.046923	22612.118262
573.401860	22497.820181
573.756743	22506.821161
574.111570	22410.058734
574.466342	22343.946522
574.821059	22420.007451
575.175722	22126.266978
575.530330	22122.634827
575.884882	22144.573928
576.239380	22051.433570
576.593823	21945.743259
576.948211	21919.466244
577.302544	21760.254003
577.656823	21629.012604
578.011047	21732.066391
578.365216	21600.751895
578.719330	21481.049697
579.073389	21363.903364
579.427394	21519.798526
579.781344	21293.743105
580.135239	21180.423008
580.489080	21134.530864
580.842866	20912.074827
581.196597	21110.857606
581.550273	21083.806774
581.903895	20964.293619
582.257463	21278.980086
582.610975	20810.790485
582.964434	21122.545521
583.317837	20823.811785
583.671186	20906.648025
584.024481	20876.590145
584.377721	20662.946045
584.730906	20724.848894
585.084037	20733.552446
585.437113	20650.189405
585.790135	20841.274342
586.143103	20312.381686
586.496016	20331.568318
586.848874	20574.493960
587.201679	20495.514202
587.554428	20179.317910
587.907124	20498.286837
588.259765	20276.586973
588.612352	20356.060764
588.964884	19920.676471
589.317362	20093.555280
589.669786	20153.981071
590.022155	20175.771458
590.374470	20384.306349
590.726731	20172.409008
591.078937	19943.044070
591.431090	20029.361227
591.783188	19786.788466
592.135232	19758.255535
592.487222	19852.784731
592.839157	19873.060252
593.191038	19750.028372
593.542866	19643.808740
593.894639	19355.346355
594.246358	19573.025898
594.598022	19480.588781
594.949633	19230.028311
595.301190	19201.848261
595.652692	19363.807932
596.004141	19596.542881
596.355535	18921.119007
596.706876	18938.611810
597.058162	18829.841354
597.409395	19073.573581
597.760573	19130.445358
598.111698	18910.293129
598.462768	18854.850519
598.813785	18815.090938
599.164748	18629.349625
599.515657	18667.380089
599.866511	18467.783165
600.217312	18825.790787
600.568060	18338.520418
600.918753	18657.517072
601.269392	18555.700888
601.619978	18336.463628
601.970510	18539.959885
602.320988	18488.126741
602.671412	18699.570377
603.021783	18601.966077
603.372100	18331.472885
603.722363	18479.889496
604.072572	18413.381553
604.422728	18554.980003
604.772830	18322.212286
605.122878	18274.187733
605.472872	18264.909490
605.822813	18251.840298
606.172701	18217.210092
606.522534	18416.227284
606.872314	18432.737063
607.222041	18269.398637
607.571714	18489.850816
607.921333	18311.651068
608.270899	18391.318943
608.620411	18557.596362
608.969870	18346.447633
609.319276	18339.188371
609.668627	18367.401189
610.017926	18502.120984
610.367171	18617.976782
610.716362	18659.977155
611.065500	18477.099217
611.414585	18618.692626
611.763616	18597.426518
612.112594	18530.779944
612.461518	18505.284308
612.810389	18703.515080
613.159207	18562.337567
613.507971	18468.889698
613.856682	18744.857583
614.205340	18667.314554
614.553945	18816.767122
614.902496	18560.739521
615.250994	18791.805849
615.599439	18733.207476
615.947830	18721.534685
616.296169	18779.631462
616.644454	18735.964987
616.992686	18708.457932
617.340864	18923.773174
617.688990	18677.154887
618.037063	18852.708028
618.385082	18703.590697
618.733048	18985.053440
619.080961	18857.272793
619.428821	18897.864164
619.776628	18779.843191
620.124382	18715.961689
620.472083	18751.385877
620.819731	18770.116284
621.167326	18458.449468
621.514868	18497.667125
621.862357	18277.983722
622.209793	18288.244991
622.557176	18121.440772
622.904506	17941.032999
623.251783	17853.384978
623.599007	17602.804344
623.946179	17552.349955
624.293297	17493.010533
624.640363	17240.690701
624.987376	17268.543076
625.334336	17059.738484
625.681243	16906.172335
626.028097	16913.786998
626.374899	16837.211871
626.721647	16705.322683
627.068343	16543.254628
627.414987	16480.051162
627.761577	16443.046572
628.108115	16479.408415
628.454600	16213.880759
628.801032	16308.898948
629.147412	16236.495376
629.493739	16259.596463
629.840014	16061.191771
630.186236	16160.694066
630.532405	15926.537511
630.878521	16120.122860
631.224585	16024.424116
631.570597	15840.732031
631.916556	15876.108328
632.262462	15851.240316
632.608316	15761.979126
632.954117	15713.730242
633.299866	15699.763726
633.645562	15616.864471
633.991206	15380.015940
634.336797	15244.187091
634.682336	15217.970570
635.027823	15099.127889
635.373257	14980.020547
635.718639	14884.183171
636.063968	14831.520758
636.409245	14575.712447
636.754470	14605.518269
637.099642	14456.015290
637.444762	14227.829982
637.789829	14269.805149
638.134845	14110.013175
638.479808	14133.525117
638.824719	14077.182661
639.169577	13935.609417
639.514383	13978.310510
639.859137	13803.763079
640.203839	13889.679464
640.548489	13729.801790
640.893086	13714.237228
641.237632	13586.620418
641.582125	13738.021392
641.926566	13559.017580
642.270955	13581.506168
642.615292	13534.111760
642.959576	13547.450653
643.303809	13585.922218
643.647990	13505.399868
643.992118	13568.318509
644.336195	13337.940299
644.680219	13553.283268
645.024192	13465.312612
645.368112	13716.281416
645.711981	13765.493159
646.055797	13951.640286
646.399562	13924.907047
646.743274	14188.327500
647.086935	14464.953256
647.430544	14423.903140
647.774101	14464.915447
648.117606	14613.493374
648.461059	14583.241410
648.804460	14569.675665
649.147810	14296.014108
649.491108	14192.872100
649.834354	14211.141242
650.177548	13900.008788
650.520690	13718.358371
650.863781	13635.464158
651.206820	13677.010827
651.549807	13506.634951
651.892742	13305.155155
652.235626	13246.894540
652.578458	13252.543153
652.921238	12946.522429
653.263967	13138.030822
653.606644	12959.740334
653.949269	12935.794854
654.291843	12747.361564
654.634365	12900.637847
654.976836	12756.707863
655.319255	12762.059048
655.661622	12710.384701
656.003938	12634.142290
656.346203	12564.707957
656.688416	12637.424081
657.030577	12596.757093
657.372687	12506.066735
657.714746	12489.682985
658.056753	12681.677850
658.398708	12492.576608
658.740612	12497.935354
659.082465	12592.136875
659.424266	12565.627968
659.766016	12585.916092
660.107715	12508.163855
660.449362	12576.746233
660.790958	12526.702698
661.132503	12470.758494
661.473996	12540.238197
661.815438	12560.175960
662.156829	12577.230183
662.498168	12557.579766
662.839456	12561.000189
663.180693	12573.650964
663.521879	12669.311900
663.863013	12638.046663
664.204097	12619.747275
664.545129	12740.558527
664.886110	12707.939741
665.227040	12805.644864
665.567918	12805.874237
665.908746	12834.389523
666.249522	12816.594250
666.590248	12869.622148
666.930922	12981.807985
667.271545	12964.262249
667.612118	13053.122668
667.952639	12951.775311
668.293109	12967.092857
668.633528	12920.986464
668.973896	12895.831107
669.314213	12971.120739
669.654480	12707.410420
669.994695	12783.373047
670.334859	12803.025985
670.674973	12756.417997
671.015035	12784.729117
671.355047	12730.398081
671.695008	12697.557485
672.034918	12710.750184
672.374777	12745.939959
672.714585	12663.675890
673.054342	12702.434801
673.394049	12647.249290
673.733705	12746.829722
674.073310	12651.751040
674.412864	12664.089264
674.752368	12531.257381
675.091820	12560.899366
675.431223	12540.255841
675.770574	12410.884709
676.109875	12331.415960
676.449125	12284.744958
676.788324	12228.079868
677.127473	12067.143552
677.466571	12052.632591
677.805619	11954.458640
678.144616	11877.228163
678.483562	11845.264727
678.822458	11715.838143
679.161303	11688.404184
679.500098	11684.693895
679.838842	11632.341512
680.177535	11660.571974
680.516179	11723.856099
680.854771	11670.855928
681.193314	11884.757127
681.531805	12048.050182
681.870247	12462.874129
682.208638	12876.641954
682.546978	13197.765975
682.885268	13242.720464
683.223508	12927.721446
683.561697	12771.531376
683.899836	12677.352540
684.237925	12469.992238
684.575963	12388.338149
684.913951	12304.536528
685.251889	12263.935075
685.589776	12362.986186
685.927614	12270.964964
686.265401	12243.795665
686.603137	12300.750621
686.940824	12449.900720
687.278460	12579.670102
687.616046	12625.277421
687.953582	12782.251390
688.291068	12721.981875
688.628504	12945.506637
688.965889	12960.390643
689.303224	12919.900096
689.640510	12821.703460
689.977745	12496.274294
690.314930	12274.740788
690.652065	12190.349352
690.989150	11899.391596
691.326185	11668.327789
691.663170	11463.475461
692.000105	11223.377907
692.336990	11105.946748
692.673825	10852.767399
693.010610	10734.123843
693.347345	10521.858499
693.684030	10332.192647
694.020665	10264.442060
694.357251	10070.944932
694.693786	10007.398667
695.030272	9851.672383
695.366707	9730.099917
695.703093	9665.232870
696.039429	9665.192541
696.375716	9573.625022
696.711952	9446.313203
697.048139	9492.923711
697.384276	9445.219272
697.720363	9468.332962
698.056400	9404.232171
698.392388	9350.679993
698.728326	9309.455958
699.064214	9244.306606
699.400053	9289.505592
699.735842	9107.323333
700.071581	9065.988392
700.407270	8986.552410
700.742910	8910.768744
701.078501	8822.271288
701.414042	8694.077267
701.749533	8630.362123
702.084974	8483.568764
702.420366	8606.061241
702.755709	8484.440884
703.091002	8356.088066
703.426246	8382.922128
703.761440	8332.838264
704.096584	8289.494424
704.431679	8218.641006
704.766725	8210.731436
705.101721	8160.604723
705.436668	8208.256229
705.771565	8096.645083
706.106413	8178.470572
706.441212	8213.743525
706.775961	8179.398144
707.110661	8216.543886
707.445311	8350.920883
707.779913	8259.083663
708.114465	8387.486893
708.448967	8420.241790
708.783421	8569.570849
709.117825	8756.668233
709.452180	8787.535218
709.786485	8875.886480
710.120742	9160.522629
710.454949	9161.793000
710.789107	9258.464687
711.123216	9473.588365
711.457275	9642.220003
711.791286	9796.872520
712.125247	9801.984250
712.459159	9787.523701
712.793023	10033.519405
713.126837	9607.289848
713.460602	9759.094113
713.794318	9585.827135
714.127985	9614.082803
714.461602	9287.738667
714.795171	9240.563549
715.128691	8988.972164
715.462162	8738.656190
715.795584	8684.753653
716.128957	8536.813431
716.462281	8370.369655
716.795556	8419.543590
717.128782	8208.767907
717.461960	7942.249664
717.795088	8016.616766
718.128167	7923.055471
718.461198	7752.402331
718.794180	7699.313940
719.127113	7691.437137
719.459997	7530.606685
719.792833	7301.191336
720.125619	7367.696758
720.458357	7227.950932
720.791046	7216.711679
721.123686	7210.289249
721.456278	7046.108951
721.788821	7067.478402
722.121315	6964.354038
722.453761	7033.556478
722.786158	6967.807229
723.118506	6978.345761
723.450805	6948.567665
723.783056	7016.212388
724.115259	6928.975221
724.447412	6926.885663
724.779518	6966.617517
725.111574	6973.108002
725.443582	7056.244191
725.775542	7032.270984
726.107453	7227.625777
726.439315	7136.890049
726.771129	7193.449275
727.102895	7369.564505
727.434612	7483.998698
727.766281	7515.029520
728.097901	7586.896209
728.429473	7586.263544
728.760996	7561.939977
729.092471	7536.358642
729.423897	7489.735531
729.755276	7496.715008
730.086606	7418.685508
730.417887	7521.933380
730.749120	7728.179587
731.080305	7917.878206
731.411442	8037.517390
731.742530	8028.097994
732.073570	8142.461610
732.404562	8220.203764
732.735506	8076.813184
733.066401	8216.372487
733.397249	8141.549161
733.728048	7898.830206
734.058798	7566.456851
734.389501	7336.854978
734.720156	7163.388875
735.050762	6930.114522
735.381320	6836.351581
735.711831	6779.353775
736.042293	6675.327044
736.372707	6687.377923
736.703073	6553.570576
737.033391	6594.033397
737.363661	6608.380521
737.693883	6634.687783
738.024056	6715.578137
738.354182	6762.438183
738.684260	6799.714995
739.014290	6916.397542
739.344272	7027.136568
739.674207	7053.340486
740.004093	7124.256918
740.333931	7140.665874
740.663722	7146.306925
740.993464	7225.455561
741.323159	7207.256995
741.652806	6956.520085
741.982405	6983.235680
742.311956	7030.894749
742.641460	6863.452824
742.970915	6670.429563
743.300323	6662.688872
743.629683	6614.223219
743.958996	6480.388146
744.288260	6389.506224
744.617477	6338.487227
744.946647	6339.472772
745.275768	6173.848183
745.604842	6124.674248
745.933869	6108.350992
746.262847	6069.755918
746.591778	6057.372324
746.920662	6012.533781
747.249498	6009.410786
747.578286	6053.868722
747.907027	6129.203725
748.235720	6192.918868
748.564365	6164.597666
748.892963	6198.005393
749.221514	6345.660789
749.550017	6168.151679
749.878473	6052.830244
750.206881	6103.942503
750.535242	6051.214554
750.863555	5980.028421
751.191821	5994.027705
751.520039	5995.008209
751.848210	5903.438170
752.176334	5928.815339
752.504411	5980.509851
752.832440	5898.918776
753.160421	5833.149362
753.488356	5878.597885
753.816243	5908.663326
754.144082	5763.465493
754.471875	5735.454321
754.799620	5778.316732
755.127318	5788.295696
755.454969	5744.737606
755.782572	5706.949117
756.110129	5755.046766
756.437638	5732.245627
756.765100	5675.946021
757.092515	5673.304456
757.419882	5734.191512
757.747203	5709.683943
758.074477	5770.248365
758.401703	5755.250933
758.728882	5711.120672
759.056014	5767.095123
759.383099	5893.244957
759.710138	5905.036216
760.037129	5889.834617
760.364073	5898.255864
760.690970	5978.813503
761.017820	5957.610410
761.344623	5916.177166
761.671379	6017.706005
761.998088	6141.836856
762.324751	6391.333642
762.651366	7004.005234
762.977935	8340.120211
763.304456	9980.020160
763.630931	10870.794565
763.957359	10452.046080
764.283740	9498.632818
764.610074	8660.520826
764.936362	7648.849469
765.262602	7059.029428
765.588796	6520.114959
765.914943	6186.458630
766.241044	6020.929823
766.567097	5817.065561
766.893104	5556.947064
767.219064	5377.673551
767.544978	5316.335311
767.870845	5238.807406
768.196665	5138.097755
768.522438	5059.332247
768.848165	5025.737998
769.173846	4956.636381
769.499479	4913.766409
769.825066	4858.086865
770.150607	4802.493020
770.476101	4776.014360
770.801548	4774.877579
771.126949	4699.136763
771.452303	4642.849760
771.777611	4603.823668
772.102872	4620.497284
772.428087	4583.530503
772.753256	4540.751271
773.078378	4494.977594
773.403453	4428.285650
773.728482	4411.503648
774.053465	4364.391545
774.378401	4354.231100
774.703291	4351.244216
775.028135	4278.359214
775.352932	4231.897419
775.677683	4217.676324
776.002388	4241.082402
776.327046	4248.805449
776.651658	4176.401877
776.976224	4109.994757
777.300743	4119.404071
777.625216	4138.734376
777.949643	4132.319507
778.274024	4086.810491
778.598359	4043.572514
778.922647	4071.046803
779.246889	4061.377870
779.571086	4053.445614
779.895236	4036.600599
780.219339	4023.707848
780.543397	4017.948329
780.867409	4069.973037
781.191374	4085.542641
781.515294	4020.894884
781.839167	4011.541023
782.162995	4033.023900
782.486776	4020.456303
782.810511	4034.604302
783.134201	4027.339999
783.457844	3985.637054
783.781441	3926.416099
784.104993	3932.677212
784.428498	3952.975418
784.751958	3949.592804
785.075372	3928.185544
785.398739	3891.183475
785.722061	3901.565731
786.045337	3945.748924
786.368568	3980.369048
786.691752	3890.492837
787.014891	3942.262966
787.337983	4071.354313
787.661030	4231.627718
787.984031	4393.753746
788.306987	4564.129622
788.629897	4647.865708
788.952760	4600.299901
789.275579	4537.053585
789.598351	4465.670847
789.921078	4320.732632
790.243759	4124.220894
790.566395	4108.242957
790.888984	4100.913119
791.211529	3993.879340
791.534027	3933.637552
791.856480	3920.482661
792.178888	3861.367570
792.501249	3811.664314
792.823566	3823.453052
793.145836	3849.868698
793.468062	3799.353816
793.790241	3750.595776
794.112375	3784.275725
794.434464	3848.656301
794.756507	3868.198334
795.078505	3850.181250
795.400457	3887.200963
795.722364	4029.893343
796.044226	4132.500989
796.366042	4206.832802
796.687812	4183.474616
797.009538	4186.446376
797.331218	4143.780571
797.652852	4123.729381
797.974442	4100.903037
798.295986	4102.291874
798.617484	4011.598996
798.938938	3932.455401
799.260346	3974.753203
799.581709	3969.447388
799.903026	3891.521232
800.224299	3857.677446
800.545526	3850.750900
800.866708	3811.785302
801.187845	3752.541662
801.508936	3786.597177
801.829983	3783.716157
802.150984	3703.995350
802.471940	3696.103424
802.792851	3702.813200
803.113717	3707.859395
803.434538	3705.739589
803.755314	3646.042246
804.076045	3625.300418
804.396731	3645.669200
804.717372	3670.713653
805.037967	3655.885098
805.358518	3643.030156
805.679024	3673.670289
805.999485	3686.764686
806.319901	3691.347095
806.640272	3701.121893
806.960598	3717.679562
807.280879	3693.482024
807.601115	3705.971482
807.921306	3723.285325
808.241453	3762.205554
808.561554	3734.194382
808.881611	3668.820699
809.201623	3706.276472
809.521590	3718.264336
809.841513	3693.746684
810.161390	3720.535376
810.481223	3698.974361
810.801011	3646.218686
811.120755	3637.827685
811.440453	3671.689116
811.760107	3669.218950
812.079716	3629.751757
812.399281	3601.332252
812.718801	3622.671456
813.038276	3598.161366
813.357707	3594.360336
813.677093	3612.256432
813.996434	3558.910942
814.315731	3566.800348
814.634983	3572.206986
814.954191	3588.414295
815.273354	3614.872791
815.592473	3610.441617
815.911547	3617.920169
816.230577	3656.966426
816.549562	3714.377607
816.868502	3752.909666
817.187399	3777.581073
817.506250	3772.010598
817.825058	3745.128645
818.143821	3841.150023
818.462539	3947.422587
818.781213	3990.191736
819.099843	4050.511663
819.418429	4301.498110
819.736970	4540.887382
820.055466	4794.059170
820.373919	5162.983411
820.692327	5575.828705
821.010691	6036.373397
821.329011	7455.342258
821.647286	10262.193706
821.965517	14893.390839
822.283704	18942.402758
822.601847	21057.270140
822.919945	19193.265697
823.237999	16571.855615
823.556010	14059.599116
823.873976	11932.554827
824.191897	9829.539197
824.509775	8475.245819
824.827609	7347.902667
825.145398	6805.532487
825.463144	6691.259611
825.780845	6805.167003
826.098502	7008.078486
826.416116	7910.331599
826.733685	9255.129963
827.051210	10367.579027
827.368692	10373.638494
827.686129	9082.714940
828.003522	7563.835451
828.320872	6544.405758
828.638177	5841.842832
828.955439	5271.365698
829.272656	4772.919091
829.589830	4489.636492
829.906960	4312.709636
830.224046	4128.735247
830.541088	4005.237060
830.858086	3958.845842
831.175041	3877.080847
831.491952	3864.044423
831.808819	3874.887945
832.125642	3952.461220
832.442421	4103.567286
832.759157	4383.479874
833.075849	4943.514258
833.392497	5827.145348
833.709101	6604.816426
834.025662	6934.268432
834.342179	6551.783487
834.658653	5882.030911
834.975083	5225.418102
835.291469	4643.978979
835.607811	4235.048140
835.924110	4097.706945
836.240366	3895.077766
836.556578	3691.200902
836.872746	3584.472113
837.188871	3540.961914
837.504952	3474.721153
837.820990	3390.009603
838.136984	3346.312882
838.452935	3369.880276
838.768842	3367.089998
839.084706	3389.404665
839.400526	3552.715364
839.716303	3900.295360
840.032037	4439.126651
840.347727	4689.616544
840.663373	4399.528388
840.978977	4011.626722
841.294537	3705.830330
841.610054	3476.495639
841.925527	3371.155688
842.240957	3299.495686
842.556344	3246.913931
842.871687	3187.445960
843.186987	3134.965027
843.502244	3100.004626
843.817458	3065.349213
844.132629	3032.168339
844.447756	3040.246788
844.762840	3024.465456
845.077881	2994.273985
845.392879	2977.280256
845.707833	2971.883701
846.022745	2969.612661
846.337613	2972.639874
846.652438	2958.141515
846.967221	2956.624128
847.281960	2942.829010
847.596656	2936.555294
847.911309	2942.289607
848.225919	2931.420879
848.540485	2928.086156
848.855009	2930.037083
849.169490	2920.756318
849.483928	2905.350552
849.798323	2908.972621
850.112675	2902.320819
850.426984	2918.142480
850.741251	2912.733322
851.055474	2902.930798
851.369654	2897.877042
851.683792	2902.877866
851.997887	2911.316758
852.311938	2913.527304
852.625947	2901.786456
852.939914	2905.423649
853.253837	2909.101171
853.567718	2895.512740
853.881555	2895.111969
854.195350	2912.231727
854.509103	2905.126221
854.822812	2900.435427
855.136479	2895.900909
855.450103	2897.735889
855.763685	2888.497975
856.077224	2887.247769
856.390720	2901.763771
856.704173	2910.164854
857.017584	2902.862743
857.330953	2899.623801
857.644278	2907.092271
857.957561	2915.284146
858.270802	2920.814292
858.584000	2917.976122
858.897155	2906.212589
859.210268	2907.069586
859.523339	2900.904254
859.836367	2904.173443
860.149352	2896.762947
860.462295	2891.895713
860.775195	2900.823596
861.088054	2900.437948
861.400869	2886.050495
861.713642	2880.898435
862.026373	2898.590365
862.339062	2898.804614
862.651708	2903.618916
862.964312	2907.230903
863.276873	2899.122207
863.589392	2909.794329
863.901869	2922.934097
864.214303	2945.392437
864.526696	2958.761577
864.839045	2956.177986
865.151353	2955.716720
865.463619	2954.413582
865.775842	2953.085238
866.088023	2975.609113
866.400162	2981.184629
866.712258	2951.179682
867.024313	2943.260029
867.336325	2951.832511
867.648296	2974.222796
867.960224	2966.683750
868.272110	2950.287398
868.583954	2956.185548
868.895755	2972.528968
869.207515	2956.480455
869.519233	2961.899695
869.830909	2969.920171
870.142542	2983.057418
870.454134	2982.709578
870.765684	2984.262254
871.077191	2984.138746
871.388657	2990.762822
871.700081	3004.923423
872.011463	3016.908766
872.322803	3018.327851
872.634101	3017.329702
872.945357	3033.398380
873.256571	3060.507185
873.567744	3050.961760
873.878874	3044.483878
874.189963	3071.456571
874.501010	3068.414235
874.812015	3061.656568
875.122979	3058.833522
875.433900	3056.864952
875.744780	3061.888461
876.055618	3071.542271
876.366415	3066.990109
876.677169	3081.538879
876.987882	3074.443455
877.298554	3066.836354
877.609183	3092.914243
877.919771	3115.319651
878.230317	3142.718322
878.540822	3195.776466
878.851285	3237.396232
879.161707	3281.781072
879.472087	3388.335940
879.782425	3620.339923
880.092722	4067.979261
880.402977	4603.679995
880.713191	5250.507924
881.023363	6434.695127
881.333494	7732.988848
881.643583	8278.328268
881.953631	7967.221020
882.263637	7317.244890
882.573602	6716.656944
882.883526	6128.732377
883.193408	5552.415066
883.503248	5089.503553
883.813048	4777.015029
884.122806	4470.704439
884.432522	4148.796519
884.742197	3908.383892
885.051831	3715.655539
885.361424	3583.098399
885.670975	3506.011595
885.980485	3417.224273
886.289954	3340.654187
886.599382	3296.150881
886.908768	3257.129829
887.218113	3212.986966
887.527417	3154.617966
887.836680	3105.638115
888.145901	3099.510593
888.455082	3088.389807
888.764221	3035.102290
889.073319	3006.387878
889.382376	3006.995337
889.691392	3012.664115
890.000366	3008.628671
890.309300	2996.023266
890.618193	3006.733197
890.927044	3024.651978
891.235855	3023.152235
891.544625	3014.035308
891.853353	3024.147863
892.162041	3040.425749
892.470687	3082.189188
892.779293	3133.303967
893.087858	3182.687110
893.396381	3260.399017
893.704864	3384.421484
894.013306	3627.916777
894.321707	3936.659724
894.630068	4138.999036
894.938387	4131.684322
895.246665	4087.218824
895.554903	3963.289619
895.863100	3759.639606
896.171256	3589.483020
896.479371	3448.118984
896.787446	3324.487206
897.095480	3220.760425
897.403473	3157.236845
897.711425	3118.223356
898.019336	3108.015019
898.327207	3076.890935
898.635038	3041.857437
898.942827	3028.354706
899.250576	3014.864578
899.558284	2985.038592
899.865952	2965.892289
900.173579	2943.721295
900.481165	2937.624019
900.788711	2924.297729
901.096216	2897.403173
901.403681	2887.020917
901.711105	2894.680950
902.018489	2893.314797
902.325832	2893.340003
902.633135	2904.266704
902.940397	2938.475974
903.247619	3024.107534
903.554800	3221.710682
903.861941	3579.221751
904.169041	4013.512114
904.476101	4311.028411
904.783121	4257.445987
905.090100	4009.910210
905.397039	3725.747929
905.703938	3473.365082
906.010796	3289.141156
906.317614	3176.063034
906.624391	3080.933941
906.931129	3005.316633
907.237826	2943.401181
907.544483	2895.144736
907.851099	2866.470653
908.157675	2845.010461
908.464211	2822.652944
908.770707	2808.452013
909.077163	2799.234264
909.383578	2782.527880
909.689954	2771.588576
909.996289	2769.206631
910.302584	2771.644029
910.608839	2769.988010
910.915054	2764.667072
911.221229	2757.652306
911.527363	2761.440733
911.833458	2765.670261
912.139513	2773.685696
912.445527	2775.815583
912.751502	2784.758590
913.057436	2795.231587
913.363331	2808.656180
913.669186	2828.901454
913.975000	2865.606095
914.280775	2928.040786
914.586510	3000.462002
914.892205	3082.763879
915.197859	3214.587532
915.503475	3411.006009
915.809050	3630.334010
916.114585	3776.472019
916.420081	3797.977581
916.725536	3732.124989
917.030952	3612.637040
917.336328	3479.900938
917.641665	3343.487315
917.946961	3243.979979
918.252218	3170.973989
918.557435	3094.935745
918.862612	3033.602547
919.167750	2981.033395
919.472848	2941.601489
919.777906	2915.309352
920.082925	2888.593757
920.387904	2857.550331
920.692843	2838.930830
920.997743	2826.948007
921.302603	2815.509629
921.607423	2804.308185
921.912204	2793.401649
922.216946	2781.827159
922.521647	2771.177722
922.826310	2762.897627
923.130932	2755.804723
923.435516	2750.761049
923.740059	2738.311919
924.044564	2733.011146
924.349028	2726.311453
924.653454	2720.617469
924.957840	2711.319061
925.262186	2711.276211
925.566493	2704.735314
925.870761	2700.157947
926.174989	2694.564786
926.479178	2692.886082
926.783328	2686.042716
927.087438	2686.642613
927.391509	2684.676563
927.695541	2680.308403
927.999533	2675.252126
928.303486	2676.691375
928.607400	2675.917558
928.911275	2673.270953
929.215110	2671.549398
929.518906	2670.616785
929.822663	2675.320182
930.126381	2670.026970
930.430060	2673.979235
930.733699	2673.149965
931.037299	2674.579132
931.340861	2675.688186
931.644383	2675.042918
931.947866	2673.699451
932.251309	2673.734739
932.554714	2673.535613
932.858080	2674.080058
933.161407	2669.081754
933.464694	2667.511434
933.767943	2664.620332
934.071153	2666.631753
934.374323	2665.235353
934.677455	2667.423214
934.980548	2664.915240
935.283602	2664.022956
935.586617	2663.135713
935.889593	2664.673265
936.192530	2664.771567
936.495428	2666.233502
936.798287	2664.955569
937.101108	2668.938081
937.403890	2673.134841
937.706632	2677.518125
938.009336	2683.522139
938.312002	2695.562935
938.614628	2705.660366
938.917216	2708.921992
939.219765	2710.830069
939.522275	2710.399051
939.824747	2705.526775
940.127179	2705.839327
940.429573	2700.397401
940.731929	2699.033769
941.034246	2691.892975
941.336524	2693.770805
941.638763	2689.957172
941.940964	2684.674042
942.243126	2686.826615
942.545250	2684.671522
942.847335	2680.242868
943.149381	2678.670028
943.451389	2672.421518
943.753359	2672.741631
944.055290	2668.010508
944.357182	2666.518327
944.659036	2668.504542
944.960851	2665.943635
945.262628	2664.877431
945.564367	2665.336176
945.866067	2665.658810
946.167729	2666.427586
946.469352	2667.604696
946.770937	2668.333142
947.072484	2663.322235
947.373992	2664.043120
947.675462	2661.777122
947.976893	2657.930721
948.278286	2656.110865
948.579641	2656.632624
948.880958	2657.628252
949.182236	2657.255207
949.483476	2657.303098
949.784678	2657.892913
950.085841	2657.111534
950.386967	2660.186638
950.688054	2657.950886
950.989103	2662.228305
951.290114	2659.841319
951.591087	2660.020280
951.892021	2663.173521
952.192917	2665.694098
952.493776	2671.047804
952.794596	2669.777433
953.095378	2670.883966
953.396122	2669.550581
953.696828	2666.896413
953.997496	2665.663851
954.298126	2660.708397
954.598718	2662.734941
954.899272	2660.884837
955.199788	2657.250166
955.500266	2654.187665
955.800706	2650.195071
956.101108	2648.889412
956.401472	2648.791109
956.701798	2646.305821
957.002087	2641.645274
957.302337	2643.119811
957.602550	2642.643422
957.902724	2639.953967
958.202861	2638.784419
958.502960	2638.073616
958.803022	2637.254429
959.103045	2635.805097
959.403031	2634.597741
959.702979	2632.629170
960.002889	2632.878707
960.302762	2632.624129
960.602596	2633.516413
960.902393	2631.406690
961.202153	2633.839047
961.501875	2632.515744
961.801559	2633.619757
962.101205	2632.422483
962.400814	2633.738224
962.700385	2631.162194
962.999918	2626.574744
963.299414	2627.961062
963.598873	2629.238994
963.898293	2626.582306
964.197677	2629.261679
964.497022	2629.816206
964.796331	2629.435599
965.095601	2630.632873
965.394835	2630.824437
965.694030	2630.257307
965.993189	2628.944087
966.292309	2627.406535
966.591393	2628.318984
966.890439	2628.762605
967.189447	2628.447533
967.488419	2629.717904
967.787353	2629.107924
968.086249	2629.715383
968.385108	2628.291257
968.683930	2630.983233
968.982714	2628.676906
969.281462	2627.461987
969.580172	2628.674385
969.878844	2629.692698
970.177480	2627.280506
970.476078	2629.095321
970.774639	2629.027266
971.073162	2627.915691
971.371649	2628.623973
971.670098	2627.348562
971.968510	2628.659262
972.266885	2627.832512
972.565223	2630.448871
972.863524	2630.595065
973.161788	2631.152112
973.460014	2627.096504
973.758204	2627.557769
974.056356	2626.736061
974.354471	2626.937707
974.652550	2628.888634
974.950591	2629.722945
975.248595	2629.102883
975.546563	2628.830661
975.844493	2628.495424
976.142386	2627.404014
976.440243	2627.366206
976.738062	2628.361833
977.035845	2628.656741
977.333590	2626.637759
977.631299	2627.116668
977.928971	2623.590381
978.226606	2623.446708
978.524204	2624.195320
978.821765	2622.730865
979.119290	2625.584158
979.416777	2625.906792
979.714228	2625.652213
980.011642	2625.614405
980.309020	2628.278654
980.606360	2626.945269
980.903664	2628.898716
981.200931	2626.355454
981.498162	2630.209416
981.795356	2629.503655
982.092513	2630.244704
982.389633	2632.220837
982.686717	2635.984058
982.983764	2638.930612
983.280775	2644.632157
983.577749	2645.816829
983.874686	2645.564771
984.171587	2641.574698
984.468451	2640.243833
984.765279	2637.476240
985.062070	2633.259314
985.358824	2634.716208
985.655543	2631.714201
985.952224	2631.202524
986.248869	2629.392749
986.545478	2627.812348
986.842050	2625.011987
987.138586	2626.378139
987.435086	2628.465177
987.731549	2624.860752
988.027975	2625.304374
988.324366	2622.907305
988.620719	2623.640793
988.917037	2624.878396
989.213318	2621.145422
989.509563	2624.097017
989.805772	2625.362347
990.101944	2622.824126
990.398080	2624.833026
990.694180	2626.418469
990.990244	2625.632049
991.286271	2623.963427
991.582262	2625.062398
991.878217	2622.219187
992.174136	2624.717079
992.470019	2621.858745
992.765865	2621.727675
993.061676	2622.463683
993.357450	2619.257510
993.653188	2618.319855
993.948890	2623.308077
994.244556	2624.586009
994.540186	2623.668519
994.835780	2621.755401
995.131337	2623.199692
995.426859	2625.198509
995.722345	2625.596761
996.017795	2628.071967
996.313208	2627.484673
996.608586	2626.990640
996.903928	2628.855867
997.199234	2628.414766
997.494504	2630.398460
997.789738	2625.566514
998.084936	2628.699591
998.380099	2627.146915
998.675225	2626.932666
998.970316	2624.694394
999.265371	2625.702625
999.560390	2624.112141
999.855373	2623.043416
1000.150320	2624.102058
1000.445232	2624.709517
1000.740108	2622.761112
1001.034948	2624.182717
1001.329752	2622.609877
1001.624521	2621.783128
1001.919254	2621.508385
1002.213951	2622.574589
1002.508613	2622.753550
1002.803239	2623.010649
1003.097829	2621.573920
1003.392384	2622.153652
1003.686903	2621.750360
1003.981386	2619.423868
1004.275834	2622.304887
1004.570246	2618.866820
1004.864623	2622.529218
1005.158964	2620.522839
1005.453270	2619.265071
1005.747540	2619.431429
1006.041775	2619.789351
1006.335974	2618.881944
1006.630138	2621.639455
1006.924266	2622.083076
1007.218359	2621.848663
1007.512416	2618.708024
1007.806438	2618.342540
1008.100425	2615.995883
1008.394376	2613.881119
1008.688292	2620.991667
1008.982172	2621.946965
1009.276017	2619.721296
1009.569827	2619.698611
1009.863602	2621.813375
1010.157341	2619.978395
1010.451045	2621.871348
1010.744714	2618.884464
1011.038347	2622.539301
1011.331945	2619.282715
1011.625508	2620.585854
1011.919036	2619.595267
1012.212528	2619.658281
1012.505986	2618.942437
1012.799408	2619.428909
1013.092795	2617.619135
1013.386147	2620.416975
1013.679464	2620.293467
1013.972745	2621.498302
1014.265992	2620.598457
1014.559204	2620.815226
1014.852380	2618.665174
1015.145521	2618.503857
1015.438628	2621.503344
1015.731699	2619.718775
1016.024736	2618.362705
1016.317737	2619.325565
1016.610703	2617.422530
1016.903635	2620.129629
1017.196531	2617.508229
1017.489393	2620.275823
1017.782219	2618.166100
1018.075011	2619.396141
1018.367768	2618.798765
1018.660490	2620.479989
1018.953177	2620.479989
1019.245829	2620.479989
