Dividing Wavelength (nm)	Counts (n)	Blue Motor Position (mm): 37.600000	Red Motor Position (mm): 0.000000	
326.493990	2129.088477
326.888308	2129.088477
327.282561	2129.088477
327.676750	2097.477922
328.070874	2097.639239
328.464933	2100.086719
328.858929	2105.873964
329.252859	2116.757815
329.646726	2127.545884
330.040528	2140.738584
330.434265	2156.025883
330.827938	2172.283604
331.221547	2192.622139
331.615091	2209.187371
332.008571	2227.683364
332.401986	2249.231776
332.795338	2267.500918
333.188625	2288.267951
333.581847	2307.578091
333.975006	2323.198106
334.368100	2341.757114
334.761129	2362.088087
335.154095	2377.279604
335.546996	2398.311298
335.939833	2424.933632
336.332606	2441.564398
336.725315	2453.012859
337.117960	2463.077522
337.510540	2468.277473
337.903056	2480.366159
338.295508	2486.781028
338.687896	2497.463233
339.080220	2507.013699
339.472480	2512.316992
339.864676	2517.451408
340.256807	2519.475431
340.648875	2522.721934
341.040879	2526.477594
341.432818	2527.536236
341.824694	2528.748633
342.216506	2527.836185
342.608253	2529.759385
342.999937	2529.446833
343.391557	2528.909950
343.783113	2529.651000
344.174605	2527.077491
344.566033	2523.145391
344.957397	2523.747809
345.348697	2524.740916
345.739934	2521.890144
346.131106	2519.518281
346.522215	2518.797396
346.913260	2513.221880
347.304241	2513.562157
347.695159	2513.282373
348.086012	2508.904131
348.476802	2506.829697
348.867528	2507.918586
349.258191	2505.589573
349.648789	2504.251146
350.039324	2499.913233
350.429796	2502.895076
350.820203	2502.043121
351.210548	2499.646052
351.600828	2497.783346
351.991045	2496.530619
352.381198	2497.158243
352.771288	2495.003150
353.161314	2494.481390
353.551276	2494.569610
353.941175	2494.839312
354.331010	2496.303767
354.720782	2496.792759
355.110490	2496.560866
355.500135	2494.390649
355.889717	2498.065651
356.279235	2495.779487
356.668689	2499.164622
357.058080	2498.625219
357.447408	2495.265290
357.836672	2493.785711
358.225873	2493.523571
358.615010	2496.772595
359.004084	2498.826865
359.393095	2500.805518
359.782043	2500.130003
360.170927	2502.640498
360.559748	2502.098574
360.948505	2501.433141
361.337199	2502.708553
361.725830	2502.643018
362.114398	2507.064110
362.502903	2501.997751
362.891344	2505.012361
363.279722	2507.056548
363.668037	2505.461023
364.056289	2506.393637
364.444478	2508.279028
364.832603	2508.246261
365.220665	2506.633092
365.608665	2507.253153
365.996601	2507.853051
366.384474	2508.946981
366.772284	2506.945643
367.160031	2508.528565
367.547715	2509.274656
367.935336	2511.601149
368.322893	2508.095026
368.710388	2508.687362
369.097820	2513.874709
369.485189	2508.314316
369.872495	2510.865140
370.259738	2512.158196
370.646918	2513.912518
371.034035	2510.640809
371.421090	2511.190295
371.808081	2513.562158
372.195010	2512.374966
372.581875	2511.583505
372.968678	2514.893022
373.355418	2514.106602
373.742096	2512.412774
374.128710	2514.545182
374.515262	2517.002745
374.901751	2515.908815
375.288177	2514.950995
375.674540	2517.648013
376.060841	2516.075173
376.447079	2519.137674
376.833254	2516.075173
377.219367	2514.313289
377.605417	2516.801099
377.991404	2511.379338
378.377329	2516.372601
378.763191	2513.723474
379.148991	2520.559279
379.534727	2520.095493
379.920402	2520.753363
380.306013	2517.302694
380.691563	2520.213960
381.077049	2517.300173
381.462474	2522.729496
381.847835	2519.203209
382.233134	2523.276461
382.618371	2521.721265
383.003545	2524.037675
383.388657	2523.962058
383.773706	2521.970802
384.158693	2524.347706
384.543618	2526.984230
384.928480	2522.384177
385.313280	2526.429703
385.698017	2525.418951
386.082692	2527.319466
386.467305	2525.212264
386.851856	2527.455578
387.236344	2525.519774
387.620770	2528.688140
388.005133	2527.264014
388.389435	2529.139323
388.773674	2527.826102
389.157851	2527.919364
389.541965	2532.171577
389.926018	2529.714014
390.310008	2531.296937
390.693936	2531.942204
391.077802	2531.828778
391.461606	2532.710980
391.845348	2532.363141
392.229027	2530.329035
392.612645	2532.965559
392.996200	2536.322967
393.379694	2535.080323
393.763125	2539.965201
394.146494	2539.035108
394.529801	2540.867567
394.913047	2542.180788
395.296230	2548.434339
395.679351	2553.909032
396.062410	2557.868859
396.445408	2562.337842
396.828343	2571.195149
397.211217	2577.804102
397.594028	2584.735688
397.976778	2596.242122
398.359466	2608.986159
398.742092	2623.209774
399.124656	2636.737711
399.507158	2654.366626
399.889598	2672.968483
400.271977	2694.474046
400.654294	2712.894422
401.036549	2730.498131
401.418742	2747.683424
401.800874	2778.701644
402.182944	2806.629636
402.564952	2842.121880
402.946898	2866.102649
403.328783	2890.993346
403.710606	2900.929460
404.092367	2971.775316
404.474067	2993.976557
404.855705	3026.512164
405.237282	3038.973897
405.618797	3101.068309
406.000250	3147.696462
406.381642	3208.797767
406.762972	3233.489338
407.144240	3274.441152
407.525447	3314.064621
407.906593	3371.720297
408.287677	3429.479318
408.668700	3435.369906
409.049661	3502.966738
409.430560	3562.437230
409.811399	3572.413673
410.192176	3691.410110
410.572891	3699.233980
410.953545	3799.066471
411.334138	3774.521092
411.714669	3854.057897
412.095139	3832.937983
412.475547	3962.165442
412.855894	3990.529494
413.236180	4033.827964
413.616405	4047.991086
413.996568	4146.462464
414.376670	4137.360661
414.756711	4144.385509
415.136691	4201.529508
415.516609	4293.480155
415.896466	4356.471893
416.276262	4418.105039
416.655997	4435.002987
417.035670	4610.891365
417.415283	4715.712077
417.794834	4704.099779
418.174324	4696.006207
418.553753	4644.687261
418.933121	4829.374973
419.312428	4913.050565
419.691674	4891.081217
420.070859	5026.831928
420.449983	4967.951251
420.829045	5095.913380
421.208047	5033.226632
421.586988	5118.434735
421.965867	5144.860463
422.344686	5287.434376
422.723444	5162.557434
423.102141	5009.296274
423.480777	5303.654289
423.859352	5098.204584
424.237866	5358.086147
424.616319	5357.680334
424.994712	5476.616277
425.373044	5364.480851
425.751314	5514.510631
426.129524	5328.988607
426.507673	5525.331467
426.885762	5614.595178
427.263789	5551.472371
427.641756	5439.720072
428.019662	5563.213218
428.397508	5570.293518
428.775292	5524.063617
429.153016	5622.272856
429.530679	5553.352721
429.908282	5643.092821
430.285824	5512.756309
430.663305	5787.675634
431.040726	5522.077402
431.418086	5524.139234
431.795385	5634.923631
432.172624	5645.565507
432.549802	5641.935876
432.926920	5654.102701
433.303977	5664.474875
433.680974	5705.156987
434.057910	5722.455706
434.434786	5731.628086
434.811601	5698.835380
435.188355	5929.700061
435.565050	5807.507533
435.941683	5784.419049
436.318257	5998.310165
436.694770	5986.342466
437.071222	6020.599627
437.447614	5951.104801
437.823946	5867.552717
438.200218	6015.445047
438.576429	5886.729266
438.952580	5982.226364
439.328670	6027.473240
439.704700	5940.571310
440.080670	5922.241674
440.456580	6193.188570
440.832429	6072.518470
441.208218	5925.611686
441.583947	6078.683802
441.959616	6084.894503
442.335224	6007.351475
442.710773	6145.378267
443.086261	6173.543193
443.461689	5961.857582
443.837057	6115.791735
444.212365	6271.462566
444.587612	6162.855947
444.962800	6316.545605
445.337927	6298.284025
445.712995	5911.665333
446.088002	6484.426110
446.462949	6321.039793
446.837837	6252.220482
447.212664	6421.555360
447.587431	6565.215642
447.962139	7107.933662
448.336786	8026.021038
448.711374	7765.259794
449.085901	6847.046388
449.460369	6764.671414
449.834776	6701.321754
450.209124	7091.829696
450.583412	7240.415185
450.957640	7389.424131
451.331808	7151.900085
451.705917	6704.293514
452.079965	6623.723273
452.453954	6839.877868
452.827883	6714.501851
453.201752	6806.495347
453.575562	6610.089473
453.949311	6814.016748
454.323001	6700.968873
454.696632	6775.618280
455.070202	6914.527274
455.443713	7070.114926
455.817164	7173.251892
456.190556	7249.832060
456.563888	7330.737538
456.937160	7373.763786
457.310373	7026.846702
457.683526	7052.107924
458.056619	6943.692869
458.429653	6931.400016
458.802628	6867.281580
459.175542	6976.709907
459.548398	7326.913823
459.921194	7490.695870
460.293930	7496.881366
460.666607	8016.528546
461.039224	8327.401380
461.411782	8452.311090
461.784280	8471.394378
462.156719	8363.438068
462.529099	8239.907114
462.901419	7830.139444
463.273680	7720.164152
463.645882	7743.431598
464.018024	7606.004703
464.390106	7770.376565
464.762130	8154.207498
465.134094	8632.290365
465.505999	9643.954160
465.877845	10860.954233
466.249631	11511.852894
466.621358	11126.686055
466.993026	10495.125260
467.364634	10243.556560
467.736184	9882.940140
468.107674	9550.793637
468.479105	9576.201052
468.850477	9342.467954
469.221790	9120.223645
469.593043	8793.244325
469.964238	8651.318200
470.335373	8667.974172
470.706449	8719.633396
471.077467	8707.877425
471.448425	10012.883442
471.819324	11079.178221
472.190164	11102.838877
472.560945	9857.540286
472.931667	9070.076767
473.302330	8936.632384
473.672934	8582.703055
474.043479	8938.893342
474.413965	8876.831697
474.784393	8758.351978
475.154761	8919.144621
475.525070	9004.193928
475.895321	8835.582455
476.265513	9014.669446
476.635645	9178.315382
477.005719	9173.871605
477.375734	9293.881313
477.745691	9529.489720
478.115588	9660.048043
478.485427	9907.987113
478.855207	10445.316140
479.224928	11257.725808
479.594591	11879.665561
479.964194	11691.940554
480.333739	11635.386369
480.703226	11544.121320
481.072653	11631.756738
481.442022	11868.441432
481.811333	12063.687841
482.180584	11868.864889
482.549777	11575.404200
482.918912	11404.299877
483.287988	11424.502301
483.657005	11442.645414
484.025964	11121.788574
484.394864	11250.121228
484.763706	11222.858668
485.132489	10977.956893
485.501213	10941.645462
485.869879	11020.121104
486.238487	10863.774759
486.607036	10972.648558
486.975527	10752.085475
487.343959	10944.188724
487.712333	10989.556588
488.080648	10920.911196
488.448905	10969.679319
488.817104	10909.737479
489.185244	11170.337406
489.553326	11329.179123
489.921350	11867.768438
490.289315	12922.158532
490.657222	13267.948919
491.025070	13169.928723
491.392861	13044.988767
491.760593	12663.010457
492.128267	12310.790079
492.495883	11984.317394
492.863440	11647.936322
493.230939	11320.503297
493.598380	11252.966959
493.965763	11123.585746
494.333088	11019.765703
494.700354	10938.789648
495.067563	11006.580565
495.434713	10830.850983
495.801805	10957.925868
496.168839	10883.178160
496.535815	10823.319499
496.902733	10819.125259
497.269593	10753.779302
497.636395	10851.532317
498.003139	10842.417910
498.369825	10712.003260
498.736453	10868.730213
499.103023	10792.429829
499.469535	10825.099026
499.835989	10813.244753
500.202385	10778.818713
500.568723	10627.465631
500.935003	10850.133396
501.301226	10657.490743
501.667390	10907.968034
502.033497	11005.176603
502.399546	10870.792045
502.765537	10773.533064
503.131470	10846.591986
503.497345	11021.583039
503.863163	10628.768769
504.228923	10944.299630
504.594625	11008.735658
504.960269	10756.292318
505.325856	10979.030659
505.691385	10770.014338
506.056856	10923.053687
506.422270	10950.268356
506.787625	10838.422796
507.152924	10956.171547
507.518164	10933.251941
507.883347	10860.346774
508.248472	10773.601119
508.613540	11010.222798
508.978550	10895.730633
509.343503	10871.422189
509.708398	10987.908131
510.073236	11096.539955
510.438016	11100.681263
510.802738	11059.633668
511.167403	11106.826430
511.532010	11009.098621
511.896561	11237.334341
512.261053	11308.402007
512.625488	11178.312512
512.989866	11160.234934
513.354186	11149.845116
513.718449	11051.683768
514.082655	11246.753737
514.446803	11140.856739
514.810894	11263.258475
515.174927	11129.655295
515.538904	11147.057358
515.902822	11307.928139
516.266684	11187.792402
516.630488	11130.083793
516.994235	11186.390961
517.357925	11247.088974
517.721558	11335.082314
518.085133	11347.274345
518.448651	11361.613907
518.812112	11241.899106
519.175516	11254.590211
519.538863	11385.259439
519.902152	11298.017230
520.265385	11456.576642
520.628560	11367.431398
520.991678	11343.498520
521.354739	11407.004456
521.717743	11343.075063
522.080690	11326.209883
522.443580	11467.011831
522.806413	11412.358161
523.169189	11441.833788
523.531908	11502.436019
523.894569	11318.580097
524.257174	11330.585605
524.619722	11446.958121
524.982213	11394.762014
525.344647	11447.898296
525.707025	11397.156562
526.069345	11488.774492
526.431608	11401.854917
526.793815	11518.928154
527.155964	11304.800103
527.518057	11354.400016
527.880093	11305.488220
528.242072	11374.262162
528.603995	11282.750096
528.965860	11201.302694
529.327669	11253.496280
529.689421	11204.415606
530.051117	11169.077118
530.412755	11271.528487
530.774337	11168.139463
531.135862	11147.276648
531.497331	11171.897643
531.858743	11017.237564
532.220098	11186.088492
532.581396	11060.982177
532.942638	11047.391226
533.303824	11001.829277
533.664953	11017.754282
534.026025	10931.071642
534.387040	11036.283043
534.747999	11042.135823
535.108902	11098.037178
535.469748	10855.900476
535.830537	10955.165837
536.191270	10930.844790
536.551947	10961.172372
536.912567	10959.609614
537.273131	10881.572552
537.633638	10855.716474
537.994089	10846.967552
538.354483	10798.857300
538.714821	10947.132758
539.075103	10957.399068
539.435328	10920.467575
539.795497	10737.914791
540.155609	10894.992104
540.515665	10992.745118
540.875665	10722.501463
541.235609	10793.992587
541.595496	10793.942175
541.955328	10942.096645
542.315102	10833.240490
542.674821	10774.309401
543.034483	10776.235122
543.394090	10786.183839
543.753640	10709.749865
544.113134	10930.247413
544.472571	10787.497060
544.831953	10933.619945
545.191278	10732.873637
545.550548	10764.280026
545.909761	10903.403269
546.268918	10871.722138
546.628019	10958.550972
546.987064	10822.964098
547.346053	10744.642211
547.704986	10840.028403
548.063863	10827.977525
548.422684	10823.127935
548.781449	10745.524413
549.140158	10840.537560
549.498811	10720.008613
549.857408	10578.939484
550.215949	10808.553959
550.574434	10657.677266
550.932864	10759.669891
551.291237	10812.198714
551.649555	10763.299521
552.007817	10777.780236
552.366022	10737.740871
552.724173	10730.355581
553.082267	10717.808149
553.440305	10852.780002
553.798288	10653.752728
554.156215	10800.783021
554.514086	10787.020671
554.871902	10626.306166
555.229661	10671.953814
555.587365	10645.369289
555.945014	10538.065809
556.302606	10667.822588
556.660143	10563.427854
557.017625	10716.149609
557.375050	10616.581780
557.732421	10744.039793
558.089735	10660.611218
558.446994	10661.916876
558.804197	10692.791423
559.161345	10700.101096
559.518437	10552.879239
559.875474	10635.788576
560.232455	10669.768473
560.589381	10612.238826
560.946251	10616.627150
561.303065	10712.658610
561.659825	10657.515949
562.016528	10583.834444
562.373177	10463.310538
562.729770	10581.298744
563.086307	10500.932669
563.442789	10590.738305
563.799216	10461.044540
564.155587	10518.606955
564.511904	10473.050047
564.868164	10456.754518
565.224370	10481.257046
565.580520	10402.988091
565.936615	10407.608309
566.292654	10269.919274
566.648638	10410.421273
567.004567	10357.980670
567.360441	10348.286531
567.716260	10261.578685
568.072023	10351.253250
568.427732	10308.171549
568.783385	10210.942815
569.138982	10281.156006
569.494525	10297.653182
569.850013	10170.648872
570.205445	10256.870247
570.560823	10156.432818
570.916145	10066.977543
571.271412	10141.785746
571.626625	10088.082334
571.981782	10061.880937
572.336884	10037.716166
572.691931	10040.914778
573.046923	9988.275050
573.401860	9946.473802
573.756743	9882.935099
574.111570	9926.573847
574.466342	9910.502649
574.821059	9934.246483
575.175722	9825.458383
575.530330	9840.274334
575.884882	9831.099434
576.239380	9752.729657
576.593823	9732.444054
576.948211	9749.546168
577.302544	9630.154001
577.656823	9647.709819
578.011047	9649.567484
578.365216	9624.200398
578.719330	9543.186535
579.073389	9558.763701
579.427394	9503.686574
579.781344	9484.482299
580.135239	9428.056664
580.489080	9438.801883
580.842866	9338.722377
581.196597	9346.160599
581.550273	9382.046053
581.903895	9354.216363
582.257463	9427.005583
582.610975	9294.569431
582.964434	9319.939037
583.317837	9246.680990
583.671186	9237.319567
584.024481	9225.432526
584.377721	9141.749372
584.730906	9117.307338
585.084037	9153.530549
585.437113	9082.306607
585.790135	9109.881718
586.143103	9012.615175
586.496016	8978.632757
586.848874	9038.796408
587.201679	9028.091518
587.554428	8911.776975
587.907124	8959.310015
588.259765	8932.914533
588.612352	8928.720293
588.964884	8808.536665
589.317362	8821.840270
589.669786	8822.556114
590.022155	8872.597127
590.374470	8884.854693
590.726731	8827.778749
591.078937	8675.586314
591.431090	8787.363819
591.783188	8665.158688
592.135232	8660.011670
592.487222	8652.003797
592.839157	8706.511273
593.191038	8641.619020
593.542866	8587.202285
593.894639	8483.561203
594.246358	8536.919296
594.598022	8552.761122
594.949633	8456.283519
595.301190	8426.626411
595.652692	8455.010628
596.004141	8568.867608
596.355535	8346.451900
596.706876	8323.930546
597.058162	8256.520236
597.409395	8337.778595
597.760573	8397.375116
598.111698	8306.092423
598.462768	8296.524313
598.813785	8259.434023
599.164748	8228.030155
599.515657	8215.122281
599.866511	8125.011656
600.217312	8248.572857
600.568060	8111.125798
600.918753	8219.129998
601.269392	8182.349740
601.619978	8097.902851
601.970510	8159.465422
602.320988	8160.776122
602.671412	8216.561530
603.021783	8146.996128
603.372100	8116.592929
603.722363	8130.277141
604.072572	8101.860157
604.422728	8111.040098
604.772830	8039.261629
605.122878	8045.341261
605.472872	8044.522073
605.822813	8071.343532
606.172701	8014.751539
606.522534	8090.073939
606.872314	8089.201820
607.222041	8061.598982
607.571714	8118.158207
607.921333	8074.627844
608.270899	8081.204029
608.620411	8171.317175
608.969870	8075.462155
609.319276	8066.652738
609.668627	8091.356913
610.017926	8119.315152
610.367171	8163.095053
610.716362	8138.390878
611.065500	8131.449209
611.414585	8165.640835
611.763616	8144.853637
612.112594	8132.482646
612.461518	8147.943865
612.810389	8207.031229
613.159207	8146.786920
613.507971	8094.984023
613.856682	8218.058753
614.205340	8168.907503
614.553945	8245.248216
614.902496	8149.488978
615.250994	8196.890948
615.599439	8184.615738
615.947830	8197.460598
616.296169	8168.872215
616.644454	8178.326899
616.992686	8179.415788
617.340864	8239.067762
617.688990	8142.930437
618.037063	8232.799087
618.385082	8182.145573
618.733048	8265.516175
619.080961	8203.429325
619.428821	8219.072025
619.776628	8220.891882
620.124382	8176.335643
620.472083	8164.950197
620.819731	8191.761574
621.167326	8082.993639
621.514868	8092.481090
621.862357	7970.099519
622.209793	7998.115731
622.557176	7931.126358
622.904506	7899.205772
623.251783	7833.466606
623.599007	7784.509440
623.946179	7790.508413
624.293297	7748.991991
624.640363	7670.959970
624.987376	7647.896691
625.334336	7598.039680
625.681243	7544.618573
626.028097	7534.536265
626.374899	7511.258737
626.721647	7508.642378
627.068343	7440.485978
627.414987	7408.046153
627.761577	7366.726336
628.108115	7402.873929
628.454600	7296.896272
628.801032	7345.697162
629.147412	7306.262736
629.493739	7293.725387
629.840014	7229.901858
630.186236	7287.565097
630.532405	7170.925400
630.878521	7221.352062
631.224585	7181.970568
631.570597	7105.697910
631.916556	7137.457179
632.262462	7132.751262
632.608316	7092.784994
632.954117	7073.303455
633.299866	7056.299643
633.645562	7050.986267
633.991206	6973.218907
634.336797	6909.433188
634.682336	6868.327619
635.027823	6837.190933
635.373257	6830.740776
635.718639	6756.794611
636.063968	6775.207426
636.409245	6666.641136
636.754470	6661.116032
637.099642	6621.575742
637.444762	6568.462145
637.789829	6577.979843
638.134845	6516.480287
638.479808	6505.004100
638.824719	6507.123905
639.169577	6434.432987
639.514383	6454.481656
639.859137	6384.134875
640.203839	6393.420680
640.548489	6380.573300
640.893086	6357.527665
641.237632	6328.384754
641.582125	6352.269741
641.926566	6322.012736
642.270955	6330.623027
642.615292	6329.398026
642.959576	6346.293453
643.303809	6334.071176
643.647990	6338.971177
643.992118	6331.679148
644.336195	6272.034737
644.680219	6301.817874
645.024192	6293.479805
645.368112	6389.574280
645.711981	6409.748977
646.055797	6486.810576
646.399562	6442.919770
646.743274	6569.714871
647.086935	6622.100022
647.430544	6618.324197
647.774101	6638.813967
648.117606	6643.494678
648.461059	6639.260109
648.804460	6597.347956
649.147810	6507.174317
649.491108	6480.070553
649.834354	6453.392767
650.177548	6370.692638
650.520690	6285.383712
650.863781	6263.210197
651.206820	6280.491272
651.549807	6204.889088
651.892742	6143.260982
652.235626	6153.464278
652.578458	6132.722450
652.921238	6049.601385
653.263967	6083.805614
653.606644	6026.177664
653.949269	6028.549527
654.291843	5968.151462
654.634365	6016.904461
654.976836	5970.840918
655.319255	5971.060208
655.661622	5945.420900
656.003938	5941.035096
656.346203	5905.593264
656.688416	5938.426299
657.030577	5889.237240
657.372687	5858.612230
657.714746	5846.636969
658.056753	5888.478546
658.398708	5829.796995
658.740612	5820.117980
659.082465	5867.749322
659.424266	5861.173137
659.766016	5860.270770
660.107715	5837.431823
660.449362	5851.035376
660.790958	5842.404921
661.132503	5831.223642
661.473996	5869.435588
661.815438	5851.549574
662.156829	5852.736766
662.498168	5846.314336
662.839456	5817.148740
663.180693	5853.515624
663.521879	5856.074009
663.863013	5845.381722
664.204097	5864.482654
664.545129	5903.786010
664.886110	5898.822994
665.227040	5931.885402
665.567918	5903.733078
665.908746	5935.429333
666.249522	5935.855310
666.590248	5918.556591
666.930922	5943.233039
667.271545	5961.945802
667.612118	5958.981603
667.952639	5936.049395
668.293109	5959.818435
668.633528	5912.766826
668.973896	5918.662455
669.314213	5908.973357
669.654480	5886.618361
669.994695	5886.885542
670.334859	5871.411720
670.674973	5869.463314
671.015035	5872.379622
671.355047	5872.029261
671.695008	5855.721129
672.034918	5830.091903
672.374777	5841.870558
672.714585	5826.699206
673.054342	5830.636347
673.394049	5821.007743
673.733705	5850.579152
674.073310	5841.217729
674.412864	5799.933200
674.752368	5790.135717
675.091820	5794.861799
675.431223	5731.418878
675.770574	5730.037602
676.109875	5681.987844
676.449125	5690.535120
676.788324	5655.725953
677.127473	5600.555565
677.466571	5591.650367
677.805619	5577.467080
678.144616	5565.010389
678.483562	5544.097162
678.822458	5515.423079
679.161303	5510.192882
679.500098	5500.813816
679.838842	5483.194983
680.177535	5489.962732
680.516179	5498.290718
680.854771	5513.814951
681.193314	5598.498774
681.531805	5699.614238
681.870247	5851.068144
682.208638	5955.714936
682.546978	5963.400175
682.885268	5942.144150
683.223508	5864.114650
683.561697	5804.881092
683.899836	5772.776504
684.237925	5732.356532
684.575963	5689.116035
684.913951	5652.033307
685.251889	5714.445313
685.589776	5687.233164
685.927614	5657.071941
686.265401	5729.601542
686.603137	5709.842739
686.940824	5786.191014
687.278460	5815.379295
687.616046	5820.163350
687.953582	5888.806221
688.291068	5868.881061
688.628504	5935.313386
688.965889	5894.686727
689.303224	5837.504919
689.640510	5793.072189
689.977745	5715.894644
690.314930	5619.880828
690.652065	5564.342436
690.989150	5470.161080
691.326185	5393.545623
691.663170	5341.185679
692.000105	5263.201550
692.336990	5189.391496
692.673825	5161.355118
693.010610	5094.224593
693.347345	5021.117780
693.684030	5011.080843
694.020665	4967.830263
694.357251	4877.649062
694.693786	4890.703130
695.030272	4857.822204
695.366707	4820.368952
695.703093	4786.641112
696.039429	4810.818486
696.375716	4790.111946
696.711952	4769.339872
697.048139	4753.969394
697.384276	4731.972319
697.720363	4744.549998
698.056400	4755.615331
698.392388	4701.841342
698.728326	4682.508517
699.064214	4661.227287
699.400053	4655.944157
699.735842	4624.555413
700.071581	4596.808902
700.407270	4573.060026
700.742910	4552.635792
701.078501	4497.911546
701.414042	4495.567409
701.749533	4472.201661
702.084974	4404.309922
702.420366	4456.763128
702.755709	4404.473759
703.091002	4343.793391
703.426246	4394.469590
703.761440	4349.855378
704.096584	4312.878515
704.431679	4332.186134
704.766725	4316.452693
705.101721	4305.893996
705.436668	4333.811906
705.771565	4281.099081
706.106413	4312.812980
706.441212	4341.539995
706.775961	4352.595245
707.110661	4332.987677
707.445311	4357.313765
707.779913	4383.583218
708.114465	4393.867172
708.448967	4414.780398
708.783421	4478.808093
709.117825	4521.715874
709.452180	4522.401471
709.786485	4567.877720
710.120742	4655.268643
710.454949	4639.915809
710.789107	4705.856622
711.123216	4781.925112
711.457275	4773.990336
711.791286	4849.136296
712.125247	4866.800499
712.459159	4766.141260
712.793023	4840.614226
713.126837	4800.529491
713.460602	4793.857524
713.794318	4714.320719
714.127985	4722.489909
714.461602	4637.952279
714.795171	4612.469247
715.128691	4539.301940
715.462162	4484.406295
715.795584	4435.018111
716.128957	4418.871295
716.462281	4366.032441
716.795556	4340.365406
717.128782	4299.713541
717.461960	4235.327924
717.795088	4243.149275
718.128167	4200.639745
718.461198	4142.636229
718.794180	4142.674037
719.127113	4116.369297
719.459997	4095.985391
719.792833	4052.835635
720.125619	4046.148544
720.458357	4009.950539
720.791046	4014.719470
721.123686	3987.061180
721.456278	3946.827731
721.788821	3960.479176
722.121315	3937.705763
722.453761	3914.297165
722.786158	3926.466511
723.118506	3945.300261
723.450805	3896.895102
723.783056	3921.511056
724.115259	3936.067388
724.447412	3941.758851
724.779518	3934.290381
725.111574	3936.785752
725.443582	3966.883962
725.775542	3955.092703
726.107453	4003.487780
726.439315	4002.159436
726.771129	4019.059904
727.102895	4055.265471
727.434612	4097.255762
727.766281	4114.834265
728.097901	4116.318885
728.429473	4117.392651
728.760996	4125.592088
729.092471	4120.762662
729.423897	4107.272534
729.755276	4112.235550
730.086606	4109.886373
730.417887	4148.483967
730.749120	4214.752455
731.080305	4279.566570
731.411442	4305.843584
731.742530	4271.251187
732.073570	4279.415335
732.404562	4334.739478
732.735506	4326.721523
733.066401	4289.858086
733.397249	4224.549938
733.728048	4141.239829
734.058798	4061.980288
734.389501	3992.034278
734.720156	3928.868620
735.050762	3884.655181
735.381320	3879.747617
735.711831	3829.590657
736.042293	3796.835760
736.372707	3819.125222
736.703073	3794.801654
737.033391	3782.702885
737.363661	3800.180566
737.693883	3826.840708
738.024056	3834.528467
738.354182	3831.498734
738.684260	3893.424268
739.014290	3913.203235
739.344272	3912.242895
739.674207	3950.490129
740.004093	3959.415492
740.333931	3951.848720
740.663722	3952.980459
740.993464	3950.648926
741.323159	3929.365174
741.652806	3899.506420
741.982405	3866.875031
742.311956	3840.303109
742.641460	3831.292047
742.970915	3805.609888
743.300323	3765.134464
743.629683	3731.388980
743.958996	3717.553533
744.288260	3693.650902
744.617477	3660.084380
744.946647	3648.709016
745.275768	3619.939151
745.604842	3620.599542
745.933869	3574.167995
746.262847	3564.289854
746.591778	3603.305864
746.920662	3572.358220
747.249498	3541.410577
747.578286	3584.509922
747.907027	3604.530864
748.235720	3602.630349
748.564365	3627.533649
748.892963	3630.369298
749.221514	3610.343315
749.550017	3587.239707
749.878473	3586.208791
750.206881	3555.944223
750.535242	3552.037329
750.863555	3553.093451
751.191821	3550.023388
751.520039	3529.180738
751.848210	3506.185514
752.176334	3541.166081
752.504411	3547.177657
752.832440	3504.426152
753.160421	3490.855366
753.488356	3497.930625
753.816243	3511.685413
754.144082	3469.150678
754.471875	3454.896815
754.799620	3473.896924
755.127318	3465.909216
755.454969	3465.742858
755.782572	3469.435503
756.110129	3449.356587
756.437638	3436.705812
756.765100	3450.579067
757.092515	3461.730099
757.419882	3468.011377
757.747203	3438.313940
758.074477	3443.481122
758.401703	3457.896302
758.728882	3478.159220
759.056014	3488.125581
759.383099	3491.730006
759.710138	3484.526197
760.037129	3503.859022
760.364073	3532.880945
760.690970	3520.550282
761.017820	3495.349554
761.344623	3513.767410
761.671379	3559.646951
761.998088	3611.744755
762.324751	3738.938108
762.651366	3986.748628
762.977935	4459.903767
763.304456	4901.697887
763.630931	5004.192106
763.957359	4638.630314
764.283740	4297.787821
764.610074	4103.504272
764.936362	3909.419849
765.262602	3748.178543
765.588796	3638.964466
765.914943	3545.050290
766.241044	3453.442442
766.567097	3426.817588
766.893104	3380.607852
767.219064	3350.678521
767.544978	3323.335303
767.870845	3270.982920
768.196665	3249.169847
768.522438	3256.865169
768.848165	3256.189654
769.173846	3219.991649
769.499479	3201.488094
769.825066	3182.253571
770.150607	3163.782783
770.476101	3179.604445
770.801548	3177.487160
771.126949	3133.815644
771.452303	3117.000876
771.777611	3118.316617
772.102872	3124.852473
772.428087	3100.191148
772.753256	3092.024479
773.078378	3082.423602
773.403453	3049.923283
773.728482	3037.385933
774.053465	3061.291085
774.378401	3046.666697
774.703291	3014.844414
775.028135	3016.581091
775.352932	3012.124711
775.677683	2997.543174
776.002388	2997.916219
776.327046	2999.063082
776.651658	2988.401041
776.976224	2976.329998
777.300743	2974.789926
777.625216	2966.829944
777.949643	2959.008594
778.274024	2961.261989
778.598359	2950.690690
778.922647	2957.193778
779.246889	2955.184878
779.571086	2943.930503
779.895236	2936.696447
780.219339	2946.773713
780.543397	2961.453553
780.867409	2962.723924
781.191374	2954.050619
781.515294	2950.662963
781.839167	2950.534414
782.162995	2942.415636
782.486776	2952.034157
782.810511	2945.934361
783.134201	2936.414142
783.457844	2944.663990
783.781441	2934.584203
784.104993	2913.852458
784.428498	2913.005544
784.751958	2927.418203
785.075372	2923.329827
785.398739	2907.876170
785.722061	2922.848397
786.045337	2932.303081
786.368568	2920.988211
786.691752	2909.738877
787.014891	2959.444653
787.337983	2987.632265
787.661030	3017.937162
787.984031	3083.512491
788.306987	3130.927063
788.629897	3122.518419
788.952760	3105.466716
789.275579	3090.217225
789.598351	3032.949718
789.921078	2984.889878
790.243759	2977.923003
790.566395	2962.958338
790.888984	2939.101077
791.211529	2920.912594
791.534027	2913.136614
791.856480	2902.809811
792.178888	2886.221894
792.501249	2875.527086
792.823566	2876.631099
793.145836	2871.093391
793.468062	2868.078781
793.790241	2867.214223
794.112375	2873.009030
794.434464	2886.211812
794.756507	2888.964282
795.078505	2894.015518
795.400457	2909.012950
795.722364	2944.701799
796.044226	2971.004019
796.366042	2972.952425
796.687812	2960.823409
797.009538	2979.505925
797.331218	2970.452013
797.652852	2956.218315
797.974442	2936.930860
798.295986	2934.657300
798.617484	2928.209664
798.938938	2913.348343
799.260346	2896.407545
799.581709	2890.156514
799.903026	2882.950185
800.224299	2877.823332
800.545526	2870.415356
800.866708	2855.622090
801.187845	2841.889987
801.508936	2846.008610
801.829983	2852.438601
802.150984	2840.503670
802.471940	2824.336689
802.792851	2826.310301
803.113717	2826.690908
803.434538	2831.381702
803.755314	2824.750064
804.076045	2820.144970
804.396731	2817.616831
804.717372	2819.776966
805.037967	2813.793116
805.358518	2819.449291
805.679024	2831.656445
805.999485	2829.050168
806.319901	2831.583348
806.640272	2821.753098
806.960598	2828.077225
807.280879	2840.183556
807.601115	2846.457272
807.921306	2829.614777
808.241453	2827.084118
808.561554	2834.759275
808.881611	2837.244564
809.201623	2830.779284
809.521590	2830.209633
809.841513	2824.462718
810.161390	2830.461691
810.481223	2823.522543
810.801011	2815.728919
811.120755	2812.260605
811.440453	2815.431491
811.760107	2812.300934
812.079716	2812.999134
812.399281	2801.089408
812.718801	2795.065229
813.038276	2790.588685
813.357707	2795.874335
813.677093	2806.145686
813.996434	2795.123203
814.315731	2791.982564
814.634983	2787.871503
814.954191	2788.857048
815.273354	2803.342804
815.592473	2813.833445
815.911547	2815.018116
816.230577	2820.409630
816.549562	2831.114521
816.868502	2829.995384
817.187399	2839.046776
817.506250	2857.661237
817.825058	2852.544466
818.143821	2862.314222
818.462539	2878.216542
818.781213	2909.053280
819.099843	2941.626695
819.418429	2998.654748
819.736970	3063.045406
820.055466	3135.338073
820.373919	3240.173908
820.692327	3381.994169
821.010691	3554.232752
821.329011	3996.636852
821.647286	4898.741250
821.965517	6285.366068
822.283704	7034.438680
822.601847	7015.320104
822.919945	6385.793414
823.237999	5875.467328
823.556010	5287.968738
823.873976	4729.479468
824.191897	4317.042508
824.509775	4020.400851
824.827609	3748.511259
825.145398	3625.363432
825.463144	3613.894807
825.780845	3701.096687
826.098502	3807.129796
826.416116	4093.144701
826.733685	4411.105397
827.051210	4479.856653
827.368692	4364.366339
827.686129	4092.847273
828.003522	3767.420627
828.320872	3508.887573
828.638177	3312.879950
828.955439	3169.446520
829.272656	3088.551124
829.589830	3023.774818
829.906960	2970.285655
830.224046	2925.830240
830.541088	2893.249262
830.858086	2877.200749
831.175041	2858.714838
831.491952	2860.562421
831.808819	2870.458206
832.125642	2894.754047
832.442421	2942.776078
832.759157	3020.172913
833.075849	3203.312991
833.392497	3484.926969
833.709101	3691.039585
834.025662	3643.297337
834.342179	3481.650219
834.658653	3302.681695
834.975083	3156.740292
835.291469	3053.346226
835.607811	2970.056282
835.924110	2910.447159
836.240366	2856.705938
836.556578	2816.154897
836.872746	2793.812503
837.188871	2770.978596
837.504952	2752.974115
837.820990	2744.066397
838.136984	2729.908316
838.452935	2722.575958
838.768842	2724.110989
839.084706	2740.593042
839.400526	2819.066163
839.716303	2952.888633
840.032037	3032.485932
840.347727	3022.282636
840.663373	2958.764098
840.978977	2882.826677
841.294537	2808.220120
841.610054	2762.595157
841.925527	2738.914337
842.240957	2720.229301
842.556344	2695.721731
842.871687	2679.879905
843.186987	2668.892710
843.502244	2666.790549
843.817458	2662.114879
844.132629	2649.421254
844.447756	2640.742907
844.762840	2636.614202
845.077881	2638.504635
845.392879	2633.594551
845.707833	2634.746455
846.022745	2624.583489
846.337613	2628.046761
846.652438	2625.417800
846.967221	2623.643313
847.281960	2624.129785
847.596656	2624.840587
847.911309	2618.796244
848.225919	2618.980246
848.540485	2616.416819
848.855009	2615.277519
849.169490	2614.138218
849.483928	2614.092847
849.798323	2613.019082
850.112675	2612.358691
850.426984	2612.618310
850.741251	2610.914400
851.055474	2609.384410
851.369654	2617.200719
851.683792	2614.309617
851.997887	2610.367435
852.311938	2611.947837
852.625947	2612.746859
852.939914	2619.920421
853.253837	2616.880606
853.567718	2611.244596
853.881555	2609.807867
854.195350	2614.523866
854.509103	2613.155193
854.822812	2608.799636
855.136479	2610.513628
855.450103	2610.979935
855.763685	2616.464710
856.077224	2611.612600
856.390720	2609.507918
856.704173	2612.446911
857.017584	2618.985287
857.330953	2617.611573
857.644278	2619.239866
857.957561	2617.699793
858.270802	2617.457818
858.584000	2615.292642
858.897155	2621.188272
859.210268	2618.521501
859.523339	2612.945985
859.836367	2609.714605
860.149352	2613.503032
860.462295	2610.531272
860.775195	2608.807198
861.088054	2608.834924
861.400869	2605.953905
861.713642	2602.707402
862.026373	2606.006837
862.339062	2609.747373
862.651708	2614.128136
862.964312	2614.649895
863.276873	2613.001438
863.589392	2614.110492
863.901869	2621.800772
864.214303	2625.576596
864.526696	2629.422996
864.839045	2630.413583
865.151353	2633.960035
865.463619	2632.293933
865.775842	2631.326032
866.088023	2635.081692
866.400162	2632.246042
866.712258	2633.619757
867.024313	2631.026083
867.336325	2628.044241
867.648296	2630.085908
867.960224	2638.121507
868.272110	2635.172432
868.583954	2625.437964
868.895755	2628.225722
869.207515	2632.699746
869.519233	2639.641415
869.830909	2635.285858
870.142542	2631.988944
870.454134	2636.712505
870.765684	2635.558081
871.077191	2642.761889
871.388657	2647.016623
871.700081	2643.195429
872.011463	2643.974287
872.322803	2643.124853
872.634101	2647.775317
872.945357	2654.946358
873.256571	2660.935249
873.567744	2658.200423
873.878874	2654.795124
874.189963	2655.667243
874.501010	2661.119251
874.812015	2667.433296
875.122979	2664.874911
875.433900	2658.316370
875.744780	2653.865031
876.055618	2664.025476
876.366415	2669.046466
876.677169	2668.375992
876.987882	2661.905671
877.298554	2660.952893
877.609183	2670.263904
877.919771	2677.815553
878.230317	2685.473065
878.540822	2694.869776
878.851285	2710.005841
879.161707	2734.039542
879.472087	2773.342897
879.782425	2819.282932
880.092722	2938.049997
880.402977	3128.071250
880.713191	3386.979870
881.023363	3691.420192
881.333494	3883.987228
881.643583	4061.143456
881.953631	4055.217580
882.263637	3873.365517
882.573602	3652.575581
882.883526	3522.211343
883.193408	3401.692478
883.503248	3302.689257
883.813048	3184.978315
884.122806	3069.495562
884.432522	2985.898108
884.742197	2918.812953
885.051831	2878.166130
885.361424	2844.607169
885.670975	2805.455047
885.980485	2777.121242
886.289954	2758.824374
886.599382	2742.493557
886.908768	2730.450240
887.218113	2713.973229
887.527417	2699.994109
887.836680	2690.166380
888.145901	2686.662778
888.455082	2678.969977
888.764221	2665.285765
889.073319	2658.134888
889.382376	2659.059940
889.691392	2658.956596
890.000366	2659.957265
890.309300	2657.565238
890.618193	2659.087666
890.927044	2661.260403
891.235855	2663.186124
891.544625	2662.003974
891.853353	2662.780311
892.162041	2670.034532
892.470687	2688.807789
892.779293	2699.900848
893.087858	2709.521890
893.396381	2734.838564
893.704864	2775.901283
894.013306	2846.684124
894.321707	2942.735749
894.630068	2994.213492
894.938387	3012.288549
895.246665	3005.881242
895.554903	2962.880200
895.863100	2916.685587
896.171256	2859.334900
896.479371	2797.384160
896.787446	2756.757501
897.095480	2737.470047
897.403473	2733.061558
897.711425	2716.861810
898.019336	2697.531505
898.327207	2683.166737
898.635038	2685.001717
898.942827	2681.135152
899.250576	2672.471930
899.558284	2658.631442
899.865952	2652.851759
900.173579	2652.125833
900.481165	2649.998466
900.788711	2643.407157
901.096216	2636.563791
901.403681	2632.752678
901.711105	2633.511372
902.018489	2630.847122
902.325832	2635.749644
902.633135	2635.825262
902.940397	2650.991573
903.247619	2689.072449
903.554800	2760.503079
903.861941	2889.680125
904.169041	3018.327851
904.476101	3078.567119
904.783121	3074.758527
905.090100	3016.558406
905.397039	2937.001437
905.703938	2864.345807
906.010796	2802.253915
906.317614	2749.687283
906.624391	2709.768906
906.931129	2685.352078
907.237826	2661.358706
907.544483	2640.296765
907.851099	2626.829323
908.157675	2616.021089
908.464211	2610.768207
908.770707	2602.727566
909.077163	2595.445619
909.383578	2594.308839
909.689954	2592.287337
909.996289	2589.048395
910.302584	2590.492686
910.608839	2583.853486
910.915054	2587.354567
911.221229	2592.279775
911.527363	2591.357244
911.833458	2589.474373
912.139513	2588.733323
912.445527	2596.169025
912.751502	2598.911413
913.057436	2601.729418
913.363331	2611.111005
913.669186	2620.016203
913.975000	2632.467853
914.280775	2650.820174
914.586510	2670.717608
914.892205	2709.905017
915.197859	2776.498660
915.503475	2861.716845
915.809050	2929.180086
916.114585	2946.932510
916.420081	2957.876855
916.725536	2969.244657
917.030952	2941.916562
917.336328	2894.267575
917.641665	2840.317147
917.946961	2792.665640
918.252218	2756.737337
918.557435	2733.356465
918.862612	2707.823021
919.167750	2692.029086
919.472848	2675.516787
919.777906	2657.151863
920.082925	2647.603918
920.387904	2635.124541
920.692843	2630.794190
920.997743	2624.883437
921.302603	2618.014865
921.607423	2611.867178
921.912204	2605.840479
922.216946	2604.784357
922.521647	2600.862339
922.826310	2596.065681
923.130932	2591.258941
923.435516	2586.820205
923.740059	2589.212233
924.044564	2582.961202
924.349028	2581.010275
924.653454	2573.889646
924.957840	2573.597259
925.262186	2566.766495
925.566493	2570.156671
925.870761	2567.908317
926.174989	2566.847154
926.479178	2566.020404
926.783328	2562.224416
927.087438	2562.431103
927.391509	2561.382543
927.695541	2556.994218
927.999533	2559.025803
928.303486	2557.919270
928.607400	2554.546738
928.911275	2555.192006
929.215110	2556.263251
929.518906	2556.419527
929.822663	2553.173024
930.126381	2556.699311
930.430060	2555.383570
930.733699	2552.996583
931.037299	2557.813406
931.340861	2556.875751
931.644383	2554.455997
931.947866	2555.111347
932.251309	2555.615463
932.554714	2554.929866
932.858080	2556.081770
933.161407	2556.250648
933.464694	2556.028838
933.767943	2557.125288
934.071153	2555.340720
934.374323	2552.873075
934.677455	2554.274516
934.980548	2552.250493
935.283602	2551.723692
935.586617	2551.728733
935.889593	2554.365257
936.192530	2552.817623
936.495428	2552.580688
936.798287	2553.099927
937.101108	2554.647561
937.403890	2557.548745
937.706632	2560.265927
938.009336	2565.226423
938.312002	2567.184911
938.614628	2570.993503
938.917216	2578.499781
939.219765	2575.722105
939.522275	2575.437280
939.824747	2576.175809
940.127179	2570.262535
940.429573	2567.958728
940.731929	2568.908986
941.034246	2566.194324
941.336524	2566.539643
941.638763	2567.162226
941.940964	2566.723645
942.243126	2562.857080
942.545250	2563.393963
942.847335	2562.630228
943.149381	2564.379509
943.451389	2559.817265
943.753359	2559.741647
944.055290	2558.751061
944.357182	2556.905998
944.659036	2557.037068
944.960851	2555.378529
945.262628	2558.274672
945.564367	2558.491441
945.866067	2558.241904
946.167729	2558.241904
946.469352	2556.076728
946.770937	2558.531770
947.072484	2552.535318
947.373992	2554.445915
947.675462	2554.055226
947.976893	2555.711245
948.278286	2551.920297
948.579641	2556.999260
948.880958	2553.417520
949.182236	2550.957437
949.483476	2554.816440
949.784678	2551.549772
950.085841	2553.987170
950.386967	2552.552962
950.688054	2552.469783
950.989103	2556.744681
951.290114	2554.919784
951.591087	2558.839281
951.892021	2559.088818
952.192917	2559.905485
952.493776	2559.484548
952.794596	2561.624518
953.095378	2563.048644
953.396122	2560.807851
953.696828	2561.380022
953.997496	2557.243756
954.298126	2556.752243
954.598718	2555.043292
954.899272	2555.063457
955.199788	2553.903991
955.500266	2551.317879
955.800706	2546.059956
956.101108	2544.613145
956.401472	2546.526262
956.701798	2541.543082
957.002087	2542.707588
957.302337	2547.443752
957.602550	2544.668597
957.902724	2541.142310
958.202861	2545.386962
958.502960	2543.131045
958.803022	2541.593493
959.103045	2540.842362
959.403031	2542.606765
959.702979	2538.783050
960.002889	2543.219266
960.302762	2539.655170
960.602596	2542.120294
960.902393	2539.125849
961.202153	2538.286497
961.501875	2537.089222
961.801559	2535.972607
962.101205	2536.401105
962.400814	2538.069727
962.700385	2537.127031
962.999918	2536.907741
963.299414	2535.317257
963.598873	2537.621064
963.898293	2538.684748
964.197677	2538.815818
964.497022	2540.270191
964.796331	2538.684748
965.095601	2539.607279
965.394835	2537.502597
965.694030	2534.447658
965.993189	2536.007895
966.292309	2536.852288
966.591393	2537.553009
966.890439	2535.546629
967.189447	2536.582587
967.488419	2537.021167
967.787353	2536.580066
968.086249	2537.933616
968.385108	2536.922864
968.683930	2539.587114
968.982714	2537.558050
969.281462	2537.217772
969.580172	2535.496218
969.878844	2536.401105
970.177480	2536.698533
970.476078	2535.385313
970.774639	2541.653987
971.073162	2534.225847
971.371649	2536.436393
971.670098	2536.053265
971.968510	2536.980838
972.266885	2533.247863
972.565223	2536.844727
972.863524	2540.393699
973.161788	2537.580735
973.460014	2537.250539
973.758204	2540.229861
974.056356	2538.909079
974.354471	2538.709953
974.652550	2535.896990
974.950591	2537.794984
975.248595	2537.179963
975.546563	2537.895807
975.844493	2539.045190
976.142386	2538.858668
976.440243	2538.551157
976.738062	2538.175591
977.035845	2535.801208
977.333590	2535.896990
977.631299	2534.775333
977.928971	2536.111239
978.226606	2535.584438
978.524204	2538.470499
978.821765	2536.650642
979.119290	2537.545447
979.416777	2535.402957
979.714228	2536.736342
980.011642	2538.606610
980.309020	2537.164840
980.606360	2536.519572
980.903664	2535.516382
981.200931	2538.137783
981.498162	2537.343801
981.795356	2541.268339
982.092513	2544.111550
982.389633	2543.841848
982.686717	2548.661191
982.983764	2551.085986
983.280775	2552.817623
983.577749	2552.958775
983.874686	2549.969371
984.171587	2546.001982
984.468451	2546.768238
984.765279	2541.220448
985.062070	2545.540717
985.358824	2541.119625
985.655543	2541.164995
985.952224	2536.393543
986.248869	2536.900179
986.545478	2532.864736
986.842050	2534.654345
987.138586	2529.661082
987.435086	2532.549663
987.731549	2530.664272
988.027975	2532.637884
988.324366	2534.268697
988.620719	2534.424973
988.917037	2535.029911
989.213318	2533.842719
989.509563	2536.207021
989.805772	2533.872966
990.101944	2530.404653
990.398080	2536.842206
990.694180	2534.510672
990.990244	2533.648635
991.286271	2531.851464
991.582262	2533.036135
991.878217	2533.797349
992.174136	2533.285672
992.470019	2533.948584
992.765865	2533.063861
993.061676	2535.672658
993.357450	2534.697195
993.653188	2532.625281
993.948890	2534.714839
994.244556	2533.187369
994.540186	2536.892618
994.835780	2534.994623
995.131337	2536.345652
995.426859	2533.540250
995.722345	2535.052596
996.017795	2536.050745
996.313208	2538.026877
996.608586	2536.995961
996.903928	2540.504604
997.199234	2537.139634
997.494504	2536.317926
997.789738	2534.868594
998.084936	2537.976466
998.380099	2538.404964
998.675225	2534.603934
998.970316	2536.391023
999.265371	2534.982020
999.560390	2534.775333
999.855373	2534.815662
1000.150320	2534.309026
1000.445232	2531.465815
1000.740108	2531.811134
1001.034948	2532.572349
1001.329752	2533.389016
1001.624521	2531.740558
1001.919254	2526.984230
1002.213951	2529.053623
1002.508613	2528.322656
1002.803239	2531.223840
1003.097829	2526.638911
1003.392384	2532.128727
1003.686903	2531.435568
1003.981386	2531.044879
1004.275834	2532.917668
1004.570246	2529.524971
1004.864623	2531.748120
1005.158964	2531.816176
1005.453270	2533.232740
1005.747540	2531.536392
1006.041775	2531.561597
1006.335974	2530.046731
1006.630138	2531.256608
1006.924266	2534.084695
1007.218359	2529.913140
1007.512416	2532.854653
1007.806438	2530.525640
1008.100425	2531.818696
1008.394376	2531.367513
1008.688292	2532.403470
1008.982172	2532.751310
1009.276017	2531.969931
1009.569827	2532.625281
1009.863602	2532.035466
1010.157341	2530.563449
1010.451045	2529.736700
1010.744714	2532.123686
1011.038347	2529.293078
1011.331945	2531.024714
1011.625508	2530.787780
1011.919036	2531.947246
1012.212528	2533.658717
1012.505986	2529.023376
1012.799408	2530.598737
1013.092795	2530.944056
1013.386147	2531.382636
1013.679464	2530.797862
1013.972745	2529.247708
1014.265992	2533.749458
1014.559204	2530.003881
1014.852380	2532.736186
1015.145521	2530.621422
1015.438628	2531.511186
1015.731699	2530.157636
1016.024736	2529.444313
1016.317737	2532.146371
1016.610703	2530.598737
1016.903635	2526.959024
1017.196531	2526.270906
1017.489393	2527.644621
1017.782219	2529.159488
1018.075011	2529.222502
1018.367768	2532.501772
1018.660490	2529.472039
1018.953177	2529.472039
1019.245829	2529.472039
