Dividing Wavelength (nm)	Counts (n)	Blue Motor Position (mm): 33.100000	Red Motor Position (mm): 0.000000	
326.493990	2222.538867
326.888308	2222.538867
327.282561	2222.538867
327.676750	2181.975222
328.070874	2179.205108
328.464933	2179.237876
328.858929	2182.675943
329.252859	2188.843794
329.646726	2194.631039
330.040528	2207.332226
330.434265	2222.617004
330.827938	2238.536968
331.221547	2254.638414
331.615091	2273.751948
332.008571	2294.385391
332.401986	2311.343833
332.795338	2328.675320
333.188625	2350.306911
333.581847	2364.464991
333.975006	2388.740668
334.368100	2406.281363
334.761129	2422.523960
335.154095	2442.474327
335.546996	2468.736217
335.939833	2508.997393
336.332606	2524.632531
336.725315	2536.587628
337.117960	2545.845707
337.510540	2556.792572
337.903056	2573.388051
338.295508	2577.282342
338.687896	2588.506471
339.080220	2596.358068
339.472480	2601.096753
339.864676	2605.565736
340.256807	2611.542024
340.648875	2614.854062
341.040879	2616.230297
341.432818	2621.072325
341.824694	2621.621811
342.216506	2623.116513
342.608253	2627.081380
342.999937	2625.556431
343.391557	2628.901237
343.783113	2623.653396
344.174605	2625.296812
344.566033	2622.985443
344.957397	2623.177007
345.348697	2622.325052
345.739934	2621.064763
346.131106	2620.500154
346.522215	2617.447735
346.913260	2612.386417
347.304241	2612.945985
347.695159	2611.990686
348.086012	2612.018413
348.476802	2610.067486
348.867528	2604.224789
349.258191	2600.534664
349.648789	2601.384099
350.039324	2596.252204
350.429796	2598.092225
350.820203	2599.254211
351.210548	2597.762030
351.600828	2597.719180
351.991045	2594.639035
352.381198	2593.976123
352.771288	2593.661051
353.161314	2594.084508
353.551276	2589.507140
353.941175	2590.908581
354.331010	2593.270362
354.720782	2591.228694
355.110490	2594.321442
355.500135	2591.155597
355.889717	2591.236256
356.279235	2589.940679
356.668689	2592.609970
357.058080	2591.924373
357.447408	2593.303129
357.836672	2593.900506
358.225873	2594.089549
358.615010	2595.304467
359.004084	2587.974629
359.393095	2593.696339
359.782043	2595.375043
360.170927	2598.770260
360.559748	2594.114755
360.948505	2596.557194
361.337199	2599.773450
361.725830	2598.099787
362.114398	2596.363109
362.502903	2596.874787
362.891344	2599.130703
363.279722	2601.338728
363.668037	2596.259766
364.056289	2601.363934
364.444478	2602.271342
364.832603	2603.337546
365.220665	2605.089347
365.608665	2602.725046
365.996601	2601.089191
366.384474	2602.904007
366.772284	2604.035746
367.160031	2604.970880
367.547715	2606.596652
367.935336	2604.224789
368.322893	2602.742690
368.710388	2601.273193
369.097820	2602.309150
369.485189	2604.232351
369.872495	2608.439193
370.259738	2608.068669
370.646918	2608.814759
371.034035	2609.245778
371.421090	2607.015067
371.808081	2609.694441
372.195010	2609.240737
372.581875	2608.560181
372.968678	2611.337857
373.355418	2610.652260
373.742096	2610.465737
374.128710	2610.601848
374.515262	2607.471292
374.901751	2613.860954
375.288177	2612.376335
375.674540	2610.909359
376.060841	2611.123608
376.447079	2612.837600
376.833254	2611.206787
377.219367	2612.199894
377.605417	2612.547734
377.991404	2611.083279
378.377329	2613.558485
378.763191	2611.768876
379.148991	2613.581170
379.534727	2615.118722
379.920402	2614.564195
380.306013	2616.315996
380.691563	2614.659977
381.077049	2616.598301
381.462474	2615.965636
381.847835	2615.285080
382.233134	2618.219032
382.618371	2615.325410
383.003545	2617.034361
383.388657	2617.460338
383.773706	2618.702983
384.158693	2618.657612
384.543618	2618.163579
384.928480	2619.512088
385.313280	2617.059567
385.698017	2617.848507
386.082692	2621.437809
386.467305	2622.884620
386.851856	2622.536780
387.236344	2621.836060
387.620770	2621.457973
388.005133	2617.203239
388.389435	2621.044599
388.773674	2617.172992
389.157851	2625.569034
389.541965	2626.297481
389.926018	2624.084414
390.310008	2627.051133
390.693936	2624.946452
391.077802	2625.498458
391.461606	2628.412245
391.845348	2629.256638
392.229027	2629.249077
392.612645	2625.730351
392.996200	2628.984416
393.379694	2626.988119
393.763125	2630.423665
394.146494	2632.447689
394.529801	2632.999695
394.913047	2631.530199
395.296230	2633.765950
395.679351	2635.142185
396.062410	2636.684778
396.445408	2635.086733
396.828343	2634.854840
397.211217	2636.543626
397.594028	2636.510859
397.976778	2635.550519
398.359466	2636.760396
398.742092	2637.425828
399.124656	2638.802063
399.507158	2638.325674
399.889598	2640.384985
400.271977	2641.720891
400.654294	2640.904224
401.036549	2642.240130
401.418742	2642.194760
401.800874	2645.877322
402.182944	2643.228196
402.564952	2643.848258
402.946898	2647.414874
403.328783	2646.285656
403.710606	2645.468989
404.092367	2649.620379
404.474067	2649.632982
404.855705	2648.707930
405.237282	2648.894453
405.618797	2650.583240
406.000250	2653.272695
406.381642	2652.080462
406.762972	2652.241779
407.144240	2650.802530
407.525447	2653.451656
407.906593	2652.859321
408.287677	2659.314518
408.668700	2660.635300
409.049661	2664.801814
409.430560	2665.046310
409.811399	2667.582010
410.192176	2676.124246
410.572891	2682.387879
410.953545	2689.122861
411.334138	2691.482121
411.714669	2703.170036
412.095139	2710.353680
412.475547	2731.208934
412.855894	2742.579256
413.236180	2763.593306
413.616405	2778.063938
413.996568	2808.061324
414.376670	2834.103925
414.756711	2859.302132
415.136691	2897.690519
415.516609	2945.732715
415.896466	2985.260402
416.276262	3041.920451
416.655997	3098.250304
417.035670	3168.476098
417.415283	3268.043927
417.794834	3340.747448
418.174324	3394.707959
418.553753	3457.309007
418.933121	3581.442380
419.312428	3674.527285
419.691674	3713.361814
420.070859	3904.613109
420.449983	3930.106224
420.829045	4103.516875
421.208047	4141.436434
421.586988	4327.391997
421.965867	4428.565434
422.344686	4565.664654
422.723444	4689.840876
423.102141	4569.831167
423.480777	4935.932362
423.859352	4866.389645
424.237866	5224.813163
424.616319	5277.147902
424.994712	5559.628957
425.373044	5487.910982
425.751314	5815.790149
426.129524	5869.060022
426.507673	6058.972890
426.885762	6251.459267
427.263789	6313.909081
427.641756	6382.201592
428.019662	6564.109108
428.397508	6814.059598
428.775292	6733.421301
429.153016	7096.220541
429.530679	7095.328257
429.908282	7233.372693
430.285824	7143.889692
430.663305	7721.011066
431.040726	7438.540093
431.418086	7523.753237
431.795385	7861.437448
432.172624	8018.693721
432.549802	8046.725057
432.926920	8208.611631
433.303977	8192.066564
433.680974	8437.984131
434.057910	8592.203109
434.434786	8712.974032
434.811601	8683.180813
435.188355	9229.094924
435.565050	9060.937156
435.941683	9074.369310
436.318257	9585.050797
436.694770	9739.819262
437.071222	9878.274552
437.447614	9806.120517
437.823946	9755.119164
438.200218	9962.928128
438.576429	9815.116456
438.952580	10083.976314
439.328670	10190.795844
439.704700	10016.220686
440.080670	10042.588441
440.456580	10625.524787
440.832429	10409.269369
441.208218	10055.816429
441.583947	10403.527495
441.959616	10559.936855
442.335224	10390.533921
442.710773	10564.206712
443.086261	10768.040727
443.461689	10092.604249
443.837057	10727.678728
444.212365	11036.608198
444.587612	10696.289984
444.962800	10946.643766
445.337927	10748.392829
445.712995	10307.289347
446.088002	11408.988150
446.462949	11064.841180
446.837837	11037.941583
447.212664	11061.095602
447.587431	11550.037114
447.962139	12252.169022
448.336786	14487.746833
448.711374	15070.438682
449.085901	12944.896657
449.460369	12551.933673
449.834776	12013.452743
450.209124	12856.240405
450.583412	13262.660748
450.957640	14225.407707
451.331808	13417.640941
451.705917	12374.492620
452.079965	11706.514529
452.453954	12602.839245
452.827883	12230.779406
453.201752	12508.501612
453.575562	12021.384999
453.949311	12441.345882
454.323001	12391.130948
454.696632	12629.824542
455.070202	12905.830235
455.443713	13171.120956
455.817164	13608.579684
456.190556	13623.214154
456.563888	13985.211850
456.937160	14161.324559
457.310373	13495.413342
457.683526	13572.898397
458.056619	13135.573260
458.429653	13258.806786
458.802628	12718.009446
459.175542	13076.700145
459.548398	14026.705587
459.921194	14355.227501
460.293930	14411.055759
460.666607	15307.216637
461.039224	16328.892164
461.411782	17025.302362
461.784280	16930.616890
462.156719	16966.681304
462.529099	16662.578740
462.901419	15577.888790
463.273680	15378.062493
463.645882	15239.455968
464.018024	14977.827645
464.390106	15196.142374
464.762130	15922.963333
465.134094	16660.658060
465.505999	18640.188106
465.877845	21907.511148
466.249631	24741.108437
466.621358	24440.572488
466.993026	22996.055060
467.364634	22441.293723
467.736184	20994.752271
468.107674	20187.403921
468.479105	20311.864968
468.850477	19774.946795
469.221790	19366.325988
469.593043	18684.774591
469.964238	18134.550293
470.335373	17797.503788
470.706449	18213.318321
471.077467	17759.536337
471.448425	19584.963351
471.819324	23585.255039
472.190164	25651.687015
472.560945	22142.406232
472.931667	19742.466641
473.302330	19103.394527
473.672934	18605.003372
474.043479	18970.010637
474.413965	18771.043857
474.784393	18408.179082
475.154761	19081.788141
475.525070	19085.158153
475.895321	18744.381194
476.265513	19321.958793
476.635645	19895.735362
477.005719	19687.699546
477.375734	19873.942454
477.745691	20352.199240
478.115588	20873.452027
478.485427	21390.871017
478.855207	22445.074588
479.224928	24198.912176
479.594591	26422.993636
479.964194	26486.310528
480.333739	26692.402979
480.703226	26241.237354
481.072653	25917.532263
481.442022	26476.835679
481.811333	27387.862920
482.180584	27323.371439
482.549777	26379.700206
482.918912	26000.978483
483.287988	26127.100590
483.657005	25811.625182
484.025964	25539.138214
484.394864	25484.595450
484.763706	25165.591235
485.132489	24583.481638
485.501213	24756.796508
485.869879	24678.215001
486.238487	24488.012267
486.607036	24637.590863
486.975527	24326.284490
487.343959	24655.045858
487.712333	24600.036787
488.080648	24263.204532
488.448905	24738.393775
488.817104	24494.459902
489.185244	25164.169629
489.553326	25138.053932
489.921350	26113.923014
490.289315	28381.920485
490.657222	30185.161381
491.025070	30676.426864
491.392861	30459.629522
491.760593	29616.060482
492.128267	28714.755106
492.495883	27679.085337
492.863440	26803.709136
493.230939	25936.877691
493.598380	25776.450531
493.965763	25374.786516
494.333088	24928.233547
494.700354	24857.241498
495.067563	24731.590738
495.434713	24486.245342
495.801805	24634.593897
496.168839	24457.641835
496.535815	24282.272696
496.902733	24498.923844
497.269593	24164.241640
497.636395	24356.750703
498.003139	24333.495860
498.369825	24091.107101
498.736453	24276.326655
499.103023	24145.743126
499.469535	24167.016796
499.835989	24384.429158
500.202385	24414.683643
500.568723	23905.786724
500.935003	24165.247351
501.301226	23774.570530
501.667390	24598.242137
502.033497	24835.347767
502.399546	24573.391769
502.765537	24136.182578
503.131470	24524.144737
503.497345	24660.200438
503.863163	23867.463872
504.228923	24487.472863
504.594625	24679.117368
504.960269	24201.891498
505.325856	24699.178640
505.691385	24095.535755
506.056856	24712.610794
506.422270	24683.205744
506.787625	24258.181022
507.152924	24665.196222
507.518164	24700.272570
507.883347	24506.006665
508.248472	24182.813251
508.613540	24961.064061
508.978550	24753.363482
509.343503	24736.475616
509.708398	25003.848334
510.073236	25151.037423
510.438016	25369.374838
510.802738	25046.839294
511.167403	25299.542254
511.532010	25001.995710
511.896561	25783.939165
512.261053	25747.287456
512.625488	25562.997995
512.989866	25472.600024
513.354186	25313.269316
513.718449	25414.878813
514.082655	25814.019730
514.446803	25542.677104
514.810894	25996.360786
515.174927	25492.225236
515.538904	25516.851273
515.902822	26012.124474
516.266684	25765.337308
516.630488	25668.731156
516.994235	25650.391438
517.357925	25944.830111
517.721558	26139.895038
518.085133	26215.993776
518.448651	26129.250642
518.812112	25861.996392
519.175516	26067.501549
519.538863	26235.061941
519.902152	26009.432497
520.265385	26285.019775
520.628560	26079.696100
520.991678	26098.182011
521.354739	26168.619533
521.717743	26233.418525
522.080690	26023.159559
522.443580	26355.555600
522.806413	26353.397986
523.169189	26456.315662
523.531908	26486.328172
523.894569	26104.470850
524.257174	26173.093557
524.619722	26366.187393
524.982213	26046.729474
525.344647	26105.869771
525.707025	26244.859423
526.069345	26231.951549
526.431608	26191.047627
526.793815	26364.997681
527.155964	25830.433727
527.518057	26004.063669
527.880093	25925.058706
528.242072	26149.818550
528.603995	25867.105601
528.965860	25674.268863
529.327669	25701.864140
529.689421	25694.904827
530.051117	25525.680854
530.412755	25716.876696
530.774337	25506.358111
531.135862	25382.219698
531.497331	25579.943834
531.858743	25138.363963
532.220098	25622.052592
532.581396	25294.236440
532.942638	25231.892490
533.303824	25332.569373
533.664953	25348.295253
534.026025	25012.793862
534.387040	25250.723720
534.747999	25303.902852
535.108902	25464.884538
535.469748	24956.743792
535.830537	25145.761856
536.191270	25261.073209
536.551947	25129.552026
536.912567	24774.687562
537.273131	25133.506811
537.633638	24845.220867
537.994089	25049.906836
538.354483	24577.555762
538.714821	25081.426651
539.075103	25130.656038
539.435328	24919.008235
539.795497	24478.698735
540.155609	24874.958633
540.515665	25164.280535
540.875665	24396.875767
541.235609	24698.931623
541.595496	24657.132896
541.955328	25004.450752
542.315102	24935.994403
542.674821	24481.365505
543.034483	24358.527710
543.394090	24528.414594
543.753640	24320.265352
544.113134	24956.965603
544.472571	24542.350864
544.831953	24845.891340
545.191278	24473.995338
545.550548	24375.309711
545.909761	24580.572893
546.268918	24812.067718
546.628019	24786.292299
546.987064	24492.556867
547.346053	24229.811928
547.704986	24346.018086
548.063863	24514.919425
548.422684	24519.179200
548.781449	24049.701584
549.140158	24457.692247
549.498811	24031.324058
549.857408	23775.714872
550.215949	24202.123391
550.574434	23878.869483
550.932864	24106.752322
551.291237	24261.699747
551.649555	24125.737307
552.007817	24179.569269
552.366022	24035.790520
552.724173	24074.110851
553.082267	24019.951214
553.440305	24510.536142
553.798288	23764.894036
554.156215	24281.103148
554.514086	24369.242682
554.871902	23759.106791
555.229661	24030.462020
555.587365	23896.001844
555.945014	23743.764039
556.302606	23995.857020
556.660143	23951.870432
557.017625	24210.222005
557.375050	23734.253902
557.732421	24111.874134
558.089735	23938.234111
558.446994	24005.863710
558.804197	24027.717112
559.161345	23962.983655
559.518437	23726.581266
559.875474	23922.097377
560.232455	24101.247382
560.589381	23917.250308
560.946251	23900.760693
561.303065	24225.446289
561.659825	24299.518483
562.016528	23913.106479
562.373177	23657.530062
562.729770	24007.552497
563.086307	23876.185068
563.442789	24036.652557
563.799216	23876.696746
564.155587	23878.652713
564.511904	23868.696434
564.868164	23800.078769
565.224370	23778.953814
565.580520	23691.237737
565.936615	23821.102901
566.292654	23503.061546
566.648638	23793.046359
567.004567	23622.491522
567.360441	23574.141815
567.716260	23303.683911
568.072023	23636.412668
568.427732	23384.654924
568.783385	23173.486031
569.138982	23406.273913
569.494525	23438.842287
569.850013	23197.670967
570.205445	23283.047948
570.560823	23088.739194
570.916145	22855.769830
571.271412	23041.140619
571.626625	22791.492598
571.981782	22902.700452
572.336884	22704.313404
572.691931	22834.518846
573.046923	22578.445875
573.401860	22458.158903
573.756743	22470.628197
574.111570	22375.267210
574.466342	22299.712917
574.821059	22392.704562
575.175722	22085.168971
575.530330	22075.633629
575.884882	22095.596598
576.239380	22001.742916
576.593823	21898.782390
576.948211	21880.755224
577.302544	21724.091286
577.656823	21597.545721
578.011047	21688.873785
578.365216	21565.360475
578.719330	21443.334305
579.073389	21336.711380
579.427394	21482.156230
579.781344	21246.202504
580.135239	21147.718523
580.489080	21108.480702
580.842866	20871.160823
581.196597	21071.947460
581.550273	21050.709078
581.903895	20929.141653
582.257463	21235.863097
582.610975	20777.763365
582.964434	21083.789130
583.317837	20787.908687
583.671186	20877.810104
584.024481	20847.061587
584.377721	20619.415682
584.730906	20683.947492
585.084037	20702.345183
585.437113	20608.703230
585.790135	20813.865588
586.143103	20282.109557
586.496016	20296.600354
586.848874	20536.090450
587.201679	20463.641507
587.554428	20145.234669
587.907124	20481.340998
588.259765	20242.506253
588.612352	20324.213274
588.964884	19897.799714
589.317362	20063.268028
589.669786	20106.427866
590.022155	20133.272011
590.374470	20352.098417
590.726731	20144.173506
591.078937	19909.953936
591.431090	19999.305868
591.783188	19752.702704
592.135232	19720.895544
592.487222	19818.595626
592.839157	19836.269911
593.191038	19717.374298
593.542866	19613.972671
593.894639	19318.533329
594.246358	19536.003665
594.598022	19440.083110
594.949633	19201.427325
595.301190	19169.461368
595.652692	19331.476491
596.004141	19569.461803
596.355535	18890.330159
596.706876	18912.692718
597.058162	18808.570206
597.409395	19030.660759
597.760573	19104.395196
598.111698	18882.082832
598.462768	18816.613367
598.813785	18780.904353
599.164748	18590.552905
599.515657	18641.551738
599.866511	18434.990459
600.217312	18792.025139
600.568060	18312.455132
600.918753	18625.467936
601.269392	18522.714097
601.619978	18302.826528
601.970510	18516.465587
602.320988	18459.878635
602.671412	18665.713988
603.021783	18580.684846
603.372100	18302.065314
603.722363	18444.936655
604.072572	18382.328045
604.422728	18528.624850
604.772830	18288.660886
605.122878	18233.203153
605.472872	18226.884066
605.822813	18214.805462
606.172701	18192.768058
606.522534	18374.854535
606.872314	18404.113392
607.222041	18237.006703
607.571714	18451.550649
607.921333	18280.874824
608.270899	18352.068519
608.620411	18536.279843
608.969870	18300.671435
609.319276	18303.068504
609.668627	18330.631012
610.017926	18464.392989
610.367171	18584.884127
610.716362	18626.650087
611.065500	18444.795503
611.414585	18578.628055
611.763616	18556.842709
612.112594	18502.899842
612.461518	18466.376683
612.810389	18655.291403
613.159207	18512.697325
613.507971	18431.509542
613.856682	18710.731492
614.205340	18639.250451
614.553945	18779.389487
614.902496	18529.136527
615.250994	18756.303523
615.599439	18701.755717
615.947830	18684.036062
616.296169	18742.296677
616.644454	18702.080872
616.992686	18676.663374
617.340864	18888.961486
617.688990	18640.735071
618.037063	18820.512699
618.385082	18661.108894
618.733048	18950.874417
619.080961	18823.164346
619.428821	18848.806175
619.776628	18733.668742
620.124382	18665.688782
620.472083	18718.807420
620.819731	18727.687413
621.167326	18424.532585
621.514868	18459.563563
621.862357	18223.206545
622.209793	18247.782170
622.557176	18073.980829
622.904506	17896.945588
623.251783	17819.364751
623.599007	17580.877845
623.946179	17515.925098
624.293297	17451.489070
624.640363	17198.307200
624.987376	17230.792396
625.334336	17027.414605
625.681243	16864.151797
626.028097	16878.304836
626.374899	16810.203889
626.721647	16662.707289
627.068343	16506.169380
627.414987	16442.895338
627.761577	16411.597334
628.108115	16446.207376
628.454600	16177.846592
628.801032	16271.112979
629.147412	16205.653596
629.493739	16217.419649
629.840014	16029.490475
630.186236	16126.540248
630.532405	15895.068108
630.878521	16082.818321
631.224585	15980.550954
631.570597	15804.884386
631.916556	15835.950497
632.262462	15810.452341
632.608316	15729.998046
632.954117	15668.306926
633.299866	15662.539846
633.645562	15587.272898
633.991206	15338.953221
634.336797	15211.081833
634.682336	15181.961608
635.027823	15067.111521
635.373257	14950.796978
635.718639	14851.947513
636.063968	14807.139217
636.409245	14552.901226
636.754470	14582.359208
637.099642	14421.218725
637.444762	14195.092728
637.789829	14238.852464
638.134845	14075.314913
638.479808	14110.489564
638.824719	14039.817628
639.169577	13907.003389
639.514383	13945.306076
639.859137	13770.546916
640.203839	13859.563611
640.548489	13695.111090
640.893086	13686.173124
641.237632	13550.056929
641.582125	13703.766751
641.926566	13531.114794
642.270955	13547.977453
642.615292	13501.230834
642.959576	13522.738917
643.303809	13549.240262
643.647990	13479.919356
643.992118	13541.943192
644.336195	13311.164210
644.680219	13523.333773
645.024192	13433.805401
645.368112	13683.302187
645.711981	13732.556781
646.055797	13913.617383
646.399562	13887.708373
646.743274	14162.841947
647.086935	14435.631384
647.430544	14394.573707
647.774101	14431.938739
648.117606	14574.729422
648.461059	14545.009299
648.804460	14528.388615
649.147810	14252.869393
649.491108	14172.949460
649.834354	14174.698741
650.177548	13869.905538
650.520690	13678.785313
650.863781	13600.420577
651.206820	13648.800530
651.549807	13482.593688
651.892742	13280.393007
652.235626	13217.320611
652.578458	13215.062174
652.921238	12901.472158
653.263967	13106.909259
653.606644	12932.984410
653.949269	12904.665729
654.291843	12717.810320
654.634365	12871.878064
654.976836	12720.078839
655.319255	12726.105539
655.661622	12677.460925
656.003938	12610.327879
656.346203	12538.703165
656.688416	12604.838063
657.030577	12563.666959
657.372687	12484.238539
657.714746	12461.634005
658.056753	12646.319197
658.398708	12460.819859
658.740612	12464.772123
659.082465	12572.239441
659.424266	12531.572453
659.766016	12555.696895
660.107715	12467.718678
660.449362	12545.433106
660.790958	12505.040860
661.132503	12446.492900
661.473996	12512.973116
661.815438	12529.190508
662.156829	12544.258517
662.498168	12527.398378
662.839456	12519.098118
663.180693	12539.789534
663.521879	12629.748924
663.863013	12614.204526
664.204097	12574.850759
664.545129	12710.871172
664.886110	12674.242148
665.227040	12770.533228
665.567918	12767.526179
665.908746	12804.543372
666.249522	12787.963017
666.590248	12833.058659
666.930922	12944.745422
667.271545	12924.825303
667.612118	13014.623376
667.952639	12915.020259
668.293109	12936.021706
668.633528	12879.278478
668.973896	12858.385416
669.314213	12944.828601
669.654480	12669.626972
669.994695	12750.552614
670.334859	12771.218825
670.674973	12713.575751
671.015035	12755.676947
671.355047	12698.081765
671.695008	12664.033812
672.034918	12679.137108
672.374777	12718.455588
672.714585	12629.688430
673.054342	12663.925427
673.394049	12614.456584
673.733705	12708.131305
674.073310	12616.251235
674.412864	12634.263278
674.752368	12494.116680
675.091820	12519.965196
675.431223	12506.061694
675.770574	12374.399358
676.109875	12295.222996
676.449125	12256.519537
676.788324	12195.524097
677.127473	12028.167871
677.466571	12021.127900
677.805619	11926.369331
678.144616	11848.249090
678.483562	11821.694812
678.822458	11687.007785
679.161303	11655.926551
679.500098	11646.945735
679.838842	11597.363466
680.177535	11628.409412
680.516179	11694.188908
680.854771	11638.148922
681.193314	11851.205727
681.531805	12010.271775
681.870247	12426.792070
682.208638	12842.009227
682.546978	13146.063901
682.885268	13189.085108
683.223508	12889.585117
683.561697	12730.650139
683.899836	12635.773103
684.237925	12443.039709
684.575963	12356.140299
684.913951	12272.522680
685.251889	12221.518806
685.589776	12329.880929
685.927614	12242.830284
686.265401	12212.691746
686.603137	12258.727563
686.940824	12415.446954
687.278460	12535.824666
687.616046	12582.742685
687.953582	12746.575144
688.291068	12684.997450
688.628504	12909.984146
688.965889	12926.514089
689.303224	12891.934295
689.640510	12782.788273
689.977745	12460.860188
690.314930	12242.794996
690.652065	12146.385449
690.989150	11857.754186
691.326185	11635.835032
691.663170	11429.666963
692.000105	11186.832062
692.336990	11077.149157
692.673825	10818.701802
693.010610	10702.485562
693.347345	10495.425209
693.684030	10299.374736
694.020665	10236.372916
694.357251	10042.722032
694.693786	9978.621240
695.030272	9820.117281
695.366707	9703.953973
695.703093	9634.118868
696.039429	9632.248600
696.375716	9554.483761
696.711952	9421.152804
697.048139	9465.111665
697.384276	9417.422350
697.720363	9440.765413
698.056400	9370.595072
698.392388	9320.657402
698.728326	9283.249520
699.064214	9218.957164
699.400053	9266.628835
699.735842	9081.058921
700.071581	9038.468733
700.407270	8964.893093
700.742910	8883.385197
701.078501	8794.759191
701.414042	8667.696909
701.749533	8605.408412
702.084974	8467.984037
702.420366	8577.298938
702.755709	8466.005384
703.091002	8337.201383
703.426246	8352.430709
703.761440	8305.447155
704.096584	8258.657686
704.431679	8196.601082
704.766725	8181.870830
705.101721	8134.136144
705.436668	8183.158845
705.771565	8077.622289
706.106413	8156.707911
706.441212	8190.292078
706.775961	8147.938824
707.110661	8190.287037
707.445311	8328.727203
707.779913	8232.811690
708.114465	8358.192748
708.448967	8397.211278
708.783421	8543.157723
709.117825	8727.505158
709.452180	8758.901464
709.786485	8849.458231
710.120742	9131.193196
710.454949	9130.341241
710.789107	9228.994101
711.123216	9447.467627
711.457275	9619.653277
711.791286	9776.307133
712.125247	9775.828224
712.459159	9761.034958
712.793023	10006.627370
713.126837	9579.177853
713.460602	9735.125947
713.794318	9555.194564
714.127985	9592.385676
714.461602	9262.560624
714.795171	9212.365855
715.128691	8958.710117
715.462162	8712.479999
715.795584	8656.775249
716.128957	8506.269080
716.462281	8343.107095
716.795556	8387.439002
717.128782	8183.879730
717.461960	7916.877537
717.795088	7996.739496
718.128167	7900.841627
718.461198	7735.068324
718.794180	7675.033223
719.127113	7667.781523
719.459997	7505.194229
719.792833	7276.509846
720.125619	7342.909404
720.458357	7199.886828
720.791046	7193.965993
721.123686	7188.733276
721.456278	7030.993051
721.788821	7047.994342
722.121315	6939.929648
722.453761	7005.688979
722.786158	6949.739733
723.118506	6961.979655
723.450805	6927.682165
723.783056	7000.834348
724.115259	6912.624238
724.447412	6902.027733
724.779518	6953.339117
725.111574	6948.539939
725.443582	7035.119236
725.775542	7014.695001
726.107453	7205.921090
726.439315	7114.366174
726.771129	7180.783376
727.102895	7353.067329
727.434612	7464.260060
727.766281	7496.926737
728.097901	7569.877274
728.429473	7567.712098
728.760996	7541.903911
729.092471	7519.969851
729.423897	7460.794266
729.755276	7471.678118
730.086606	7395.380254
730.417887	7503.520566
730.749120	7701.824435
731.080305	7895.568580
731.411442	8010.844645
731.742530	8004.596135
732.073570	8113.679142
732.404562	8196.959004
732.735506	8050.465593
733.066401	8193.357099
733.397249	8119.247097
733.728048	7872.895990
734.058798	7544.709313
734.389501	7314.941083
734.720156	7138.175544
735.050762	6911.500061
735.381320	6816.960782
735.711831	6766.859275
736.042293	6653.087994
736.372707	6672.370408
736.703073	6534.968718
737.033391	6573.294091
737.363661	6583.880514
737.693883	6617.706656
738.024056	6698.017278
738.354182	6740.683083
738.684260	6771.648371
739.014290	6895.794346
739.344272	7009.003538
739.674207	7035.635954
740.004093	7104.861078
740.333931	7118.983871
740.663722	7123.732638
740.993464	7201.903290
741.323159	7185.038110
741.652806	6935.947137
741.982405	6957.374561
742.311956	7015.799013
742.641460	6847.459763
742.970915	6648.929042
743.300323	6646.350492
743.629683	6591.727070
743.958996	6458.769157
744.288260	6368.724067
744.617477	6321.191028
744.946647	6319.436706
745.275768	6153.378578
745.604842	6106.397545
745.933869	6090.661583
746.262847	6053.107507
746.591778	6040.955806
746.920662	5993.223641
747.249498	5990.095605
747.578286	6041.230549
747.907027	6111.489110
748.235720	6170.463048
748.564365	6144.853987
748.892963	6174.256517
749.221514	6324.145144
749.550017	6155.397560
749.878473	6035.123191
750.206881	6092.942705
750.535242	6034.001534
750.863555	5962.061748
751.191821	5975.735878
751.520039	5977.366692
751.848210	5887.586262
752.176334	5913.601137
752.504411	5958.641326
752.832440	5884.342280
753.160421	5815.810314
753.488356	5863.943251
753.816243	5895.334516
754.144082	5745.793728
754.471875	5716.716352
754.799620	5760.181181
755.127318	5774.803048
755.454969	5727.794288
755.782572	5690.991344
756.110129	5732.280915
756.437638	5714.034459
756.765100	5660.628475
757.092515	5656.459441
757.419882	5713.764757
757.747203	5692.486047
758.074477	5753.831848
758.401703	5737.891719
758.728882	5694.626016
759.056014	5752.861426
759.383099	5878.744078
759.710138	5892.738321
760.037129	5876.460436
760.364073	5881.083174
760.690970	5957.968332
761.017820	5942.186999
761.344623	5898.991873
761.671379	6004.840980
761.998088	6121.246263
762.324751	6370.599377
762.651366	6976.898950
762.977935	8302.195611
763.304456	9945.087485
763.630931	10835.004894
763.957359	10422.943499
764.283740	9475.435948
764.610074	8627.710476
764.936362	7633.176522
765.262602	7043.341357
765.588796	6503.113667
765.914943	6169.280898
766.241044	6003.326113
766.567097	5801.705165
766.893104	5543.242687
767.219064	5361.867013
767.544978	5299.281088
767.870845	5218.272266
768.196665	5117.643273
768.522438	5042.144433
768.848165	5014.707953
769.173846	4940.524854
769.499479	4901.496241
769.825066	4848.569166
770.150607	4784.377634
770.476101	4764.376856
770.801548	4757.851082
771.126949	4685.520607
771.452303	4627.867451
771.777611	4589.708437
772.102872	4604.718473
772.428087	4570.325200
772.753256	4527.326679
773.078378	4485.386799
773.403453	4413.182353
773.728482	4399.956886
774.053465	4352.161706
774.378401	4342.104604
774.703291	4341.146785
775.028135	4266.124333
775.352932	4220.872416
775.677683	4208.206517
776.002388	4225.079259
776.327046	4235.973192
776.651658	4159.728261
776.976224	4098.163169
777.300743	4108.437041
777.625216	4125.992859
777.949643	4120.228300
778.274024	4074.794901
778.598359	4032.222357
778.922647	4058.446439
779.246889	4051.764389
779.571086	4044.379099
779.895236	4025.706665
780.219339	4010.976414
780.543397	4008.140765
780.867409	4056.787899
781.191374	4073.668203
781.515294	4011.914068
781.839167	4005.579858
782.162995	4026.838404
782.486776	4012.614789
782.810511	4020.264740
783.134201	4015.112680
783.457844	3970.919405
783.781441	3913.455292
784.104993	3925.480965
784.428498	3939.379426
784.751958	3938.093932
785.075372	3917.299172
785.398739	3880.138307
785.722061	3891.710275
786.045337	3931.734516
786.368568	3965.313642
786.691752	3875.495404
787.014891	3930.917849
787.337983	4063.013724
787.661030	4221.968867
787.984031	4381.108011
788.306987	4547.735790
788.629897	4636.024038
788.952760	4590.605762
789.275579	4521.448693
789.598351	4454.267757
789.921078	4312.671827
790.243759	4111.015591
790.566395	4092.943055
790.888984	4089.880554
791.211529	3983.444152
791.534027	3923.698917
791.856480	3912.134510
792.178888	3849.893904
792.501249	3801.692912
792.823566	3813.774037
793.145836	3838.952080
793.468062	3786.420736
793.790241	3743.104622
794.112375	3772.895320
794.434464	3836.955783
794.756507	3864.301522
795.078505	3841.117255
795.400457	3876.990106
795.722364	4015.253833
796.044226	4118.509266
796.366042	4192.589022
796.687812	4171.088501
797.009538	4178.284748
797.331218	4137.595075
797.652852	4113.410139
797.974442	4087.359977
798.295986	4086.510542
798.617484	4005.642873
798.938938	3918.196498
799.260346	3960.602684
799.581709	3953.101447
799.903026	3882.880694
800.224299	3845.278728
800.545526	3841.185311
800.866708	3800.175524
801.187845	3740.059765
801.508936	3774.954632
801.829983	3771.929939
802.150984	3694.752395
802.471940	3685.660674
802.792851	3694.056715
803.113717	3695.395142
803.434538	3696.710883
803.755314	3642.478150
804.076045	3616.037298
804.396731	3636.355668
804.717372	3659.239986
805.037967	3644.645846
805.358518	3634.422386
805.679024	3663.242662
805.999485	3674.509641
806.319901	3680.148172
806.640272	3690.893391
806.960598	3706.581462
807.280879	3679.066844
807.601115	3697.008311
807.921306	3712.880384
808.241453	3753.093668
808.561554	3726.355388
808.881611	3658.284688
809.201623	3699.302036
809.521590	3708.262687
809.841513	3679.202956
810.161390	3710.321998
810.481223	3690.074204
810.801011	3633.530102
811.120755	3628.541880
811.440453	3660.903567
811.760107	3663.325842
812.079716	3616.775827
812.399281	3591.461673
812.718801	3612.379941
813.038276	3585.838266
813.357707	3585.750046
813.677093	3603.588168
813.996434	3547.162533
814.315731	3556.400448
814.634983	3560.536715
814.954191	3575.355186
815.273354	3603.605812
815.592473	3599.986264
815.911547	3607.868108
816.230577	3648.557781
816.549562	3699.707849
816.868502	3744.490939
817.187399	3764.421141
817.506250	3761.577930
817.825058	3736.341914
818.143821	3827.614525
818.462539	3932.203344
818.781213	3975.678254
819.099843	4039.678223
819.418429	4288.801964
819.736970	4527.666957
820.055466	4777.259525
820.373919	5148.338859
820.692327	5557.957815
821.010691	6010.915570
821.329011	7416.348933
821.647286	10201.606598
821.965517	14807.126614
822.283704	18840.727726
822.601847	20977.569498
822.919945	19126.694740
823.237999	16514.638518
823.556010	14014.677394
823.873976	11907.157494
824.191897	9798.921749
824.509775	8452.996687
824.827609	7324.950294
825.145398	6784.236132
825.463144	6664.387741
825.780845	6784.951976
826.098502	6981.269630
826.416116	7877.586784
826.733685	9210.215803
827.051210	10324.530093
827.368692	10339.255304
827.686129	9066.495028
828.003522	7548.805251
828.320872	6524.024373
828.638177	5825.995965
828.955439	5264.338330
829.272656	4763.512298
829.589830	4476.995799
829.906960	4303.779232
830.224046	4117.564050
830.541088	3989.669977
830.858086	3943.931588
831.175041	3868.246225
831.491952	3853.677290
831.808819	3864.770349
832.125642	3939.833130
832.442421	4085.691355
832.759157	4367.060836
833.075849	4926.109674
833.392497	5798.980422
833.709101	6579.870276
834.025662	6911.631131
834.342179	6531.830600
834.658653	5867.280494
834.975083	5210.430751
835.291469	4634.453718
835.607811	4232.522522
835.924110	4084.491560
836.240366	3885.091240
836.556578	3679.041639
836.872746	3571.433169
837.188871	3532.618805
837.504952	3463.789411
837.820990	3378.934188
838.136984	3336.036490
838.452935	3359.961806
838.768842	3352.689942
839.084706	3379.516442
839.400526	3540.190618
839.716303	3886.739698
840.032037	4422.311882
840.347727	4676.202034
840.663373	4388.969691
840.978977	3999.316225
841.294537	3696.413455
841.610054	3466.441058
841.925527	3361.146477
842.240957	3290.983698
842.556344	3237.940677
842.871687	3178.737366
843.186987	3128.101497
843.502244	3094.625714
843.817458	3052.015362
844.132629	3023.285826
844.447756	3031.417207
844.762840	3015.545134
845.077881	2983.695124
845.392879	2972.223978
845.707833	2965.050417
846.022745	2965.045375
846.337613	2964.468163
846.652438	2949.579115
846.967221	2949.526183
847.281960	2934.438010
847.596656	2931.436003
847.911309	2936.091508
848.225919	2926.732606
848.540485	2920.398396
848.855009	2922.634148
849.169490	2909.411202
849.483928	2902.086405
849.798323	2900.720252
850.112675	2898.464336
850.426984	2909.456572
850.741251	2907.482960
851.055474	2894.232287
851.369654	2887.787172
851.683792	2895.464849
851.997887	2902.356107
852.311938	2906.134452
852.625947	2894.325549
852.939914	2898.560118
853.253837	2901.826786
853.567718	2890.411093
853.881555	2887.237686
854.195350	2905.111097
854.509103	2899.167577
854.822812	2889.246586
855.136479	2884.616286
855.450103	2887.504868
855.763685	2881.011861
856.077224	2877.742673
856.390720	2891.089128
856.704173	2900.276631
857.017584	2891.447050
857.330953	2890.693397
857.644278	2898.136661
857.957561	2910.704258
858.270802	2913.522263
858.584000	2911.654515
858.897155	2896.347051
859.210268	2899.437279
859.523339	2894.943090
859.836367	2896.470560
860.149352	2889.838922
860.462295	2884.858262
860.775195	2890.537122
861.088054	2891.235321
861.400869	2875.953063
861.713642	2873.157744
862.026373	2892.747668
862.339062	2891.094169
862.651708	2897.753533
862.964312	2899.896024
863.276873	2892.563665
863.589392	2904.175963
863.901869	2915.977304
864.214303	2938.324739
864.526696	2954.229580
864.839045	2948.248251
865.151353	2947.303034
865.463619	2943.234823
865.775842	2947.078703
866.088023	2966.688792
866.400162	2973.201962
866.712258	2942.841613
867.024313	2932.988678
867.336325	2941.314144
867.648296	2963.502782
867.960224	2956.288891
868.272110	2942.347580
868.583954	2946.178857
868.895755	2960.256279
869.207515	2949.264043
869.519233	2952.800413
869.830909	2965.640232
870.142542	2973.270018
870.454134	2970.217599
870.765684	2974.411839
871.077191	2974.863023
871.388657	2982.850731
871.700081	2998.495952
872.011463	3012.417098
872.322803	3010.597242
872.634101	3007.149092
872.945357	3025.975281
873.256571	3053.000907
873.567744	3041.280224
873.878874	3036.216385
874.189963	3060.784449
874.501010	3062.659758
874.812015	3053.880588
875.122979	3051.087789
875.433900	3048.534445
875.744780	3053.043757
876.055618	3061.996846
876.366415	3060.310580
876.677169	3067.668144
876.987882	3063.705797
877.298554	3059.728327
877.609183	3082.353025
877.919771	3105.890173
878.230317	3133.505613
878.540822	3182.820701
878.851285	3224.717731
879.161707	3269.657097
879.472087	3374.036708
879.782425	3605.284517
880.092722	4048.442269
880.402977	4585.057972
880.713191	5224.946754
881.023363	6403.747484
881.333494	7687.905809
881.643583	8238.626661
881.953631	7928.452026
882.263637	7292.618853
882.573602	6692.262801
882.883526	6112.595643
883.193408	5535.423857
883.503248	5071.763732
883.813048	4762.861989
884.122806	4456.054846
884.432522	4133.650372
884.742197	3899.357706
885.051831	3703.685319
885.361424	3569.446954
885.670975	3497.333248
885.980485	3408.989548
886.289954	3334.516582
886.599382	3284.825928
886.908768	3247.801174
887.218113	3206.314998
887.527417	3146.249650
887.836680	3096.632094
888.145901	3093.229315
888.455082	3077.022005
888.764221	3028.359747
889.073319	3000.832527
889.382376	2995.993019
889.691392	3003.753875
890.000366	3000.272958
890.309300	2986.666884
890.618193	3001.366889
890.927044	3019.013448
891.235855	3017.443128
891.544625	3002.995182
891.853353	3014.617562
892.162041	3031.444933
892.470687	3074.854309
892.779293	3127.294912
893.087858	3171.387364
893.396381	3248.300248
893.704864	3371.253991
894.013306	3614.119139
894.321707	3917.369748
894.630068	4122.398517
894.938387	4117.400213
895.246665	4076.118204
895.554903	3948.549285
895.863100	3749.375817
896.171256	3579.357862
896.479371	3437.945935
896.787446	3314.241061
897.095480	3209.677448
897.403473	3145.223776
897.711425	3110.051645
898.019336	3096.453133
898.327207	3070.556725
898.635038	3032.264121
898.942827	3018.005217
899.250576	3008.946264
899.558284	2976.839155
899.865952	2955.915846
900.173579	2936.401539
900.481165	2928.867535
900.788711	2916.335226
901.096216	2890.942934
901.403681	2880.210318
901.711105	2887.615773
902.018489	2883.396327
902.325832	2883.464383
902.633135	2894.070970
902.940397	2929.515323
903.247619	3012.185205
903.554800	3210.884804
903.861941	3564.743557
904.169041	3995.353878
904.476101	4293.170124
904.783121	4242.327567
905.090100	3993.004700
905.397039	3712.298131
905.703938	3464.631283
906.010796	3279.666308
906.317614	3165.776560
906.624391	3071.320460
906.931129	2996.907988
907.237826	2937.006478
907.544483	2888.603839
907.851099	2857.212574
908.157675	2836.319512
908.464211	2813.911583
908.770707	2803.163843
909.077163	2789.010804
909.383578	2774.996396
909.689954	2764.021804
909.996289	2762.350662
910.302584	2765.060282
910.608839	2765.826537
910.915054	2757.191041
911.221229	2754.032758
911.527363	2751.998652
911.833458	2760.228336
912.139513	2768.203441
912.445527	2769.768719
912.751502	2777.620317
913.057436	2785.197171
913.363331	2800.703760
913.669186	2822.405927
913.975000	2860.953110
914.280775	2917.910587
914.586510	2989.968840
914.892205	3071.827096
915.197859	3200.767209
915.503475	3398.849267
915.809050	3616.909417
916.114585	3763.435595
916.420081	3784.058956
916.725536	3721.412537
917.030952	3599.580451
917.336328	3469.251501
917.641665	3334.191428
917.946961	3231.835840
918.252218	3165.280006
918.557435	3084.588777
918.862612	3024.112575
919.167750	2970.283134
919.472848	2934.954728
919.777906	2907.732497
920.082925	2879.993548
920.387904	2848.569516
920.692843	2833.534274
920.997743	2817.168168
921.302603	2809.097281
921.607423	2795.897020
921.912204	2786.328910
922.216946	2774.709050
922.521647	2766.169336
922.826310	2755.116606
923.130932	2750.261975
923.435516	2743.103536
923.740059	2732.706156
924.044564	2726.601319
924.349028	2720.246945
924.653454	2710.494832
924.957840	2706.701364
925.262186	2704.236240
925.566493	2697.634849
925.870761	2694.375743
926.174989	2688.147397
926.479178	2684.918538
926.783328	2679.184226
927.087438	2679.519463
927.391509	2675.317661
927.695541	2676.436797
927.999533	2670.863802
928.303486	2666.120076
928.607400	2668.401198
928.911275	2668.678461
929.215110	2665.636125
929.518906	2663.087822
929.822663	2665.754592
930.126381	2665.245436
930.430060	2666.157884
930.733699	2667.579490
931.037299	2667.622340
931.340861	2667.944973
931.644383	2671.254491
931.947866	2669.069151
932.251309	2668.711229
932.554714	2665.908347
932.858080	2663.269303
933.161407	2661.010866
933.464694	2661.091525
933.767943	2654.613642
934.071153	2660.436175
934.374323	2661.905671
934.677455	2659.395177
934.980548	2656.362922
935.283602	2655.936945
935.586617	2656.035247
935.889593	2659.909374
936.192530	2655.357212
936.495428	2656.728406
936.798287	2657.451812
937.101108	2663.851557
937.403890	2666.417504
937.706632	2669.762309
938.009336	2677.465192
938.312002	2687.439115
938.614628	2692.918850
938.917216	2702.376054
939.219765	2704.516024
939.522275	2701.244315
939.824747	2698.753985
940.127179	2696.314067
940.429573	2692.092100
940.731929	2690.206709
941.034246	2687.749146
941.336524	2686.947603
941.638763	2679.963084
941.940964	2681.495595
942.243126	2680.010975
942.545250	2677.001406
942.847335	2673.228103
943.149381	2672.449244
943.451389	2666.828358
943.753359	2665.308450
944.055290	2664.738800
944.357182	2661.729231
944.659036	2662.049344
944.960851	2660.196720
945.262628	2657.527429
945.564367	2658.202944
945.866067	2658.565907
946.167729	2658.243273
946.469352	2660.678150
946.770937	2660.090856
947.072484	2659.044816
947.373992	2659.498520
947.675462	2657.086328
947.976893	2653.257572
948.278286	2646.797333
948.579641	2650.696666
948.880958	2646.661222
949.182236	2653.116419
949.483476	2649.080976
949.784678	2650.628610
950.085841	2650.300935
950.386967	2652.478713
950.688054	2650.111892
950.989103	2653.686070
951.290114	2651.780514
951.591087	2655.901657
951.892021	2656.741009
952.192917	2658.991884
952.493776	2663.017246
952.794596	2660.761329
953.095378	2662.994560
953.396122	2662.971875
953.696828	2659.788387
953.997496	2656.733447
954.298126	2655.362253
954.598718	2655.800834
954.899272	2651.810761
955.199788	2649.355719
955.500266	2645.443783
955.800706	2645.201808
956.101108	2643.513021
956.401472	2640.707619
956.701798	2639.041518
957.002087	2638.615540
957.302337	2634.998512
957.602550	2637.045221
957.902724	2631.056330
958.202861	2631.429376
958.502960	2629.919550
958.803022	2630.088429
959.103045	2628.107255
959.403031	2628.379477
959.702979	2628.351751
960.002889	2628.956690
960.302762	2625.821092
960.602596	2626.552059
960.902393	2625.410238
961.202153	2626.839405
961.501875	2626.030300
961.801559	2623.872686
962.101205	2622.955196
962.400814	2623.824795
962.700385	2622.504013
962.999918	2620.348919
963.299414	2620.003600
963.598873	2619.053343
963.898293	2619.769187
964.197677	2623.361009
964.497022	2619.330606
964.796331	2622.085597
965.095601	2623.056019
965.394835	2621.243724
965.694030	2623.345885
965.993189	2621.558796
966.292309	2622.622480
966.591393	2622.531739
966.890439	2622.062912
967.189447	2618.340020
967.488419	2621.931842
967.787353	2620.779938
968.086249	2621.977212
968.385108	2620.457304
968.683930	2623.509723
968.982714	2623.232459
969.281462	2622.017541
969.580172	2621.183230
969.878844	2620.885802
970.177480	2621.452932
970.476078	2620.729527
970.774639	2621.364712
971.073162	2619.585185
971.371649	2623.519805
971.670098	2622.148611
971.968510	2621.422685
972.266885	2620.981584
972.565223	2622.035185
972.863524	2623.126595
973.161788	2624.205402
973.460014	2619.202057
973.758204	2621.543673
974.056356	2621.621811
974.354471	2623.303036
974.652550	2620.086779
974.950591	2621.659619
975.248595	2622.859414
975.546563	2623.245062
975.844493	2620.787500
976.142386	2621.432767
976.440243	2618.796244
976.738062	2621.440329
977.035845	2621.435288
977.333590	2619.625514
977.631299	2620.742129
977.928971	2616.885647
978.226606	2615.574947
978.524204	2617.727519
978.821765	2616.386572
979.119290	2619.759104
979.416777	2619.302880
979.714228	2619.023096
980.011642	2619.736419
980.309020	2617.477982
980.606360	2619.023096
980.903664	2621.735237
981.200931	2620.129629
981.498162	2620.782459
981.795356	2623.446708
982.092513	2623.212295
982.389633	2624.596092
982.686717	2629.077677
982.983764	2632.488018
983.280775	2637.398102
983.577749	2637.206538
983.874686	2635.059006
984.171587	2633.052627
984.468451	2629.100362
984.765279	2630.511886
985.062070	2627.444343
985.358824	2625.513582
985.655543	2625.140536
985.952224	2621.750360
986.248869	2621.904115
986.545478	2619.779269
986.842050	2623.134157
987.138586	2620.351440
987.435086	2619.567541
987.731549	2617.356995
988.027975	2617.609052
988.324366	2618.019906
988.620719	2616.976387
988.917037	2616.205091
989.213318	2617.452777
989.509563	2616.384052
989.805772	2615.363218
990.101944	2616.401696
990.398080	2617.437653
990.694180	2616.736933
990.990244	2616.943620
991.286271	2614.049998
991.582262	2615.453959
991.878217	2613.976901
992.174136	2617.425050
992.470019	2615.247272
992.765865	2613.238372
993.061676	2614.546551
993.357450	2613.462703
993.653188	2610.803495
993.948890	2616.822632
994.244556	2615.209463
994.540186	2618.269443
994.835780	2618.793723
995.131337	2617.082252
995.426859	2618.201388
995.722345	2619.265071
996.017795	2617.581326
996.313208	2620.003600
996.608586	2620.399331
996.903928	2621.793210
997.199234	2622.309928
997.494504	2620.510236
997.789738	2616.167282
998.084936	2621.573920
998.380099	2617.167951
998.675225	2616.981429
998.970316	2616.615945
999.265371	2618.957561
999.560390	2617.155348
999.855373	2615.648043
1000.150320	2618.687859
1000.445232	2614.254164
1000.740108	2615.650564
1001.034948	2615.895060
1001.329752	2617.543517
1001.624521	2614.173506
1001.919254	2614.753239
1002.213951	2613.492950
1002.508613	2615.340533
1002.803239	2615.453959
1003.097829	2612.562857
1003.392384	2612.585542
1003.686903	2612.812394
1003.981386	2613.661829
1004.275834	2616.373970
1004.570246	2615.264916
1004.864623	2610.450614
1005.158964	2612.625872
1005.453270	2614.158382
1005.747540	2615.577467
1006.041775	2613.916407
1006.335974	2613.687035
1006.630138	2613.306428
1006.924266	2614.430605
1007.218359	2612.560337
1007.512416	2607.607403
1007.806438	2609.676797
1008.100425	2611.252157
1008.394376	2605.991713
1008.688292	2613.316510
1008.982172	2611.214349
1009.276017	2613.303907
1009.569827	2614.667539
1009.863602	2612.192332
1010.157341	2614.055039
1010.451045	2614.060080
1010.744714	2615.252313
1011.038347	2611.683176
1011.331945	2612.698968
1011.625508	2613.271139
1011.919036	2614.370111
1012.212528	2613.813063
1012.505986	2614.125615
1012.799408	2613.220728
1013.092795	2614.768362
1013.386147	2611.045470
1013.679464	2611.436159
1013.972745	2612.792230
1014.265992	2613.293825
1014.559204	2613.886160
1014.852380	2611.542024
1015.145521	2611.544544
1015.438628	2612.540172
1015.731699	2612.842641
1016.024736	2611.660491
1016.317737	2611.877260
1016.610703	2614.266767
1016.903635	2614.768362
1017.196531	2611.196705
1017.489393	2614.455811
1017.782219	2614.165944
1018.075011	2613.339195
1018.367768	2612.386417
1018.660490	2614.100409
1018.953177	2614.100409
1019.245829	2614.100409
