Dividing Wavelength (nm)	Counts (n)	Blue Motor Position (mm): 29.500000	Red Motor Position (mm): 0.000000	
326.493990	2132.334980
326.888308	2132.334980
327.282561	2132.334980
327.676750	2097.452716
328.070874	2100.817686
328.464933	2100.225351
328.858929	2106.753645
329.252859	2118.673453
329.646726	2128.455812
330.040528	2140.496608
330.434265	2160.197438
330.827938	2174.342915
331.221547	2192.952335
331.615091	2210.792978
332.008571	2231.199569
332.401986	2250.073649
332.795338	2270.848244
333.188625	2290.130657
333.581847	2310.869964
333.975006	2326.923519
334.368100	2346.946982
334.761129	2363.076153
335.154095	2378.713813
335.546996	2402.140055
335.939833	2426.718200
336.332606	2441.186312
336.725315	2454.036213
337.117960	2460.972841
337.510540	2470.462813
337.903056	2482.934627
338.295508	2489.170535
338.687896	2496.749909
339.080220	2507.202742
339.472480	2511.243227
339.864676	2515.008969
340.256807	2522.822757
340.648875	2522.288395
341.040879	2527.140505
341.432818	2527.190917
341.824694	2527.725279
342.216506	2531.027235
342.608253	2530.490352
342.999937	2529.038500
343.391557	2531.702750
343.783113	2530.560928
344.174605	2524.713190
344.566033	2525.262676
344.957397	2522.989115
345.348697	2522.973992
345.739934	2521.433919
346.131106	2519.440143
346.522215	2519.712365
346.913260	2516.687673
347.304241	2517.660616
347.695159	2511.069307
348.086012	2510.093844
348.476802	2507.742145
348.867528	2507.795078
349.258191	2504.455313
349.648789	2503.389109
350.039324	2503.031187
350.429796	2503.202586
350.820203	2499.978768
351.210548	2499.920795
351.600828	2495.519868
351.991045	2497.599344
352.381198	2498.547081
352.771288	2496.021463
353.161314	2496.654127
353.551276	2497.322080
353.941175	2496.530619
354.331010	2497.425424
354.720782	2497.715290
355.110490	2495.779487
355.500135	2497.475836
355.889717	2496.192862
356.279235	2497.934581
356.668689	2498.158912
357.058080	2495.958448
357.447408	2496.054230
357.836672	2494.395691
358.225873	2495.272851
358.615010	2493.450474
359.004084	2499.865343
359.393095	2501.216372
359.782043	2501.440703
360.170927	2502.564880
360.559748	2500.835765
360.948505	2504.704850
361.337199	2506.343225
361.725830	2501.700323
362.114398	2504.541013
362.502903	2501.702843
362.891344	2503.447082
363.279722	2503.189983
363.668037	2505.690396
364.056289	2504.777947
364.444478	2507.243071
364.832603	2508.107629
365.220665	2506.691065
365.608665	2507.018740
365.996601	2510.741632
366.384474	2508.203411
366.772284	2509.395644
367.160031	2510.224914
367.547715	2509.022598
367.935336	2508.770541
368.322893	2509.330109
368.710388	2510.421519
369.097820	2515.966788
369.485189	2510.829852
369.872495	2511.586025
370.259738	2512.871519
370.646918	2511.288597
371.034035	2511.782630
371.421090	2510.890346
371.808081	2510.121570
372.195010	2513.993176
372.581875	2513.589884
372.968678	2514.855213
373.355418	2511.172651
373.742096	2514.368742
374.128710	2510.965963
374.515262	2513.632734
374.901751	2514.945954
375.288177	2515.694566
375.674540	2512.856396
376.060841	2515.069463
376.447079	2513.952847
376.833254	2513.153824
377.219367	2509.957733
377.605417	2512.316992
377.991404	2511.540655
378.377329	2513.549555
378.763191	2509.627537
379.148991	2517.527025
379.534727	2516.387724
379.920402	2519.114988
380.306013	2518.275636
380.691563	2517.428723
381.077049	2516.929648
381.462474	2519.568692
381.847835	2518.804958
382.233134	2517.872344
382.618371	2518.189937
383.003545	2519.281347
383.388657	2516.617097
383.773706	2518.928466
384.158693	2518.923425
384.543618	2520.670184
384.928480	2522.807634
385.313280	2521.020545
385.698017	2522.094310
386.082692	2522.973992
386.467305	2520.813857
386.851856	2522.258148
387.236344	2521.421316
387.620770	2523.891482
388.005133	2520.778569
388.389435	2521.307890
388.773674	2519.430061
389.157851	2523.094979
389.541965	2523.911646
389.926018	2525.368540
390.310008	2523.687315
390.693936	2524.927439
391.077802	2525.066071
391.461606	2524.940042
391.845348	2524.135978
392.229027	2527.621936
392.612645	2524.624970
392.996200	2527.604292
393.379694	2524.289733
393.763125	2526.767460
394.146494	2523.815864
394.529801	2526.560773
394.913047	2525.839888
395.296230	2527.647141
395.679351	2526.732172
396.062410	2528.851977
396.445408	2526.437264
396.828343	2528.519261
397.211217	2523.112623
397.594028	2526.260824
397.976778	2525.348375
398.359466	2528.748633
398.742092	2519.344361
399.124656	2528.660413
399.507158	2527.679909
399.889598	2530.122348
400.271977	2527.780732
400.654294	2533.421783
401.036549	2529.245187
401.418742	2526.883407
401.800874	2529.323325
402.182944	2530.497914
402.564952	2532.058151
402.946898	2533.479756
403.328783	2527.977337
403.710606	2532.408511
404.092367	2530.558408
404.474067	2533.106711
404.855705	2532.826927
405.237282	2533.343645
405.618797	2529.976154
406.000250	2533.235260
406.381642	2533.885569
406.762972	2531.899355
407.144240	2531.914478
407.525447	2536.280117
407.906593	2535.327339
408.287677	2536.819521
408.668700	2536.207021
409.049661	2534.969417
409.430560	2534.445137
409.811399	2536.622916
410.192176	2534.540919
410.572891	2535.632329
410.953545	2536.201979
411.334138	2536.902700
411.714669	2540.822197
412.095139	2536.141486
412.475547	2537.477391
412.855894	2539.251877
413.236180	2538.276414
413.616405	2538.354552
413.996568	2538.992258
414.376670	2540.917979
414.756711	2539.650129
415.136691	2541.883360
415.516609	2540.484440
415.896466	2541.669111
416.276262	2539.370345
416.655997	2536.693492
417.035670	2538.601569
417.415283	2538.946888
417.794834	2536.890097
418.174324	2538.888914
418.553753	2541.764893
418.933121	2543.002496
419.312428	2541.822866
419.691674	2542.770603
420.070859	2541.490150
420.449983	2542.410160
420.829045	2542.919317
421.208047	2547.065666
421.586988	2546.420398
421.965867	2543.136087
422.344686	2547.544576
422.723444	2548.489792
423.102141	2548.388969
423.480777	2551.562375
423.859352	2549.734957
424.237866	2550.624721
424.616319	2551.431305
424.994712	2551.907694
425.373044	2555.363405
425.751314	2556.802655
426.129524	2558.168807
426.507673	2561.591751
426.885762	2562.947821
427.263789	2569.060220
427.641756	2568.578790
428.019662	2579.137487
428.397508	2582.880543
428.775292	2585.126377
429.153016	2591.306832
429.530679	2599.183635
429.908282	2607.594800
430.285824	2613.011520
430.663305	2627.671195
431.040726	2632.130096
431.418086	2641.090747
431.795385	2654.545587
432.172624	2665.247956
432.549802	2678.110460
432.926920	2690.418437
433.303977	2704.437886
433.680974	2720.246945
434.057910	2733.598441
434.434786	2748.931110
434.811601	2766.048348
435.188355	2795.304684
435.565050	2806.685089
435.941683	2824.745023
436.318257	2861.986547
436.694770	2880.598487
437.071222	2911.974628
437.447614	2921.525094
437.823946	2937.258535
438.200218	2982.558344
438.576429	2994.589058
438.952580	3033.403422
439.328670	3070.324832
439.704700	3087.742019
440.080670	3112.579784
440.456580	3192.897967
440.832429	3206.821634
441.208218	3213.332285
441.583947	3276.316461
441.959616	3313.295845
442.335224	3336.666634
442.710773	3402.083167
443.086261	3453.550827
443.461689	3440.942901
443.837057	3519.912576
444.212365	3606.322994
444.587612	3618.835138
444.962800	3708.247563
445.337927	3749.360694
445.712995	3674.514683
446.088002	3907.698295
446.462949	3900.277716
446.837837	3929.813837
447.212664	4033.820402
447.587431	4147.901714
447.962139	4423.241975
448.336786	4862.490313
448.711374	4819.698478
449.085901	4488.187160
449.460369	4510.905120
449.834776	4535.493348
450.209124	4785.481647
450.583412	4933.588226
450.957640	5049.824631
451.331808	5003.002394
451.705917	4826.985466
452.079965	4837.680274
452.453954	5015.222151
452.827883	4996.332947
453.201752	5109.166573
453.575562	5041.421027
453.949311	5225.680242
454.323001	5200.976067
454.696632	5304.014731
455.070202	5447.516217
455.443713	5600.885761
455.817164	5725.598866
456.190556	5836.123643
456.563888	5941.251865
456.937160	6026.036511
457.310373	5834.525597
457.683526	5907.208953
458.056619	5876.326845
458.429653	5912.736579
458.802628	5905.573099
459.175542	6030.134969
459.548398	6359.692840
459.921194	6521.420617
460.293930	6560.666000
460.666607	7019.610126
461.039224	7312.541493
461.411782	7463.307282
461.784280	7534.518621
462.156719	7500.183322
462.529099	7445.658202
462.901419	7135.662528
463.273680	7087.257369
463.645882	7135.244113
464.018024	7058.263173
464.390106	7235.215235
464.762130	7613.067359
465.134094	8071.809839
465.505999	8987.454777
465.877845	10118.276325
466.249631	10752.551781
466.621358	10474.174225
466.993026	9953.070152
467.364634	9756.591181
467.736184	9452.942320
468.107674	9174.209362
468.479105	9229.601560
468.850477	9028.499851
469.221790	8833.031631
469.593043	8545.766521
469.964238	8429.146988
470.335373	8452.144732
470.706449	8533.761013
471.077467	8527.167183
471.448425	9810.897010
471.819324	10859.492298
472.190164	10893.890612
472.560945	9696.170431
472.931667	8940.483826
473.302330	8818.729878
473.672934	8481.000297
474.043479	8840.457251
474.413965	8786.244682
474.784393	8678.918517
475.154761	8841.107560
475.525070	8932.642311
475.895321	8767.030325
476.265513	8946.412222
476.635645	9117.897153
477.005719	9125.761353
477.375734	9238.194207
477.745691	9473.338828
478.115588	9611.983162
478.485427	9851.284214
478.855207	10388.545186
479.224928	11201.080883
479.594591	11824.197745
479.964194	11641.672688
480.333739	11582.940725
480.703226	11499.733960
481.072653	11592.488671
481.442022	11829.087665
481.811333	12018.327539
482.180584	11825.503404
482.549777	11546.767926
482.918912	11365.157838
483.287988	11394.222610
483.657005	11394.769576
484.025964	11089.431928
484.394864	11218.321629
484.763706	11193.446056
485.132489	10948.980341
485.501213	10910.942315
485.869879	10989.231434
486.238487	10835.110758
486.607036	10945.196955
486.975527	10732.586292
487.343959	10916.971535
487.712333	10966.397527
488.080648	10900.383618
488.448905	10942.704104
488.817104	10889.910621
489.185244	11150.480301
489.553326	11305.349589
489.921350	11838.590240
490.289315	12903.753280
490.657222	13237.676790
491.025070	13146.016010
491.392861	13011.575999
491.760593	12636.279739
492.128267	12283.759412
492.495883	11964.089765
492.863440	11633.445525
493.230939	11304.616101
493.598380	11230.662374
493.965763	11097.714544
494.333088	10998.965902
494.700354	10922.995713
495.067563	10987.023408
495.434713	10813.761471
495.801805	10947.967069
496.168839	10867.147291
496.535815	10798.431323
496.902733	10805.438526
497.269593	10743.122303
497.636395	10834.790645
498.003139	10829.583133
498.369825	10695.382576
498.736453	10848.681544
499.103023	10778.428024
499.469535	10814.300875
499.835989	10793.324634
500.202385	10754.235527
500.568723	10607.545512
500.935003	10832.121354
501.301226	10641.094390
501.667390	10898.767928
502.033497	10997.057825
502.399546	10855.474499
502.765537	10756.183933
503.131470	10829.605818
503.497345	11015.478201
503.863163	10619.525814
504.228923	10931.190109
504.594625	10990.647998
504.960269	10745.027859
505.325856	10962.934255
505.691385	10754.895918
506.056856	10913.490618
506.422270	10937.327714
506.787625	10830.029275
507.152924	10942.946080
507.518164	10931.800089
507.883347	10848.416883
508.248472	10764.905129
508.613540	10996.684780
508.978550	10888.166382
509.343503	10862.821981
509.708398	10978.428241
510.073236	11091.677762
510.438016	11098.810995
510.802738	11045.425176
511.167403	11097.833011
511.532010	11003.747436
511.896561	11220.945550
512.261053	11295.668053
512.625488	11168.391521
512.989866	11146.528037
513.354186	11142.411935
513.718449	11042.710514
514.082655	11234.410472
514.446803	11129.872064
514.810894	11252.712381
515.174927	11118.229520
515.538904	11139.782973
515.902822	11286.384768
516.266684	11175.076091
516.630488	11117.175918
516.994235	11173.999805
517.357925	11238.766029
517.721558	11325.882208
518.085133	11334.076604
518.448651	11349.051351
518.812112	11233.303938
519.175516	11246.597461
519.538863	11369.266378
519.902152	11286.465426
520.265385	11443.762029
520.628560	11355.788853
520.991678	11330.018475
521.354739	11398.124463
521.717743	11326.277939
522.080690	11308.326390
522.443580	11442.600043
522.806413	11398.641182
523.169189	11429.634196
523.531908	11483.924902
523.894569	11305.969651
524.257174	11311.797224
524.619722	11427.950450
524.982213	11378.955476
525.344647	11433.069742
525.707025	11381.138296
526.069345	11473.156997
526.431608	11390.436704
526.793815	11507.726710
527.155964	11287.022474
527.518057	11342.797800
527.880093	11285.628595
528.242072	11356.343380
528.603995	11265.635379
528.965860	11187.013543
529.327669	11238.476162
529.689421	11185.518841
530.051117	11162.687455
530.412755	11261.829308
530.774337	11156.040694
531.135862	11137.630400
531.497331	11156.534727
531.858743	11007.530822
532.220098	11180.976762
532.581396	11047.378623
532.942638	11027.650067
533.303824	10988.215641
533.664953	11002.131747
534.026025	10915.401215
534.387040	11017.487101
534.747999	11025.442042
535.108902	11074.230329
535.469748	10841.792807
535.830537	10944.768457
536.191270	10914.496328
536.551947	10942.779722
536.912567	10939.646645
537.273131	10870.865142
537.633638	10849.417553
537.994089	10833.502630
538.354483	10781.256111
538.714821	10928.049470
539.075103	10935.359143
539.435328	10902.009390
539.795497	10730.244676
540.155609	10887.276618
540.515665	10975.554783
540.875665	10716.106760
541.235609	10775.700760
541.595496	10779.532037
541.955328	10929.652557
542.315102	10812.541512
542.674821	10763.634758
543.034483	10764.700962
543.394090	10762.868503
543.753640	10692.090703
544.113134	10912.091698
544.472571	10768.048288
544.831953	10914.103118
545.191278	10723.103881
545.550548	10746.278065
545.909761	10889.570343
546.268918	10858.874757
546.628019	10943.104876
546.987064	10805.768722
547.346053	10728.898688
547.704986	10829.658750
548.063863	10818.628705
548.422684	10811.561008
548.781449	10724.129756
549.140158	10830.278812
549.498811	10701.484893
549.857408	10565.343492
550.215949	10784.474888
550.574434	10641.601026
550.932864	10743.702036
551.291237	10799.298401
551.649555	10746.056255
552.007817	10762.739953
552.366022	10718.574404
552.724173	10714.967459
553.082267	10700.075890
553.440305	10836.290388
553.798288	10634.956786
554.156215	10789.962184
554.514086	10772.829823
554.871902	10621.471699
555.229661	10655.335650
555.587365	10626.918666
555.945014	10524.830259
556.302606	10646.687551
556.660143	10546.373630
557.017625	10696.325272
557.375050	10600.697104
557.732421	10728.165200
558.089735	10640.504575
558.446994	10640.050872
558.804197	10679.298775
559.161345	10684.239106
559.518437	10531.839984
559.875474	10618.734352
560.232455	10647.849537
560.589381	10591.842317
560.946251	10598.398338
561.303065	10697.020951
561.659825	10640.537343
562.016528	10567.758205
562.373177	10446.463002
562.729770	10570.543442
563.086307	10474.990892
563.442789	10566.379449
563.799216	10448.786974
564.155587	10499.647175
564.511904	10455.733684
564.868164	10439.644842
565.224370	10456.850300
565.580520	10381.694257
565.936615	10383.778775
566.292654	10252.489484
566.648638	10390.274301
567.004567	10341.612043
567.360441	10326.846504
567.716260	10237.751671
568.072023	10338.400828
568.427732	10285.312437
568.783385	10191.005052
569.138982	10265.402400
569.494525	10276.611406
569.850013	10157.436008
570.205445	10233.222194
570.560823	10140.706939
570.916145	10056.431450
571.271412	10121.227921
571.626625	10064.832533
571.981782	10040.924860
572.336884	10019.401654
572.691931	10019.522642
573.046923	9969.297626
573.401860	9919.317106
573.756743	9862.992294
574.111570	9909.630529
574.466342	9883.555161
574.821059	9917.908104
575.175722	9806.380137
575.530330	9820.593670
575.884882	9806.097832
576.239380	9730.414989
576.593823	9712.080313
576.948211	9730.719979
577.302544	9605.535526
577.656823	9624.782652
578.011047	9629.675091
578.365216	9598.780380
578.719330	9524.463690
579.073389	9535.841574
579.427394	9484.426846
579.781344	9462.966654
580.135239	9409.051514
580.489080	9416.104088
580.842866	9320.561620
581.196597	9331.253907
581.550273	9366.199186
581.903895	9339.559208
582.257463	9401.555318
582.610975	9282.793295
582.964434	9306.259866
583.317837	9225.107372
583.671186	9210.336791
584.024481	9201.366058
584.377721	9121.899829
584.730906	9102.904761
585.084037	9134.369123
585.437113	9067.372188
585.790135	9081.784847
586.143103	8982.519487
586.496016	8959.536867
586.848874	9020.139098
587.201679	9003.616716
587.554428	8892.484479
587.907124	8941.615565
588.259765	8906.070389
588.612352	8912.480216
588.964884	8783.789641
589.317362	8801.166498
589.669786	8801.589955
590.022155	8854.017955
590.374470	8865.398360
590.726731	8804.614647
591.078937	8660.588882
591.431090	8775.796891
591.783188	8641.266139
592.135232	8640.754462
592.487222	8637.074420
592.839157	8687.949744
593.191038	8618.394424
593.542866	8570.695026
593.894639	8461.168397
594.246358	8517.533538
594.598022	8530.234726
594.949633	8435.866846
595.301190	8407.580932
595.652692	8438.384903
596.004141	8546.908342
596.355535	8322.327459
596.706876	8307.350191
597.058162	8237.746979
597.409395	8316.890574
597.760573	8374.223617
598.111698	8284.977550
598.462768	8274.832228
598.813785	8238.782937
599.164748	8206.101136
599.515657	8197.274076
599.866511	8107.342412
600.217312	8231.221206
600.568060	8088.836336
600.918753	8196.792646
601.269392	8164.806524
601.619978	8072.424860
601.970510	8140.472875
602.320988	8137.803584
602.671412	8196.033952
603.021783	8130.947615
603.372100	8101.240095
603.722363	8109.099254
604.072572	8083.951458
604.422728	8092.690298
604.772830	8021.279833
605.122878	8033.444137
605.472872	8021.723455
605.822813	8053.782673
606.172701	7996.263107
606.522534	8077.153462
606.872314	8077.927279
607.222041	8044.436373
607.571714	8100.501566
607.921333	8052.386273
608.270899	8066.377996
608.620411	8150.129205
608.969870	8054.536325
609.319276	8053.417189
609.668627	8064.948828
610.017926	8102.417204
610.367171	8147.704410
610.716362	8125.147767
611.065500	8113.036395
611.414585	8141.796178
611.763616	8131.277810
612.112594	8116.212322
612.461518	8123.529557
612.810389	8187.504320
613.159207	8127.834702
613.507971	8069.281700
613.856682	8196.666617
614.205340	8146.159296
614.553945	8226.863128
614.902496	8124.278168
615.250994	8178.634409
615.599439	8160.894589
615.947830	8176.885129
616.296169	8152.763208
616.644454	8161.877614
616.992686	8154.252869
617.340864	8214.797127
617.688990	8119.952858
618.037063	8212.349646
618.385082	8155.011562
618.733048	8244.285356
619.080961	8183.965430
619.428821	8207.593318
619.776628	8201.009571
620.124382	8154.900657
620.472083	8139.147051
620.819731	8168.622678
621.167326	8056.590595
621.514868	8066.423366
621.862357	7952.571427
622.209793	7974.359294
622.557176	7913.857886
622.904506	7879.177268
623.251783	7813.485992
623.599007	7771.198273
623.946179	7770.520238
624.293297	7727.216727
624.640363	7647.049778
624.987376	7630.267776
625.334336	7577.789365
625.681243	7527.322374
626.028097	7512.395517
626.374899	7492.800552
626.721647	7488.883576
627.068343	7419.184583
627.414987	7391.080150
627.761577	7345.624066
628.108115	7377.494240
628.454600	7272.643281
628.801032	7331.710481
629.147412	7287.774305
629.493739	7279.005217
629.840014	7219.491876
630.186236	7269.530369
630.532405	7150.644838
630.878521	7204.242385
631.224585	7161.508524
631.570597	7081.480207
631.916556	7121.043182
632.262462	7117.317770
632.608316	7075.836635
632.954117	7052.390229
633.299866	7039.457148
633.645562	7033.700151
633.991206	6953.812986
634.336797	6896.369038
634.682336	6851.018818
635.027823	6820.020763
635.373257	6813.769732
635.718639	6746.404793
636.063968	6759.395847
636.409245	6654.388612
636.754470	6649.339896
637.099642	6611.453105
637.444762	6554.147788
637.789829	6563.047945
638.134845	6506.080386
638.479808	6489.406770
638.824719	6489.401729
639.169577	6423.624753
639.514383	6442.030006
639.859137	6376.827722
640.203839	6378.705552
640.548489	6368.598039
640.893086	6344.791190
641.237632	6315.484442
641.582125	6334.781979
641.926566	6303.841897
642.270955	6323.320915
642.615292	6315.481921
642.959576	6333.993038
643.303809	6319.782025
643.647990	6325.881822
643.992118	6313.979657
644.336195	6263.923520
644.680219	6285.234998
645.024192	6276.612104
645.368112	6378.085490
645.711981	6395.714405
646.055797	6472.607125
646.399562	6427.289672
646.743274	6553.900772
647.086935	6608.766170
647.430544	6600.705365
647.774101	6619.370237
648.117606	6630.017154
648.461059	6621.631194
648.804460	6584.271203
649.147810	6490.858622
649.491108	6459.321164
649.834354	6441.765346
650.177548	6355.682602
650.520690	6263.694148
650.863781	6245.919039
651.206820	6266.371000
651.549807	6193.793508
651.892742	6133.821422
652.235626	6139.802751
652.578458	6122.846830
652.921238	6031.866606
653.263967	6074.678605
653.606644	6007.623697
653.949269	6014.255335
654.291843	5955.674607
654.634365	5999.585577
654.976836	5956.834072
655.319255	5956.471109
655.661622	5935.890598
656.003938	5934.002686
656.346203	5896.791409
656.688416	5926.761069
657.030577	5876.740220
657.372687	5852.449420
657.714746	5831.100133
658.056753	5883.565942
658.398708	5815.885931
658.740612	5813.541794
659.082465	5859.675914
659.424266	5849.565880
659.766016	5848.000602
660.107715	5824.581921
660.449362	5839.760836
660.790958	5831.947047
661.132503	5819.999513
661.473996	5851.567218
661.815438	5840.350651
662.156829	5839.781000
662.498168	5836.988201
662.839456	5807.988963
663.180693	5846.609243
663.521879	5846.311815
663.863013	5834.951575
664.204097	5852.764492
664.545129	5892.236727
664.886110	5890.885697
665.227040	5926.940030
665.567918	5887.740017
665.908746	5914.800931
666.249522	5915.305047
666.590248	5906.220887
666.930922	5931.225010
667.271545	5953.776612
667.612118	5955.354493
667.952639	5918.803607
668.293109	5946.119099
668.633528	5901.825001
668.973896	5908.171814
669.314213	5901.956071
669.654480	5876.094952
669.994695	5869.511205
670.334859	5861.810843
670.674973	5850.649728
671.015035	5860.303538
671.355047	5857.369586
671.695008	5843.216547
672.034918	5822.003371
672.374777	5823.442621
672.714585	5812.299150
673.054342	5814.567669
673.394049	5810.625487
673.733705	5847.309963
674.073310	5830.003682
674.412864	5787.405932
674.752368	5779.186331
675.091820	5783.052896
675.431223	5720.459409
675.770574	5719.204162
676.109875	5674.264796
676.449125	5682.393657
676.788324	5645.414272
677.127473	5592.197332
677.466571	5580.456485
677.805619	5572.927521
678.144616	5558.751797
678.483562	5534.821439
678.822458	5507.460577
679.161303	5498.862889
679.500098	5488.659594
679.838842	5475.277851
680.177535	5479.961083
680.516179	5489.715715
680.854771	5501.862376
681.193314	5582.654428
681.531805	5687.828020
681.870247	5843.176217
682.208638	5944.148008
682.546978	5956.750893
682.885268	5934.864723
683.223508	5850.281724
683.561697	5792.704185
683.899836	5762.991624
684.237925	5720.472012
684.575963	5685.209141
684.913951	5647.589530
685.251889	5704.216812
685.589776	5671.572820
685.927614	5645.358820
686.265401	5716.872628
686.603137	5704.005083
686.940824	5783.035252
687.278460	5801.218694
687.616046	5813.098173
687.953582	5877.720724
688.291068	5866.937696
688.628504	5922.226551
688.965889	5885.249687
689.303224	5830.888405
689.640510	5784.620695
689.977745	5707.208736
690.314930	5607.749292
690.652065	5552.347011
690.989150	5462.526252
691.326185	5384.789139
691.663170	5329.941385
692.000105	5253.872894
692.336990	5179.553684
692.673825	5156.608872
693.010610	5088.490281
693.347345	5018.345146
693.684030	5001.774873
694.020665	4961.279284
694.357251	4873.321232
694.693786	4877.575966
695.030272	4847.702088
695.366707	4814.536337
695.703093	4777.065440
696.039429	4804.443947
696.375716	4785.489208
696.711952	4758.788737
697.048139	4747.801542
697.384276	4722.817584
697.720363	4738.621601
698.056400	4746.919340
698.392388	4699.570303
698.728326	4675.423176
699.064214	4656.322244
699.400053	4651.129855
699.735842	4614.616778
700.071581	4594.273202
700.407270	4564.449736
700.742910	4549.729566
701.078501	4493.165300
701.414042	4492.245289
701.749533	4461.718582
702.084974	4398.643665
702.420366	4455.306234
702.755709	4399.672060
703.091002	4343.659800
703.426246	4393.844487
703.761440	4342.545705
704.096584	4309.972289
704.431679	4334.545394
704.766725	4316.029236
705.101721	4305.072288
705.436668	4331.863500
705.771565	4281.051190
706.106413	4306.236794
706.441212	4336.937421
706.775961	4350.651880
707.110661	4328.294363
707.445311	4357.298642
707.779913	4378.930233
708.114465	4391.129825
708.448967	4415.997837
708.783421	4475.405315
709.117825	4516.422663
709.452180	4523.003889
709.786485	4568.477617
710.120742	4649.536851
710.454949	4636.268534
710.789107	4702.327814
711.123216	4777.128455
711.457275	4767.940952
711.791286	4845.683106
712.125247	4859.929407
712.459159	4760.225466
712.793023	4837.813865
713.126837	4796.967916
713.460602	4789.544817
713.794318	4708.999781
714.127985	4713.562025
714.461602	4633.614366
714.795171	4605.648565
715.128691	4540.216909
715.462162	4479.773474
715.795584	4433.140281
716.128957	4416.002878
716.462281	4359.761245
716.795556	4335.636804
717.128782	4299.411072
717.461960	4231.491606
717.795088	4239.348245
718.128167	4199.697049
718.461198	4140.022390
718.794180	4135.659272
719.127113	4116.969194
719.459997	4094.379783
719.792833	4053.372517
720.125619	4040.404149
720.458357	4004.982482
720.791046	4012.143441
721.123686	3987.272908
721.456278	3945.348152
721.788821	3960.378352
722.121315	3930.267541
722.453761	3908.270466
722.786158	3919.487033
723.118506	3943.366979
723.450805	3895.425606
723.783056	3920.386879
724.115259	3931.326183
724.447412	3938.426648
724.779518	3932.117644
725.111574	3932.772994
725.443582	3967.912357
725.775542	3950.795119
726.107453	4001.872090
726.439315	4001.342769
726.771129	4015.979759
727.102895	4054.398392
727.434612	4102.375053
727.766281	4110.579531
728.097901	4113.498359
728.429473	4119.245275
728.760996	4123.958754
729.092471	4115.872743
729.423897	4103.756330
729.755276	4112.618678
730.086606	4110.251856
730.417887	4146.830469
730.749120	4213.623237
731.080305	4277.451806
731.411442	4301.049447
731.742530	4273.431486
732.073570	4276.269655
732.404562	4329.811750
732.735506	4318.932940
733.066401	4287.103095
733.397249	4223.529104
733.728048	4145.121518
734.058798	4057.556675
734.389501	3990.731140
734.720156	3928.356943
735.050762	3882.789954
735.381320	3877.073285
735.711831	3826.545800
736.042293	3797.970020
736.372707	3817.489367
736.703073	3789.679842
737.033391	3778.992596
737.363661	3801.675268
737.693883	3823.546314
738.024056	3835.652645
738.354182	3830.298939
738.684260	3891.962333
739.014290	3911.506887
739.344272	3908.091505
739.674207	3952.262095
740.004093	3956.262250
740.333931	3951.503401
740.663722	3951.604224
740.993464	3949.731436
741.323159	3925.221346
741.652806	3899.380391
741.982405	3867.326214
742.311956	3835.889579
742.641460	3827.687622
742.970915	3805.103252
743.300323	3764.590019
743.629683	3727.335892
743.958996	3715.461455
744.288260	3691.936910
744.617477	3660.054133
744.946647	3647.032832
745.275768	3622.923514
745.604842	3619.699696
745.933869	3570.924012
746.262847	3561.635686
746.591778	3601.972479
746.920662	3571.261769
747.249498	3540.851009
747.578286	3587.398503
747.907027	3606.685957
748.235720	3600.470215
748.564365	3625.101293
748.892963	3627.722692
749.221514	3608.042028
749.550017	3586.501177
749.878473	3584.656115
750.206881	3554.295766
750.535242	3554.202505
750.863555	3551.384500
751.191821	3548.513563
751.520039	3527.915408
751.848210	3508.232223
752.176334	3539.368910
752.504411	3548.967267
752.832440	3509.212727
753.160421	3492.191271
753.488356	3499.163187
753.816243	3512.018129
754.144082	3465.773105
754.471875	3452.615693
754.799620	3474.574959
755.127318	3461.352013
755.454969	3463.320583
755.782572	3471.630925
756.110129	3446.636885
756.437638	3435.843774
756.765100	3449.187708
757.092515	3461.220943
757.419882	3466.143629
757.747203	3440.441307
758.074477	3441.005916
758.401703	3456.119295
758.728882	3476.714929
759.056014	3484.642143
759.383099	3488.881754
759.710138	3482.958398
760.037129	3500.937673
760.364073	3533.014535
760.690970	3517.472658
761.017820	3493.658247
761.344623	3512.728932
761.671379	3560.771128
761.998088	3611.263325
762.324751	3734.814444
762.651366	3983.759224
762.977935	4459.586174
763.304456	4899.411723
763.630931	4995.155838
763.957359	4634.166373
764.283740	4290.974701
764.610074	4099.756174
764.936362	3901.404414
765.262602	3742.305599
765.588796	3630.707056
765.914943	3544.513407
766.241044	3455.176599
766.567097	3425.983277
766.893104	3381.104405
767.219064	3349.370342
767.544978	3322.556444
767.870845	3265.697270
768.196665	3245.434352
768.522438	3259.090838
768.848165	3249.789909
769.173846	3215.409240
769.499479	3199.280068
769.825066	3184.068387
770.150607	3167.601457
770.476101	3180.842048
770.801548	3175.589166
771.126949	3129.059316
771.452303	3113.184722
771.777611	3120.363325
772.102872	3124.950775
772.428087	3100.385233
772.753256	3091.260744
773.078378	3084.150197
773.403453	3051.138201
773.728482	3037.101108
774.053465	3061.800241
774.378401	3044.002448
774.703291	3015.464476
775.028135	3017.796009
775.352932	3009.949453
775.677683	3000.083915
776.002388	2996.918071
776.327046	2997.646517
776.651658	2986.074549
776.976224	2973.166674
777.300743	2975.709936
777.625216	2968.178453
777.949643	2960.830971
778.274024	2963.132258
778.598359	2954.348047
778.922647	2956.253603
779.246889	2956.107410
779.571086	2937.792898
779.895236	2934.914399
780.219339	2947.494598
780.543397	2958.259982
780.867409	2965.350365
781.191374	2954.411061
781.515294	2951.416616
781.839167	2953.566668
782.162995	2946.105760
782.486776	2954.993315
782.810511	2949.140535
783.134201	2938.057558
783.457844	2945.493260
783.781441	2935.413473
784.104993	2914.782551
784.428498	2915.836152
784.751958	2931.743513
785.075372	2925.326124
785.398739	2905.101015
785.722061	2921.658685
786.045337	2933.538164
786.368568	2918.346647
786.691752	2911.750297
787.014891	2961.198975
787.337983	2990.510764
787.661030	3017.105371
787.984031	3083.716658
788.306987	3132.431848
788.629897	3119.347533
788.952760	3106.885801
789.275579	3090.638162
789.598351	3032.004501
789.921078	2985.658653
790.243759	2980.045329
790.566395	2962.139150
790.888984	2939.814400
791.211529	2923.571803
791.534027	2912.622417
791.856480	2902.207393
792.178888	2886.950341
792.501249	2879.086141
792.823566	2876.469782
793.145836	2870.932074
793.468062	2872.053731
793.790241	2866.377392
794.112375	2873.432487
794.434464	2881.765514
794.756507	2889.281874
795.078505	2896.694891
795.400457	2905.663104
795.722364	2946.395627
796.044226	2970.227682
796.366042	2974.827734
796.687812	2960.377267
797.009538	2983.105309
797.331218	2969.521920
797.652852	2954.030454
797.974442	2935.836930
798.295986	2933.419697
798.617484	2929.956424
798.938938	2915.188364
799.260346	2896.911661
799.581709	2895.585837
799.903026	2884.384393
800.224299	2880.175030
800.545526	2868.109028
800.866708	2851.916842
801.187845	2843.906448
801.508936	2848.118332
801.829983	2853.512367
802.150984	2838.696416
802.471940	2827.227791
802.792851	2826.935404
803.113717	2827.434478
803.434538	2835.109635
803.755314	2823.951041
804.076045	2820.472645
804.396731	2816.016265
804.717372	2820.480207
805.037967	2814.655153
805.358518	2820.568427
805.679024	2830.791887
805.999485	2828.898933
806.319901	2831.434634
806.640272	2824.573623
806.960598	2829.884479
807.280879	2836.097701
807.601115	2845.638085
807.921306	2830.801969
808.241453	2828.629232
808.561554	2834.376147
808.881611	2837.557115
809.201623	2834.391271
809.521590	2831.691733
809.841513	2828.057061
810.161390	2832.447906
810.481223	2825.412976
810.801011	2814.329999
811.120755	2812.384113
811.440453	2813.268836
811.760107	2813.162972
812.079716	2812.535348
812.399281	2803.052938
812.718801	2794.868624
813.038276	2790.750002
813.357707	2797.076650
813.677093	2806.392702
813.996434	2795.841567
814.315731	2796.539767
814.634983	2789.590536
814.954191	2793.313428
815.273354	2807.617702
815.592473	2814.183805
815.911547	2814.965184
816.230577	2822.032882
816.549562	2830.262566
816.868502	2830.474294
817.187399	2841.413598
817.506250	2858.185517
817.825058	2849.174454
818.143821	2864.040817
818.462539	2879.935575
818.781213	2906.046231
819.099843	2942.521500
819.418429	2998.919409
819.736970	3062.949624
820.055466	3133.422434
820.373919	3237.340780
820.692327	3381.631206
821.010691	3547.989283
821.329011	3995.726923
821.647286	4892.948964
821.965517	6277.564882
822.283704	7013.079311
822.601847	6991.367061
822.919945	6357.872984
823.237999	5859.754052
823.556010	5271.713538
823.873976	4719.051842
824.191897	4310.723421
824.509775	4015.238709
824.827609	3744.516145
825.145398	3622.338740
825.463144	3612.619396
825.780845	3701.162222
826.098502	3806.071154
826.416116	4093.525308
826.733685	4409.298144
827.051210	4472.342814
827.368692	4355.819063
827.686129	4086.187908
828.003522	3759.427878
828.320872	3502.714680
828.638177	3310.177891
828.955439	3169.890141
829.272656	3087.530290
829.589830	3018.045546
829.906960	2972.831438
830.224046	2927.236722
830.541088	2889.549055
830.858086	2876.908362
831.175041	2858.535877
831.491952	2856.653006
831.808819	2875.685882
832.125642	2893.612225
832.442421	2941.561160
832.759157	3023.094262
833.075849	3200.817620
833.392497	3485.655415
833.709101	3688.950027
834.025662	3635.944814
834.342179	3475.701657
834.658653	3300.687919
834.975083	3151.210146
835.291469	3052.267419
835.607811	2968.947228
835.924110	2910.616037
836.240366	2858.833305
836.556578	2815.275215
836.872746	2794.210754
837.188871	2768.808380
837.504952	2753.929414
837.820990	2748.033785
838.136984	2732.915364
838.452935	2726.243397
838.768842	2721.499671
839.084706	2739.821745
839.400526	2824.326607
839.716303	2954.988273
840.032037	3034.091539
840.347727	3017.294414
840.663373	2957.428192
840.978977	2882.481358
841.294537	2809.992086
841.610054	2761.995260
841.925527	2740.782085
842.240957	2717.577654
842.556344	2697.206351
842.871687	2681.238496
843.186987	2671.549398
843.502244	2666.707370
843.817458	2660.408448
844.132629	2651.041985
844.447756	2643.515542
844.762840	2637.284676
845.077881	2639.921199
845.392879	2637.380458
845.707833	2634.242339
846.022745	2623.154322
846.337613	2626.952831
846.652438	2628.621453
846.967221	2626.831843
847.281960	2624.684312
847.596656	2622.030144
847.911309	2623.988633
848.225919	2619.781790
848.540485	2615.267436
848.855009	2614.909514
849.169490	2618.793723
849.483928	2617.840945
849.798323	2613.558485
850.112675	2613.936572
850.426984	2614.503702
850.741251	2614.836418
851.055474	2611.443721
851.369654	2614.682662
851.683792	2616.807509
851.997887	2616.600822
852.311938	2614.791047
852.625947	2614.123094
852.939914	2614.816253
853.253837	2618.251799
853.567718	2610.758124
853.881555	2613.064452
854.195350	2616.994032
854.509103	2615.151490
854.822812	2614.201232
855.136479	2610.644698
855.450103	2614.148300
855.763685	2617.215842
856.077224	2614.428084
856.390720	2608.557661
856.704173	2613.283742
857.017584	2616.321037
857.330953	2618.808847
857.644278	2623.721451
857.957561	2622.355299
858.270802	2618.166100
858.584000	2615.310286
858.897155	2621.783128
859.210268	2621.231121
859.523339	2615.413630
859.836367	2614.286932
860.149352	2611.174019
860.462295	2615.136366
860.775195	2610.911879
861.088054	2609.807867
861.400869	2608.512290
861.713642	2609.414657
862.026373	2608.169492
862.339062	2611.156375
862.651708	2618.274485
862.964312	2618.982767
863.276873	2616.096706
863.589392	2618.193826
863.901869	2623.620628
864.214303	2627.739251
864.526696	2631.237812
864.839045	2631.507513
865.151353	2635.099336
865.463619	2634.000364
865.775842	2632.145219
866.088023	2632.147740
866.400162	2636.455406
866.712258	2632.329222
867.024313	2632.808131
867.336325	2626.607512
867.648296	2630.955507
867.960224	2635.303502
868.272110	2633.463481
868.583954	2628.951648
868.895755	2630.433748
869.207515	2633.990282
869.519233	2643.543268
869.830909	2637.773668
870.142542	2631.094139
870.454134	2634.532206
870.765684	2640.511014
871.077191	2642.000675
871.388657	2647.293887
871.700081	2643.775161
872.011463	2645.910090
872.322803	2647.578712
872.634101	2649.063332
872.945357	2655.591626
873.256571	2657.040958
873.567744	2660.179076
873.878874	2657.832419
874.189963	2656.559527
874.501010	2663.198727
874.812015	2671.327588
875.122979	2668.958245
875.433900	2660.567245
875.744780	2656.284785
876.055618	2665.139571
876.366415	2667.564366
876.677169	2669.079233
876.987882	2663.808707
877.298554	2659.972389
877.609183	2676.439318
877.919771	2677.550892
878.230317	2688.409537
878.540822	2694.267358
878.851285	2709.789071
879.161707	2732.096177
879.472087	2772.478340
879.782425	2822.791576
880.092722	2933.855757
880.402977	3123.635034
880.713191	3382.949468
881.023363	3677.574663
881.333494	3870.159343
881.643583	4046.317423
881.953631	4041.102349
882.263637	3862.758929
882.573602	3639.904641
882.883526	3509.895804
883.193408	3396.306005
883.503248	3298.023669
883.813048	3179.753159
884.122806	3064.552711
884.432522	2977.275215
884.742197	2915.672315
885.051831	2875.201932
885.361424	2842.895697
885.670975	2805.250881
885.980485	2772.715274
886.289954	2756.152563
886.599382	2742.644791
886.908768	2732.842267
887.218113	2711.586242
887.527417	2699.366485
887.836680	2691.035979
888.145901	2684.575740
888.455082	2676.139369
888.764221	2667.198883
889.073319	2660.090856
889.382376	2661.119251
889.691392	2657.782007
890.000366	2659.208654
890.309300	2656.798982
890.618193	2657.411482
890.927044	2661.411638
891.235855	2663.982627
891.544625	2660.383243
891.853353	2659.823675
892.162041	2667.589572
892.470687	2689.586647
892.779293	2699.220292
893.087858	2712.730584
893.396381	2733.984089
893.704864	2773.685696
894.013306	2844.750842
894.321707	2937.046807
894.630068	2990.225939
894.938387	3009.175636
895.246665	3002.796056
895.554903	2958.907771
895.863100	2916.887233
896.171256	2859.566793
896.479371	2796.428862
896.787446	2755.570310
897.095480	2737.144892
897.403473	2732.091136
897.711425	2716.521532
898.019336	2698.554860
898.327207	2682.995338
898.635038	2682.161027
898.942827	2680.031140
899.250576	2672.668535
899.558284	2657.177069
899.865952	2657.139260
900.173579	2652.559372
900.481165	2651.503250
900.788711	2641.930099
901.096216	2637.007412
901.403681	2631.741927
901.711105	2633.607154
902.018489	2628.712194
902.325832	2633.934829
902.633135	2635.106897
902.940397	2648.501243
903.247619	2687.975998
903.554800	2759.643562
903.861941	2885.508571
904.169041	3013.185874
904.476101	3074.806418
904.783121	3066.806107
905.090100	3010.350225
905.397039	2934.117897
905.703938	2861.447143
906.010796	2797.379119
906.317614	2748.694176
906.624391	2710.910728
906.931129	2683.980884
907.237826	2660.506751
907.544483	2643.399595
907.851099	2628.714714
908.157675	2618.844135
908.464211	2612.492281
908.770707	2600.199428
909.077163	2595.301947
909.383578	2593.424117
909.689954	2595.254056
909.996289	2589.912953
910.302584	2588.289702
910.608839	2589.315576
910.915054	2586.626121
911.221229	2591.611822
911.527363	2593.172059
911.833458	2591.987388
912.139513	2591.485793
912.445527	2594.452512
912.751502	2602.578852
913.057436	2602.470467
913.363331	2609.298710
913.669186	2619.663322
913.975000	2635.890797
914.280775	2653.108858
914.586510	2672.587876
914.892205	2705.211703
915.197859	2775.155192
915.503475	2855.649816
915.809050	2925.482400
916.114585	2939.685851
916.420081	2950.249589
916.725536	2962.988585
917.030952	2934.967331
917.336328	2888.354302
917.641665	2839.066941
917.946961	2791.100362
918.252218	2754.400762
918.557435	2729.137019
918.862612	2705.229347
919.167750	2691.068746
919.472848	2674.942095
919.777906	2658.734785
920.082925	2644.906900
920.387904	2634.748975
920.692843	2629.856536
920.997743	2625.183386
921.302603	2619.280195
921.607423	2613.228290
921.912204	2605.238061
922.216946	2603.597165
922.521647	2602.019284
922.826310	2597.436875
923.130932	2590.838005
923.435516	2585.033116
923.740059	2584.534042
924.044564	2584.897005
924.349028	2584.962540
924.653454	2575.921231
924.957840	2572.803277
925.262186	2569.831517
925.566493	2571.583318
925.870761	2569.052658
926.174989	2566.534602
926.479178	2564.203068
926.783328	2564.928995
927.087438	2562.131154
927.391509	2563.212482
927.695541	2559.855073
927.999533	2559.114024
928.303486	2559.048489
928.607400	2556.805175
928.911275	2557.291647
929.215110	2555.691080
929.518906	2554.980277
929.822663	2558.088149
930.126381	2554.703014
930.430060	2557.294167
930.733699	2559.764332
931.037299	2559.766853
931.340861	2556.633776
931.644383	2558.047820
931.947866	2558.332645
932.251309	2559.623180
932.554714	2553.999773
932.858080	2558.183931
933.161407	2557.881462
933.464694	2554.876934
933.767943	2552.595812
934.071153	2555.781821
934.374323	2554.582026
934.677455	2554.501368
934.980548	2554.070349
935.283602	2552.497509
935.586617	2551.779145
935.889593	2554.357695
936.192530	2553.127653
936.495428	2554.297201
936.798287	2553.198230
937.101108	2556.323745
937.403890	2559.955896
937.706632	2563.227605
938.009336	2564.359344
938.312002	2571.903431
938.614628	2571.726991
938.917216	2574.915520
939.219765	2576.009451
939.522275	2580.816191
939.824747	2577.690676
940.127179	2571.482495
940.429573	2566.988306
940.731929	2568.606516
941.034246	2567.694067
941.336524	2570.161712
941.638763	2571.807649
941.940964	2567.936043
942.243126	2565.654921
942.545250	2565.861608
942.847335	2564.883624
943.149381	2562.214333
943.451389	2562.484035
943.753359	2559.429096
944.055290	2557.823488
944.357182	2560.006308
944.659036	2554.307283
944.960851	2555.764177
945.262628	2557.911708
945.564367	2557.155535
945.866067	2556.885834
946.167729	2558.960268
946.469352	2557.006821
946.770937	2559.318190
947.072484	2555.814588
947.373992	2558.304918
947.675462	2554.168652
947.976893	2556.351471
948.278286	2556.505227
948.579641	2554.881975
948.880958	2553.435164
949.182236	2555.630586
949.483476	2554.576985
949.784678	2555.711245
950.085841	2552.003476
950.386967	2554.977757
950.688054	2558.451112
950.989103	2553.543549
951.290114	2560.497820
951.591087	2559.219888
951.892021	2558.977912
952.192917	2560.109652
952.493776	2561.115362
952.794596	2562.176525
953.095378	2561.266596
953.396122	2564.926474
953.696828	2563.149467
953.997496	2560.586041
954.298126	2556.764846
954.598718	2554.350133
954.899272	2555.612942
955.199788	2556.341389
955.500266	2553.548590
955.800706	2550.513815
956.101108	2545.200439
956.401472	2547.428629
956.701798	2544.524924
957.002087	2543.637681
957.302337	2547.221942
957.602550	2545.880995
957.902724	2543.433515
958.202861	2542.770603
958.502960	2541.790098
958.803022	2547.234545
959.103045	2541.845551
959.403031	2542.488298
959.702979	2542.689944
960.002889	2541.558205
960.302762	2541.084337
960.602596	2541.089378
960.902393	2542.631971
961.202153	2539.488812
961.501875	2541.848072
961.801559	2540.212217
962.101205	2542.072403
962.400814	2538.404964
962.700385	2538.720036
962.999918	2540.479398
963.299414	2537.812628
963.598873	2538.921682
963.898293	2538.936805
964.197677	2539.461085
964.497022	2540.970911
964.796331	2540.378575
965.095601	2539.060314
965.394835	2540.943185
965.694030	2539.105684
965.993189	2541.464944
966.292309	2538.072247
966.591393	2537.868081
966.890439	2537.865560
967.189447	2538.541075
967.488419	2539.909748
967.787353	2540.688606
968.086249	2541.011240
968.385108	2538.750283
968.683930	2537.789943
968.982714	2538.967052
969.281462	2538.689789
969.580172	2538.467978
969.878844	2540.663401
970.177480	2538.725077
970.476078	2539.188863
970.774639	2541.386806
971.073162	2539.584594
971.371649	2536.118800
971.670098	2536.055786
971.968510	2537.628626
972.266885	2534.019160
972.565223	2540.852444
972.863524	2538.853626
973.161788	2539.196425
973.460014	2540.393699
973.758204	2536.164171
974.056356	2538.810777
974.354471	2540.086188
974.652550	2539.733308
974.950591	2540.307999
975.248595	2538.412525
975.546563	2538.188194
975.844493	2538.664583
976.142386	2540.199614
976.440243	2539.030067
976.738062	2539.072917
977.035845	2537.142155
977.333590	2539.604758
977.631299	2538.006712
977.928971	2538.674665
978.226606	2538.077289
978.524204	2540.585263
978.821765	2537.875642
979.119290	2539.050231
979.416777	2538.195756
979.714228	2538.669624
980.011642	2535.786084
980.309020	2539.997968
980.606360	2538.289017
980.903664	2538.891435
981.200931	2538.382278
981.498162	2540.388658
981.795356	2538.508307
982.092513	2545.815460
982.389633	2544.829914
982.686717	2551.416182
982.983764	2553.500699
983.280775	2554.125802
983.577749	2555.519681
983.874686	2553.011707
984.171587	2550.412992
984.468451	2546.170861
984.765279	2544.275387
985.062070	2542.936961
985.358824	2540.643236
985.655543	2541.336395
985.952224	2539.763555
986.248869	2539.312371
986.545478	2535.082843
986.842050	2533.177287
987.138586	2533.943543
987.435086	2532.524458
987.731549	2531.528830
988.027975	2538.142824
988.324366	2533.482277
988.620719	2539.019984
988.917037	2534.430014
989.213318	2539.282124
989.509563	2533.696526
989.805772	2535.171063
990.101944	2534.172915
990.398080	2534.389685
990.694180	2534.432534
990.990244	2535.748276
991.286271	2536.159130
991.582262	2537.086702
991.878217	2534.886238
992.174136	2535.871784
992.470019	2535.314736
992.765865	2536.925385
993.061676	2534.881197
993.357450	2535.612164
993.653188	2535.281969
993.948890	2534.422452
994.244556	2534.223327
994.540186	2537.086702
994.835780	2536.239788
995.131337	2535.826413
995.426859	2536.544778
995.722345	2536.489325
996.017795	2539.854295
996.313208	2539.708102
996.608586	2537.633667
996.903928	2539.584594
997.199234	2542.009389
997.494504	2540.083668
997.789738	2535.019829
998.084936	2535.042514
998.380099	2537.515200
998.675225	2536.859850
998.970316	2537.406815
999.265371	2538.657021
999.560390	2535.380271
999.855373	2536.204500
1000.150320	2533.467153
1000.445232	2536.864891
1000.740108	2533.187369
1001.034948	2537.086702
1001.329752	2532.385826
1001.624521	2534.505631
1001.919254	2529.446833
1002.213951	2531.780887
1002.508613	2532.655528
1002.803239	2531.750641
1003.097829	2530.734848
1003.392384	2534.109901
1003.686903	2533.656197
1003.981386	2536.698533
1004.275834	2534.165353
1004.570246	2535.322298
1004.864623	2534.276259
1005.158964	2533.331042
1005.453270	2533.880528
1005.747540	2532.779036
1006.041775	2534.845909
1006.335974	2533.792308
1006.630138	2532.809283
1006.924266	2534.467822
1007.218359	2531.685106
1007.512416	2535.922195
1007.806438	2532.269879
1008.100425	2534.019160
1008.394376	2535.007226
1008.688292	2534.803059
1008.982172	2532.443799
1009.276017	2536.249870
1009.569827	2533.469674
1009.863602	2532.617719
1010.157341	2533.205013
1010.451045	2534.964376
1010.744714	2531.869108
1011.038347	2533.847761
1011.331945	2535.344983
1011.625508	2533.106711
1011.919036	2532.801721
1012.212528	2531.929602
1012.505986	2531.513706
1012.799408	2532.784077
1013.092795	2531.450692
1013.386147	2530.578572
1013.679464	2533.446989
1013.972745	2532.653007
1014.265992	2531.470857
1014.559204	2531.123017
1014.852380	2530.898686
1015.145521	2531.654859
1015.438628	2534.014119
1015.731699	2532.315250
1016.024736	2534.462781
1016.317737	2535.118131
1016.610703	2530.906247
1016.903635	2527.712676
1017.196531	2528.327697
1017.489393	2531.513706
1017.782219	2527.687471
1018.075011	2530.021525
1018.367768	2533.116793
1018.660490	2532.295085
1018.953177	2532.295085
1019.245829	2532.295085
