Dividing Wavelength (nm)	Counts (n)	Blue Motor Position (mm): 20.400000	Red Motor Position (mm): 0.000000	
326.493990	2187.081911
326.888308	2187.081911
327.282561	2187.081911
327.676750	2146.631693
328.070874	2142.623975
328.464933	2142.079531
328.858929	2147.014820
329.252859	2150.014307
329.646726	2158.871614
330.040528	2172.535662
330.434265	2184.974709
330.827938	2203.745445
331.221547	2219.499051
331.615091	2239.751886
332.008571	2252.853845
332.401986	2272.937802
332.795338	2292.076543
333.188625	2309.912145
333.581847	2329.378561
333.975006	2348.950840
334.368100	2363.915506
334.761129	2385.809237
335.154095	2402.878584
335.546996	2425.213416
335.939833	2457.479321
336.332606	2471.929788
336.725315	2484.983856
337.117960	2497.475836
337.510540	2512.052332
337.903056	2521.635565
338.295508	2529.313243
338.687896	2539.609799
339.080220	2543.680531
339.472480	2551.456511
339.864676	2556.827860
340.256807	2560.644014
340.648875	2566.332956
341.040879	2568.228430
341.432818	2572.382341
341.824694	2576.768144
342.216506	2576.432908
342.608253	2574.940726
342.999937	2578.048597
343.391557	2577.657908
343.783113	2576.319482
344.174605	2576.425346
344.566033	2573.408215
344.957397	2576.198494
345.348697	2573.138514
345.739934	2572.037022
346.131106	2568.856053
346.522215	2567.371434
346.913260	2562.184086
347.304241	2565.576783
347.695159	2562.453788
348.086012	2560.712069
348.476802	2558.846842
348.867528	2553.455328
349.258191	2551.630431
349.648789	2552.217725
350.039324	2548.537683
350.429796	2551.403579
350.820203	2548.154555
351.210548	2548.411654
351.600828	2547.113557
351.991045	2545.172713
352.381198	2545.870912
352.771288	2542.934440
353.161314	2542.758000
353.551276	2544.814791
353.941175	2540.696168
354.331010	2542.006868
354.720782	2543.476364
355.110490	2541.538041
355.500135	2540.749100
355.889717	2539.851775
356.279235	2542.543751
356.668689	2542.611807
357.058080	2541.200283
357.447408	2542.909235
357.836672	2542.563916
358.225873	2545.036602
358.615010	2543.471323
359.004084	2541.553164
359.393095	2545.238248
359.782043	2543.599873
360.170927	2546.402754
360.559748	2546.647250
360.948505	2548.837632
361.337199	2547.794113
361.725830	2544.502239
362.114398	2544.514842
362.502903	2549.361912
362.891344	2547.743701
363.279722	2550.281922
363.668037	2549.714792
364.056289	2550.715461
364.444478	2551.091027
364.832603	2551.431305
365.220665	2551.557334
365.608665	2552.651264
365.996601	2551.350647
366.384474	2550.060111
366.772284	2554.992880
367.160031	2550.372663
367.547715	2552.651264
367.935336	2551.403579
368.322893	2552.197561
368.710388	2551.459032
369.097820	2554.400545
369.485189	2550.203784
369.872495	2557.039589
370.259738	2553.331820
370.646918	2559.517316
371.034035	2557.921791
371.421090	2558.803993
371.808081	2558.521688
372.195010	2556.439692
372.581875	2558.685526
372.968678	2559.033365
373.355418	2559.063612
373.742096	2560.644014
374.128710	2557.924311
374.515262	2559.529919
374.901751	2559.524878
375.288177	2557.778118
375.674540	2561.425393
376.060841	2560.785166
376.447079	2559.908005
376.833254	2562.166442
377.219367	2557.954558
377.605417	2562.930177
377.991404	2558.806513
378.377329	2562.494117
378.763191	2562.690722
379.148991	2561.140568
379.534727	2561.450598
379.920402	2561.649724
380.306013	2563.857749
380.691563	2561.566545
381.077049	2560.157542
381.462474	2562.698284
381.847835	2560.298695
382.233134	2562.799107
382.618371	2564.228274
383.003545	2564.266083
383.388657	2561.586710
383.773706	2565.675085
384.158693	2564.913871
384.543618	2564.828172
384.928480	2566.479149
385.313280	2567.121897
385.698017	2562.355486
386.082692	2566.443861
386.467305	2565.395301
386.851856	2567.673903
387.236344	2568.929150
387.620770	2565.690209
388.005133	2562.569735
388.389435	2563.590568
388.773674	2563.789694
389.157851	2567.217678
389.541965	2567.247925
389.926018	2568.402350
390.310008	2566.186763
390.693936	2568.407391
391.077802	2569.534089
391.461606	2569.823955
391.845348	2570.950653
392.229027	2572.082392
392.612645	2570.481826
392.996200	2571.512742
393.379694	2572.780592
393.763125	2572.132803
394.146494	2570.254974
394.529801	2572.077351
394.913047	2570.754048
395.296230	2574.618092
395.679351	2569.728173
396.062410	2572.770509
396.445408	2571.837896
396.828343	2573.186405
397.211217	2570.746486
397.594028	2573.539285
397.976778	2571.732032
398.359466	2574.245047
398.742092	2574.071127
399.124656	2574.335788
399.507158	2572.261353
399.889598	2576.334605
400.271977	2572.876374
400.654294	2574.862588
401.036549	2574.353432
401.418742	2576.238823
401.800874	2573.879563
402.182944	2576.692527
402.564952	2575.346539
402.946898	2577.141190
403.328783	2576.047259
403.710606	2576.848803
404.092367	2577.743608
404.474067	2575.959039
404.855705	2577.055490
405.237282	2576.246385
405.618797	2576.213618
406.000250	2577.756211
406.381642	2577.998186
406.762972	2574.103895
407.144240	2577.494071
407.525447	2577.791499
407.906593	2572.644481
408.287677	2578.212435
408.668700	2578.376272
409.049661	2578.998855
409.430560	2580.117991
409.811399	2580.596901
410.192176	2579.180337
410.572891	2579.492888
410.953545	2578.333423
411.334138	2579.775193
411.714669	2578.046077
412.095139	2582.915832
412.475547	2582.656212
412.855894	2581.461459
413.236180	2578.923238
413.616405	2579.442477
413.996568	2581.466500
414.376670	2578.403999
414.756711	2583.896336
415.136691	2583.946747
415.516609	2583.097313
415.896466	2581.106057
416.276262	2582.565471
416.655997	2583.417426
417.035670	2582.981367
417.415283	2580.816191
417.794834	2584.372725
418.174324	2583.820719
418.553753	2584.755853
418.933121	2584.912128
419.312428	2582.925914
419.691674	2584.155955
420.070859	2585.012952
420.449983	2583.677046
420.829045	2582.555389
421.208047	2584.677715
421.586988	2584.529001
421.965867	2586.981522
422.344686	2586.308528
422.723444	2587.321800
423.102141	2587.188209
423.480777	2586.278281
423.859352	2585.607808
424.237866	2583.709813
424.616319	2589.363467
424.994712	2587.646954
425.373044	2587.110072
425.751314	2584.498754
426.129524	2583.971953
426.507673	2586.326172
426.885762	2585.191912
427.263789	2586.283322
427.641756	2587.813312
428.019662	2586.822726
428.397508	2588.582088
428.775292	2587.725092
429.153016	2586.593353
429.530679	2591.493355
429.908282	2589.308015
430.285824	2586.626121
430.663305	2589.587799
431.040726	2591.132912
431.418086	2589.464290
431.795385	2590.059147
432.172624	2588.481265
432.549802	2590.885896
432.926920	2587.780545
433.303977	2591.523602
433.680974	2592.279775
434.057910	2593.562748
434.434786	2589.902871
434.811601	2590.505289
435.188355	2592.395721
435.565050	2590.293560
435.941683	2588.869434
436.318257	2591.689960
436.694770	2589.408838
437.071222	2590.142326
437.447614	2589.396235
437.823946	2594.114755
438.200218	2594.646597
438.576429	2592.138622
438.952580	2594.339086
439.328670	2592.846905
439.704700	2594.959148
440.080670	2590.958993
440.456580	2591.480752
440.832429	2596.713470
441.208218	2594.928901
441.583947	2595.707759
441.959616	2596.927719
442.335224	2592.564600
442.710773	2595.768253
443.086261	2598.240939
443.461689	2595.370002
443.837057	2596.504262
444.212365	2597.104159
444.587612	2593.981164
444.962800	2593.746751
445.337927	2594.881010
445.712995	2589.328179
446.088002	2598.268666
446.462949	2598.692122
446.837837	2600.035590
447.212664	2596.957966
447.587431	2596.577358
447.962139	2597.114241
448.336786	2601.530292
448.711374	2601.431990
449.085901	2601.250508
449.460369	2598.873604
449.834776	2596.826896
450.209124	2600.794284
450.583412	2600.842175
450.957640	2602.470467
451.331808	2599.856629
451.705917	2600.189345
452.079965	2600.993409
452.453954	2598.001484
452.827883	2603.597165
453.201752	2601.235385
453.575562	2602.591455
453.949311	2602.304109
454.323001	2601.179932
454.696632	2602.193204
455.070202	2603.468616
455.443713	2603.241764
455.817164	2603.526589
456.190556	2601.852926
456.563888	2604.260077
456.937160	2605.722012
457.310373	2604.560026
457.683526	2603.645056
458.056619	2603.597165
458.429653	2605.351487
458.802628	2604.822166
459.175542	2605.890890
459.548398	2605.732094
459.921194	2607.191508
460.293930	2608.096395
460.666607	2608.761827
461.039224	2610.914400
461.411782	2608.565222
461.784280	2612.146962
462.156719	2611.375666
462.529099	2609.538165
462.901419	2611.317692
463.273680	2613.898763
463.645882	2606.674790
464.018024	2607.186467
464.390106	2607.902311
464.762130	2612.804833
465.134094	2614.627210
465.505999	2617.982098
465.877845	2620.220370
466.249631	2624.946452
466.621358	2625.241359
466.993026	2623.081225
467.364634	2626.889817
467.736184	2620.651389
468.107674	2620.553086
468.479105	2620.847994
468.850477	2622.367902
469.221790	2622.299846
469.593043	2620.346399
469.964238	2621.659619
470.335373	2619.910339
470.706449	2620.815226
471.077467	2621.992336
471.448425	2623.842439
471.819324	2631.875518
472.190164	2632.311577
472.560945	2632.140178
472.931667	2629.390229
473.302330	2626.773870
473.672934	2627.779580
474.043479	2630.277472
474.413965	2630.373254
474.784393	2631.063892
475.154761	2633.899541
475.525070	2634.333080
475.895321	2636.218472
476.265513	2636.793163
476.635645	2640.105201
477.005719	2640.715181
477.375734	2643.276087
477.745691	2647.873619
478.115588	2652.511481
478.485427	2653.582726
478.855207	2657.877789
479.224928	2666.246105
479.594591	2676.061231
479.964194	2678.445697
480.333739	2681.964422
480.703226	2687.872655
481.072653	2687.010617
481.442022	2692.896164
481.811333	2704.100129
482.180584	2707.054245
482.549777	2710.164637
482.918912	2709.799153
483.287988	2723.627038
483.657005	2728.411093
484.025964	2734.717577
484.394864	2740.214955
484.763706	2747.297776
485.132489	2750.821543
485.501213	2761.851587
485.869879	2773.562188
486.238487	2783.261368
486.607036	2794.455250
486.975527	2803.247022
487.343959	2822.307625
487.712333	2833.733400
488.080648	2850.822912
488.448905	2869.056765
488.817104	2884.765000
489.185244	2913.948240
489.553326	2936.696447
489.921350	2979.689927
490.289315	3054.127605
490.657222	3125.094448
491.025070	3164.808658
491.392861	3193.054243
491.760593	3212.281204
492.128267	3229.378277
492.495883	3235.556211
492.863440	3256.260230
493.230939	3267.254987
493.598380	3313.252995
493.965763	3343.605782
494.333088	3375.531410
494.700354	3418.262750
495.067563	3471.875421
495.434713	3517.432329
495.801805	3568.111048
496.168839	3628.544401
496.535815	3683.487936
496.902733	3752.413112
497.269593	3792.888537
497.636395	3875.530692
498.003139	3941.980662
498.369825	4009.769057
498.736453	4085.759410
499.103023	4150.843227
499.469535	4229.081935
499.835989	4327.744877
500.202385	4421.623765
500.568723	4463.200681
500.935003	4558.942275
501.301226	4622.811174
501.667390	4779.636429
502.033497	4932.922794
502.399546	4972.692456
502.765537	5047.644332
503.131470	5176.405483
503.497345	5295.361591
503.863163	5303.999608
504.228923	5486.791846
504.594625	5627.949195
504.960269	5657.553371
505.325856	5850.044789
505.691385	5896.935082
506.056856	6082.958700
506.422270	6226.918930
506.787625	6257.183498
507.152924	6481.640872
507.518164	6580.850780
507.883347	6672.461148
508.248472	6733.338122
508.613540	7015.010073
508.978550	7138.132694
509.343503	7261.822445
509.708398	7462.669576
510.073236	7625.060264
510.438016	7815.779717
510.802738	7914.843432
511.167403	8105.570446
511.532010	8184.252775
511.896561	8524.482769
512.261053	8714.035195
512.625488	8808.289648
512.989866	8932.901930
513.354186	9033.190645
513.718449	9253.642823
514.082655	9486.506322
514.446803	9615.428791
514.810894	9907.120034
515.174927	9912.337629
515.538904	10088.798178
515.902822	10394.755887
516.266684	10524.636175
516.630488	10637.192537
516.994235	10818.114508
517.357925	11080.788870
517.721558	11342.399549
518.085133	11549.916126
518.448651	11693.989783
518.812112	11790.782457
519.175516	11990.543219
519.538863	12278.768670
519.902152	12350.416069
520.265385	12684.730269
520.628560	12777.205195
520.991678	12990.458605
521.354739	13204.566492
521.717743	13421.535233
522.080690	13487.763391
522.443580	13865.567625
522.806413	14014.521118
523.169189	14278.801088
523.531908	14443.939206
523.894569	14466.548781
524.257174	14677.944526
524.619722	14962.762157
524.982213	14956.264109
525.344647	15208.533530
525.707025	15418.585808
526.069345	15623.889319
526.431608	15791.177489
526.793815	16093.921463
527.155964	15901.493058
527.518057	16193.421237
527.880093	16352.429311
528.242072	16590.810353
528.603995	16612.363806
528.965860	16659.543965
529.327669	16921.240344
529.689421	17023.371600
530.051117	17087.167402
530.412755	17420.301972
530.774337	17409.619767
531.135862	17492.047673
531.497331	17797.259292
531.858743	17636.902708
532.220098	18171.015479
532.581396	18046.632569
532.942638	18245.677488
533.303824	18417.122089
533.664953	18589.625333
534.026025	18514.479373
534.387040	18801.560481
534.747999	19040.324651
535.108902	19272.126987
535.469748	19051.281599
535.830537	19340.686679
536.191270	19529.349342
536.551947	19641.547782
536.912567	19475.018306
537.273131	19828.952676
537.633638	19746.665922
537.994089	20063.043696
538.354483	19823.422531
538.714821	20336.675007
539.075103	20512.097078
539.435328	20453.382759
539.795497	20196.099911
540.155609	20659.202988
540.515665	20995.752940
540.875665	20479.536265
541.235609	20811.382820
541.595496	20916.574057
541.955328	21304.710136
542.315102	21331.037562
542.674821	21091.885223
543.034483	21073.870660
543.394090	21284.001076
543.753640	21205.124662
544.113134	21834.510199
544.472571	21619.560440
544.831953	21955.913787
545.191278	21671.927946
545.550548	21730.619580
545.909761	21959.896298
546.268918	22271.182507
546.628019	22298.729892
546.987064	22138.617805
547.346053	22004.593689
547.704986	22178.306809
548.063863	22388.318758
548.422684	22415.452768
548.781449	22120.091564
549.140158	22532.866282
549.498811	22214.835010
549.857408	22015.139782
550.215949	22490.318944
550.574434	22236.201940
550.932864	22495.997804
551.291237	22680.965300
551.649555	22630.500830
552.007817	22723.610941
552.366022	22649.516062
552.724173	22738.341193
553.082267	22713.548798
553.440305	23212.796949
553.798288	22560.816960
554.156215	23108.465229
554.514086	23218.059913
554.871902	22657.473523
555.229661	22961.601294
555.587365	22875.183314
555.945014	22743.692377
556.302606	23041.687584
556.660143	22985.483760
557.017625	23280.111476
557.375050	22862.086396
557.732421	23264.728395
558.089735	23121.216827
558.446994	23195.253733
558.804197	23230.067942
559.161345	23230.468713
559.518437	22982.257422
559.875474	23225.452765
560.232455	23413.187855
560.589381	23271.705352
560.946251	23242.491865
561.303065	23592.234516
561.659825	23693.135731
562.016528	23326.752231
562.373177	23085.021343
562.729770	23443.994346
563.086307	23344.434078
563.442789	23518.542929
563.799216	23352.101673
564.155587	23383.903792
564.511904	23379.661662
564.868164	23313.814110
565.224370	23325.292817
565.580520	23225.780440
565.936615	23378.933215
566.292654	23044.745044
566.648638	23390.779926
567.004567	23215.995561
567.360441	23175.487369
567.716260	22900.527715
568.072023	23237.433068
568.427732	23013.951156
568.783385	22805.091111
569.138982	23034.604763
569.494525	23086.800870
569.850013	22832.588084
570.205445	22934.268157
570.560823	22743.979723
570.916145	22521.891691
571.271412	22684.327750
571.626625	22455.242596
571.981782	22571.814237
572.336884	22383.128890
572.691931	22511.605216
573.046923	22255.355804
573.401860	22148.198518
573.756743	22147.323877
574.111570	22073.158422
574.466342	21994.949961
574.821059	22103.203699
575.175722	21791.304990
575.530330	21791.189043
575.884882	21820.168116
576.239380	21724.940720
576.593823	21613.581632
576.948211	21600.857759
577.302544	21445.386054
577.656823	21325.797282
578.011047	21417.989904
578.365216	21301.992954
578.719330	21166.948004
579.073389	21086.229048
579.427394	21212.797298
579.781344	21013.898573
580.135239	20902.126110
580.489080	20870.762571
580.842866	20632.484873
581.196597	20811.070269
581.550273	20811.685289
581.903895	20702.052796
582.257463	21018.322186
582.610975	20543.553878
582.964434	20844.301555
583.317837	20554.944365
583.671186	20651.777369
584.024481	20607.513518
584.377721	20396.909233
584.730906	20444.525452
585.084037	20482.447532
585.437113	20375.885101
585.790135	20577.329609
586.143103	20059.978675
586.496016	20065.599561
586.848874	20302.201076
587.201679	20256.739951
587.554428	19916.146994
587.907124	20239.310161
588.259765	20036.038235
588.612352	20109.374421
588.964884	19679.149749
589.317362	19853.001501
589.669786	19897.756865
590.022155	19965.308326
590.374470	20120.880854
590.726731	19934.327915
591.078937	19682.434060
591.431090	19790.823909
591.783188	19530.614671
592.135232	19506.734725
592.487222	19604.759962
592.839157	19638.424787
593.191038	19522.344658
593.542866	19403.935516
593.894639	19124.761457
594.246358	19353.208906
594.598022	19260.325646
594.949633	19014.652575
595.301190	18973.272264
595.652692	19139.574888
596.004141	19390.369771
596.355535	18714.129230
596.706876	18719.349344
597.058162	18613.696842
597.409395	18834.930399
597.760573	18927.024718
598.111698	18703.636068
598.462768	18643.449732
598.813785	18599.775696
599.164748	18426.785981
599.515657	18447.348848
599.866511	18245.639679
600.217312	18611.496378
600.568060	18141.015572
600.918753	18447.147201
601.269392	18354.140433
601.619978	18118.189228
601.970510	18342.102158
602.320988	18283.339948
602.671412	18494.304675
603.021783	18390.411535
603.372100	18138.121950
603.722363	18261.363038
604.072572	18195.427266
604.422728	18341.577878
604.772830	18105.049460
605.122878	18058.517090
605.472872	18050.466367
605.822813	18037.969347
606.172701	17994.950660
606.522534	18196.042287
606.872314	18220.771667
607.222041	18050.360503
607.571714	18275.826108
607.921333	18096.625692
608.270899	18174.844235
608.620411	18368.676601
608.969870	18124.036966
609.319276	18124.510835
609.668627	18158.984765
610.017926	18286.435217
610.367171	18402.001148
610.716362	18442.355585
611.065500	18263.613913
611.414585	18386.993633
611.763616	18369.059728
612.112594	18325.219334
612.461518	18295.479047
612.810389	18494.982710
613.159207	18343.075101
613.507971	18244.699504
613.856682	18536.567188
614.205340	18465.396178
614.553945	18610.770452
614.902496	18352.383591
615.250994	18593.814531
615.599439	18525.890024
615.947830	18510.721192
616.296169	18550.027069
616.644454	18533.532414
616.992686	18509.435698
617.340864	18715.066884
617.688990	18485.379312
618.037063	18651.639087
618.385082	18491.665631
618.733048	18783.848387
619.080961	18648.100197
619.428821	18685.523202
619.776628	18575.031192
620.124382	18496.192587
620.472083	18520.448099
620.819731	18557.707267
621.167326	18244.737313
621.514868	18293.913768
621.862357	18048.341521
622.209793	18064.568995
622.557176	17897.003562
622.904506	17724.838075
623.251783	17628.705792
623.599007	17405.722955
623.946179	17350.955859
624.293297	17286.590407
624.640363	17049.751958
624.987376	17064.489771
625.334336	16853.888008
625.681243	16711.543467
626.028097	16707.747478
626.374899	16648.972666
626.721647	16522.280908
627.068343	16341.303485
627.414987	16274.707322
627.761577	16254.310813
628.108115	16303.825026
628.454600	16014.866088
628.801032	16117.539268
629.147412	16046.426232
629.493739	16067.233594
629.840014	15874.888369
630.186236	15972.225488
630.532405	15734.976185
630.878521	15938.192658
631.224585	15823.062787
631.570597	15650.231868
631.916556	15684.171437
632.262462	15670.063768
632.608316	15577.404839
632.954117	15533.655186
633.299866	15529.639907
633.645562	15442.122955
633.991206	15197.190934
634.336797	15061.125151
634.682336	15034.437282
635.027823	14936.838023
635.373257	14815.726822
635.718639	14706.222879
636.063968	14664.419110
636.409245	14417.110185
636.754470	14445.363332
637.099642	14291.474549
637.444762	14063.695053
637.789829	14111.273463
638.134845	13939.546558
638.479808	13967.910610
638.824719	13923.868569
639.169577	13770.468778
639.514383	13821.228156
639.859137	13645.738029
640.203839	13720.142939
640.548489	13558.417683
640.893086	13543.702555
641.237632	13414.709510
641.582125	13569.997213
641.926566	13403.853385
642.270955	13413.071135
642.615292	13375.847255
642.959576	13387.182290
643.303809	13416.834357
643.647990	13356.159029
643.992118	13406.497471
644.336195	13177.344261
644.680219	13377.135270
645.024192	13315.834839
645.368112	13545.361094
645.711981	13600.725567
646.055797	13788.344710
646.399562	13744.181682
646.743274	14021.301470
647.086935	14295.764571
647.430544	14254.280916
647.774101	14276.194812
648.117606	14441.448876
648.461059	14406.974945
648.804460	14396.905240
649.147810	14137.810097
649.491108	14026.151060
649.834354	14045.622517
650.177548	13747.655037
650.520690	13566.097881
650.863781	13480.078152
651.206820	13522.166746
651.549807	13343.049508
651.892742	13154.971620
652.235626	13097.653701
652.578458	13086.878234
652.921238	12787.393367
653.263967	12978.087614
653.606644	12803.590594
653.949269	12781.611163
654.291843	12591.166453
654.634365	12743.399217
654.976836	12594.682658
655.319255	12606.073145
655.661622	12551.737068
656.003938	12481.985143
656.346203	12415.126840
656.688416	12475.459370
657.030577	12438.038885
657.372687	12357.183818
657.714746	12331.746156
658.056753	12514.324145
658.398708	12335.887464
658.740612	12344.376767
659.082465	12441.882764
659.424266	12401.714851
659.766016	12427.142431
660.107715	12333.934017
660.449362	12407.567630
660.790958	12365.839479
661.132503	12320.348107
661.473996	12371.339378
661.815438	12395.564643
662.156829	12402.488668
662.498168	12390.800752
662.839456	12385.192469
663.180693	12404.038823
663.521879	12486.653252
663.863013	12467.295221
664.204097	12445.227570
664.545129	12569.590315
664.886110	12537.485727
665.227040	12623.240795
665.567918	12631.823359
665.908746	12661.314109
666.249522	12645.424392
666.590248	12690.943491
666.930922	12801.107826
667.271545	12777.863065
667.612118	12868.752549
667.952639	12776.018003
668.293109	12777.779886
668.633528	12744.475503
668.973896	12711.040051
669.314213	12808.299032
669.654480	12541.236345
669.994695	12602.125922
670.334859	12626.867905
670.674973	12576.879823
671.015035	12609.559103
671.355047	12552.465515
671.695008	12519.435875
672.034918	12529.465251
672.374777	12576.829412
672.714585	12489.030156
673.054342	12519.705577
673.394049	12468.157258
673.733705	12562.593193
674.073310	12482.524547
674.412864	12496.770847
674.752368	12370.167310
675.091820	12377.829864
675.431223	12369.983308
675.770574	12241.411199
676.109875	12158.126297
676.449125	12129.406843
676.788324	12062.563664
677.127473	11896.296328
677.466571	11890.544371
677.805619	11790.679113
678.144616	11708.954448
678.483562	11681.409583
678.822458	11549.414532
679.161303	11525.877384
679.500098	11519.480160
679.838842	11478.117493
680.177535	11488.787095
680.516179	11548.053420
680.854771	11501.563899
681.193314	11716.173380
681.531805	11857.602951
681.870247	12260.010537
682.208638	12668.848113
682.546978	12994.481446
682.885268	13054.982854
683.223508	12738.174061
683.561697	12575.022158
683.899836	12483.220226
684.237925	12287.336111
684.575963	12201.122298
684.913951	12129.366514
685.251889	12079.330542
685.589776	12170.522494
685.927614	12105.179058
686.265401	12065.059035
686.603137	12102.507246
686.940824	12257.578180
687.278460	12372.826518
687.616046	12427.076896
687.953582	12599.265067
688.291068	12521.459898
688.628504	12747.762336
688.965889	12758.532761
689.303224	12727.123852
689.640510	12625.476546
689.977745	12325.865650
690.314930	12105.476486
690.652065	12015.176818
690.989150	11726.207797
691.326185	11501.498364
691.663170	11296.240224
692.000105	11050.796525
692.336990	10946.185021
692.673825	10695.818636
693.010610	10573.396735
693.347345	10368.166321
693.684030	10171.142905
694.020665	10115.307085
694.357251	9917.310727
694.693786	9870.523778
695.030272	9701.181338
695.366707	9580.407895
695.703093	9509.602368
696.039429	9508.687399
696.375716	9444.624416
696.711952	9305.722983
697.048139	9345.706895
697.384276	9297.788207
697.720363	9311.104415
698.056400	9249.405733
698.392388	9202.976706
698.728326	9166.125872
699.064214	9099.880069
699.400053	9152.786979
699.735842	8964.915778
700.071581	8922.439015
700.407270	8848.875978
700.742910	8772.343701
701.078501	8678.222838
701.414042	8558.457625
701.749533	8488.496492
702.084974	8352.304680
702.420366	8457.584137
702.755709	8353.920370
703.091002	8226.089311
703.426246	8246.004389
703.761440	8197.818520
704.096584	8149.468814
704.431679	8086.565296
704.766725	8073.102895
705.101721	8023.891151
705.436668	8063.491935
705.771565	7963.120041
706.106413	8033.769292
706.441212	8089.579906
706.775961	8039.339767
707.110661	8067.885301
707.445311	8219.840801
707.779913	8114.110161
708.114465	8236.917710
708.448967	8282.386397
708.783421	8416.869258
709.117825	8597.793749
709.452180	8632.736507
709.786485	8719.421668
710.120742	9003.069751
710.454949	9003.828444
710.789107	9100.565666
711.123216	9313.509046
711.457275	9476.895362
711.791286	9639.147419
712.125247	9630.224577
712.459159	9620.979101
712.793023	9878.428307
713.126837	9451.724881
713.460602	9597.683929
713.794318	9427.073639
714.127985	9464.471439
714.461602	9148.113829
714.795171	9088.260209
715.128691	8847.391358
715.462162	8599.273327
715.795584	8544.987662
716.128957	8403.474912
716.462281	8229.678613
716.795556	8278.537476
717.128782	8076.767814
717.461960	7809.516084
717.795088	7879.043677
718.128167	7793.656614
718.461198	7619.905685
718.794180	7561.065337
719.127113	7560.268835
719.459997	7412.134529
719.792833	7178.454363
720.125619	7237.970225
720.458357	7096.913699
720.791046	7085.256031
721.123686	7088.830209
721.456278	6928.897083
721.788821	6942.515760
722.121315	6838.000038
722.453761	6900.933803
722.786158	6850.555032
723.118506	6863.180601
723.450805	6831.895201
723.783056	6897.813328
724.115259	6802.603576
724.447412	6800.103164
724.779518	6848.142839
725.111574	6845.319793
725.443582	6930.583349
725.775542	6910.769094
726.107453	7096.384378
726.439315	7011.945051
726.771129	7062.182670
727.102895	7230.680717
727.434612	7343.577357
727.766281	7377.126236
728.097901	7459.332332
728.429473	7450.192720
728.760996	7426.340500
729.092471	7407.577326
729.423897	7354.567073
729.755276	7366.824638
730.086606	7288.243132
730.417887	7386.979171
730.749120	7571.414826
731.080305	7759.991788
731.411442	7883.777321
731.742530	7879.169706
732.073570	7984.885223
732.404562	8076.762772
732.735506	7918.468021
733.066401	8060.552942
733.397249	7999.958273
733.728048	7764.140658
734.058798	7433.909793
734.389501	7219.527164
734.720156	7041.947478
735.050762	6810.419885
735.381320	6707.587908
735.711831	6664.833883
736.042293	6547.811058
736.372707	6574.801396
736.703073	6441.309121
737.033391	6470.184850
737.363661	6478.432178
737.693883	6508.495099
738.024056	6589.831596
738.354182	6633.278780
738.684260	6670.059039
739.014290	6779.179855
739.344272	6893.039356
739.674207	6925.007833
740.004093	6983.301215
740.333931	7009.018662
740.663722	7011.667788
740.993464	7086.559169
741.323159	7081.623880
741.652806	6833.016857
741.982405	6838.050449
742.311956	6893.818214
742.641460	6744.796665
742.970915	6547.218722
743.300323	6540.382918
743.629683	6488.446430
743.958996	6359.823910
744.288260	6268.742863
744.617477	6217.822168
744.946647	6227.722994
745.275768	6055.590276
745.604842	6007.474983
745.933869	5988.089226
746.262847	5948.609429
746.591778	5937.773469
746.920662	5902.266102
747.249498	5884.266662
747.578286	5935.840187
747.907027	6011.749881
748.235720	6068.349436
748.564365	6044.366147
748.892963	6062.388272
749.221514	6220.037755
749.550017	6064.939096
749.878473	5937.607111
750.206881	5986.221478
750.535242	5933.801040
750.863555	5859.658270
751.191821	5885.113576
751.520039	5888.075254
751.848210	5790.914575
752.176334	5806.806813
752.504411	5860.358990
752.832440	5789.331653
753.160421	5717.044027
753.488356	5763.654536
753.816243	5799.653416
754.144082	5653.525489
754.471875	5618.192042
754.799620	5659.297610
755.127318	5675.280588
755.454969	5624.778309
755.782572	5590.695068
756.110129	5640.582327
756.437638	5626.653618
756.765100	5570.974074
757.092515	5560.919493
757.419882	5608.981854
757.747203	5589.568370
758.074477	5654.518596
758.401703	5648.449047
758.728882	5592.890491
759.056014	5642.606350
759.383099	5777.048882
759.710138	5786.715294
760.037129	5769.731647
760.364073	5775.312204
760.690970	5860.099371
761.017820	5844.227298
761.344623	5791.640502
761.671379	5890.588269
761.998088	6005.249313
762.324751	6235.471248
762.651366	6814.866183
762.977935	8095.410001
763.304456	9713.138955
763.630931	10626.545620
763.957359	10268.921125
764.283740	9333.598044
764.610074	8520.560751
764.936362	7535.473919
765.262602	6941.431912
765.588796	6405.557258
765.914943	6065.964970
766.241044	5902.550927
766.567097	5708.123706
766.893104	5447.942194
767.219064	5275.010453
767.544978	5212.061564
767.870845	5135.771263
768.196665	5030.524573
768.522438	4957.027071
768.848165	4925.519859
769.173846	4858.817832
769.499479	4819.738807
769.825066	4763.782000
770.150607	4705.591961
770.476101	4676.101211
770.801548	4679.942570
771.126949	4608.816931
771.452303	4553.732243
771.777611	4505.407742
772.102872	4525.285011
772.428087	4490.112881
772.753256	4447.247950
773.078378	4407.145571
773.403453	4335.493131
773.728482	4323.076769
774.053465	4274.855612
774.378401	4265.126185
774.703291	4266.396556
775.028135	4197.625135
775.352932	4148.985562
775.677683	4129.519146
776.002388	4156.214577
776.327046	4162.611801
776.651658	4091.448353
776.976224	4030.147922
777.300743	4031.183879
777.625216	4058.204463
777.949643	4053.077610
778.274024	4010.182432
778.598359	3958.419864
778.922647	3983.872650
779.246889	3978.801249
779.571086	3973.790342
779.895236	3961.182417
780.219339	3945.131383
780.543397	3932.818364
780.867409	3988.387003
781.191374	3998.330679
781.515294	3943.848409
781.839167	3936.447995
782.162995	3953.277887
782.486776	3941.489149
782.810511	3952.375521
783.134201	3948.027526
783.457844	3907.892379
783.781441	3847.726208
784.104993	3853.168134
784.428498	3872.059858
784.751958	3869.682954
785.075372	3850.571939
785.398739	3813.789160
785.722061	3826.714679
786.045337	3867.421996
786.368568	3901.767377
786.691752	3810.759427
787.014891	3856.810367
787.337983	3980.994151
787.661030	4140.176146
787.984031	4297.807985
788.306987	4470.449860
788.629897	4551.108322
788.952760	4507.809852
789.275579	4442.410963
789.598351	4377.435531
789.921078	4244.230602
790.243759	4046.849264
790.566395	4019.904297
790.888984	4021.625851
791.211529	3912.802463
791.534027	3853.533617
791.856480	3845.757638
792.178888	3785.377217
792.501249	3729.561562
792.823566	3743.880959
793.145836	3775.877163
793.468062	3722.599728
793.790241	3678.676155
794.112375	3705.268242
794.434464	3765.373919
794.756507	3790.521715
795.078505	3777.722225
795.400457	3806.025783
795.722364	3938.615691
796.044226	4044.197617
796.366042	4116.959112
796.687812	4099.496555
797.009538	4106.965024
797.331218	4065.738468
797.652852	4035.763767
797.974442	4018.931354
798.295986	4021.698948
798.617484	3939.946556
798.938938	3852.250644
799.260346	3888.045357
799.581709	3890.651633
799.903026	3815.135148
800.224299	3779.274901
800.545526	3773.858181
800.866708	3738.139085
801.187845	3675.906041
801.508936	3714.357442
801.829983	3711.294941
802.150984	3634.039258
802.471940	3618.383955
802.792851	3631.138074
803.113717	3629.640852
803.434538	3635.412973
803.755314	3579.892225
804.076045	3552.183523
804.396731	3571.317222
804.717372	3596.568362
805.037967	3583.317689
805.358518	3571.349990
805.679024	3595.895368
805.999485	3613.741052
806.319901	3615.800364
806.640272	3627.253865
806.960598	3645.160044
807.280879	3616.158286
807.601115	3629.061119
807.921306	3644.378665
808.241453	3685.466589
808.561554	3663.129237
808.881611	3599.020883
809.201623	3631.516161
809.521590	3643.463695
809.841513	3618.462093
810.161390	3643.587204
810.481223	3627.815954
810.801011	3571.518868
811.120755	3559.820871
811.440453	3594.703135
811.760107	3604.208230
812.079716	3558.414389
812.399281	3526.743340
812.718801	3550.880384
813.038276	3526.443391
813.357707	3517.770086
813.677093	3539.638611
813.996434	3485.380672
814.315731	3493.317969
814.634983	3497.797034
814.954191	3511.622399
815.273354	3541.836554
815.592473	3538.305226
815.911547	3542.622974
816.230577	3579.788881
816.549562	3630.351654
816.868502	3672.815814
817.187399	3698.011501
817.506250	3695.745502
817.825058	3662.297446
818.143821	3752.203904
818.462539	3857.962271
818.781213	3902.127820
819.099843	3957.971202
819.418429	4187.762117
819.736970	4427.708438
820.055466	4667.548893
820.373919	5025.324623
820.692327	5428.385038
821.010691	5850.483370
821.329011	7163.956004
821.647286	9808.633532
821.965517	14266.659469
822.283704	18283.007232
822.601847	20528.538801
822.919945	18775.406975
823.237999	16244.909061
823.556010	13788.745482
823.873976	11740.998542
824.191897	9655.974791
824.509775	8310.836148
824.827609	7191.717639
825.145398	6642.693135
825.463144	6525.912286
825.780845	6634.513863
826.098502	6810.581202
826.416116	7641.711196
826.733685	8937.396119
827.051210	10056.623013
827.368692	10153.211521
827.686129	8938.961397
828.003522	7433.713188
828.320872	6421.837664
828.638177	5731.101285
828.955439	5174.809958
829.272656	4686.170916
829.589830	4397.834560
829.906960	4224.693610
830.224046	4046.110735
830.541088	3918.854368
830.858086	3872.647152
831.175041	3799.542860
831.491952	3778.606948
831.808819	3788.958957
832.125642	3857.800954
832.442421	3998.313035
832.759157	4264.049898
833.075849	4791.417605
833.392497	5642.185413
833.709101	6408.251755
834.025662	6761.001454
834.342179	6429.096926
834.658653	5772.854642
834.975083	5132.991066
835.291469	4566.476279
835.607811	4150.772651
835.924110	4016.214172
836.240366	3823.309379
836.556578	3616.768265
836.872746	3504.952952
837.188871	3468.192858
837.504952	3404.986872
837.820990	3324.088955
838.136984	3277.405350
838.452935	3300.899648
838.768842	3296.491158
839.084706	3317.111998
839.400526	3467.298054
839.716303	3789.548772
840.032037	4294.382521
840.347727	4579.280810
840.663373	4317.372703
840.978977	3943.699695
841.294537	3637.179897
841.610054	3409.488622
841.925527	3300.186324
842.240957	3234.298443
842.556344	3183.302131
842.871687	3124.396248
843.186987	3076.495205
843.502244	3041.660832
843.817458	3006.057683
844.132629	2972.705409
844.447756	2982.823004
844.762840	2967.220633
845.077881	2938.266766
845.392879	2919.233890
845.707833	2916.325144
846.022745	2913.723909
846.337613	2914.245668
846.652438	2905.088412
846.967221	2902.971128
847.281960	2886.211812
847.596656	2886.373128
847.911309	2886.030330
848.225919	2879.426418
848.540485	2868.721528
848.855009	2874.581870
849.169490	2864.643235
849.483928	2851.735360
849.798323	2855.516226
850.112675	2849.668487
850.426984	2857.245342
850.741251	2860.983357
851.055474	2850.301152
851.369654	2844.821418
851.683792	2849.668487
851.997887	2855.301977
852.311938	2855.390197
852.625947	2846.311079
852.939914	2851.001872
853.253837	2855.231401
853.567718	2841.214472
853.881555	2837.383195
854.195350	2853.595546
854.509103	2849.852489
854.822812	2843.737570
855.136479	2839.984431
855.450103	2840.455779
855.763685	2834.771878
856.077224	2829.455981
856.390720	2844.851665
856.704173	2851.538755
857.017584	2842.840244
857.330953	2841.940398
857.644278	2851.758046
857.957561	2858.750126
858.270802	2862.692308
858.584000	2862.168028
858.897155	2851.115298
859.210268	2848.108250
859.523339	2846.099350
859.836367	2847.309227
860.149352	2842.416787
860.462295	2839.339163
860.775195	2846.626151
861.088054	2844.115656
861.400869	2827.353820
861.713642	2826.043120
862.026373	2840.806139
862.339062	2842.767148
862.651708	2851.904239
862.964312	2854.177799
863.276873	2845.111284
863.589392	2854.765094
863.901869	2865.255735
864.214303	2887.101575
864.526696	2902.991292
864.839045	2898.124058
865.151353	2899.830489
865.463619	2896.460477
865.775842	2897.360323
866.088023	2913.812129
866.400162	2924.627924
866.712258	2897.241856
867.024313	2884.961605
867.336325	2890.441340
867.648296	2915.589136
867.960224	2905.811818
868.272110	2892.036865
868.583954	2896.460477
868.895755	2911.762900
869.207515	2896.992319
869.519233	2901.799059
869.830909	2912.115781
870.142542	2920.849580
870.454134	2921.678849
870.765684	2925.978954
871.077191	2924.995929
871.388657	2933.016404
871.700081	2944.674073
872.011463	2954.080866
872.322803	2957.763429
872.634101	2959.235446
872.945357	2969.716004
873.256571	2997.094511
873.567744	2992.381032
873.878874	2981.938282
874.189963	3005.588855
874.501010	3010.443486
874.812015	2996.925632
875.122979	3000.305726
875.433900	2995.259531
875.744780	3000.996364
876.055618	3006.529030
876.366415	3003.751355
876.677169	3014.851975
876.987882	3011.219824
877.298554	3003.315295
877.609183	3025.710621
877.919771	3048.337840
878.230317	3074.065368
878.540822	3124.580251
878.851285	3163.886127
879.161707	3203.179401
879.472087	3300.118269
879.782425	3513.868233
880.092722	3939.772636
880.402977	4453.924958
880.713191	5062.152773
881.023363	6176.900602
881.333494	7444.902029
881.643583	8019.875872
881.953631	7733.392140
882.263637	7129.582897
882.573602	6555.125772
882.883526	5984.482280
883.193408	5412.432306
883.503248	4958.194098
883.813048	4656.400382
884.122806	4365.041854
884.432522	4052.825552
884.742197	3824.436077
885.051831	3632.894916
885.361424	3497.630676
885.670975	3424.818771
885.980485	3340.641584
886.289954	3267.030655
886.599382	3224.770663
886.908768	3188.761701
887.218113	3141.528610
887.527417	3089.859303
887.836680	3038.142106
888.145901	3035.918957
888.455082	3026.650796
888.764221	2975.551140
889.073319	2947.723971
889.382376	2940.189966
889.691392	2947.963426
890.000366	2946.269598
890.309300	2935.000098
890.618193	2946.120884
890.927044	2962.040848
891.235855	2965.390694
891.544625	2947.726491
891.853353	2960.462967
892.162041	2977.176912
892.470687	3014.095802
892.779293	3068.961200
893.087858	3112.718416
893.396381	3178.815504
893.704864	3293.143832
894.013306	3524.545397
894.321707	3820.655212
894.630068	4028.229763
894.938387	4030.379815
895.246665	3981.536075
895.554903	3868.016852
895.863100	3671.759692
896.171256	3509.716843
896.479371	3373.199876
896.787446	3251.148500
897.095480	3153.355157
897.403473	3087.522729
897.711425	3050.465207
898.019336	3039.939278
898.327207	3018.050587
898.635038	2981.585401
898.942827	2968.191055
899.250576	2956.089766
899.558284	2925.580703
899.865952	2902.998854
900.173579	2882.466234
900.481165	2878.970194
900.788711	2866.168184
901.096216	2838.966118
901.403681	2827.436999
901.711105	2836.984944
902.018489	2835.591065
902.325832	2836.611899
902.633135	2843.203207
902.940397	2873.651777
903.247619	2951.164558
903.554800	3135.963176
903.861941	3465.357209
904.169041	3882.313565
904.476101	4183.426725
904.783121	4154.581243
905.090100	3914.299686
905.397039	3644.227430
905.703938	3400.507806
906.010796	3217.234138
906.317614	3110.913682
906.624391	3017.201153
906.931129	2945.160544
907.237826	2886.902450
907.544483	2841.753876
907.851099	2811.128866
908.157675	2790.250927
908.464211	2770.804677
908.770707	2757.337234
909.077163	2742.317116
909.383578	2730.578789
909.689954	2719.707541
909.996289	2717.895246
910.302584	2718.537993
910.608839	2720.347768
910.915054	2716.771069
911.221229	2707.455017
911.527363	2709.214379
911.833458	2718.522870
912.139513	2720.022613
912.445527	2722.825495
912.751502	2733.374109
913.057436	2742.488515
913.363331	2750.642582
913.669186	2771.029008
913.975000	2803.993113
914.280775	2864.615508
914.586510	2932.597989
914.892205	3008.265708
915.197859	3127.728451
915.503475	3317.449756
915.809050	3524.605891
916.114585	3668.616533
916.420081	3695.838763
916.725536	3636.237201
917.030952	3523.980788
917.336328	3399.824730
917.641665	3268.643825
917.946961	3169.597754
918.252218	3103.528392
918.557435	3028.526105
918.862612	2970.620892
919.167750	2920.854621
919.472848	2882.123436
919.777906	2856.098479
920.082925	2831.207782
920.387904	2802.571507
920.692843	2786.323869
920.997743	2772.254008
921.302603	2761.135743
921.607423	2751.471852
921.912204	2740.804770
922.216946	2729.754561
922.521647	2721.456822
922.826310	2710.691437
923.130932	2706.892928
923.435516	2698.927905
923.740059	2689.626976
924.044564	2681.200688
924.349028	2677.792867
924.653454	2672.245078
924.957840	2665.144612
925.262186	2660.103459
925.566493	2655.909219
925.870761	2653.837304
926.174989	2646.618372
926.479178	2644.460758
926.783328	2638.907927
927.087438	2635.492546
927.391509	2637.501445
927.695541	2633.218985
927.999533	2631.973820
928.303486	2627.295629
928.607400	2627.093983
928.911275	2630.065743
929.215110	2627.015845
929.518906	2623.066101
929.822663	2625.750516
930.126381	2623.305556
930.430060	2626.242028
930.733699	2625.450567
931.037299	2626.287399
931.340861	2628.356792
931.644383	2632.293933
931.947866	2626.219343
932.251309	2625.198509
932.554714	2623.870165
932.858080	2620.795062
933.161407	2622.181379
933.464694	2619.819598
933.767943	2615.774072
934.071153	2619.189454
934.374323	2616.769700
934.677455	2621.551235
934.980548	2616.557972
935.283602	2616.046295
935.586617	2616.421861
935.889593	2615.786675
936.192530	2616.202570
936.495428	2616.439505
936.798287	2617.472941
937.101108	2623.512243
937.403890	2627.603140
937.706632	2630.900054
938.009336	2636.092443
938.312002	2645.751294
938.614628	2653.066008
938.917216	2661.152019
939.219765	2659.697646
939.522275	2659.067502
939.824747	2658.969199
940.127179	2654.709424
940.429573	2650.759680
940.731929	2647.228352
941.034246	2645.345481
941.336524	2641.897332
941.638763	2639.961528
941.940964	2643.366828
942.243126	2638.003040
942.545250	2638.020684
942.847335	2633.029942
943.149381	2629.675054
943.451389	2625.632049
943.753359	2625.221195
944.055290	2622.335134
944.357182	2620.162397
944.659036	2621.689866
944.960851	2620.805144
945.262628	2616.081583
945.564367	2620.043930
945.866067	2618.448404
946.167729	2620.066615
946.469352	2621.919239
946.770937	2619.809516
947.072484	2618.713065
947.373992	2614.816253
947.675462	2613.392127
947.976893	2611.373145
948.278286	2612.036057
948.579641	2612.610748
948.880958	2609.470109
949.182236	2612.346088
949.483476	2610.165789
949.784678	2609.638988
950.085841	2609.147476
950.386967	2609.956581
950.688054	2611.680655
950.989103	2613.964298
951.290114	2613.417333
951.591087	2612.968670
951.892021	2616.356326
952.192917	2618.670215
952.493776	2620.036368
952.794596	2622.970319
953.095378	2622.004938
953.396122	2621.263889
953.696828	2620.671553
953.997496	2618.057715
954.298126	2614.256685
954.598718	2614.065121
954.899272	2610.564040
955.199788	2609.502877
955.500266	2606.213524
955.800706	2604.237392
956.101108	2600.227154
956.401472	2601.202617
956.701798	2600.582555
957.002087	2596.327821
957.302337	2595.906885
957.602550	2595.490990
957.902724	2591.130392
958.202861	2590.938828
958.502960	2593.751792
958.803022	2591.032089
959.103045	2590.079311
959.403031	2589.887747
959.702979	2588.070411
960.002889	2587.757860
960.302762	2587.649475
960.602596	2587.316759
960.902393	2589.101327
961.202153	2587.833477
961.501875	2586.336254
961.801559	2583.782910
962.101205	2586.961357
962.400814	2585.522108
962.700385	2584.292067
962.999918	2581.131263
963.299414	2578.585480
963.598873	2581.148907
963.898293	2580.196129
964.197677	2582.709144
964.497022	2582.951120
964.796331	2584.092941
965.095601	2583.485482
965.394835	2581.774010
965.694030	2583.427509
965.993189	2581.980697
966.292309	2582.454566
966.591393	2579.918866
966.890439	2582.779720
967.189447	2581.476582
967.488419	2581.960533
967.787353	2580.412899
968.086249	2582.454566
968.385108	2583.762745
968.683930	2581.741243
968.982714	2582.147056
969.281462	2579.578588
969.580172	2584.037488
969.878844	2581.363156
970.177480	2582.026068
970.476078	2581.642940
970.774639	2583.626634
971.073162	2583.397262
971.371649	2582.310893
971.670098	2582.583115
971.968510	2581.980697
972.266885	2583.238465
972.565223	2584.148394
972.863524	2581.756366
973.161788	2584.574371
973.460014	2583.941706
973.758204	2583.762745
974.056356	2582.003383
974.354471	2581.204360
974.652550	2584.055132
974.950591	2583.276274
975.248595	2580.271746
975.546563	2582.245358
975.844493	2582.734350
976.142386	2581.925245
976.440243	2581.995821
976.738062	2584.334916
977.035845	2581.443815
977.333590	2582.230235
977.631299	2579.134966
977.928971	2577.186560
978.226606	2577.864595
978.524204	2580.722930
978.821765	2575.636405
979.119290	2585.580081
979.416777	2579.092116
979.714228	2580.969946
980.011642	2578.842579
980.309020	2579.951633
980.606360	2580.304514
980.903664	2580.702765
981.200931	2579.623958
981.498162	2580.473392
981.795356	2583.046902
982.092513	2584.095462
982.389633	2584.859196
982.686717	2589.867583
982.983764	2593.091401
983.280775	2599.695312
983.577749	2600.285127
983.874686	2599.050044
984.171587	2593.827409
984.468451	2592.481421
984.765279	2591.384970
985.062070	2589.353385
985.358824	2586.124526
985.655543	2586.457242
985.952224	2585.091089
986.248869	2582.457087
986.545478	2581.234607
986.842050	2578.910635
987.138586	2580.531366
987.435086	2578.272929
987.731549	2579.558423
988.027975	2578.708989
988.324366	2577.173957
988.620719	2578.086406
988.917037	2577.385686
989.213318	2578.303176
989.509563	2577.463824
989.805772	2577.305027
990.101944	2580.065059
990.398080	2578.751838
990.694180	2577.829307
990.990244	2578.988773
991.286271	2574.706312
991.582262	2575.175140
991.878217	2579.936510
992.174136	2580.075141
992.470019	2578.542631
992.765865	2572.876374
993.061676	2571.104408
993.357450	2576.563978
993.653188	2572.581466
993.948890	2577.584811
994.244556	2579.525656
994.540186	2577.196642
994.835780	2577.804102
995.131337	2578.358628
995.426859	2580.518763
995.722345	2579.931468
996.017795	2580.312076
996.313208	2580.032292
996.608586	2581.834504
996.903928	2581.768969
997.199234	2582.436922
997.494504	2579.525656
997.789738	2581.768969
998.084936	2581.043043
998.380099	2582.804926
998.675225	2578.076324
998.970316	2577.647826
999.265371	2576.974832
999.560390	2577.665470
999.855373	2579.661767
1000.150320	2577.806622
1000.445232	2579.036664
1000.740108	2578.139338
1001.034948	2575.044070
1001.329752	2576.284194
1001.624521	2578.441807
1001.919254	2573.700602
1002.213951	2576.538772
1002.508613	2573.904769
1002.803239	2575.210428
1003.097829	2574.766806
1003.392384	2573.705643
1003.686903	2575.994327
1003.981386	2575.470047
1004.275834	2573.181363
1004.570246	2574.892835
1004.864623	2573.284707
1005.158964	2575.139852
1005.453270	2575.281004
1005.747540	2571.984089
1006.041775	2574.151786
1006.335974	2574.539954
1006.630138	2574.149265
1006.924266	2577.123546
1007.218359	2572.757907
1007.512416	2573.372927
1007.806438	2571.820252
1008.100425	2572.193297
1008.394376	2571.469892
1008.688292	2574.429049
1008.982172	2574.784450
1009.276017	2575.487691
1009.569827	2575.608679
1009.863602	2574.721436
1010.157341	2573.733370
1010.451045	2575.069276
1010.744714	2573.408215
1011.038347	2576.087589
1011.331945	2573.985427
1011.625508	2574.353432
1011.919036	2573.604820
1012.212528	2575.217990
1012.505986	2573.801425
1012.799408	2574.280335
1013.092795	2574.378637
1013.386147	2573.960222
1013.679464	2574.328226
1013.972745	2572.999882
1014.265992	2575.369224
1014.559204	2574.643298
1014.852380	2575.412074
1015.145521	2576.445511
1015.438628	2572.959553
1015.731699	2576.367373
1016.024736	2573.519121
1016.317737	2572.543657
1016.610703	2577.098340
1016.903635	2573.735890
1017.196531	2573.365366
1017.489393	2573.710685
1017.782219	2573.761096
1018.075011	2572.210941
1018.367768	2572.195818
1018.660490	2571.394274
1018.953177	2571.394274
1019.245829	2571.394274
