Dividing Wavelength (nm)	Counts (n)	Blue Motor Position (mm): 16.900000	Red Motor Position (mm): 0.000000	
326.493990	2133.411267
326.888308	2133.411267
327.282561	2133.411267
327.676750	2101.732656
328.070874	2102.052769
328.464933	2103.754158
328.858929	2109.748090
329.252859	2117.927363
329.646726	2130.449589
330.040528	2144.070786
330.434265	2160.000833
330.827938	2179.507577
331.221547	2198.159847
331.615091	2214.599049
332.008571	2233.891545
332.401986	2253.383166
332.795338	2274.435025
333.188625	2294.150978
333.581847	2313.733340
333.975006	2330.079281
334.368100	2351.065604
334.761129	2366.839375
335.154095	2381.617517
335.546996	2405.217679
335.939833	2421.614032
336.332606	2436.253543
336.725315	2451.190482
337.117960	2458.505196
337.510540	2466.258490
337.903056	2479.799030
338.295508	2484.847745
338.687896	2493.160608
339.080220	2502.448934
339.472480	2510.355984
339.864676	2511.636437
340.256807	2517.433764
340.648875	2520.481141
341.040879	2522.369053
341.432818	2525.560104
341.824694	2527.647141
342.216506	2524.682943
342.608253	2528.239477
342.999937	2526.464991
343.391557	2528.216792
343.783113	2526.921215
344.174605	2527.140505
344.566033	2523.715041
344.957397	2521.232273
345.348697	2519.334279
345.739934	2518.242869
346.131106	2518.036182
346.522215	2516.266737
346.913260	2514.000738
347.304241	2511.984276
347.695159	2510.303052
348.086012	2506.083606
348.476802	2507.288442
348.867528	2504.039418
349.258191	2502.542195
349.648789	2504.677124
350.039324	2499.262925
350.429796	2499.809890
350.820203	2497.387615
351.210548	2498.736124
351.600828	2496.911226
351.991045	2494.236894
352.381198	2493.730258
352.771288	2495.073726
353.161314	2494.907368
353.551276	2495.514827
353.941175	2493.362254
354.331010	2489.677171
354.720782	2491.907881
355.110490	2493.120279
355.500135	2494.148674
355.889717	2495.671103
356.279235	2492.532984
356.668689	2494.562049
357.058080	2495.756802
357.447408	2491.280257
357.836672	2490.261944
358.225873	2494.771257
358.615010	2489.687253
359.004084	2496.636483
359.393095	2496.858294
359.782043	2496.704539
360.170927	2498.184118
360.559748	2497.629591
360.948505	2499.303254
361.337199	2499.688902
361.725830	2496.843171
362.114398	2500.800477
362.502903	2500.162771
362.891344	2500.303923
363.279722	2500.908861
363.668037	2503.416835
364.056289	2501.939777
364.444478	2502.451454
364.832603	2504.649397
365.220665	2504.430107
365.608665	2503.547905
365.996601	2505.395488
366.384474	2503.850375
366.772284	2506.575118
367.160031	2507.404388
367.547715	2506.010509
367.935336	2508.901611
368.322893	2508.095026
368.710388	2510.282887
369.097820	2510.398833
369.485189	2505.087978
369.872495	2506.010509
370.259738	2507.994203
370.646918	2508.699965
371.034035	2507.580828
371.421090	2510.093844
371.808081	2506.217196
372.195010	2509.735922
372.581875	2505.380365
372.968678	2510.126611
373.355418	2510.184584
373.742096	2511.059225
374.128710	2507.457320
374.515262	2509.642660
374.901751	2509.224245
375.288177	2510.779441
375.674540	2510.245078
376.060841	2512.523680
376.447079	2511.848165
376.833254	2512.027126
377.219367	2508.747856
377.605417	2510.660973
377.991404	2506.323061
378.377329	2511.268432
378.763191	2507.066631
379.148991	2514.278001
379.534727	2514.056191
379.920402	2511.510408
380.306013	2512.947137
380.691563	2515.860924
381.077049	2515.344205
381.462474	2516.118022
381.847835	2513.685666
382.233134	2514.398989
382.618371	2513.400841
383.003545	2516.435615
383.388657	2514.819925
383.773706	2513.741118
384.158693	2518.694052
384.543618	2515.623989
384.928480	2517.839577
385.313280	2515.825636
385.698017	2516.296983
386.082692	2518.134484
386.467305	2518.855369
386.851856	2518.716737
387.236344	2515.596263
387.620770	2516.972498
388.005133	2516.695235
388.389435	2521.149094
388.773674	2517.693383
389.157851	2517.229597
389.541965	2516.748167
389.926018	2519.977026
390.310008	2518.779752
390.693936	2519.722447
391.077802	2517.945441
391.461606	2519.843435
391.845348	2521.007942
392.229027	2519.001562
392.612645	2519.931655
392.996200	2520.665143
393.379694	2520.501306
393.763125	2519.493075
394.146494	2521.073477
394.529801	2522.540453
394.913047	2520.687828
395.296230	2521.015503
395.679351	2524.330062
396.062410	2524.244362
396.445408	2521.907788
396.828343	2522.600946
397.211217	2518.016017
397.594028	2520.818898
397.976778	2517.658095
398.359466	2523.011800
398.742092	2520.740761
399.124656	2524.700587
399.507158	2521.912829
399.889598	2523.037006
400.271977	2520.592047
400.654294	2524.935001
401.036549	2524.098169
401.418742	2527.271575
401.800874	2522.358971
402.182944	2525.572707
402.564952	2524.428365
402.946898	2525.550021
403.328783	2524.478776
403.710606	2524.647655
404.092367	2524.428365
404.474067	2527.193438
404.855705	2525.038344
405.237282	2527.034641
405.618797	2527.692512
406.000250	2524.418282
406.381642	2527.621936
406.762972	2528.516740
407.144240	2524.874507
407.525447	2527.074970
407.906593	2529.535053
408.287677	2526.286030
408.668700	2526.253262
409.049661	2527.768129
409.430560	2526.225536
409.811399	2529.852646
410.192176	2531.072605
410.572891	2528.993129
410.953545	2529.403983
411.334138	2529.353572
411.714669	2528.824251
412.095139	2528.105886
412.475547	2529.426669
412.855894	2528.625125
413.236180	2528.877183
413.616405	2530.170239
413.996568	2528.184024
414.376670	2532.000178
414.756711	2529.527492
415.136691	2529.371216
415.516609	2530.455064
415.896466	2529.729138
416.276262	2531.460774
416.655997	2527.261493
417.035670	2525.970958
417.415283	2530.107224
417.794834	2525.028262
418.174324	2526.989271
418.553753	2531.508665
418.933121	2532.277441
419.312428	2530.276103
419.691674	2532.983203
420.070859	2530.797862
420.449983	2530.238294
420.829045	2531.972451
421.208047	2532.900024
421.586988	2532.736186
421.965867	2533.958666
422.344686	2532.975641
422.723444	2529.477080
423.102141	2531.906916
423.480777	2531.801052
423.859352	2534.044366
424.237866	2534.712318
424.616319	2533.283151
424.994712	2536.282638
425.373044	2533.021011
425.751314	2533.167205
426.129524	2533.542771
426.507673	2532.015301
426.885762	2533.996475
427.263789	2534.873635
427.641756	2535.115611
428.019662	2533.424304
428.397508	2535.425642
428.775292	2536.328008
429.153016	2534.397246
429.530679	2537.187525
429.908282	2533.434386
430.285824	2535.539068
430.663305	2536.582587
431.040726	2535.138296
431.418086	2533.961187
431.795385	2534.374561
432.172624	2536.179294
432.549802	2537.089223
432.926920	2536.794315
433.303977	2537.474871
433.680974	2535.455889
434.057910	2536.839685
434.434786	2537.023687
434.811601	2534.780374
435.188355	2536.030580
435.565050	2537.938657
435.941683	2535.226516
436.318257	2535.702905
436.694770	2534.805580
437.071222	2537.719367
437.447614	2535.619726
437.823946	2534.634181
438.200218	2537.177443
438.576429	2537.341280
438.952580	2537.086702
439.328670	2537.263142
439.704700	2537.227854
440.080670	2537.908410
440.456580	2538.692309
440.832429	2538.062165
441.208218	2537.646270
441.583947	2541.482588
441.959616	2537.994110
442.335224	2537.328677
442.710773	2537.618544
443.086261	2538.528472
443.461689	2539.045190
443.837057	2539.398071
444.212365	2536.312885
444.587612	2539.592155
444.962800	2538.364634
445.337927	2540.739018
445.712995	2538.657021
446.088002	2539.214069
446.462949	2540.532331
446.837837	2540.774306
447.212664	2539.382947
447.587431	2540.106353
447.962139	2540.028215
448.336786	2543.418391
448.711374	2542.236241
449.085901	2543.083154
449.460369	2539.960160
449.834776	2540.204656
450.209124	2542.841179
450.583412	2542.430325
450.957640	2540.517207
451.331808	2541.482588
451.705917	2538.626774
452.079965	2540.434028
452.453954	2543.637681
452.827883	2542.382434
453.201752	2540.575180
453.575562	2542.747918
453.949311	2539.478729
454.323001	2542.639533
454.696632	2540.837320
455.070202	2542.758000
455.443713	2543.118442
455.817164	2539.025026
456.190556	2539.647608
456.563888	2540.980993
456.937160	2537.910931
457.310373	2541.991745
457.683526	2543.196580
458.056619	2543.236910
458.429653	2542.994934
458.802628	2544.950902
459.175542	2544.093906
459.548398	2544.570295
459.921194	2545.719678
460.293930	2545.175233
460.666607	2543.042825
461.039224	2547.496685
461.411782	2542.364790
461.784280	2545.855789
462.156719	2545.434853
462.529099	2544.484595
462.901419	2544.033412
463.273680	2546.879143
463.645882	2543.196580
464.018024	2547.090872
464.390106	2545.223124
464.762130	2546.075079
465.134094	2546.266643
465.505999	2546.564071
465.877845	2546.349822
466.249631	2549.298897
466.621358	2546.170861
466.993026	2548.797302
467.364634	2549.316541
467.736184	2547.378217
468.107674	2546.430481
468.479105	2545.361756
468.850477	2547.400903
469.221790	2548.572971
469.593043	2545.507949
469.964238	2548.852755
470.335373	2543.806560
470.706449	2546.561551
471.077467	2548.537683
471.448425	2548.109185
471.819324	2547.620193
472.190164	2547.852086
472.560945	2547.564740
472.931667	2546.559030
473.302330	2549.792930
473.672934	2544.698844
474.043479	2547.791592
474.413965	2548.336037
474.784393	2543.236910
475.154761	2544.040974
475.525070	2546.440563
475.895321	2544.802188
476.265513	2544.121632
476.635645	2549.087169
477.005719	2547.625234
477.375734	2550.470965
477.745691	2548.671273
478.115588	2548.676315
478.485427	2547.882333
478.855207	2549.029195
479.224928	2549.324103
479.594591	2548.976263
479.964194	2552.270657
480.333739	2550.828887
480.703226	2550.556665
481.072653	2551.758980
481.442022	2549.704710
481.811333	2550.307128
482.180584	2551.017931
482.549777	2551.983312
482.918912	2553.213353
483.287988	2548.686397
483.657005	2553.450287
484.025964	2553.115051
484.394864	2549.785368
484.763706	2552.835267
485.132489	2551.811912
485.501213	2553.906512
485.869879	2552.580688
486.238487	2551.325441
486.607036	2549.465255
486.975527	2550.803682
487.343959	2551.345606
487.712333	2553.974567
488.080648	2551.529608
488.448905	2550.533980
488.817104	2553.387273
489.185244	2551.295194
489.553326	2551.675801
489.921350	2554.365257
490.289315	2555.688560
490.657222	2551.393497
491.025070	2556.855587
491.392861	2556.023796
491.760593	2555.653272
492.128267	2555.605381
492.495883	2554.634958
492.863440	2555.925494
493.230939	2554.944989
493.598380	2556.376677
493.965763	2549.263609
494.333088	2550.982642
494.700354	2550.697817
495.067563	2552.515153
495.434713	2552.769732
495.801805	2555.192006
496.168839	2556.258210
496.535815	2555.013045
496.902733	2554.748384
497.269593	2555.625545
497.636395	2555.247459
498.003139	2556.782490
498.369825	2559.129147
498.736453	2556.293498
499.103023	2553.838456
499.469535	2558.670402
499.835989	2557.962120
500.202385	2555.557490
500.568723	2558.700649
500.935003	2559.338355
501.301226	2557.251317
501.667390	2561.826164
502.033497	2561.327090
502.399546	2559.358520
502.765537	2559.038406
503.131470	2558.365412
503.497345	2562.224416
503.863163	2561.609395
504.228923	2560.404559
504.594625	2559.045968
504.960269	2561.168294
505.325856	2558.957748
505.691385	2558.917419
506.056856	2563.298181
506.422270	2562.085784
506.787625	2562.421021
507.152924	2560.517985
507.518164	2563.451937
507.883347	2561.742985
508.248472	2563.729200
508.613540	2562.524364
508.978550	2565.831361
509.343503	2565.170970
509.708398	2568.372103
510.073236	2566.655590
510.438016	2564.591237
510.802738	2567.278172
511.167403	2567.426886
511.532010	2567.900755
511.896561	2569.667679
512.261053	2572.442834
512.625488	2567.341187
512.989866	2565.465877
513.354186	2567.983934
513.718449	2569.816393
514.082655	2569.629871
514.446803	2575.512897
514.810894	2579.402147
515.174927	2577.010120
515.538904	2579.392065
515.902822	2580.685121
516.266684	2581.474062
516.630488	2582.663774
516.994235	2586.837849
517.357925	2584.891964
517.721558	2588.375401
518.085133	2592.002511
518.448651	2591.294229
518.812112	2595.871597
519.175516	2596.683223
519.538863	2597.905702
519.902152	2602.162957
520.265385	2605.248143
520.628560	2608.671087
520.991678	2609.248299
521.354739	2615.181737
521.717743	2617.442694
522.080690	2619.383538
522.443580	2624.699435
522.806413	2630.416104
523.169189	2631.220168
523.531908	2637.982876
523.894569	2637.509007
524.257174	2642.978659
524.619722	2646.625934
524.982213	2654.331337
525.344647	2661.557832
525.707025	2665.172339
526.069345	2674.480829
526.431608	2678.445697
526.793815	2682.317303
527.155964	2686.105730
527.518057	2694.181659
527.880093	2698.605271
528.242072	2707.044163
528.603995	2715.611604
528.965860	2718.888354
529.327669	2729.378995
529.689421	2738.264028
530.051117	2741.770151
530.412755	2752.293560
530.774337	2756.329003
531.135862	2769.015067
531.497331	2772.034718
531.858743	2779.147786
532.220098	2796.748975
532.581396	2800.635704
532.942638	2809.314051
533.303824	2819.187151
533.664953	2833.970334
534.026025	2840.211283
534.387040	2859.317256
534.747999	2867.695653
535.108902	2883.781975
535.469748	2886.340361
535.830537	2902.162022
536.191270	2916.506626
536.551947	2931.753595
536.912567	2947.343364
537.273131	2959.568162
537.633638	2972.019812
537.994089	2987.836432
538.354483	3001.288751
538.714821	3021.206350
539.075103	3036.949873
539.435328	3054.475445
539.795497	3061.898544
540.155609	3094.328286
540.515665	3113.237654
540.875665	3117.968777
541.235609	3146.733601
541.595496	3161.516785
541.955328	3192.885365
542.315102	3203.025646
542.674821	3222.124057
543.034483	3239.395050
543.394090	3260.731734
543.753640	3279.487347
544.113134	3322.279181
544.472571	3329.775377
544.831953	3369.968496
545.191278	3372.849516
545.550548	3398.249369
545.909761	3431.279009
546.268918	3463.393680
546.628019	3491.866117
546.987064	3507.460926
547.346053	3521.324099
547.704986	3568.315215
548.063863	3590.113164
548.422684	3610.033284
548.781449	3638.399856
549.140158	3677.690609
549.498811	3697.454453
549.857408	3698.508054
550.215949	3766.661934
550.574434	3776.744241
550.932864	3826.533197
551.291237	3853.644523
551.649555	3897.008528
552.007817	3919.792023
552.366022	3943.215744
552.724173	3983.875171
553.082267	4006.903161
553.440305	4079.987289
553.798288	4065.680495
554.156215	4138.676402
554.514086	4167.332841
554.871902	4173.717463
555.229661	4215.032239
555.587365	4250.171602
555.945014	4260.810957
556.302606	4330.235207
556.660143	4334.507585
557.017625	4422.243827
557.375050	4432.860497
557.732421	4499.993542
558.089735	4527.692162
558.446994	4556.963622
558.804197	4605.154532
559.161345	4649.685565
559.518437	4636.598729
559.875474	4713.395667
560.232455	4758.461062
560.589381	4776.894041
560.946251	4836.901416
561.303065	4884.797418
561.659825	4916.644908
562.016528	4934.546045
562.373177	4928.042957
562.729770	5017.525958
563.086307	5024.545765
563.442789	5091.547741
563.799216	5112.816369
564.155587	5160.520808
564.511904	5186.346639
564.868164	5224.833328
565.224370	5258.611579
565.580520	5298.040964
565.936615	5315.006967
566.292654	5330.884081
566.648638	5403.907715
567.004567	5436.231594
567.360441	5465.518177
567.716260	5485.251774
568.072023	5558.257764
568.427732	5585.442186
568.783385	5572.882151
569.138982	5661.825749
569.494525	5703.188416
569.850013	5694.343712
570.205445	5779.135919
570.560823	5767.531183
570.916145	5785.419718
571.271412	5853.984451
571.626625	5872.785434
571.981782	5905.620990
572.336884	5937.269354
572.691931	5962.205421
573.046923	5994.869578
573.401860	6013.363051
573.756743	6029.283014
574.111570	6085.244863
574.466342	6111.781497
574.821059	6169.066649
575.175722	6157.744217
575.530330	6206.643410
575.884882	6229.570577
576.239380	6241.634058
576.593823	6266.491988
576.948211	6318.246994
577.302544	6276.912053
577.656823	6341.867320
578.011047	6373.059460
578.365216	6398.789509
578.719330	6387.215020
579.073389	6440.873061
579.427394	6439.080931
579.781344	6460.122707
580.135239	6469.529500
580.489080	6506.445870
580.842866	6489.457182
581.196597	6528.639550
581.550273	6579.456901
581.903895	6608.889678
582.257463	6670.101888
582.610975	6645.075080
582.964434	6683.806265
583.317837	6682.495565
583.671186	6693.271032
584.024481	6728.609520
584.377721	6706.221756
584.730906	6725.864612
585.084037	6778.032992
585.437113	6761.558502
585.790135	6816.255021
586.143103	6776.003928
586.496016	6788.274096
586.848874	6857.652976
587.201679	6877.492437
587.554428	6840.278639
587.907124	6892.666310
588.259765	6901.571508
588.612352	6938.150121
588.964884	6870.071859
589.317362	6912.581388
589.669786	6941.615914
590.022155	6992.592062
590.374470	7042.983436
590.726731	7020.305805
591.078937	6950.195958
591.431090	7060.178811
591.783188	6983.220557
592.135232	7015.211719
592.487222	7024.679006
592.839157	7094.975376
593.191038	7075.874444
593.542866	7054.951135
593.894639	7008.012951
594.246358	7071.591984
594.598022	7110.154290
594.949633	7056.042545
595.301190	7063.760551
595.652692	7101.627178
596.004141	7217.719910
596.355535	7060.914820
596.706876	7070.984525
597.058162	7044.367232
597.409395	7118.268027
597.760573	7191.785694
598.111698	7143.917418
598.462768	7148.338510
598.813785	7139.695452
599.164748	7146.561503
599.515657	7148.686349
599.866511	7101.463341
600.217312	7217.288892
600.568060	7122.981506
600.918753	7225.246353
601.269392	7217.999694
601.619978	7164.455079
601.970510	7235.111891
602.320988	7246.071359
602.671412	7316.299674
603.021783	7273.248220
603.372100	7272.179495
603.722363	7294.138761
604.072572	7279.554703
604.422728	7308.904301
604.772830	7262.606344
605.122878	7287.360930
605.472872	7297.675131
605.822813	7334.795667
606.172701	7298.718650
606.522534	7383.087400
606.872314	7394.669451
607.222041	7382.220322
607.571714	7446.812626
607.921333	7423.956035
608.270899	7439.664270
608.620411	7530.921758
608.969870	7458.371992
609.319276	7467.123435
609.668627	7488.417269
610.017926	7534.848816
610.367171	7589.714214
610.716362	7583.735406
611.065500	7579.556289
611.414585	7619.719162
611.763616	7613.110209
612.112594	7608.331195
612.461518	7637.191801
612.810389	7702.925927
613.159207	7660.867580
613.507971	7615.741692
613.856682	7740.419508
614.205340	7705.544806
614.553945	7793.018908
614.902496	7703.820732
615.250994	7765.912623
615.599439	7750.428719
615.947830	7775.304293
616.296169	7756.246211
616.644454	7773.630630
616.992686	7783.985160
617.340864	7839.289138
617.688990	7757.193948
618.037063	7848.784152
618.385082	7811.182185
618.733048	7893.688229
619.080961	7843.143100
619.428821	7872.371710
619.776628	7877.659881
620.124382	7837.673448
620.472083	7830.562901
620.819731	7867.660752
621.167326	7776.887215
621.514868	7785.580685
621.862357	7690.287754
622.209793	7708.635033
622.557176	7660.885224
622.904506	7633.461347
623.251783	7577.113850
623.599007	7540.053808
623.946179	7550.002525
624.293297	7519.372474
624.640363	7441.322810
624.987376	7432.894000
625.334336	7392.773978
625.681243	7341.780186
626.028097	7334.195770
626.374899	7326.152609
626.721647	7312.299518
627.068343	7253.665858
627.414987	7233.171047
627.761577	7192.254522
628.108115	7226.824234
628.454600	7129.529965
628.801032	7187.919129
629.147412	7144.217367
629.493739	7133.898125
629.840014	7082.372491
630.186236	7137.782334
630.532405	7026.312340
630.878521	7080.101451
631.224585	7037.329782
631.570597	6967.114070
631.916556	7009.679053
632.262462	6996.642629
632.608316	6966.488967
632.954117	6946.175638
633.299866	6927.034377
633.645562	6927.001609
633.991206	6855.976793
634.336797	6809.081459
634.682336	6761.117401
635.027823	6737.439101
635.373257	6720.992337
635.718639	6659.517986
636.063968	6678.394587
636.409245	6578.599905
636.754470	6575.310552
637.099642	6538.782351
637.444762	6487.864177
637.789829	6494.853737
638.134845	6437.268636
638.479808	6423.894455
638.824719	6430.452996
639.169577	6362.707450
639.514383	6384.029011
639.859137	6310.269368
640.203839	6322.514331
640.548489	6312.300953
640.893086	6288.531913
641.237632	6261.763386
641.582125	6283.175687
641.926566	6252.588486
642.270955	6268.236227
642.615292	6268.074910
642.959576	6278.439523
643.303809	6269.189005
643.647990	6281.920439
643.992118	6273.393328
644.336195	6214.744544
644.680219	6243.895016
645.024192	6236.582822
645.368112	6331.669066
645.711981	6347.100038
646.055797	6426.485608
646.399562	6384.092025
646.743274	6510.430902
647.086935	6564.262863
647.430544	6557.505197
647.774101	6583.520071
648.117606	6588.089877
648.461059	6580.752478
648.804460	6543.896602
649.147810	6447.804648
649.491108	6421.366317
649.834354	6400.011989
650.177548	6313.084852
650.520690	6231.718109
650.863781	6211.659358
651.206820	6233.394292
651.549807	6157.129197
651.892742	6100.164158
652.235626	6102.135249
652.578458	6090.212920
652.921238	6001.337378
653.263967	6035.508839
653.606644	5980.837526
653.949269	5987.080995
654.291843	5926.761069
654.634365	5976.991126
654.976836	5929.846255
655.319255	5926.695534
655.661622	5905.895733
656.003938	5904.524539
656.346203	5863.855030
656.688416	5897.842490
657.030577	5849.558318
657.372687	5819.301313
657.714746	5807.873017
658.056753	5852.068813
658.398708	5793.137724
658.740612	5781.270848
659.082465	5835.135577
659.424266	5822.023536
659.766016	5822.126879
660.107715	5797.578981
660.449362	5811.326207
660.790958	5800.107119
661.132503	5791.446417
661.473996	5832.383107
661.815438	5818.686292
662.156829	5813.821578
662.498168	5808.515764
662.839456	5786.775788
663.180693	5824.332384
663.521879	5821.771478
663.863013	5807.169776
664.204097	5833.494681
664.545129	5869.347368
664.886110	5864.591039
665.227040	5897.590432
665.567918	5863.653384
665.908746	5893.819649
666.249522	5892.750924
666.590248	5886.706581
666.930922	5908.590230
667.271545	5923.867446
667.612118	5930.751142
667.952639	5901.608232
668.293109	5917.906282
668.633528	5880.160643
668.973896	5885.456375
669.314213	5879.359099
669.654480	5858.902097
669.994695	5852.545202
670.334859	5837.620866
670.674973	5834.742367
671.015035	5836.529456
671.355047	5834.497871
671.695008	5820.967414
672.034918	5793.029339
672.374777	5809.221526
672.714585	5791.854751
673.054342	5794.385410
673.394049	5792.406757
673.733705	5819.008926
674.073310	5808.825795
674.412864	5766.585967
674.752368	5759.903918
675.091820	5763.747797
675.431223	5697.083579
675.770574	5701.729002
676.109875	5653.263349
676.449125	5657.823073
676.788324	5623.303772
677.127473	5571.926852
677.466571	5562.124329
677.805619	5551.532864
678.144616	5538.062901
678.483562	5517.305950
678.822458	5482.947966
679.161303	5481.455785
679.500098	5470.302232
679.838842	5453.953770
680.177535	5458.349656
680.516179	5474.551925
680.854771	5484.883769
681.193314	5565.532149
681.531805	5676.200599
681.870247	5822.250388
682.208638	5920.424338
682.546978	5935.449497
682.885268	5910.813378
683.223508	5829.252550
683.561697	5779.115755
683.899836	5745.705508
684.237925	5701.388724
684.575963	5666.985370
684.913951	5628.465913
685.251889	5686.204769
685.589776	5651.050282
685.927614	5625.784019
686.265401	5694.613413
686.603137	5681.481208
686.940824	5760.098002
687.278460	5778.329335
687.616046	5791.562364
687.953582	5854.024780
688.291068	5834.548283
688.628504	5900.864661
688.965889	5862.657756
689.303224	5808.803110
689.640510	5762.658908
689.977745	5688.748031
690.314930	5590.947126
690.652065	5530.833887
690.989150	5447.972441
691.326185	5367.477817
691.663170	5314.182738
692.000105	5238.227673
692.336990	5161.317310
692.673825	5137.883506
693.010610	5071.194082
693.347345	4999.428216
693.684030	4987.571422
694.020665	4946.604485
694.357251	4853.756514
694.693786	4866.752608
695.030272	4833.082742
695.366707	4800.947907
695.703093	4768.729892
696.039429	4788.566833
696.375716	4767.527577
696.711952	4745.217951
697.048139	4734.457608
697.384276	4712.294175
697.720363	4724.995362
698.056400	4734.820571
698.392388	4679.753527
698.728326	4665.996218
699.064214	4641.559225
699.400053	4632.858193
699.735842	4602.671764
700.071581	4580.956994
700.407270	4552.353487
700.742910	4534.535529
701.078501	4480.809432
701.414042	4479.158454
701.749533	4452.384886
702.084974	4383.643712
702.420366	4442.163946
702.755709	4383.447107
703.091002	4330.479703
703.426246	4377.614492
703.761440	4329.542049
704.096584	4296.540135
704.431679	4316.979493
704.766725	4304.290909
705.101721	4290.644506
705.436668	4319.709278
705.771565	4270.986526
706.106413	4292.993683
706.441212	4328.203622
706.775961	4336.655117
707.110661	4315.078978
707.445311	4343.400181
707.779913	4365.994632
708.114465	4375.398905
708.448967	4404.193975
708.783421	4458.288077
709.117825	4502.168800
709.452180	4509.985109
709.786485	4554.795926
710.120742	4635.421620
710.454949	4621.291266
710.789107	4690.312224
711.123216	4762.826701
711.457275	4751.133745
711.791286	4824.948840
712.125247	4840.808310
712.459159	4745.038990
712.793023	4818.034897
713.126837	4779.560811
713.460602	4773.201396
713.794318	4691.801885
714.127985	4700.727248
714.461602	4618.130462
714.795171	4589.383283
715.128691	4518.960884
715.462162	4462.139518
715.795584	4417.404319
716.128957	4401.007966
716.462281	4347.279348
716.795556	4324.732788
717.128782	4285.263074
717.461960	4220.726222
717.795088	4226.959609
718.128167	4186.179195
718.461198	4129.219198
718.794180	4123.510091
719.127113	4106.501238
719.459997	4083.011982
719.792833	4041.054458
720.125619	4028.867469
720.458357	3994.698528
720.791046	3996.861183
721.123686	3974.463336
721.456278	3932.533539
721.788821	3946.779840
722.121315	3921.319492
722.453761	3894.626583
722.786158	3908.504879
723.118506	3931.832819
723.450805	3883.145355
723.783056	3906.165784
724.115259	3924.190430
724.447412	3928.339299
724.779518	3919.446704
725.111574	3926.569854
725.443582	3953.943320
725.775542	3943.261115
726.107453	3990.768948
726.439315	3990.957992
726.771129	4003.684385
727.102895	4038.153274
727.434612	4088.930296
727.766281	4096.318107
728.097901	4099.413376
728.429473	4104.865383
728.760996	4111.875108
729.092471	4106.032411
729.423897	4091.208898
729.755276	4097.961523
730.086606	4098.652161
730.417887	4136.939725
730.749120	4195.669167
731.080305	4260.556379
731.411442	4287.481182
731.742530	4256.412550
732.073570	4258.159310
732.404562	4312.243329
732.735506	4308.517917
733.066401	4267.674488
733.397249	4205.320456
733.728048	4127.094351
734.058798	4045.657032
734.389501	3973.429900
734.720156	3914.040066
735.050762	3873.110938
735.381320	3865.345041
735.711831	3814.646157
736.042293	3786.002320
736.372707	3806.585352
736.703073	3777.230713
737.033391	3768.368364
737.363661	3788.230510
737.693883	3813.574911
738.024056	3823.881550
738.354182	3819.775531
738.684260	3878.605796
739.014290	3897.908374
739.344272	3894.374525
739.674207	3936.838685
740.004093	3943.855971
740.333931	3934.986061
740.663722	3937.751133
740.993464	3936.538736
741.323159	3910.957401
741.652806	3880.022360
741.982405	3853.140407
742.311956	3827.105368
742.641460	3815.530879
742.970915	3789.931900
743.300323	3748.014706
743.629683	3715.673183
743.958996	3704.179352
744.288260	3681.957946
744.617477	3648.277997
744.946647	3634.866007
745.275768	3613.453707
745.604842	3607.684106
745.933869	3558.495047
746.262847	3551.248389
746.591778	3592.033844
746.920662	3560.201478
747.249498	3530.529246
747.578286	3576.159250
747.907027	3593.198350
748.235720	3590.362701
748.564365	3616.677524
748.892963	3615.719705
749.221514	3600.409721
749.550017	3577.855599
749.878473	3575.700505
750.206881	3545.027605
750.535242	3536.631563
750.863555	3541.307233
751.191821	3537.526368
751.520039	3520.774614
751.848210	3497.688650
752.176334	3530.241901
752.504411	3537.801111
752.832440	3496.708145
753.160421	3481.977894
753.488356	3488.995180
753.816243	3502.192921
754.144082	3458.662557
754.471875	3441.651183
754.799620	3464.265800
755.127318	3454.518729
755.454969	3455.363122
755.782572	3459.045685
756.110129	3435.690019
756.437638	3428.367743
756.765100	3438.767643
757.092515	3449.165023
757.419882	3454.153245
757.747203	3430.784976
758.074477	3430.724483
758.401703	3447.125877
758.728882	3470.136223
759.056014	3477.526555
759.383099	3477.226606
759.710138	3474.451451
760.037129	3492.644975
760.364073	3521.447608
760.690970	3508.746421
761.017820	3486.840087
761.344623	3503.632170
761.671379	3548.087585
761.998088	3599.557766
762.324751	3726.960327
762.651366	3970.513592
762.977935	4438.209161
763.304456	4876.827354
763.630931	4962.799192
763.957359	4606.664358
764.283740	4269.746402
764.610074	4082.896035
764.936362	3886.313720
765.262602	3727.716500
765.588796	3622.769759
765.914943	3534.801624
766.241044	3447.216617
766.567097	3418.149324
766.893104	3372.163919
767.219064	3337.848785
767.544978	3313.978921
767.870845	3259.781476
768.196665	3244.121132
768.522438	3249.764703
768.848165	3242.092067
769.173846	3208.888507
769.499479	3195.012732
769.825066	3173.489525
770.150607	3158.333296
770.476101	3177.378775
770.801548	3169.106242
771.126949	3124.708800
771.452303	3106.711881
771.777611	3115.942233
772.102872	3117.746967
772.428087	3094.416507
772.753256	3082.176585
773.078378	3079.179619
773.403453	3045.169475
773.728482	3032.299409
774.053465	3054.001576
774.378401	3040.824000
774.703291	3008.671521
775.028135	3009.871315
775.352932	3003.678258
775.677683	2994.359685
776.002388	2991.909684
776.327046	2990.281392
776.651658	2981.368632
776.976224	2970.820017
777.300743	2968.783391
777.625216	2961.844243
777.949643	2955.595733
778.274024	2958.965744
778.598359	2946.962757
778.922647	2952.412244
779.246889	2950.799075
779.571086	2938.357507
779.895236	2932.711415
780.219339	2939.968156
780.543397	2952.734878
780.867409	2957.650003
781.191374	2952.223201
781.515294	2946.630040
781.839167	2948.147428
782.162995	2940.121911
782.486776	2950.796554
782.810511	2945.183229
783.134201	2931.839295
783.457844	2940.875563
783.781441	2930.372319
784.104993	2910.038825
784.428498	2909.595204
784.751958	2924.685898
785.075372	2918.208015
785.398739	2900.022053
785.722061	2917.688776
786.045337	2930.042124
786.368568	2912.496388
786.691752	2906.270563
787.014891	2955.552883
787.337983	2984.839466
787.661030	3010.330060
787.984031	3078.481419
788.306987	3123.745940
788.629897	3115.115484
788.952760	3099.780294
789.275579	3084.311514
789.598351	3025.884541
789.921078	2980.325113
790.243759	2973.297744
790.566395	2956.031792
790.888984	2933.023966
791.211529	2915.644588
791.534027	2904.072620
791.856480	2895.457288
792.178888	2881.601676
792.501249	2872.358721
792.823566	2872.283103
793.145836	2868.666076
793.468062	2865.222967
793.790241	2863.128368
794.112375	2868.620705
794.434464	2880.169989
794.756507	2883.484547
795.078505	2888.687018
795.400457	2903.868453
795.722364	2945.087447
796.044226	2963.603605
796.366042	2967.119810
796.687812	2954.950465
797.009538	2972.692806
797.331218	2963.596044
797.652852	2947.882767
797.974442	2930.387443
798.295986	2927.914757
798.617484	2923.753284
798.938938	2904.753175
799.260346	2893.203892
799.581709	2885.879095
799.903026	2881.019423
800.224299	2873.644215
800.545526	2864.305478
800.866708	2850.596060
801.187845	2839.530727
801.508936	2840.952332
801.829983	2849.144207
802.150984	2837.325222
802.471940	2824.563541
802.792851	2823.217553
803.113717	2822.673108
803.434538	2830.244922
803.755314	2823.562872
804.076045	2817.878971
804.396731	2814.854279
804.717372	2815.348312
805.037967	2810.937302
805.358518	2815.484423
805.679024	2829.647545
805.999485	2824.094714
806.319901	2828.785507
806.640272	2818.846873
806.960598	2824.558500
807.280879	2834.771878
807.601115	2840.702795
807.921306	2829.549242
808.241453	2824.250990
808.561554	2831.860611
808.881611	2833.763647
809.201623	2829.319870
809.521590	2824.044302
809.841513	2824.634117
810.161390	2824.671926
810.481223	2821.064980
810.801011	2809.896304
811.120755	2808.401602
811.440453	2812.197591
811.760107	2808.086530
812.079716	2808.124338
812.399281	2797.003553
812.718801	2790.896195
813.038276	2786.124743
813.357707	2792.201854
813.677093	2798.765436
813.996434	2793.666309
814.315731	2790.255969
814.634983	2785.870165
814.954191	2785.242541
815.273354	2800.744089
815.592473	2810.967549
815.911547	2812.187508
816.230577	2818.859476
816.549562	2827.782318
816.868502	2828.591423
817.187399	2835.805314
817.506250	2852.229393
817.825058	2845.159175
818.143821	2857.464632
818.462539	2871.325284
818.781213	2898.441651
819.099843	2931.693102
819.418429	2989.681494
819.736970	3052.388407
820.055466	3121.900877
820.373919	3225.499109
820.692327	3363.725027
821.010691	3526.166128
821.329011	3966.843632
821.647286	4848.808621
821.965517	6203.018820
822.283704	6922.323418
822.601847	6893.251084
822.919945	6275.248472
823.237999	5784.736641
823.556010	5213.387388
823.873976	4666.344058
824.191897	4268.085342
824.509775	3980.704285
824.827609	3716.179819
825.145398	3593.508381
825.463144	3588.973863
825.780845	3677.317564
826.098502	3786.151034
826.416116	4063.406934
826.733685	4369.248697
827.051210	4426.072583
827.368692	4315.013443
827.686129	4049.079975
828.003522	3735.641193
828.320872	3481.504025
828.638177	3291.318935
828.955439	3158.050992
829.272656	3076.059145
829.589830	3009.757889
829.906960	2963.109572
830.224046	2918.177768
830.541088	2883.660988
830.858086	2867.867053
831.175041	2855.012110
831.491952	2853.227542
831.808819	2866.876466
832.125642	2890.153994
832.442421	2934.624533
832.759157	3013.682428
833.075849	3186.599046
833.392497	3464.971561
833.709101	3661.256448
834.025662	3609.604786
834.342179	3451.791464
834.658653	3283.555558
834.975083	3136.918475
835.291469	3040.017415
835.607811	2959.127061
835.924110	2900.710170
836.240366	2852.133612
836.556578	2814.367807
836.872746	2788.993160
837.188871	2765.377874
837.504952	2749.790627
837.820990	2742.100347
838.136984	2729.159705
838.452935	2720.922459
838.768842	2719.977243
839.084706	2738.712691
839.400526	2814.448466
839.716303	2947.081224
840.032037	3022.564941
840.347727	3008.094309
840.663373	2949.183385
840.978977	2874.312168
841.294537	2803.589821
841.610054	2757.659868
841.925527	2737.943915
842.240957	2712.748228
842.556344	2693.357430
842.871687	2679.942920
843.186987	2669.991682
843.502244	2664.015394
843.817458	2660.443737
844.132629	2650.111892
844.447756	2639.225520
844.762840	2632.944242
845.077881	2634.534726
845.392879	2636.939357
845.707833	2630.416104
846.022745	2622.428395
846.337613	2628.591206
846.652438	2628.402163
846.967221	2624.732203
847.281960	2624.853190
847.596656	2623.345885
847.911309	2621.599126
848.225919	2618.587036
848.540485	2614.760800
848.855009	2615.748867
849.169490	2616.222735
849.483928	2617.803137
849.798323	2612.363732
850.112675	2612.207456
850.426984	2612.393979
850.741251	2613.258537
851.055474	2611.451283
851.369654	2616.941099
851.683792	2617.639299
851.997887	2613.334154
852.311938	2610.846344
852.625947	2614.007148
852.939914	2614.349946
853.253837	2616.893208
853.567718	2611.668052
853.881555	2612.058742
854.195350	2616.084103
854.509103	2616.278188
854.822812	2613.382045
855.136479	2612.497322
855.450103	2613.127467
855.763685	2616.411778
856.077224	2614.438167
856.390720	2608.492126
856.704173	2614.758280
857.017584	2617.747684
857.330953	2618.208950
857.644278	2621.916718
857.957561	2620.800103
858.270802	2616.868003
858.584000	2617.276336
858.897155	2619.774228
859.210268	2622.574589
859.523339	2616.245420
859.836367	2610.533793
860.149352	2611.148814
860.462295	2613.656788
860.775195	2611.032867
861.088054	2611.657970
861.400869	2609.606221
861.713642	2604.675972
862.026373	2605.084306
862.339062	2609.059255
862.651708	2617.911522
862.964312	2614.271808
863.276873	2614.082765
863.589392	2617.170472
863.901869	2621.256327
864.214303	2625.531226
864.526696	2629.047430
864.839045	2631.081536
865.151353	2633.826444
865.463619	2631.898203
865.775842	2631.530199
866.088023	2632.621608
866.400162	2633.849129
866.712258	2631.920888
867.024313	2632.946763
867.336325	2624.719600
867.648296	2630.579941
867.960224	2637.834162
868.272110	2629.664972
868.583954	2624.233128
868.895755	2629.097842
869.207515	2630.915178
869.519233	2638.557567
869.830909	2635.532875
870.142542	2628.883593
870.454134	2631.290744
870.765684	2637.715694
871.077191	2641.640233
871.388657	2643.601242
871.700081	2640.309368
872.011463	2642.167033
872.322803	2642.726601
872.634101	2645.451345
872.945357	2654.333858
873.256571	2658.094559
873.567744	2655.480721
873.878874	2652.647592
874.189963	2653.673467
874.501010	2661.371309
874.812015	2664.368275
875.122979	2665.741989
875.433900	2655.861328
875.744780	2654.157418
876.055618	2660.085815
876.366415	2665.285765
876.677169	2664.353151
876.987882	2658.956596
877.298554	2655.889054
877.609183	2668.610406
877.919771	2673.805315
878.230317	2681.495595
878.540822	2691.615711
878.851285	2706.003164
879.161707	2727.891854
879.472087	2765.274531
879.782425	2812.250523
880.092722	2920.786565
880.402977	3103.024277
880.713191	3356.685056
881.023363	3634.349289
881.333494	3820.788803
881.643583	3990.325327
881.953631	3988.092096
882.263637	3809.746155
882.573602	3595.182044
882.883526	3467.744196
883.193408	3363.238556
883.503248	3267.905296
883.813048	3156.503357
884.122806	3044.171326
884.432522	2961.846763
884.742197	2898.590365
885.051831	2864.698687
885.361424	2831.018739
885.670975	2793.822585
885.980485	2766.159253
886.289954	2749.684762
886.599382	2735.889645
886.908768	2722.828015
887.218113	2706.870243
887.527417	2692.152594
887.836680	2686.614887
888.145901	2682.372756
888.455082	2673.240706
888.764221	2661.835095
889.073319	2653.807057
889.382376	2654.573313
889.691392	2654.913591
890.000366	2657.103972
890.309300	2652.967705
890.618193	2654.903508
890.927044	2658.989364
891.235855	2658.442398
891.544625	2658.954076
891.853353	2658.908705
892.162041	2665.172339
892.470687	2685.888961
892.779293	2695.217616
893.087858	2703.565767
893.396381	2728.932853
893.704864	2765.115734
894.013306	2834.842454
894.321707	2920.138777
894.630068	2971.465285
894.938387	2991.937411
895.246665	2981.754280
895.554903	2943.320523
895.863100	2899.865777
896.171256	2842.736901
896.479371	2780.292128
896.787446	2746.299628
897.095480	2728.174159
897.403473	2722.969168
897.711425	2709.494163
898.019336	2692.772656
898.327207	2676.023422
898.635038	2679.332940
898.942827	2674.448062
899.250576	2666.604027
899.558284	2654.563231
899.865952	2649.716161
900.173579	2649.632982
900.481165	2646.567961
900.788711	2640.309368
901.096216	2630.826958
901.403681	2628.255969
901.711105	2628.863428
902.018489	2629.977523
902.325832	2631.290744
902.633135	2631.865435
902.940397	2646.068886
903.247619	2685.173117
903.554800	2749.140318
903.861941	2871.156406
904.169041	2989.500013
904.476101	3046.545710
904.783121	3040.892056
905.090100	2985.872903
905.397039	2915.879002
905.703938	2847.132787
906.010796	2786.263375
906.317614	2738.871487
906.624391	2701.755992
906.931129	2676.209945
907.237826	2654.021307
907.544483	2638.252577
907.851099	2624.845629
908.157675	2614.894391
908.464211	2608.567743
908.770707	2599.014756
909.077163	2596.733634
909.383578	2592.355392
909.689954	2592.735999
909.996289	2588.337593
910.302584	2590.747264
910.608839	2586.626121
910.915054	2584.713003
911.221229	2586.341296
911.527363	2594.268510
911.833458	2588.413210
912.139513	2590.679208
912.445527	2593.756833
912.751502	2597.782194
913.057436	2601.434510
913.363331	2606.256374
913.669186	2618.743312
913.975000	2629.690177
914.280775	2646.898156
914.586510	2665.086639
914.892205	2698.738862
915.197859	2761.360075
915.503475	2845.060873
915.809050	2907.261149
916.114585	2917.134249
916.420081	2927.561876
916.725536	2941.157868
917.030952	2913.499577
917.336328	2871.325284
917.641665	2823.197388
917.946961	2775.008999
918.252218	2745.467837
918.557435	2718.422047
918.862612	2698.849767
919.167750	2682.980215
919.472848	2667.760971
919.777906	2650.116933
920.082925	2638.179481
920.387904	2630.151443
920.692843	2626.289919
920.997743	2621.652058
921.302603	2612.739298
921.607423	2610.349791
921.912204	2603.516507
922.216946	2601.134562
922.521647	2599.193717
922.826310	2594.034096
923.130932	2590.444795
923.435516	2586.621080
923.740059	2586.283322
924.044564	2586.341296
924.349028	2582.358784
924.653454	2574.416446
924.957840	2570.771692
925.262186	2569.541650
925.566493	2570.723801
925.870761	2564.003943
926.174989	2567.799932
926.479178	2566.723645
926.783328	2564.066957
927.087438	2561.770712
927.391509	2562.042934
927.695541	2560.117213
927.999533	2560.815413
928.303486	2559.010680
928.607400	2559.103941
928.911275	2558.683005
929.215110	2557.553787
929.518906	2556.928683
929.822663	2558.136040
930.126381	2557.256358
930.430060	2557.889023
930.733699	2558.385577
931.037299	2558.478838
931.340861	2559.358520
931.644383	2557.077397
931.947866	2558.211657
932.251309	2560.081925
932.554714	2556.709393
932.858080	2560.147460
933.161407	2555.257541
933.464694	2557.475649
933.767943	2556.570762
934.071153	2557.788200
934.374323	2555.494475
934.677455	2554.723179
934.980548	2554.037582
935.283602	2556.868190
935.586617	2554.196378
935.889593	2555.093703
936.192530	2553.215874
936.495428	2553.472972
936.798287	2555.406255
937.101108	2554.587067
937.403890	2560.999415
937.706632	2561.327090
938.009336	2562.814231
938.312002	2569.418142
938.614628	2567.988975
938.917216	2574.030798
939.219765	2577.173957
939.522275	2576.846282
939.824747	2573.030129
940.127179	2570.433935
940.429573	2567.517627
940.731929	2565.135682
941.034246	2566.547205
941.336524	2566.277503
941.638763	2566.431258
941.940964	2567.255487
942.243126	2567.255487
942.545250	2562.733572
942.847335	2562.405897
943.149381	2562.239539
943.451389	2558.995557
943.753359	2560.079405
944.055290	2559.146791
944.357182	2558.206616
944.659036	2554.145967
944.960851	2558.572100
945.262628	2555.580175
945.564367	2559.227450
945.866067	2557.591595
946.167729	2555.648230
946.469352	2560.434806
946.770937	2556.595967
947.072484	2555.459187
947.373992	2558.264589
947.675462	2556.303580
947.976893	2557.175700
948.278286	2557.498334
948.579641	2558.161246
948.880958	2553.697304
949.182236	2554.561862
949.483476	2555.018086
949.784678	2553.969526
950.085841	2555.464228
950.386967	2556.069167
950.688054	2552.545400
950.989103	2556.356512
951.290114	2558.466235
951.591087	2558.743499
951.892021	2555.617983
952.192917	2563.305743
952.493776	2562.254662
952.794596	2559.114024
953.095378	2560.797769
953.396122	2558.811554
953.696828	2560.883469
953.997496	2559.729044
954.298126	2559.585372
954.598718	2558.030176
954.899272	2556.575803
955.199788	2553.931718
955.500266	2553.929197
955.800706	2551.688404
956.101108	2547.610111
956.401472	2545.651622
956.701798	2546.145655
957.002087	2545.281097
957.302337	2547.292518
957.602550	2547.169010
957.902724	2547.584905
958.202861	2546.536345
958.502960	2543.758669
958.803022	2544.769420
959.103045	2543.678011
959.403031	2546.082641
959.702979	2542.377393
960.002889	2543.705737
960.302762	2541.583411
960.602596	2545.782692
960.902393	2542.407640
961.202153	2544.315717
961.501875	2543.985521
961.801559	2543.496529
962.101205	2542.311858
962.400814	2539.629964
962.700385	2541.285983
962.999918	2543.468803
963.299414	2541.646426
963.598873	2542.984852
963.898293	2540.754141
964.197677	2539.924872
964.497022	2542.006868
964.796331	2540.902855
965.095601	2541.243133
965.394835	2540.880170
965.694030	2539.622402
965.993189	2542.027033
966.292309	2540.204656
966.591393	2539.130890
966.890439	2539.035108
967.189447	2539.130890
967.488419	2540.486960
967.787353	2539.435880
968.086249	2538.273894
968.385108	2540.000489
968.683930	2542.377393
968.982714	2543.574667
969.281462	2541.671631
969.580172	2541.832948
969.878844	2543.488967
970.177480	2543.388144
970.476078	2543.577187
970.774639	2541.217928
971.073162	2542.067362
971.371649	2540.189532
971.670098	2535.707946
971.968510	2540.229861
972.266885	2538.644418
972.565223	2542.281611
972.863524	2541.472506
973.161788	2544.151879
973.460014	2541.853113
973.758204	2541.588452
974.056356	2543.509132
974.354471	2542.478216
974.652550	2543.504091
974.950591	2540.340767
975.248595	2540.829759
975.546563	2540.638195
975.844493	2540.043339
976.142386	2544.098947
976.440243	2541.527958
976.738062	2541.333874
977.035845	2538.780530
977.333590	2541.570808
977.631299	2540.605427
977.928971	2541.220448
978.226606	2540.171888
978.524204	2540.295396
978.821765	2538.898997
979.119290	2541.482588
979.416777	2539.403112
979.714228	2541.147351
980.011642	2540.595345
980.309020	2544.719009
980.606360	2538.828421
980.903664	2539.783719
981.200931	2541.280942
981.498162	2541.117104
981.795356	2542.163144
982.092513	2551.118754
982.389633	2550.087838
982.686717	2553.437684
982.983764	2552.469783
983.280775	2555.648230
983.577749	2554.468600
983.874686	2554.340051
984.171587	2551.940462
984.468451	2548.469627
984.765279	2545.265974
985.062070	2544.061138
985.358824	2547.181613
985.655543	2545.137425
985.952224	2542.384955
986.248869	2542.067362
986.545478	2535.604603
986.842050	2538.354552
987.138586	2536.305323
987.435086	2538.200797
987.731549	2535.584438
988.027975	2540.807073
988.324366	2538.498225
988.620719	2538.334387
988.917037	2539.529141
989.213318	2536.675848
989.509563	2537.157278
989.805772	2539.224151
990.101944	2539.892104
990.398080	2538.649460
990.694180	2536.272556
990.990244	2536.627957
991.286271	2535.004705
991.582262	2541.210366
991.878217	2538.893956
992.174136	2537.028729
992.470019	2537.522762
992.765865	2536.307844
993.061676	2539.521579
993.357450	2537.885725
993.653188	2537.328677
993.948890	2539.617361
994.244556	2537.613502
994.540186	2540.691127
994.835780	2538.941847
995.131337	2539.327495
995.426859	2538.314223
995.722345	2538.828421
996.017795	2541.792619
996.313208	2542.175747
996.608586	2541.664070
996.903928	2543.166333
997.199234	2541.006199
997.494504	2542.059800
997.789738	2540.902855
998.084936	2542.296734
998.380099	2537.583256
998.675225	2542.291693
998.970316	2537.527803
999.265371	2539.370345
999.560390	2538.788091
999.855373	2538.765406
1000.150320	2537.497556
1000.445232	2535.619726
1000.740108	2540.277752
1001.034948	2534.722401
1001.329752	2540.040818
1001.624521	2537.817669
1001.919254	2530.157636
1002.213951	2533.086546
1002.508613	2532.700898
1002.803239	2533.779705
1003.097829	2532.884900
1003.392384	2537.769778
1003.686903	2537.953780
1003.981386	2540.582742
1004.275834	2539.531662
1004.570246	2536.133924
1004.864623	2538.256250
1005.158964	2538.399922
1005.453270	2533.457071
1005.747540	2534.588810
1006.041775	2536.501928
1006.335974	2539.019984
1006.630138	2534.477905
1006.924266	2533.928419
1007.218359	2534.530837
1007.512416	2535.541588
1007.806438	2534.495549
1008.100425	2536.007895
1008.394376	2534.246012
1008.688292	2536.257432
1008.982172	2535.927237
1009.276017	2536.499408
1009.569827	2537.106867
1009.863602	2536.212062
1010.157341	2534.445137
1010.451045	2537.283307
1010.744714	2535.314736
1011.038347	2534.818183
1011.331945	2534.896321
1011.625508	2536.504449
1011.919036	2538.200797
1012.212528	2538.576363
1012.505986	2534.356917
1012.799408	2535.471012
1013.092795	2535.226516
1013.386147	2538.334388
1013.679464	2535.758358
1013.972745	2537.101825
1014.265992	2538.651980
1014.559204	2537.343801
1014.852380	2533.078985
1015.145521	2536.353214
1015.438628	2536.053265
1015.731699	2535.287010
1016.024736	2535.329860
1016.317737	2537.568132
1016.610703	2534.452699
1016.903635	2535.075282
1017.196531	2532.741227
1017.489393	2534.203162
1017.782219	2533.273069
1018.075011	2537.016126
1018.367768	2534.798018
1018.660490	2534.798018
1018.953177	2534.798018
1019.245829	2534.798018
