Dividing Wavelength (nm)	Counts (n)	Blue Motor Position (mm): 6.000000	Red Motor Position (mm): 0.000000	
326.493990	2139.969808
326.888308	2139.969808
327.282561	2139.969808
327.676750	2134.928654
328.070874	2127.366923
328.464933	2001.338077
328.858929	2084.517115
329.252859	2051.749615
329.646726	2074.434808
330.040528	2066.873077
330.434265	2160.134423
330.827938	2160.134423
331.221547	2150.052115
331.615091	2150.052115
332.008571	2167.696154
332.401986	2192.901923
332.795338	2218.107692
333.188625	2202.984231
333.581847	2208.025385
333.975006	2313.889615
334.368100	2306.327885
334.761129	2298.766154
335.154095	2376.904038
335.546996	2334.054231
335.939833	2437.397885
336.332606	2361.780577
336.725315	2389.506923
337.117960	2442.439038
337.510540	2407.150962
337.903056	2472.685962
338.295508	2394.548077
338.687896	2429.836154
339.080220	2470.165385
339.472480	2422.274423
339.864676	2444.959615
340.256807	2467.644808
340.648875	2384.465769
341.040879	2480.247692
341.432818	2424.795000
341.824694	2492.850577
342.216506	2492.850577
342.608253	2452.521346
342.999937	2465.124231
343.391557	2497.891731
343.783113	2495.371154
344.174605	2535.700385
344.566033	2450.000769
344.957397	2432.356731
345.348697	2523.097500
345.739934	2432.356731
346.131106	2412.192115
346.522215	2404.630385
346.913260	2490.330000
347.304241	2490.330000
347.695159	2444.959615
348.086012	2490.330000
348.476802	2422.274423
348.867528	2389.506923
349.258191	2439.918462
349.648789	2502.932885
350.039324	2495.371154
350.429796	2439.918462
350.820203	2465.124231
351.210548	2460.083077
351.600828	2490.330000
351.991045	2452.521346
352.381198	2379.424615
352.771288	2467.644808
353.161314	2439.918462
353.551276	2490.330000
353.941175	2389.506923
354.331010	2394.548077
354.720782	2477.727115
355.110490	2480.247692
355.500135	2404.630385
355.889717	2485.288846
356.279235	2518.056346
356.668689	2437.397885
357.058080	2535.700385
357.447408	2402.109808
357.836672	2507.974038
358.225873	2437.397885
358.615010	2452.521346
359.004084	2437.397885
359.393095	2540.741538
359.782043	2341.615962
360.170927	2417.233269
360.559748	2500.412308
360.948505	2437.397885
361.337199	2419.753846
361.725830	2545.782692
362.114398	2386.986346
362.502903	2530.659231
362.891344	2432.356731
363.279722	2510.494615
363.668037	2447.480192
364.056289	2407.150962
364.444478	2525.618077
364.832603	2460.083077
365.220665	2404.630385
365.608665	2437.397885
365.996601	2472.685962
366.384474	2447.480192
366.772284	2434.877308
367.160031	2407.150962
367.547715	2477.727115
367.935336	2409.671538
368.322893	2487.809423
368.710388	2386.986346
369.097820	2407.150962
369.485189	2472.685962
369.872495	2419.753846
370.259738	2452.521346
370.646918	2507.974038
371.034035	2477.727115
371.421090	2429.836154
371.808081	2439.918462
372.195010	2439.918462
372.581875	2452.521346
372.968678	2452.521346
373.355418	2490.330000
373.742096	2404.630385
374.128710	2414.712692
374.515262	2394.548077
374.901751	2434.877308
375.288177	2414.712692
375.674540	2452.521346
376.060841	2457.562500
376.447079	2543.262115
376.833254	2467.644808
377.219367	2518.056346
377.605417	2439.918462
377.991404	2502.932885
378.377329	2480.247692
378.763191	2472.685962
379.148991	2492.850577
379.534727	2470.165385
379.920402	2465.124231
380.306013	2470.165385
380.691563	2450.000769
381.077049	2485.288846
381.462474	2424.795000
381.847835	2507.974038
382.233134	2500.412308
382.618371	2520.576923
383.003545	2462.603654
383.388657	2457.562500
383.773706	2467.644808
384.158693	2439.918462
384.543618	2434.877308
384.928480	2460.083077
385.313280	2452.521346
385.698017	2457.562500
386.082692	2424.795000
386.467305	2482.768269
386.851856	2530.659231
387.236344	2495.371154
387.620770	2477.727115
388.005133	2447.480192
388.389435	2490.330000
388.773674	2444.959615
389.157851	2447.480192
389.541965	2507.974038
389.926018	2492.850577
390.310008	2530.659231
390.693936	2442.439038
391.077802	2523.097500
391.461606	2432.356731
391.845348	2490.330000
392.229027	2490.330000
392.612645	2545.782692
392.996200	2465.124231
393.379694	2530.659231
393.763125	2444.959615
394.146494	2475.206538
394.529801	2442.439038
394.913047	2487.809423
395.296230	2470.165385
395.679351	2518.056346
396.062410	2351.698269
396.445408	2409.671538
396.828343	2482.768269
397.211217	2465.124231
397.594028	2457.562500
397.976778	2520.576923
398.359466	2540.741538
398.742092	2500.412308
399.124656	2513.015192
399.507158	2497.891731
399.889598	2515.535769
400.271977	2444.959615
400.654294	2515.535769
401.036549	2480.247692
401.418742	2422.274423
401.800874	2497.891731
402.182944	2467.644808
402.564952	2477.727115
402.946898	2455.041923
403.328783	2475.206538
403.710606	2513.015192
404.092367	2472.685962
404.474067	2523.097500
404.855705	2487.809423
405.237282	2472.685962
405.618797	2470.165385
406.000250	2520.576923
406.381642	2475.206538
406.762972	2523.097500
407.144240	2500.412308
407.525447	2525.618077
407.906593	2490.330000
408.287677	2422.274423
408.668700	2480.247692
409.049661	2525.618077
409.430560	2523.097500
409.811399	2480.247692
410.192176	2424.795000
410.572891	2480.247692
410.953545	2432.356731
411.334138	2465.124231
411.714669	2576.029615
412.095139	2442.439038
412.475547	2439.918462
412.855894	2480.247692
413.236180	2392.027500
413.616405	2558.385577
413.996568	2465.124231
414.376670	2399.589231
414.756711	2399.589231
415.136691	2495.371154
415.516609	2457.562500
415.896466	2467.644808
416.276262	2515.535769
416.655997	2485.288846
417.035670	2593.673654
417.415283	2583.591346
417.794834	2518.056346
418.174324	2497.891731
418.553753	2447.480192
418.933121	2515.535769
419.312428	2495.371154
419.691674	2558.385577
420.070859	2533.179808
420.449983	2497.891731
420.829045	2492.850577
421.208047	2563.426731
421.586988	2477.727115
421.965867	2510.494615
422.344686	2482.768269
422.723444	2465.124231
423.102141	2439.918462
423.480777	2477.727115
423.859352	2399.589231
424.237866	2470.165385
424.616319	2497.891731
424.994712	2434.877308
425.373044	2502.932885
425.751314	2490.330000
426.129524	2525.618077
426.507673	2452.521346
426.885762	2482.768269
427.263789	2495.371154
427.641756	2495.371154
428.019662	2437.397885
428.397508	2520.576923
428.775292	2535.700385
429.153016	2462.603654
429.530679	2437.397885
429.908282	2548.303269
430.285824	2495.371154
430.663305	2497.891731
431.040726	2555.865000
431.418086	2477.727115
431.795385	2432.356731
432.172624	2523.097500
432.549802	2457.562500
432.926920	2518.056346
433.303977	2533.179808
433.680974	2515.535769
434.057910	2460.083077
434.434786	2538.220962
434.811601	2437.397885
435.188355	2444.959615
435.565050	2538.220962
435.941683	2450.000769
436.318257	2523.097500
436.694770	2472.685962
437.071222	2497.891731
437.447614	2412.192115
437.823946	2439.918462
438.200218	2495.371154
438.576429	2520.576923
438.952580	2507.974038
439.328670	2455.041923
439.704700	2525.618077
440.080670	2442.439038
440.456580	2439.918462
440.832429	2507.974038
441.208218	2432.356731
441.583947	2528.138654
441.959616	2485.288846
442.335224	2581.070769
442.710773	2523.097500
443.086261	2455.041923
443.461689	2492.850577
443.837057	2518.056346
444.212365	2520.576923
444.587612	2500.412308
444.962800	2502.932885
445.337927	2450.000769
445.712995	2437.397885
446.088002	2465.124231
446.462949	2525.618077
446.837837	2525.618077
447.212664	2480.247692
447.587431	2477.727115
447.962139	2563.426731
448.336786	2513.015192
448.711374	2472.685962
449.085901	2475.206538
449.460369	2467.644808
449.834776	2510.494615
450.209124	2525.618077
450.583412	2455.041923
450.957640	2513.015192
451.331808	2477.727115
451.705917	2555.865000
452.079965	2543.262115
452.453954	2573.509038
452.827883	2455.041923
453.201752	2482.768269
453.575562	2548.303269
453.949311	2429.836154
454.323001	2540.741538
454.696632	2492.850577
455.070202	2475.206538
455.443713	2563.426731
455.817164	2505.453462
456.190556	2520.576923
456.563888	2525.618077
456.937160	2523.097500
457.310373	2560.906154
457.683526	2462.603654
458.056619	2525.618077
458.429653	2507.974038
458.802628	2424.795000
459.175542	2545.782692
459.548398	2485.288846
459.921194	2397.068654
460.293930	2386.986346
460.666607	2452.521346
461.039224	2477.727115
461.411782	2497.891731
461.784280	2513.015192
462.156719	2513.015192
462.529099	2444.959615
462.901419	2513.015192
463.273680	2442.439038
463.645882	2455.041923
464.018024	2601.235385
464.390106	2482.768269
464.762130	2419.753846
465.134094	2500.412308
465.505999	2447.480192
465.877845	2480.247692
466.249631	2480.247692
466.621358	2510.494615
466.993026	2560.906154
467.364634	2467.644808
467.736184	2475.206538
468.107674	2455.041923
468.479105	2485.288846
468.850477	2591.153077
469.221790	2467.644808
469.593043	2477.727115
469.964238	2518.056346
470.335373	2502.932885
470.706449	2505.453462
471.077467	2477.727115
471.448425	2568.467885
471.819324	2467.644808
472.190164	2495.371154
472.560945	2467.644808
472.931667	2513.015192
473.302330	2427.315577
473.672934	2482.768269
474.043479	2507.974038
474.413965	2528.138654
474.784393	2470.165385
475.154761	2447.480192
475.525070	2510.494615
475.895321	2513.015192
476.265513	2543.262115
476.635645	2485.288846
477.005719	2543.262115
477.375734	2485.288846
477.745691	2444.959615
478.115588	2409.671538
478.485427	2523.097500
478.855207	2515.535769
479.224928	2528.138654
479.594591	2482.768269
479.964194	2545.782692
480.333739	2495.371154
480.703226	2497.891731
481.072653	2513.015192
481.442022	2525.618077
481.811333	2553.344423
482.180584	2472.685962
482.549777	2487.809423
482.918912	2404.630385
483.287988	2538.220962
483.657005	2470.165385
484.025964	2455.041923
484.394864	2502.932885
484.763706	2432.356731
485.132489	2538.220962
485.501213	2540.741538
485.869879	2507.974038
486.238487	2465.124231
486.607036	2460.083077
486.975527	2497.891731
487.343959	2490.330000
487.712333	2447.480192
488.080648	2497.891731
488.448905	2485.288846
488.817104	2563.426731
489.185244	2540.741538
489.553326	2487.809423
489.921350	2422.274423
490.289315	2558.385577
490.657222	2444.959615
491.025070	2540.741538
491.392861	2533.179808
491.760593	2480.247692
492.128267	2548.303269
492.495883	2442.439038
492.863440	2495.371154
493.230939	2434.877308
493.598380	2505.453462
493.965763	2502.932885
494.333088	2505.453462
494.700354	2457.562500
495.067563	2588.632500
495.434713	2462.603654
495.801805	2510.494615
496.168839	2457.562500
496.535815	2513.015192
496.902733	2593.673654
497.269593	2490.330000
497.636395	2505.453462
498.003139	2518.056346
498.369825	2550.823846
498.736453	2565.947308
499.103023	2384.465769
499.469535	2472.685962
499.835989	2482.768269
500.202385	2540.741538
500.568723	2538.220962
500.935003	2432.356731
501.301226	2505.453462
501.667390	2550.823846
502.033497	2490.330000
502.399546	2487.809423
502.765537	2515.535769
503.131470	2533.179808
503.497345	2570.988462
503.863163	2570.988462
504.228923	2457.562500
504.594625	2457.562500
504.960269	2465.124231
505.325856	2439.918462
505.691385	2460.083077
506.056856	2412.192115
506.422270	2477.727115
506.787625	2497.891731
507.152924	2515.535769
507.518164	2485.288846
507.883347	2480.247692
508.248472	2523.097500
508.613540	2452.521346
508.978550	2467.644808
509.343503	2412.192115
509.708398	2611.317692
510.073236	2465.124231
510.438016	2565.947308
510.802738	2502.932885
511.167403	2424.795000
511.532010	2480.247692
511.896561	2442.439038
512.261053	2432.356731
512.625488	2500.412308
512.989866	2442.439038
513.354186	2419.753846
513.718449	2540.741538
514.082655	2520.576923
514.446803	2540.741538
514.810894	2460.083077
515.174927	2419.753846
515.538904	2475.206538
515.902822	2490.330000
516.266684	2520.576923
516.630488	2439.918462
516.994235	2550.823846
517.357925	2487.809423
517.721558	2465.124231
518.085133	2515.535769
518.448651	2460.083077
518.812112	2535.700385
519.175516	2497.891731
519.538863	2563.426731
519.902152	2507.974038
520.265385	2480.247692
520.628560	2558.385577
520.991678	2507.974038
521.354739	2475.206538
521.717743	2548.303269
522.080690	2555.865000
522.443580	2487.809423
522.806413	2618.879423
523.169189	2568.467885
523.531908	2472.685962
523.894569	2497.891731
524.257174	2538.220962
524.619722	2573.509038
524.982213	2447.480192
525.344647	2550.823846
525.707025	2502.932885
526.069345	2482.768269
526.431608	2439.918462
526.793815	2507.974038
527.155964	2586.111923
527.518057	2485.288846
527.880093	2515.535769
528.242072	2490.330000
528.603995	2472.685962
528.965860	2507.974038
529.327669	2472.685962
529.689421	2467.644808
530.051117	2525.618077
530.412755	2495.371154
530.774337	2538.220962
531.135862	2495.371154
531.497331	2502.932885
531.858743	2538.220962
532.220098	2528.138654
532.581396	2548.303269
532.942638	2497.891731
533.303824	2480.247692
533.664953	2558.385577
534.026025	2553.344423
534.387040	2417.233269
534.747999	2502.932885
535.108902	2550.823846
535.469748	2573.509038
535.830537	2576.029615
536.191270	2452.521346
536.551947	2429.836154
536.912567	2535.700385
537.273131	2485.288846
537.633638	2533.179808
537.994089	2505.453462
538.354483	2520.576923
538.714821	2487.809423
539.075103	2477.727115
539.435328	2520.576923
539.795497	2457.562500
540.155609	2505.453462
540.515665	2482.768269
540.875665	2507.974038
541.235609	2530.659231
541.595496	2518.056346
541.955328	2502.932885
542.315102	2520.576923
542.674821	2603.755962
543.034483	2465.124231
543.394090	2563.426731
543.753640	2510.494615
544.113134	2505.453462
544.472571	2475.206538
544.831953	2447.480192
545.191278	2520.576923
545.550548	2545.782692
545.909761	2548.303269
546.268918	2513.015192
546.628019	2502.932885
546.987064	2525.618077
547.346053	2558.385577
547.704986	2528.138654
548.063863	2455.041923
548.422684	2565.947308
548.781449	2447.480192
549.140158	2573.509038
549.498811	2462.603654
549.857408	2523.097500
550.215949	2497.891731
550.574434	2563.426731
550.932864	2439.918462
551.291237	2444.959615
551.649555	2515.535769
552.007817	2518.056346
552.366022	2581.070769
552.724173	2490.330000
553.082267	2513.015192
553.440305	2417.233269
553.798288	2528.138654
554.156215	2535.700385
554.514086	2490.330000
554.871902	2505.453462
555.229661	2472.685962
555.587365	2533.179808
555.945014	2487.809423
556.302606	2525.618077
556.660143	2528.138654
557.017625	2520.576923
557.375050	2540.741538
557.732421	2482.768269
558.089735	2482.768269
558.446994	2487.809423
558.804197	2596.194231
559.161345	2495.371154
559.518437	2470.165385
559.875474	2500.412308
560.232455	2482.768269
560.589381	2492.850577
560.946251	2472.685962
561.303065	2510.494615
561.659825	2429.836154
562.016528	2510.494615
562.373177	2500.412308
562.729770	2555.865000
563.086307	2510.494615
563.442789	2434.877308
563.799216	2455.041923
564.155587	2550.823846
564.511904	2482.768269
564.868164	2570.988462
565.224370	2523.097500
565.580520	2482.768269
565.936615	2505.453462
566.292654	2439.918462
566.648638	2550.823846
567.004567	2460.083077
567.360441	2500.412308
567.716260	2513.015192
568.072023	2480.247692
568.427732	2515.535769
568.783385	2485.288846
569.138982	2545.782692
569.494525	2475.206538
569.850013	2465.124231
570.205445	2487.809423
570.560823	2533.179808
570.916145	2548.303269
571.271412	2412.192115
571.626625	2487.809423
571.981782	2507.974038
572.336884	2520.576923
572.691931	2492.850577
573.046923	2465.124231
573.401860	2497.891731
573.756743	2513.015192
574.111570	2434.877308
574.466342	2576.029615
574.821059	2482.768269
575.175722	2548.303269
575.530330	2545.782692
575.884882	2457.562500
576.239380	2513.015192
576.593823	2520.576923
576.948211	2502.932885
577.302544	2427.315577
577.656823	2467.644808
578.011047	2515.535769
578.365216	2540.741538
578.719330	2485.288846
579.073389	2472.685962
579.427394	2452.521346
579.781344	2548.303269
580.135239	2455.041923
580.489080	2553.344423
580.842866	2444.959615
581.196597	2460.083077
581.550273	2507.974038
581.903895	2528.138654
582.257463	2505.453462
582.610975	2528.138654
582.964434	2555.865000
583.317837	2518.056346
583.671186	2583.591346
584.024481	2462.603654
584.377721	2452.521346
584.730906	2452.521346
585.084037	2472.685962
585.437113	2450.000769
585.790135	2591.153077
586.143103	2480.247692
586.496016	2485.288846
586.848874	2470.165385
587.201679	2505.453462
587.554428	2444.959615
587.907124	2470.165385
588.259765	2457.562500
588.612352	2565.947308
588.964884	2523.097500
589.317362	2492.850577
589.669786	2404.630385
590.022155	2563.426731
590.374470	2518.056346
590.726731	2465.124231
591.078937	2505.453462
591.431090	2553.344423
591.783188	2490.330000
592.135232	2422.274423
592.487222	2518.056346
592.839157	2427.315577
593.191038	2515.535769
593.542866	2465.124231
593.894639	2505.453462
594.246358	2513.015192
594.598022	2518.056346
594.949633	2432.356731
595.301190	2427.315577
595.652692	2477.727115
596.004141	2485.288846
596.355535	2457.562500
596.706876	2586.111923
597.058162	2472.685962
597.409395	2548.303269
597.760573	2518.056346
598.111698	2492.850577
598.462768	2457.562500
598.813785	2500.412308
599.164748	2462.603654
599.515657	2523.097500
599.866511	2560.906154
600.217312	2523.097500
600.568060	2500.412308
600.918753	2530.659231
601.269392	2455.041923
601.619978	2505.453462
601.970510	2500.412308
602.320988	2465.124231
602.671412	2530.659231
603.021783	2513.015192
603.372100	2578.550192
603.722363	2550.823846
604.072572	2487.809423
604.422728	2515.535769
604.772830	2470.165385
605.122878	2518.056346
605.472872	2545.782692
605.822813	2528.138654
606.172701	2558.385577
606.522534	2500.412308
606.872314	2528.138654
607.222041	2422.274423
607.571714	2568.467885
607.921333	2518.056346
608.270899	2434.877308
608.620411	2487.809423
608.969870	2530.659231
609.319276	2533.179808
609.668627	2487.809423
610.017926	2538.220962
610.367171	2422.274423
610.716362	2414.712692
611.065500	2576.029615
611.414585	2497.891731
611.763616	2563.426731
612.112594	2444.959615
612.461518	2578.550192
612.810389	2518.056346
613.159207	2578.550192
613.507971	2510.494615
613.856682	2528.138654
614.205340	2472.685962
614.553945	2528.138654
614.902496	2502.932885
615.250994	2470.165385
615.599439	2518.056346
615.947830	2480.247692
616.296169	2507.974038
616.644454	2520.576923
616.992686	2470.165385
617.340864	2558.385577
617.688990	2550.823846
618.037063	2578.550192
618.385082	2404.630385
618.733048	2525.618077
619.080961	2492.850577
619.428821	2530.659231
619.776628	2457.562500
620.124382	2477.727115
620.472083	2492.850577
620.819731	2555.865000
621.167326	2490.330000
621.514868	2447.480192
621.862357	2502.932885
622.209793	2450.000769
622.557176	2513.015192
622.904506	2505.453462
623.251783	2477.727115
623.599007	2505.453462
623.946179	2450.000769
624.293297	2450.000769
624.640363	2548.303269
624.987376	2507.974038
625.334336	2407.150962
625.681243	2520.576923
626.028097	2455.041923
626.374899	2472.685962
626.721647	2583.591346
627.068343	2432.356731
627.414987	2475.206538
627.761577	2452.521346
628.108115	2545.782692
628.454600	2515.535769
628.801032	2490.330000
629.147412	2523.097500
629.493739	2450.000769
629.840014	2487.809423
630.186236	2422.274423
630.532405	2540.741538
630.878521	2490.330000
631.224585	2500.412308
631.570597	2432.356731
631.916556	2480.247692
632.262462	2485.288846
632.608316	2470.165385
632.954117	2540.741538
633.299866	2490.330000
633.645562	2545.782692
633.991206	2492.850577
634.336797	2475.206538
634.682336	2570.988462
635.027823	2490.330000
635.373257	2528.138654
635.718639	2510.494615
636.063968	2578.550192
636.409245	2495.371154
636.754470	2520.576923
637.099642	2432.356731
637.444762	2429.836154
637.789829	2467.644808
638.134845	2467.644808
638.479808	2530.659231
638.824719	2485.288846
639.169577	2485.288846
639.514383	2598.714808
639.859137	2502.932885
640.203839	2515.535769
640.548489	2447.480192
640.893086	2482.768269
641.237632	2452.521346
641.582125	2576.029615
641.926566	2482.768269
642.270955	2603.755962
642.615292	2475.206538
642.959576	2475.206538
643.303809	2467.644808
643.647990	2510.494615
643.992118	2424.795000
644.336195	2507.974038
644.680219	2502.932885
645.024192	2533.179808
645.368112	2560.906154
645.711981	2502.932885
646.055797	2538.220962
646.399562	2515.535769
646.743274	2465.124231
647.086935	2490.330000
647.430544	2470.165385
647.774101	2437.397885
648.117606	2417.233269
648.461059	2397.068654
648.804460	2480.247692
649.147810	2515.535769
649.491108	2487.809423
649.834354	2477.727115
650.177548	2538.220962
650.520690	2480.247692
650.863781	2502.932885
651.206820	2573.509038
651.549807	2538.220962
651.892742	2467.644808
652.235626	2475.206538
652.578458	2399.589231
652.921238	2369.342308
653.263967	2548.303269
653.606644	2543.262115
653.949269	2543.262115
654.291843	2470.165385
654.634365	2621.400000
654.976836	2452.521346
655.319255	2565.947308
655.661622	2480.247692
656.003938	2540.741538
656.346203	2530.659231
656.688416	2586.111923
657.030577	2427.315577
657.372687	2450.000769
657.714746	2485.288846
658.056753	2439.918462
658.398708	2523.097500
658.740612	2452.521346
659.082465	2520.576923
659.424266	2402.109808
659.766016	2429.836154
660.107715	2429.836154
660.449362	2560.906154
660.790958	2525.618077
661.132503	2555.865000
661.473996	2465.124231
661.815438	2631.482308
662.156829	2515.535769
662.498168	2518.056346
662.839456	2513.015192
663.180693	2447.480192
663.521879	2535.700385
663.863013	2533.179808
664.204097	2442.439038
664.545129	2490.330000
664.886110	2477.727115
665.227040	2407.150962
665.567918	2510.494615
665.908746	2465.124231
666.249522	2530.659231
666.590248	2507.974038
666.930922	2568.467885
667.271545	2465.124231
667.612118	2558.385577
667.952639	2576.029615
668.293109	2442.439038
668.633528	2472.685962
668.973896	2502.932885
669.314213	2623.920577
669.654480	2447.480192
669.994695	2505.453462
670.334859	2455.041923
670.674973	2525.618077
671.015035	2404.630385
671.355047	2528.138654
671.695008	2482.768269
672.034918	2502.932885
672.374777	2523.097500
672.714585	2583.591346
673.054342	2507.974038
673.394049	2535.700385
673.733705	2560.906154
674.073310	2520.576923
674.412864	2485.288846
674.752368	2533.179808
675.091820	2518.056346
675.431223	2495.371154
675.770574	2520.576923
676.109875	2523.097500
676.449125	2450.000769
676.788324	2558.385577
677.127473	2573.509038
677.466571	2439.918462
677.805619	2470.165385
678.144616	2485.288846
678.483562	2518.056346
678.822458	2565.947308
679.161303	2570.988462
679.500098	2500.412308
679.838842	2482.768269
680.177535	2528.138654
680.516179	2462.603654
680.854771	2490.330000
681.193314	2495.371154
681.531805	2500.412308
681.870247	2528.138654
682.208638	2444.959615
682.546978	2470.165385
682.885268	2548.303269
683.223508	2515.535769
683.561697	2502.932885
683.899836	2513.015192
684.237925	2450.000769
684.575963	2497.891731
684.913951	2417.233269
685.251889	2500.412308
685.589776	2540.741538
685.927614	2510.494615
686.265401	2563.426731
686.603137	2513.015192
686.940824	2550.823846
687.278460	2470.165385
687.616046	2530.659231
687.953582	2475.206538
688.291068	2465.124231
688.628504	2455.041923
688.965889	2535.700385
689.303224	2520.576923
689.640510	2437.397885
689.977745	2467.644808
690.314930	2558.385577
690.652065	2528.138654
690.989150	2485.288846
691.326185	2482.768269
691.663170	2513.015192
692.000105	2543.262115
692.336990	2442.439038
692.673825	2528.138654
693.010610	2490.330000
693.347345	2480.247692
693.684030	2515.535769
694.020665	2545.782692
694.357251	2477.727115
694.693786	2515.535769
695.030272	2455.041923
695.366707	2492.850577
695.703093	2513.015192
696.039429	2543.262115
696.375716	2538.220962
696.711952	2502.932885
697.048139	2455.041923
697.384276	2485.288846
697.720363	2510.494615
698.056400	2558.385577
698.392388	2525.618077
698.728326	2422.274423
699.064214	2553.344423
699.400053	2540.741538
699.735842	2467.644808
700.071581	2533.179808
700.407270	2455.041923
700.742910	2535.700385
701.078501	2455.041923
701.414042	2472.685962
701.749533	2500.412308
702.084974	2528.138654
702.420366	2487.809423
702.755709	2462.603654
703.091002	2560.906154
703.426246	2490.330000
703.761440	2543.262115
704.096584	2457.562500
704.431679	2570.988462
704.766725	2455.041923
705.101721	2434.877308
705.436668	2465.124231
705.771565	2518.056346
706.106413	2444.959615
706.441212	2472.685962
706.775961	2543.262115
707.110661	2513.015192
707.445311	2507.974038
707.779913	2533.179808
708.114465	2515.535769
708.448967	2490.330000
708.783421	2470.165385
709.117825	2482.768269
709.452180	2485.288846
709.786485	2502.932885
710.120742	2565.947308
710.454949	2409.671538
710.789107	2470.165385
711.123216	2386.986346
711.457275	2520.576923
711.791286	2528.138654
712.125247	2439.918462
712.459159	2565.947308
712.793023	2462.603654
713.126837	2465.124231
713.460602	2558.385577
713.794318	2470.165385
714.127985	2492.850577
714.461602	2540.741538
714.795171	2402.109808
715.128691	2518.056346
715.462162	2500.412308
715.795584	2490.330000
716.128957	2455.041923
716.462281	2450.000769
716.795556	2482.768269
717.128782	2505.453462
717.461960	2540.741538
717.795088	2492.850577
718.128167	2424.795000
718.461198	2505.453462
718.794180	2548.303269
719.127113	2419.753846
719.459997	2611.317692
719.792833	2482.768269
720.125619	2523.097500
720.458357	2492.850577
720.791046	2434.877308
721.123686	2475.206538
721.456278	2460.083077
721.788821	2480.247692
722.121315	2475.206538
722.453761	2482.768269
722.786158	2497.891731
723.118506	2414.712692
723.450805	2394.548077
723.783056	2548.303269
724.115259	2455.041923
724.447412	2487.809423
724.779518	2518.056346
725.111574	2477.727115
725.443582	2507.974038
725.775542	2492.850577
726.107453	2523.097500
726.439315	2442.439038
726.771129	2553.344423
727.102895	2492.850577
727.434612	2545.782692
727.766281	2455.041923
728.097901	2470.165385
728.429473	2490.330000
728.760996	2434.877308
729.092471	2472.685962
729.423897	2477.727115
729.755276	2414.712692
730.086606	2439.918462
730.417887	2548.303269
730.749120	2439.918462
731.080305	2507.974038
731.411442	2548.303269
731.742530	2465.124231
732.073570	2518.056346
732.404562	2505.453462
732.735506	2528.138654
733.066401	2482.768269
733.397249	2533.179808
733.728048	2502.932885
734.058798	2447.480192
734.389501	2518.056346
734.720156	2490.330000
735.050762	2560.906154
735.381320	2465.124231
735.711831	2402.109808
736.042293	2608.797115
736.372707	2565.947308
736.703073	2500.412308
737.033391	2518.056346
737.363661	2465.124231
737.693883	2538.220962
738.024056	2442.439038
738.354182	2480.247692
738.684260	2407.150962
739.014290	2563.426731
739.344272	2447.480192
739.674207	2485.288846
740.004093	2444.959615
740.333931	2523.097500
740.663722	2409.671538
740.993464	2462.603654
741.323159	2553.344423
741.652806	2492.850577
741.982405	2505.453462
742.311956	2500.412308
742.641460	2394.548077
742.970915	2525.618077
743.300323	2460.083077
743.629683	2437.397885
743.958996	2465.124231
744.288260	2507.974038
744.617477	2477.727115
744.946647	2540.741538
745.275768	2422.274423
745.604842	2492.850577
745.933869	2518.056346
746.262847	2447.480192
746.591778	2520.576923
746.920662	2475.206538
747.249498	2510.494615
747.578286	2432.356731
747.907027	2492.850577
748.235720	2490.330000
748.564365	2467.644808
748.892963	2475.206538
749.221514	2510.494615
749.550017	2444.959615
749.878473	2460.083077
750.206881	2548.303269
750.535242	2477.727115
750.863555	2505.453462
751.191821	2528.138654
751.520039	2470.165385
751.848210	2477.727115
752.176334	2472.685962
752.504411	2513.015192
752.832440	2472.685962
753.160421	2520.576923
753.488356	2381.945192
753.816243	2485.288846
754.144082	2485.288846
754.471875	2540.741538
754.799620	2404.630385
755.127318	2470.165385
755.454969	2477.727115
755.782572	2533.179808
756.110129	2500.412308
756.437638	2548.303269
756.765100	2434.877308
757.092515	2472.685962
757.419882	2510.494615
757.747203	2475.206538
758.074477	2482.768269
758.401703	2507.974038
758.728882	2490.330000
759.056014	2555.865000
759.383099	2583.591346
759.710138	2515.535769
760.037129	2523.097500
760.364073	2485.288846
760.690970	2477.727115
761.017820	2570.988462
761.344623	2472.685962
761.671379	2505.453462
761.998088	2457.562500
762.324751	2543.262115
762.651366	2500.412308
762.977935	2550.823846
763.304456	2467.644808
763.630931	2497.891731
763.957359	2550.823846
764.283740	2455.041923
764.610074	2460.083077
764.936362	2457.562500
765.262602	2467.644808
765.588796	2470.165385
765.914943	2462.603654
766.241044	2540.741538
766.567097	2402.109808
766.893104	2553.344423
767.219064	2450.000769
767.544978	2510.494615
767.870845	2495.371154
768.196665	2505.453462
768.522438	2460.083077
768.848165	2515.535769
769.173846	2450.000769
769.499479	2518.056346
769.825066	2482.768269
770.150607	2570.988462
770.476101	2563.426731
770.801548	2581.070769
771.126949	2568.467885
771.452303	2495.371154
771.777611	2450.000769
772.102872	2520.576923
772.428087	2414.712692
772.753256	2487.809423
773.078378	2452.521346
773.403453	2570.988462
773.728482	2434.877308
774.053465	2437.397885
774.378401	2538.220962
774.703291	2465.124231
775.028135	2480.247692
775.352932	2573.509038
775.677683	2497.891731
776.002388	2518.056346
776.327046	2492.850577
776.651658	2530.659231
776.976224	2490.330000
777.300743	2487.809423
777.625216	2513.015192
777.949643	2455.041923
778.274024	2490.330000
778.598359	2460.083077
778.922647	2518.056346
779.246889	2550.823846
779.571086	2518.056346
779.895236	2510.494615
780.219339	2576.029615
780.543397	2533.179808
780.867409	2515.535769
781.191374	2482.768269
781.515294	2601.235385
781.839167	2497.891731
782.162995	2500.412308
782.486776	2422.274423
782.810511	2495.371154
783.134201	2510.494615
783.457844	2477.727115
783.781441	2520.576923
784.104993	2550.823846
784.428498	2533.179808
784.751958	2495.371154
785.075372	2553.344423
785.398739	2439.918462
785.722061	2495.371154
786.045337	2455.041923
786.368568	2548.303269
786.691752	2540.741538
787.014891	2530.659231
787.337983	2492.850577
787.661030	2543.262115
787.984031	2452.521346
788.306987	2520.576923
788.629897	2495.371154
788.952760	2525.618077
789.275579	2565.947308
789.598351	2475.206538
789.921078	2545.782692
790.243759	2588.632500
790.566395	2533.179808
790.888984	2422.274423
791.211529	2528.138654
791.534027	2462.603654
791.856480	2502.932885
792.178888	2414.712692
792.501249	2505.453462
792.823566	2467.644808
793.145836	2520.576923
793.468062	2460.083077
793.790241	2573.509038
794.112375	2573.509038
794.434464	2502.932885
794.756507	2515.535769
795.078505	2455.041923
795.400457	2465.124231
795.722364	2490.330000
796.044226	2601.235385
796.366042	2472.685962
796.687812	2467.644808
797.009538	2457.562500
797.331218	2525.618077
797.652852	2389.506923
797.974442	2530.659231
798.295986	2397.068654
798.617484	2507.974038
798.938938	2507.974038
799.260346	2515.535769
799.581709	2520.576923
799.903026	2422.274423
800.224299	2472.685962
800.545526	2482.768269
800.866708	2442.439038
801.187845	2424.795000
801.508936	2505.453462
801.829983	2490.330000
802.150984	2581.070769
802.471940	2480.247692
802.792851	2432.356731
803.113717	2502.932885
803.434538	2450.000769
803.755314	2470.165385
804.076045	2550.823846
804.396731	2560.906154
804.717372	2470.165385
805.037967	2530.659231
805.358518	2465.124231
805.679024	2480.247692
805.999485	2490.330000
806.319901	2495.371154
806.640272	2530.659231
806.960598	2513.015192
807.280879	2550.823846
807.601115	2495.371154
807.921306	2558.385577
808.241453	2480.247692
808.561554	2460.083077
808.881611	2576.029615
809.201623	2432.356731
809.521590	2513.015192
809.841513	2596.194231
810.161390	2434.877308
810.481223	2447.480192
810.801011	2434.877308
811.120755	2475.206538
811.440453	2497.891731
811.760107	2538.220962
812.079716	2487.809423
812.399281	2432.356731
812.718801	2548.303269
813.038276	2397.068654
813.357707	2497.891731
813.677093	2457.562500
813.996434	2576.029615
814.315731	2563.426731
814.634983	2392.027500
814.954191	2502.932885
815.273354	2467.644808
815.592473	2462.603654
815.911547	2495.371154
816.230577	2455.041923
816.549562	2545.782692
816.868502	2497.891731
817.187399	2570.988462
817.506250	2472.685962
817.825058	2528.138654
818.143821	2487.809423
818.462539	2507.974038
818.781213	2414.712692
819.099843	2505.453462
819.418429	2452.521346
819.736970	2477.727115
820.055466	2447.480192
820.373919	2593.673654
820.692327	2497.891731
821.010691	2444.959615
821.329011	2452.521346
821.647286	2533.179808
821.965517	2570.988462
822.283704	2583.591346
822.601847	2497.891731
822.919945	2530.659231
823.237999	2596.194231
823.556010	2560.906154
823.873976	2475.206538
824.191897	2492.850577
824.509775	2439.918462
824.827609	2507.974038
825.145398	2520.576923
825.463144	2492.850577
825.780845	2444.959615
826.098502	2525.618077
826.416116	2392.027500
826.733685	2424.795000
827.051210	2475.206538
827.368692	2427.315577
827.686129	2477.727115
828.003522	2475.206538
828.320872	2447.480192
828.638177	2452.521346
828.955439	2513.015192
829.272656	2518.056346
829.589830	2472.685962
829.906960	2467.644808
830.224046	2510.494615
830.541088	2510.494615
830.858086	2523.097500
831.175041	2520.576923
831.491952	2518.056346
831.808819	2444.959615
832.125642	2525.618077
832.442421	2444.959615
832.759157	2555.865000
833.075849	2482.768269
833.392497	2528.138654
833.709101	2437.397885
834.025662	2457.562500
834.342179	2432.356731
834.658653	2555.865000
834.975083	2548.303269
835.291469	2437.397885
835.607811	2583.591346
835.924110	2419.753846
836.240366	2528.138654
836.556578	2507.974038
836.872746	2543.262115
837.188871	2520.576923
837.504952	2404.630385
837.820990	2523.097500
838.136984	2528.138654
838.452935	2500.412308
838.768842	2429.836154
839.084706	2492.850577
839.400526	2455.041923
839.716303	2497.891731
840.032037	2470.165385
840.347727	2555.865000
840.663373	2455.041923
840.978977	2462.603654
841.294537	2462.603654
841.610054	2545.782692
841.925527	2598.714808
842.240957	2502.932885
842.556344	2510.494615
842.871687	2490.330000
843.186987	2467.644808
843.502244	2432.356731
843.817458	2495.371154
844.132629	2490.330000
844.447756	2444.959615
844.762840	2578.550192
845.077881	2490.330000
845.392879	2452.521346
845.707833	2525.618077
846.022745	2502.932885
846.337613	2381.945192
846.652438	2560.906154
846.967221	2455.041923
847.281960	2467.644808
847.596656	2576.029615
847.911309	2485.288846
848.225919	2560.906154
848.540485	2457.562500
848.855009	2462.603654
849.169490	2477.727115
849.483928	2432.356731
849.798323	2460.083077
850.112675	2502.932885
850.426984	2444.959615
850.741251	2553.344423
851.055474	2510.494615
851.369654	2450.000769
851.683792	2535.700385
851.997887	2427.315577
852.311938	2510.494615
852.625947	2515.535769
852.939914	2545.782692
853.253837	2497.891731
853.567718	2513.015192
853.881555	2510.494615
854.195350	2442.439038
854.509103	2502.932885
854.822812	2487.809423
855.136479	2540.741538
855.450103	2505.453462
855.763685	2470.165385
856.077224	2520.576923
856.390720	2442.439038
856.704173	2455.041923
857.017584	2452.521346
857.330953	2480.247692
857.644278	2525.618077
857.957561	2465.124231
858.270802	2533.179808
858.584000	2560.906154
858.897155	2470.165385
859.210268	2588.632500
859.523339	2487.809423
859.836367	2535.700385
860.149352	2470.165385
860.462295	2560.906154
860.775195	2492.850577
861.088054	2452.521346
861.400869	2588.632500
861.713642	2470.165385
862.026373	2475.206538
862.339062	2530.659231
862.651708	2581.070769
862.964312	2467.644808
863.276873	2500.412308
863.589392	2553.344423
863.901869	2434.877308
864.214303	2434.877308
864.526696	2437.397885
864.839045	2520.576923
865.151353	2505.453462
865.463619	2523.097500
865.775842	2482.768269
866.088023	2462.603654
866.400162	2490.330000
866.712258	2432.356731
867.024313	2500.412308
867.336325	2490.330000
867.648296	2429.836154
867.960224	2444.959615
868.272110	2470.165385
868.583954	2465.124231
868.895755	2530.659231
869.207515	2520.576923
869.519233	2457.562500
869.830909	2465.124231
870.142542	2497.891731
870.454134	2434.877308
870.765684	2515.535769
871.077191	2432.356731
871.388657	2502.932885
871.700081	2412.192115
872.011463	2487.809423
872.322803	2462.603654
872.634101	2414.712692
872.945357	2530.659231
873.256571	2475.206538
873.567744	2376.904038
873.878874	2465.124231
874.189963	2437.397885
874.501010	2525.618077
874.812015	2482.768269
875.122979	2507.974038
875.433900	2422.274423
875.744780	2462.603654
876.055618	2518.056346
876.366415	2434.877308
876.677169	2482.768269
876.987882	2510.494615
877.298554	2505.453462
877.609183	2507.974038
877.919771	2502.932885
878.230317	2450.000769
878.540822	2439.918462
878.851285	2603.755962
879.161707	2467.644808
879.472087	2530.659231
879.782425	2480.247692
880.092722	2560.906154
880.402977	2525.618077
880.713191	2563.426731
881.023363	2565.947308
881.333494	2455.041923
881.643583	2460.083077
881.953631	2518.056346
882.263637	2460.083077
882.573602	2507.974038
882.883526	2548.303269
883.193408	2439.918462
883.503248	2528.138654
883.813048	2520.576923
884.122806	2538.220962
884.432522	2533.179808
884.742197	2555.865000
885.051831	2462.603654
885.361424	2570.988462
885.670975	2427.315577
885.980485	2460.083077
886.289954	2518.056346
886.599382	2535.700385
886.908768	2550.823846
887.218113	2482.768269
887.527417	2545.782692
887.836680	2492.850577
888.145901	2477.727115
888.455082	2515.535769
888.764221	2555.865000
889.073319	2563.426731
889.382376	2480.247692
889.691392	2487.809423
890.000366	2467.644808
890.309300	2518.056346
890.618193	2460.083077
890.927044	2470.165385
891.235855	2492.850577
891.544625	2583.591346
891.853353	2462.603654
892.162041	2465.124231
892.470687	2394.548077
892.779293	2525.618077
893.087858	2570.988462
893.396381	2505.453462
893.704864	2538.220962
894.013306	2432.356731
894.321707	2437.397885
894.630068	2576.029615
894.938387	2492.850577
895.246665	2507.974038
895.554903	2480.247692
895.863100	2442.439038
896.171256	2523.097500
896.479371	2555.865000
896.787446	2523.097500
897.095480	2530.659231
897.403473	2439.918462
897.711425	2460.083077
898.019336	2442.439038
898.327207	2525.618077
898.635038	2475.206538
898.942827	2470.165385
899.250576	2510.494615
899.558284	2439.918462
899.865952	2482.768269
900.173579	2518.056346
900.481165	2565.947308
900.788711	2485.288846
901.096216	2535.700385
901.403681	2475.206538
901.711105	2497.891731
902.018489	2487.809423
902.325832	2543.262115
902.633135	2548.303269
902.940397	2613.838269
903.247619	2533.179808
903.554800	2568.467885
903.861941	2505.453462
904.169041	2492.850577
904.476101	2515.535769
904.783121	2525.618077
905.090100	2472.685962
905.397039	2553.344423
905.703938	2596.194231
906.010796	2432.356731
906.317614	2472.685962
906.624391	2434.877308
906.931129	2550.823846
907.237826	2543.262115
907.544483	2470.165385
907.851099	2394.548077
908.157675	2497.891731
908.464211	2444.959615
908.770707	2444.959615
909.077163	2550.823846
909.383578	2457.562500
909.689954	2392.027500
909.996289	2507.974038
910.302584	2477.727115
910.608839	2510.494615
910.915054	2457.562500
911.221229	2475.206538
911.527363	2497.891731
911.833458	2467.644808
912.139513	2510.494615
912.445527	2437.397885
912.751502	2487.809423
913.057436	2538.220962
913.363331	2457.562500
913.669186	2495.371154
913.975000	2507.974038
914.280775	2543.262115
914.586510	2452.521346
914.892205	2492.850577
915.197859	2523.097500
915.503475	2447.480192
915.809050	2470.165385
916.114585	2555.865000
916.420081	2460.083077
916.725536	2530.659231
917.030952	2568.467885
917.336328	2495.371154
917.641665	2558.385577
917.946961	2475.206538
918.252218	2540.741538
918.557435	2548.303269
918.862612	2402.109808
919.167750	2487.809423
919.472848	2467.644808
919.777906	2510.494615
920.082925	2487.809423
920.387904	2485.288846
920.692843	2447.480192
920.997743	2472.685962
921.302603	2520.576923
921.607423	2502.932885
921.912204	2457.562500
922.216946	2462.603654
922.521647	2505.453462
922.826310	2550.823846
923.130932	2520.576923
923.435516	2518.056346
923.740059	2495.371154
924.044564	2502.932885
924.349028	2429.836154
924.653454	2525.618077
924.957840	2442.439038
925.262186	2507.974038
925.566493	2450.000769
925.870761	2520.576923
926.174989	2397.068654
926.479178	2485.288846
926.783328	2568.467885
927.087438	2434.877308
927.391509	2470.165385
927.695541	2513.015192
927.999533	2543.262115
928.303486	2543.262115
928.607400	2412.192115
928.911275	2545.782692
929.215110	2490.330000
929.518906	2460.083077
929.822663	2525.618077
930.126381	2515.535769
930.430060	2533.179808
930.733699	2455.041923
931.037299	2510.494615
931.340861	2457.562500
931.644383	2538.220962
931.947866	2500.412308
932.251309	2482.768269
932.554714	2444.959615
932.858080	2457.562500
933.161407	2482.768269
933.464694	2480.247692
933.767943	2515.535769
934.071153	2482.768269
934.374323	2452.521346
934.677455	2429.836154
934.980548	2455.041923
935.283602	2437.397885
935.586617	2500.412308
935.889593	2495.371154
936.192530	2465.124231
936.495428	2427.315577
936.798287	2502.932885
937.101108	2495.371154
937.403890	2497.891731
937.706632	2482.768269
938.009336	2523.097500
938.312002	2455.041923
938.614628	2457.562500
938.917216	2492.850577
939.219765	2495.371154
939.522275	2530.659231
939.824747	2417.233269
940.127179	2553.344423
940.429573	2394.548077
940.731929	2507.974038
941.034246	2495.371154
941.336524	2502.932885
941.638763	2450.000769
941.940964	2492.850577
942.243126	2467.644808
942.545250	2518.056346
942.847335	2525.618077
943.149381	2530.659231
943.451389	2470.165385
943.753359	2487.809423
944.055290	2548.303269
944.357182	2437.397885
944.659036	2581.070769
944.960851	2515.535769
945.262628	2432.356731
945.564367	2467.644808
945.866067	2447.480192
946.167729	2510.494615
946.469352	2442.439038
946.770937	2510.494615
947.072484	2472.685962
947.373992	2447.480192
947.675462	2439.918462
947.976893	2399.589231
948.278286	2429.836154
948.579641	2480.247692
948.880958	2482.768269
949.182236	2550.823846
949.483476	2550.823846
949.784678	2460.083077
950.085841	2510.494615
950.386967	2606.276538
950.688054	2439.918462
950.989103	2480.247692
951.290114	2470.165385
951.591087	2515.535769
951.892021	2492.850577
952.192917	2450.000769
952.493776	2515.535769
952.794596	2465.124231
953.095378	2513.015192
953.396122	2460.083077
953.696828	2505.453462
953.997496	2492.850577
954.298126	2558.385577
954.598718	2465.124231
954.899272	2490.330000
955.199788	2437.397885
955.500266	2535.700385
955.800706	2578.550192
956.101108	2548.303269
956.401472	2455.041923
956.701798	2467.644808
957.002087	2543.262115
957.302337	2497.891731
957.602550	2507.974038
957.902724	2482.768269
958.202861	2402.109808
958.502960	2545.782692
958.803022	2467.644808
959.103045	2497.891731
959.403031	2450.000769
959.702979	2505.453462
960.002889	2523.097500
960.302762	2427.315577
960.602596	2518.056346
960.902393	2480.247692
961.202153	2497.891731
961.501875	2434.877308
961.801559	2467.644808
962.101205	2457.562500
962.400814	2530.659231
962.700385	2467.644808
962.999918	2417.233269
963.299414	2507.974038
963.598873	2472.685962
963.898293	2525.618077
964.197677	2518.056346
964.497022	2558.385577
964.796331	2442.439038
965.095601	2434.877308
965.394835	2523.097500
965.694030	2422.274423
965.993189	2472.685962
966.292309	2465.124231
966.591393	2442.439038
966.890439	2570.988462
967.189447	2434.877308
967.488419	2555.865000
967.787353	2518.056346
968.086249	2495.371154
968.385108	2480.247692
968.683930	2447.480192
968.982714	2502.932885
969.281462	2548.303269
969.580172	2467.644808
969.878844	2520.576923
970.177480	2502.932885
970.476078	2434.877308
970.774639	2437.397885
971.073162	2563.426731
971.371649	2480.247692
971.670098	2495.371154
971.968510	2502.932885
972.266885	2518.056346
972.565223	2429.836154
972.863524	2369.342308
973.161788	2518.056346
973.460014	2525.618077
973.758204	2548.303269
974.056356	2500.412308
974.354471	2470.165385
974.652550	2467.644808
974.950591	2523.097500
975.248595	2457.562500
975.546563	2540.741538
975.844493	2460.083077
976.142386	2538.220962
976.440243	2495.371154
976.738062	2523.097500
977.035845	2434.877308
977.333590	2510.494615
977.631299	2538.220962
977.928971	2492.850577
978.226606	2515.535769
978.524204	2548.303269
978.821765	2490.330000
979.119290	2502.932885
979.416777	2495.371154
979.714228	2457.562500
980.011642	2452.521346
980.309020	2560.906154
980.606360	2520.576923
980.903664	2371.862885
981.200931	2457.562500
981.498162	2465.124231
981.795356	2470.165385
982.092513	2500.412308
982.389633	2475.206538
982.686717	2528.138654
982.983764	2482.768269
983.280775	2505.453462
983.577749	2505.453462
983.874686	2452.521346
984.171587	2452.521346
984.468451	2520.576923
984.765279	2543.262115
985.062070	2507.974038
985.358824	2525.618077
985.655543	2520.576923
985.952224	2485.288846
986.248869	2540.741538
986.545478	2457.562500
986.842050	2492.850577
987.138586	2419.753846
987.435086	2477.727115
987.731549	2429.836154
988.027975	2523.097500
988.324366	2505.453462
988.620719	2510.494615
988.917037	2568.467885
989.213318	2490.330000
989.509563	2525.618077
989.805772	2507.974038
990.101944	2465.124231
990.398080	2568.467885
990.694180	2560.906154
990.990244	2502.932885
991.286271	2487.809423
991.582262	2452.521346
991.878217	2472.685962
992.174136	2495.371154
992.470019	2545.782692
992.765865	2523.097500
993.061676	2540.741538
993.357450	2429.836154
993.653188	2507.974038
993.948890	2437.397885
994.244556	2545.782692
994.540186	2485.288846
994.835780	2465.124231
995.131337	2507.974038
995.426859	2553.344423
995.722345	2472.685962
996.017795	2513.015192
996.313208	2528.138654
996.608586	2563.426731
996.903928	2505.453462
997.199234	2419.753846
997.494504	2530.659231
997.789738	2417.233269
998.084936	2485.288846
998.380099	2548.303269
998.675225	2525.618077
998.970316	2520.576923
999.265371	2467.644808
999.560390	2583.591346
999.855373	2462.603654
1000.150320	2482.768269
1000.445232	2470.165385
1000.740108	2442.439038
1001.034948	2525.618077
1001.329752	2576.029615
1001.624521	2465.124231
1001.919254	2419.753846
1002.213951	2419.753846
1002.508613	2412.192115
1002.803239	2593.673654
1003.097829	2447.480192
1003.392384	2510.494615
1003.686903	2480.247692
1003.981386	2525.618077
1004.275834	2485.288846
1004.570246	2462.603654
1004.864623	2429.836154
1005.158964	2535.700385
1005.453270	2492.850577
1005.747540	2588.632500
1006.041775	2490.330000
1006.335974	2455.041923
1006.630138	2482.768269
1006.924266	2485.288846
1007.218359	2528.138654
1007.512416	2419.753846
1007.806438	2412.192115
1008.100425	2470.165385
1008.394376	2482.768269
1008.688292	2412.192115
1008.982172	2480.247692
1009.276017	2455.041923
1009.569827	2510.494615
1009.863602	2455.041923
1010.157341	2475.206538
1010.451045	2525.618077
1010.744714	2513.015192
1011.038347	2505.453462
1011.331945	2482.768269
1011.625508	2467.644808
1011.919036	2467.644808
1012.212528	2500.412308
1012.505986	2482.768269
1012.799408	2480.247692
1013.092795	2412.192115
1013.386147	2472.685962
1013.679464	2495.371154
1013.972745	2495.371154
1014.265992	2450.000769
1014.559204	2490.330000
1014.852380	2485.288846
1015.145521	2477.727115
1015.438628	2417.233269
1015.731699	2560.906154
1016.024736	2485.288846
1016.317737	2452.521346
1016.610703	2467.644808
1016.903635	2533.179808
1017.196531	2470.165385
1017.489393	2528.138654
1017.782219	2450.000769
1018.075011	2502.932885
1018.367768	2505.453462
1018.660490	2515.535769
1018.953177	2515.535769
1019.245829	2515.535769
