Dividing Wavelength (nm)	Counts (n)	Blue Motor Position (mm): 7.300000	Red Motor Position (mm): 0.000000	
326.493990	2141.076341
326.888308	2141.076341
327.282561	2141.076341
327.676750	2110.700868
328.070874	2108.923862
328.464933	2110.206835
328.858929	2118.512136
329.252859	2123.613784
329.646726	2137.580301
330.040528	2150.727630
330.434265	2168.623726
330.827938	2185.047805
331.221547	2204.378110
331.615091	2224.106665
332.008571	2242.456465
332.401986	2261.249887
332.795338	2280.381066
333.188625	2299.968469
333.581847	2320.433033
333.975006	2339.576815
334.368100	2355.164063
334.761129	2373.350025
335.154095	2392.579506
335.546996	2407.859244
335.939833	2422.705442
336.332606	2438.166661
336.725315	2449.428598
337.117960	2459.904116
337.510540	2467.627164
337.903056	2479.557054
338.295508	2484.512508
338.687896	2494.007522
339.080220	2502.365755
339.472480	2507.651405
339.864676	2513.657939
340.256807	2519.573733
340.648875	2523.924249
341.040879	2521.164217
341.432818	2527.538757
341.824694	2523.982223
342.216506	2528.234436
342.608253	2528.499096
342.999937	2525.360978
343.391557	2527.715197
343.783113	2525.310567
344.174605	2524.821575
344.566033	2524.234280
344.957397	2524.594723
345.348697	2518.424350
345.739934	2519.992149
346.131106	2515.762621
346.522215	2517.978208
346.913260	2513.330264
347.304241	2510.267763
347.695159	2510.729029
348.086012	2508.785664
348.476802	2507.011178
348.867528	2502.819459
349.258191	2505.695437
349.648789	2501.783502
350.039324	2499.308295
350.429796	2499.537668
350.820203	2497.697646
351.210548	2498.342914
351.600828	2493.911740
351.991045	2497.775784
352.381198	2496.165136
352.771288	2495.048520
353.161314	2494.370485
353.551276	2494.816627
353.941175	2495.542553
354.331010	2494.733448
354.720782	2493.268993
355.110490	2496.739827
355.500135	2494.919971
355.889717	2494.055413
356.279235	2494.962820
356.668689	2495.222440
357.058080	2492.255721
357.447408	2492.643890
357.836672	2491.313025
358.225873	2492.724548
358.615010	2491.885196
359.004084	2498.610095
359.393095	2496.699498
359.782043	2497.818634
360.170927	2496.092039
360.559748	2497.611947
360.948505	2499.570435
361.337199	2498.841988
361.725830	2500.283758
362.114398	2499.008346
362.502903	2502.161588
362.891344	2500.341732
363.279722	2501.894407
363.668037	2501.387771
364.056289	2501.223933
364.444478	2500.992040
364.832603	2504.906496
365.220665	2503.830210
365.608665	2505.403050
365.996601	2506.743997
366.384474	2505.501352
366.772284	2506.945643
367.160031	2504.422546
367.547715	2508.329440
367.935336	2506.020591
368.322893	2508.195849
368.710388	2506.373472
369.097820	2508.301713
369.485189	2507.497649
369.872495	2509.559481
370.259738	2507.298524
370.646918	2508.334481
371.034035	2508.924296
371.421090	2509.771210
371.808081	2509.816580
372.195010	2509.025119
372.581875	2508.079903
372.968678	2507.822804
373.355418	2509.531755
373.742096	2509.854389
374.128710	2509.148627
374.515262	2510.058556
374.901751	2509.725839
375.288177	2511.301200
375.674540	2510.194667
376.060841	2511.129801
376.447079	2509.685510
376.833254	2511.601149
377.219367	2508.977228
377.605417	2509.559481
377.991404	2508.203411
378.377329	2507.974038
378.763191	2510.429080
379.148991	2511.265912
379.534727	2514.809843
379.920402	2515.109792
380.306013	2511.215500
380.691563	2515.747498
381.077049	2513.834380
381.462474	2513.904956
381.847835	2514.872858
382.233134	2516.266737
382.618371	2515.147600
383.003545	2516.788496
383.388657	2512.407733
383.773706	2514.890502
384.158693	2516.594412
384.543618	2515.704648
384.928480	2513.461334
385.313280	2514.824967
385.698017	2517.713548
386.082692	2517.446367
386.467305	2515.853362
386.851856	2519.886285
387.236344	2517.766480
387.620770	2519.460308
388.005133	2520.022396
388.389435	2520.332427
388.773674	2516.987622
389.157851	2517.239679
389.541965	2519.316635
389.926018	2515.785306
390.310008	2520.292098
390.693936	2518.200019
391.077802	2521.229752
391.461606	2519.724968
391.845348	2520.004752
392.229027	2521.222191
392.612645	2520.065246
392.996200	2522.285874
393.379694	2519.036851
393.763125	2521.539783
394.146494	2520.589526
394.529801	2520.150946
394.913047	2521.101203
395.296230	2522.643796
395.679351	2519.954341
396.062410	2519.848476
396.445408	2522.220339
396.828343	2524.630011
397.211217	2519.581295
397.594028	2524.816533
397.976778	2519.233456
398.359466	2520.463497
398.742092	2519.808147
399.124656	2523.851153
399.507158	2521.388549
399.889598	2526.946421
400.271977	2523.757891
400.654294	2524.012469
401.036549	2523.483148
401.418742	2525.963396
401.800874	2524.067922
402.182944	2525.020700
402.564952	2524.975330
402.946898	2527.009435
403.328783	2523.783097
403.710606	2527.329549
404.092367	2523.596574
404.474067	2527.163191
404.855705	2527.327028
405.237282	2526.099507
405.618797	2523.309228
406.000250	2527.442975
406.381642	2525.509692
406.762972	2526.137316
407.144240	2524.274609
407.525447	2528.733510
407.906593	2525.887779
408.287677	2525.512213
408.668700	2527.561442
409.049661	2528.191586
409.430560	2529.192255
409.811399	2529.340969
410.192176	2531.183511
410.572891	2528.536905
410.953545	2530.079498
411.334138	2530.137471
411.714669	2529.335928
412.095139	2529.802235
412.475547	2527.533715
412.855894	2528.307533
413.236180	2529.537574
413.616405	2530.500434
413.996568	2528.373068
414.376670	2529.333407
414.756711	2530.598737
415.136691	2532.685775
415.516609	2531.140661
415.896466	2530.177801
416.276262	2533.051258
416.655997	2525.534898
417.035670	2524.561955
417.415283	2528.466329
417.794834	2525.628159
418.174324	2532.171577
418.553753	2530.001360
418.933121	2531.853984
419.312428	2531.266690
419.691674	2531.150743
420.070859	2530.500434
420.449983	2531.208717
420.829045	2529.814838
421.208047	2530.760054
421.586988	2532.471526
421.965867	2534.361958
422.344686	2531.864067
422.723444	2529.572862
423.102141	2534.508152
423.480777	2532.884900
423.859352	2535.642411
424.237866	2535.118131
424.616319	2531.377595
424.994712	2533.285672
425.373044	2532.020342
425.751314	2531.775846
426.129524	2534.780374
426.507673	2536.363296
426.885762	2534.684592
427.263789	2534.460261
427.641756	2533.444468
428.019662	2534.253573
428.397508	2532.446320
428.775292	2534.508152
429.153016	2535.518903
429.530679	2535.798687
429.908282	2534.215765
430.285824	2534.888759
430.663305	2533.567977
431.040726	2536.174253
431.418086	2536.537216
431.795385	2537.305992
432.172624	2536.990920
432.549802	2536.794315
432.926920	2535.937319
433.303977	2536.690971
433.680974	2536.736342
434.057910	2534.717360
434.434786	2536.953111
434.811601	2538.057124
435.188355	2533.290713
435.565050	2535.375230
435.941683	2538.165509
436.318257	2536.575025
436.694770	2533.071423
437.071222	2531.521268
437.447614	2533.482277
437.823946	2533.018491
438.200218	2539.254398
438.576429	2534.500590
438.952580	2537.235416
439.328670	2536.151568
439.704700	2537.908410
440.080670	2538.102494
440.456580	2539.556867
440.832429	2539.461085
441.208218	2537.815149
441.583947	2538.258770
441.959616	2536.973276
442.335224	2538.871270
442.710773	2536.204500
443.086261	2539.506456
443.461689	2539.652649
443.837057	2538.205838
444.212365	2538.697351
444.587612	2538.808256
444.962800	2538.775488
445.337927	2539.662732
445.712995	2538.737680
446.088002	2539.539223
446.462949	2539.330015
446.837837	2539.622402
447.212664	2537.941178
447.587431	2538.536034
447.962139	2539.224151
448.336786	2541.462423
448.711374	2539.957639
449.085901	2542.047197
449.460369	2541.356559
449.834776	2541.958977
450.209124	2538.561239
450.583412	2541.565767
450.957640	2538.707433
451.331808	2540.809594
451.705917	2542.606765
452.079965	2542.021992
452.453954	2541.812784
452.827883	2541.359080
453.201752	2538.876312
453.575562	2539.861857
453.949311	2542.556354
454.323001	2540.925541
454.696632	2541.643905
455.070202	2542.155582
455.443713	2542.581560
455.817164	2536.958152
456.190556	2536.305323
456.563888	2538.485622
456.937160	2538.548637
457.310373	2541.729605
457.683526	2540.978473
458.056619	2541.951415
458.429653	2542.730274
458.802628	2544.262784
459.175542	2543.262115
459.548398	2542.077444
459.921194	2541.228010
460.293930	2543.889739
460.666607	2540.640715
461.039224	2543.501570
461.411782	2539.612320
461.784280	2544.466951
462.156719	2541.016281
462.529099	2543.335212
462.901419	2543.133566
463.273680	2545.649102
463.645882	2542.246323
464.018024	2544.459389
464.390106	2544.701365
464.762130	2544.131714
465.134094	2543.930068
465.505999	2544.295552
465.877845	2543.168854
466.249631	2544.749256
466.621358	2543.289842
466.993026	2546.677497
467.364634	2547.577343
467.736184	2541.888401
468.107674	2544.895449
468.479105	2544.237579
468.850477	2546.004503
469.221790	2543.897301
469.593043	2543.864533
469.964238	2544.895449
470.335373	2545.092054
470.706449	2547.529452
471.077467	2542.831097
471.448425	2545.364277
471.819324	2542.808412
472.190164	2544.527445
472.560945	2545.777651
472.931667	2544.406457
473.302330	2545.888557
473.672934	2545.351674
474.043479	2544.073741
474.413965	2545.976777
474.784393	2541.807742
475.154761	2544.033412
475.525070	2541.467465
475.895321	2540.408822
476.265513	2538.919161
476.635645	2544.101468
477.005719	2546.032229
477.375734	2545.424770
477.745691	2545.429812
478.115588	2547.491643
478.485427	2546.095244
478.855207	2544.028371
479.224928	2546.511139
479.594591	2549.104813
479.964194	2546.092723
480.333739	2546.047353
480.703226	2547.521890
481.072653	2545.399565
481.442022	2545.601211
481.811333	2546.753114
482.180584	2545.318906
482.549777	2546.062476
482.918912	2544.048535
483.287988	2547.582384
483.657005	2544.918134
484.025964	2545.311344
484.394864	2546.934596
484.763706	2549.656819
485.132489	2544.096426
485.501213	2547.146324
485.869879	2543.481406
486.238487	2543.688093
486.607036	2543.287321
486.975527	2548.036088
487.343959	2545.512991
487.712333	2546.680018
488.080648	2548.351160
488.448905	2547.007693
488.817104	2545.520552
489.185244	2544.504760
489.553326	2547.534493
489.921350	2548.699000
490.289315	2547.592467
490.657222	2546.581715
491.025070	2547.610111
491.392861	2547.007693
491.760593	2545.313865
492.128267	2551.683363
492.495883	2546.823691
492.863440	2547.310162
493.230939	2548.469627
493.598380	2548.116747
493.965763	2542.132897
494.333088	2544.048535
494.700354	2546.874102
495.067563	2544.701365
495.434713	2541.220448
495.801805	2546.629606
496.168839	2545.840666
496.535815	2545.754966
496.902733	2545.843186
497.269593	2549.079607
497.636395	2547.514329
498.003139	2545.830583
498.369825	2549.581202
498.736453	2551.237221
499.103023	2547.189174
499.469535	2546.947199
499.835989	2547.080789
500.202385	2550.274360
500.568723	2549.868547
500.935003	2549.492982
501.301226	2548.174720
501.667390	2547.660522
502.033497	2546.957281
502.399546	2551.968188
502.765537	2548.441901
503.131470	2546.344781
503.497345	2548.983825
503.863163	2550.937272
504.228923	2548.131870
504.594625	2549.193033
504.960269	2546.075079
505.325856	2551.259906
505.691385	2548.802343
506.056856	2547.312683
506.422270	2550.624721
506.787625	2549.061963
507.152924	2547.327806
507.518164	2549.303938
507.883347	2549.586243
508.248472	2548.802343
508.613540	2549.031716
508.978550	2547.282436
509.343503	2548.099102
509.708398	2550.123126
510.073236	2546.735470
510.438016	2548.482230
510.802738	2549.256047
511.167403	2551.890050
511.532010	2551.338044
511.896561	2549.714792
512.261053	2551.496840
512.625488	2546.405275
512.989866	2544.177085
513.354186	2548.467107
513.718449	2543.662887
514.082655	2549.011551
514.446803	2546.629606
514.810894	2549.828218
515.174927	2549.356870
515.538904	2550.223949
515.902822	2549.931562
516.266684	2548.865358
516.630488	2548.399051
516.994235	2550.753270
517.357925	2552.903322
517.721558	2548.210008
518.085133	2547.368135
518.448651	2549.906356
518.812112	2547.789072
519.175516	2550.261757
519.538863	2549.651778
519.902152	2548.610780
520.265385	2549.371994
520.628560	2550.090358
520.991678	2549.339226
521.354739	2550.234031
521.717743	2549.588763
522.080690	2549.099772
522.443580	2551.335523
522.806413	2552.401727
523.169189	2550.997766
523.531908	2549.150183
523.894569	2551.043136
524.257174	2549.687066
524.619722	2549.523228
524.982213	2552.094217
525.344647	2551.620348
525.707025	2549.929041
526.069345	2551.209494
526.431608	2550.337375
526.793815	2550.463404
527.155964	2553.616645
527.518057	2551.143959
527.880093	2550.990204
528.242072	2549.999618
528.603995	2554.181255
528.965860	2549.984494
529.327669	2550.450801
529.689421	2550.801161
530.051117	2549.858465
530.412755	2549.424926
530.774337	2555.033210
531.135862	2551.925338
531.497331	2549.893753
531.858743	2548.648588
532.220098	2548.777138
532.581396	2543.851930
532.942638	2547.342929
533.303824	2547.337888
533.664953	2550.317210
534.026025	2550.186140
534.387040	2551.118754
534.747999	2548.056253
535.108902	2550.680173
535.469748	2549.976932
535.830537	2549.445091
536.191270	2549.319062
536.551947	2551.980791
536.912567	2551.809392
537.273131	2550.528939
537.633638	2551.562375
537.994089	2549.830739
538.354483	2550.942313
538.714821	2553.367108
539.075103	2554.503888
539.435328	2555.446584
539.795497	2549.041798
540.155609	2551.632951
540.515665	2550.443239
540.875665	2552.769732
541.235609	2552.212684
541.595496	2549.888712
541.955328	2552.477345
542.315102	2551.307797
542.674821	2549.883671
543.034483	2551.942982
543.394090	2553.316697
543.753640	2555.474311
544.113134	2552.230328
544.472571	2551.249824
544.831953	2552.865513
545.191278	2550.198743
545.550548	2552.563044
545.909761	2552.217725
546.268918	2552.885678
546.628019	2552.028682
546.987064	2553.450287
547.346053	2553.447767
547.704986	2556.787531
548.063863	2551.547252
548.422684	2553.256203
548.781449	2554.193858
549.140158	2552.437015
549.498811	2554.493806
549.857408	2554.695452
550.215949	2550.665050
550.574434	2550.460883
550.932864	2549.729916
551.291237	2549.067004
551.649555	2552.880637
552.007817	2554.075390
552.366022	2554.589588
552.724173	2553.871224
553.082267	2556.575803
553.440305	2552.414330
553.798288	2554.965154
554.156215	2555.996070
554.514086	2555.486913
554.871902	2555.605381
555.229661	2553.730071
555.587365	2556.066646
555.945014	2553.840977
556.302606	2556.661502
556.660143	2554.904660
557.017625	2554.345092
557.375050	2553.982129
557.732421	2553.422561
558.089735	2555.403734
558.446994	2555.461708
558.804197	2554.201419
559.161345	2553.788045
559.518437	2554.871893
559.875474	2555.900288
560.232455	2553.377191
560.589381	2558.146122
560.946251	2558.229301
561.303065	2554.642520
561.659825	2554.357695
562.016528	2554.458518
562.373177	2553.674619
562.729770	2553.793086
563.086307	2555.731409
563.442789	2555.945658
563.799216	2557.281564
564.155587	2554.637479
564.511904	2553.785524
564.868164	2555.270144
565.224370	2555.403734
565.580520	2555.985988
565.936615	2554.715617
566.292654	2555.020607
566.648638	2554.365257
567.004567	2556.144784
567.360441	2554.448436
567.716260	2555.033210
568.072023	2553.684701
568.427732	2548.330996
568.783385	2552.109340
569.138982	2549.654298
569.494525	2549.409802
569.850013	2549.689587
570.205445	2553.278888
570.560823	2553.359547
570.916145	2554.234187
571.271412	2552.313507
571.626625	2553.001625
571.981782	2552.371480
572.336884	2554.188816
572.691931	2554.700493
573.046923	2552.240410
573.401860	2553.498178
573.756743	2555.728889
574.111570	2552.941131
574.466342	2553.825853
574.821059	2555.141594
575.175722	2553.568754
575.530330	2553.604043
575.884882	2552.850390
576.239380	2552.772252
576.593823	2556.384239
576.948211	2549.591284
577.302544	2553.783003
577.656823	2554.423230
578.011047	2554.781152
578.365216	2554.153528
578.719330	2554.108158
579.073389	2554.723179
579.427394	2552.013558
579.781344	2553.357026
580.135239	2553.324258
580.489080	2553.762839
580.842866	2555.239897
581.196597	2557.936914
581.550273	2553.939279
581.903895	2554.791234
582.257463	2555.885165
582.610975	2553.074721
582.964434	2553.367108
583.317837	2552.336192
583.671186	2552.873075
584.024481	2552.920966
584.377721	2554.128322
584.730906	2554.188816
585.084037	2552.787376
585.437113	2552.124464
585.790135	2555.393652
586.143103	2554.995401
586.496016	2555.212171
586.848874	2550.806202
587.201679	2551.844680
587.554428	2550.818805
587.907124	2553.316697
588.259765	2548.958619
588.612352	2553.820812
588.964884	2551.827036
589.317362	2553.167983
589.669786	2553.929197
590.022155	2552.603373
590.374470	2551.219577
590.726731	2551.733774
591.078937	2552.164793
591.431090	2554.161090
591.783188	2553.478014
592.135232	2552.827705
592.487222	2551.645554
592.839157	2554.425751
593.191038	2550.629762
593.542866	2552.825184
593.894639	2553.863662
594.246358	2555.302911
594.598022	2552.210163
594.949633	2553.813250
595.301190	2551.970709
595.652692	2554.030020
596.004141	2553.225956
596.355535	2553.200750
596.706876	2553.800647
597.058162	2550.808723
597.409395	2555.146636
597.760573	2553.586398
598.111698	2551.219577
598.462768	2554.813919
598.813785	2551.741336
599.164748	2550.569268
599.515657	2552.961295
599.866511	2554.259392
600.217312	2551.701007
600.568060	2550.360060
600.918753	2554.897098
601.269392	2551.338044
601.619978	2551.169165
601.970510	2553.611604
602.320988	2552.089176
602.671412	2554.271995
603.021783	2551.101110
603.372100	2552.462221
603.722363	2553.019269
604.072572	2555.159238
604.422728	2554.738302
604.772830	2551.401058
605.122878	2548.575492
605.472872	2550.695297
605.822813	2546.783361
606.172701	2552.961295
606.522534	2552.900802
606.872314	2552.447098
607.222041	2554.380380
607.571714	2553.634289
607.921333	2553.901471
608.270899	2552.860472
608.620411	2554.783672
608.969870	2554.700493
609.319276	2555.197047
609.668627	2557.649568
610.017926	2557.311811
610.367171	2558.504044
610.716362	2559.600495
611.065500	2557.236194
611.414585	2559.597974
611.763616	2553.732592
612.112594	2555.479352
612.461518	2554.912222
612.810389	2554.090514
613.159207	2554.513971
613.507971	2554.579506
613.856682	2555.285267
614.205340	2553.407437
614.553945	2556.144784
614.902496	2551.779145
615.250994	2555.323076
615.599439	2553.457849
615.947830	2553.664536
616.296169	2555.406255
616.644454	2553.835936
616.992686	2554.697973
617.340864	2554.884496
617.688990	2552.144628
618.037063	2555.406255
618.385082	2552.285781
618.733048	2556.273333
619.080961	2554.135884
619.428821	2553.041954
619.776628	2551.723692
620.124382	2556.074208
620.472083	2555.008004
620.819731	2554.703014
621.167326	2553.762839
621.514868	2553.873744
621.862357	2555.020607
622.209793	2553.992211
622.557176	2551.814433
622.904506	2550.687735
623.251783	2548.610780
623.599007	2551.736295
623.946179	2549.797971
624.293297	2552.628579
624.640363	2552.769732
624.987376	2554.214022
625.334336	2550.412992
625.681243	2549.692107
626.028097	2555.086142
626.374899	2554.367777
626.721647	2553.505740
627.068343	2553.178065
627.414987	2555.413817
627.761577	2555.373488
628.108115	2553.803168
628.454600	2554.634958
628.801032	2550.387786
629.147412	2553.717468
629.493739	2554.463559
629.840014	2552.868034
630.186236	2553.654454
630.532405	2554.803837
630.878521	2552.419371
631.224585	2554.274516
631.570597	2550.554144
631.916556	2553.873744
632.262462	2553.082283
632.608316	2554.307283
632.954117	2552.878116
633.299866	2553.422561
633.645562	2552.805020
633.991206	2555.620504
634.336797	2553.009186
634.682336	2550.004659
635.027823	2553.155380
635.373257	2555.786862
635.718639	2552.346275
636.063968	2550.942313
636.409245	2552.421892
636.754470	2554.902140
637.099642	2554.357695
637.444762	2555.123950
637.789829	2550.670091
638.134845	2553.160421
638.479808	2552.855431
638.824719	2553.520863
639.169577	2550.904505
639.514383	2553.886347
639.859137	2551.537169
640.203839	2555.650751
640.548489	2550.251675
640.893086	2551.375852
641.237632	2549.528270
641.582125	2551.569937
641.926566	2547.950388
642.270955	2551.169165
642.615292	2552.250493
642.959576	2553.334341
643.303809	2552.888199
643.647990	2554.534135
643.992118	2553.079763
644.336195	2555.128992
644.680219	2552.399207
645.024192	2553.934238
645.368112	2554.430792
645.711981	2554.713096
646.055797	2551.695966
646.399562	2554.960113
646.743274	2553.609084
647.086935	2552.621017
647.430544	2550.352498
647.774101	2553.483055
648.117606	2554.443395
648.461059	2555.048333
648.804460	2557.440361
649.147810	2554.420709
649.491108	2554.249310
649.834354	2553.220915
650.177548	2553.193188
650.520690	2552.426933
650.863781	2554.130843
651.206820	2553.430123
651.549807	2552.091696
651.892742	2556.749722
652.235626	2552.132026
652.578458	2554.834084
652.921238	2554.198899
653.263967	2554.524053
653.606644	2549.876109
653.949269	2551.857283
654.291843	2551.963147
654.634365	2554.924825
654.976836	2553.102448
655.319255	2554.070349
655.661622	2553.916594
656.003938	2557.369784
656.346203	2555.038251
656.688416	2555.504558
657.030577	2554.128322
657.372687	2554.463559
657.714746	2552.615976
658.056753	2554.138405
658.398708	2549.813095
658.740612	2551.504402
659.082465	2550.423074
659.424266	2550.765873
659.766016	2551.370811
660.107715	2554.418189
660.449362	2554.105637
660.790958	2553.931718
661.132503	2554.657644
661.473996	2555.691080
661.815438	2556.928683
662.156829	2554.985319
662.498168	2554.171172
662.839456	2556.278375
663.180693	2555.255020
663.521879	2556.411965
663.863013	2557.120247
664.204097	2557.029507
664.545129	2554.438353
664.886110	2553.445246
665.227040	2555.814588
665.567918	2555.118909
665.908746	2556.255689
666.249522	2556.507747
666.590248	2555.885165
666.930922	2554.519012
667.271545	2560.258366
667.612118	2558.514126
667.952639	2557.324414
668.293109	2557.337017
668.633528	2557.485731
668.973896	2555.655792
669.314213	2557.445402
669.654480	2557.604198
669.994695	2557.072356
670.334859	2555.809547
670.674973	2558.781307
671.015035	2556.926163
671.355047	2558.567058
671.695008	2558.400700
672.034918	2560.323901
672.374777	2560.028993
672.714585	2555.683518
673.054342	2558.642676
673.394049	2560.162584
673.733705	2559.804662
674.073310	2562.206772
674.412864	2559.315670
674.752368	2558.158725
675.091820	2561.881617
675.431223	2561.261555
675.770574	2561.286761
676.109875	2555.219732
676.449125	2559.676112
676.788324	2558.065464
677.127473	2557.445402
677.466571	2555.239897
677.805619	2563.136864
678.144616	2561.508572
678.483562	2561.616957
678.822458	2560.134857
679.161303	2561.770712
679.500098	2560.023952
679.838842	2558.995557
680.177535	2560.175187
680.516179	2562.834395
680.854771	2564.316494
681.193314	2563.797256
681.531805	2561.586710
681.870247	2566.612740
682.208638	2565.642318
682.546978	2566.907647
682.885268	2566.128789
683.223508	2568.374623
683.561697	2568.571228
683.899836	2570.103739
684.237925	2566.330435
684.575963	2566.322874
684.913951	2567.232802
685.251889	2572.888977
685.589776	2568.835889
685.927614	2573.443503
686.265401	2571.943760
686.603137	2573.438462
686.940824	2575.308730
687.278460	2576.604307
687.616046	2578.794688
687.953582	2576.984914
688.291068	2581.683269
688.628504	2581.153948
688.965889	2579.964236
689.303224	2578.593042
689.640510	2578.439287
689.977745	2580.911973
690.314930	2581.403485
690.652065	2579.008937
690.989150	2577.758731
691.326185	2578.840059
691.663170	2580.675039
692.000105	2578.832497
692.336990	2574.474419
692.673825	2579.734863
693.010610	2576.455593
693.347345	2573.912331
693.684030	2574.948288
694.020665	2574.103895
694.357251	2572.808318
694.693786	2575.366704
695.030272	2576.939544
695.366707	2575.603638
695.703093	2573.758576
696.039429	2574.925603
696.375716	2578.555233
696.711952	2577.032805
697.048139	2577.625141
697.384276	2574.275294
697.720363	2578.688824
698.056400	2578.998855
698.392388	2578.361149
698.728326	2579.762590
699.064214	2580.796026
699.400053	2580.193608
699.735842	2577.950295
700.071581	2580.619586
700.407270	2577.418453
700.742910	2577.297466
701.078501	2578.754359
701.414042	2578.819894
701.749533	2578.514904
702.084974	2578.368711
702.420366	2578.840059
702.755709	2576.304358
703.091002	2577.426015
703.426246	2581.814339
703.761440	2578.623289
704.096584	2579.490368
704.431679	2582.651171
704.766725	2582.598239
705.101721	2584.965061
705.436668	2583.074628
705.771565	2581.486664
706.106413	2582.820050
706.441212	2584.581933
706.775961	2582.822570
707.110661	2584.627303
707.445311	2584.680235
707.779913	2589.058478
708.114465	2590.202819
708.448967	2591.591657
708.783421	2594.540732
709.117825	2593.040989
709.452180	2595.808582
709.786485	2594.293716
710.120742	2599.639859
710.454949	2599.783532
710.789107	2598.069540
711.123216	2600.832092
711.457275	2603.632453
711.791286	2607.844337
712.125247	2610.927003
712.459159	2606.730242
712.793023	2609.190325
713.126837	2613.760131
713.460602	2613.608897
713.794318	2607.950202
714.127985	2613.566047
714.461602	2610.190994
714.795171	2604.968359
715.128691	2607.844337
715.462162	2604.033225
715.795584	2604.406270
716.128957	2605.467433
716.462281	2601.769747
716.795556	2599.765888
717.128782	2603.302258
717.461960	2599.365117
717.795088	2600.668255
718.128167	2600.282607
718.461198	2598.394694
718.794180	2602.588934
719.127113	2601.184973
719.459997	2598.177925
719.792833	2596.534509
720.125619	2593.537543
720.458357	2597.494848
720.791046	2597.623398
721.123686	2597.126844
721.456278	2595.652307
721.788821	2598.472832
722.121315	2600.905189
722.453761	2594.999477
722.786158	2598.591299
723.118506	2599.377719
723.450805	2597.598192
723.783056	2595.110383
724.115259	2600.073399
724.447412	2600.300251
724.779518	2600.358224
725.111574	2603.685385
725.443582	2604.043307
725.775542	2604.968359
726.107453	2605.535489
726.439315	2607.057917
726.771129	2611.393310
727.102895	2611.297528
727.434612	2617.724999
727.766281	2616.467231
728.097901	2615.214504
728.429473	2613.606376
728.760996	2611.476489
729.092471	2613.513115
729.423897	2616.996552
729.755276	2619.018055
730.086606	2619.804475
730.417887	2620.069135
730.749120	2624.205402
731.080305	2632.150261
731.411442	2633.261835
731.742530	2629.657410
732.073570	2630.106073
732.404562	2637.791312
732.735506	2638.673514
733.066401	2633.355096
733.397249	2631.401649
733.728048	2627.741772
734.058798	2624.452419
734.389501	2621.702469
734.720156	2615.663167
735.050762	2617.949330
735.381320	2618.617283
735.711831	2613.460183
736.042293	2614.196191
736.372707	2617.934207
736.703073	2617.490585
737.033391	2612.794750
737.363661	2616.288270
737.693883	2621.059722
738.024056	2621.606687
738.354182	2615.753908
738.684260	2626.809158
739.014290	2624.931328
739.344272	2623.469394
739.674207	2630.441309
740.004093	2633.869294
740.333931	2629.992647
740.663722	2634.287710
740.993464	2632.679582
741.323159	2633.604633
741.652806	2633.942391
741.982405	2630.383336
742.311956	2630.196813
742.641460	2630.635394
742.970915	2629.153295
743.300323	2626.640279
743.629683	2623.978550
743.958996	2622.340175
744.288260	2624.147429
744.617477	2619.179372
744.946647	2617.866151
745.275768	2618.279526
745.604842	2618.309773
745.933869	2613.634102
746.262847	2612.857765
746.591778	2625.223715
746.920662	2619.562499
747.249498	2615.884978
747.578286	2623.149280
747.907027	2626.451236
748.235720	2620.159876
748.564365	2624.986781
748.892963	2629.110445
749.221514	2627.431741
749.550017	2623.996194
749.878473	2624.706997
750.206881	2620.411934
750.535242	2623.408900
750.863555	2626.065588
751.191821	2624.835546
751.520039	2621.664661
751.848210	2618.798765
752.176334	2622.904784
752.504411	2628.381998
752.832440	2620.847994
753.160421	2621.226080
753.488356	2623.595422
753.816243	2628.576082
754.144082	2621.994856
754.471875	2617.631737
754.799620	2622.718262
755.127318	2617.994701
755.454969	2621.576440
755.782572	2622.929990
756.110129	2619.239866
756.437638	2622.748509
756.765100	2622.234311
757.092515	2624.845629
757.419882	2626.236987
757.747203	2622.950155
758.074477	2620.359002
758.401703	2629.392749
758.728882	2630.947945
759.056014	2624.961575
759.383099	2628.598768
759.710138	2630.557256
760.037129	2629.407873
760.364073	2638.731487
760.690970	2634.408697
761.017820	2628.054323
761.344623	2633.859212
761.671379	2636.583955
761.998088	2640.526138
762.324751	2652.279588
762.651366	2668.199552
762.977935	2701.871939
763.304456	2746.012282
763.630931	2768.014398
763.957359	2732.063409
764.283740	2703.938812
764.610074	2695.424303
764.936362	2680.104237
765.262602	2663.392812
765.588796	2657.706390
765.914943	2646.946047
766.241044	2638.776857
766.567097	2636.495735
766.893104	2631.958697
767.219064	2626.839405
767.544978	2628.518109
767.870845	2619.338168
768.196665	2615.529576
768.522438	2618.594598
768.848165	2621.301697
769.173846	2616.434463
769.499479	2613.782817
769.825066	2611.773917
770.150607	2608.721498
770.476101	2613.079576
770.801548	2618.904629
771.126949	2606.735283
771.452303	2607.259563
771.777611	2609.520521
772.102872	2612.814915
772.428087	2610.254009
772.753256	2609.437342
773.078378	2608.018257
773.403453	2604.073554
773.728482	2606.304265
774.053465	2608.640840
774.378401	2604.229830
774.703291	2597.250352
775.028135	2601.202617
775.352932	2599.735641
775.677683	2596.161463
776.002388	2601.807556
776.327046	2600.879983
776.651658	2601.066506
776.976224	2597.605754
777.300743	2596.688264
777.625216	2595.435537
777.949643	2596.045517
778.274024	2600.408635
778.598359	2593.091401
778.922647	2591.967223
779.246889	2596.431165
779.571086	2591.606781
779.895236	2595.526278
780.219339	2597.784715
780.543397	2600.156578
780.867409	2600.955601
781.191374	2599.705394
781.515294	2599.102977
781.839167	2595.982502
782.162995	2597.441916
782.486776	2602.160436
782.810511	2598.477873
783.134201	2597.363778
783.457844	2601.240426
783.781441	2600.620364
784.104993	2595.642224
784.428498	2595.420414
784.751958	2598.740013
785.075372	2597.885538
785.398739	2591.616863
785.722061	2599.284458
786.045337	2601.764706
786.368568	2596.511823
786.691752	2595.566607
787.014891	2604.310488
787.337983	2608.300562
787.661030	2609.931375
787.984031	2616.444546
788.306987	2624.858232
788.629897	2621.959568
788.952760	2619.038219
789.275579	2624.812861
789.598351	2615.227107
789.921078	2608.000613
790.243759	2607.614965
790.566395	2605.633791
790.888984	2604.809563
791.211529	2602.785539
791.534027	2599.508789
791.856480	2594.268510
792.178888	2595.004518
792.501249	2594.245825
792.823566	2598.372009
793.145836	2594.291195
793.468062	2596.264807
793.790241	2594.104672
794.112375	2595.730445
794.434464	2596.902513
794.756507	2597.986361
795.078505	2599.450816
795.400457	2598.379571
795.722364	2601.517689
796.044226	2606.102619
796.366042	2604.754110
796.687812	2601.505086
797.009538	2610.770727
797.331218	2609.490274
797.652852	2609.003803
797.974442	2603.382916
798.295986	2605.530448
798.617484	2606.911724
798.938938	2602.021805
799.260346	2603.385437
799.581709	2601.663883
799.903026	2602.052052
800.224299	2598.359406
800.545526	2596.398397
800.866708	2594.724734
801.187845	2591.624425
801.508936	2591.851277
801.829983	2595.468305
802.150984	2591.112748
802.471940	2592.035279
802.792851	2593.923191
803.113717	2591.720207
803.434538	2595.107862
803.755314	2592.471339
804.076045	2589.998653
804.396731	2590.767429
804.717372	2588.972778
805.037967	2589.461770
805.358518	2592.108376
805.679024	2594.218098
805.999485	2591.879003
806.319901	2593.570310
806.640272	2589.771801
806.960598	2592.569641
807.280879	2592.100814
807.601115	2597.567945
807.921306	2590.273396
808.241453	2592.564600
808.561554	2591.969744
808.881611	2597.184817
809.201623	2595.163315
809.521590	2595.606936
809.841513	2592.400762
810.161390	2593.177100
810.481223	2591.614343
810.801011	2590.558221
811.120755	2591.311873
811.440453	2594.061823
811.760107	2592.947728
812.079716	2592.920001
812.399281	2589.509661
812.718801	2589.996132
813.038276	2587.470514
813.357707	2591.984867
813.677093	2594.525609
813.996434	2593.824888
814.315731	2592.768767
814.634983	2592.244487
814.954191	2591.069898
815.273354	2593.351020
815.592473	2600.133892
815.911547	2596.123655
816.230577	2597.830085
816.549562	2602.417535
816.868502	2598.492997
817.187399	2601.976434
817.506250	2604.880139
817.825058	2605.966507
818.143821	2608.061107
818.462539	2611.431118
818.781213	2614.644854
819.099843	2623.552573
819.418429	2629.697739
819.736970	2639.217958
820.055466	2650.689104
820.373919	2672.991168
820.692327	2703.704398
821.010691	2726.233315
821.329011	2777.154010
821.647286	2876.948691
821.965517	3033.809234
822.283704	3108.685492
822.601847	3125.278450
822.919945	3098.341045
823.237999	3081.372521
823.556010	3003.766478
823.873976	2928.552463
824.191897	2872.709081
824.509775	2829.148471
824.827609	2773.847013
825.145398	2752.338930
825.463144	2753.954620
825.780845	2766.991044
826.098502	2776.939761
826.416116	2817.861327
826.733685	2861.684078
827.051210	2873.644215
827.368692	2863.264479
827.686129	2837.312619
828.003522	2781.398661
828.320872	2736.940726
828.638177	2703.787577
828.955439	2673.016374
829.272656	2658.785197
829.589830	2643.139976
829.906960	2639.033956
830.224046	2626.380660
830.541088	2621.329424
830.858086	2619.930504
831.175041	2616.626027
831.491952	2614.561675
831.808819	2623.751698
832.125642	2624.936369
832.442421	2631.295785
832.759157	2646.202477
833.075849	2676.963598
833.392497	2721.219887
833.709101	2759.890578
834.025662	2759.935949
834.342179	2736.824779
834.658653	2703.573328
834.975083	2676.240192
835.291469	2664.146464
835.607811	2645.002682
835.924110	2630.279992
836.240366	2619.154166
836.556578	2608.557661
836.872746	2606.619337
837.188871	2599.375199
837.504952	2594.684405
837.820990	2592.839343
838.136984	2588.148549
838.452935	2589.844897
838.768842	2588.808940
839.084706	2589.668457
839.400526	2607.211672
839.716303	2626.680609
840.032037	2640.316930
840.347727	2644.448155
840.663373	2639.356590
840.978977	2627.010804
841.294537	2608.749224
841.610054	2598.248501
841.925527	2595.097780
842.240957	2588.577047
842.556344	2583.442632
842.871687	2581.509350
843.186987	2579.543300
843.502244	2577.115984
843.817458	2577.216807
844.132629	2574.338308
844.447756	2571.235478
844.762840	2566.106104
845.077881	2568.256156
845.392879	2565.100394
845.707833	2566.418656
846.022745	2564.472770
846.337613	2565.967472
846.652438	2568.324212
846.967221	2568.064592
847.281960	2567.462174
847.596656	2566.564849
847.911309	2564.871021
848.225919	2565.385219
848.540485	2564.850857
848.855009	2565.163408
849.169490	2563.817420
849.483928	2563.099056
849.798323	2563.837585
850.112675	2564.303892
850.426984	2563.633418
850.741251	2564.871021
851.055474	2560.737275
851.369654	2567.467216
851.683792	2563.935887
851.997887	2564.331618
852.311938	2562.373130
852.625947	2564.026628
852.939914	2565.264231
853.253837	2567.666341
853.567718	2565.276834
853.881555	2565.591906
854.195350	2563.701474
854.509103	2565.967472
854.822812	2561.594271
855.136479	2565.806155
855.450103	2564.223233
855.763685	2566.088460
856.077224	2563.265414
856.390720	2564.014025
856.704173	2562.781463
857.017584	2566.171639
857.330953	2564.903789
857.644278	2569.869325
857.957561	2568.561146
858.270802	2567.658779
858.584000	2565.849005
858.897155	2565.705332
859.210268	2567.557956
859.523339	2567.111814
859.836367	2563.255332
860.149352	2567.787329
860.462295	2568.427555
860.775195	2566.209448
861.088054	2562.582338
861.400869	2562.458829
861.713642	2560.618808
862.026373	2560.742316
862.339062	2566.254818
862.651708	2566.610219
862.964312	2566.436300
863.276873	2568.475446
863.589392	2566.824468
863.901869	2567.603327
864.214303	2569.992834
864.526696	2571.245560
864.839045	2572.001733
865.151353	2573.002402
865.463619	2571.807649
865.775842	2575.739749
866.088023	2573.226734
866.400162	2574.897876
866.712258	2573.907290
867.024313	2571.772361
867.336325	2573.438462
867.648296	2571.588359
867.960224	2573.526683
868.272110	2575.323854
868.583954	2571.704305
868.895755	2570.509552
869.207515	2571.391754
869.519233	2576.072465
869.830909	2571.021229
870.142542	2571.762279
870.454134	2573.314954
870.765684	2576.566498
871.077191	2575.117167
871.388657	2579.593711
871.700081	2574.928123
872.011463	2573.791343
872.322803	2576.112794
872.634101	2576.284194
872.945357	2577.524318
873.256571	2584.765935
873.567744	2579.137487
873.878874	2578.608166
874.189963	2580.634709
874.501010	2582.966243
874.812015	2583.878692
875.122979	2583.949268
875.433900	2582.189905
875.744780	2579.888619
876.055618	2583.470358
876.366415	2585.519587
876.677169	2582.631006
876.987882	2582.953640
877.298554	2580.123032
877.609183	2586.636203
877.919771	2590.495206
878.230317	2591.110227
878.540822	2598.145157
878.851285	2602.636825
879.161707	2610.745521
879.472087	2624.137347
879.782425	2637.549336
880.092722	2669.958914
880.402977	2708.369986
880.713191	2751.436563
881.023363	2789.782100
881.333494	2814.186326
881.643583	2849.091275
881.953631	2867.536857
882.263637	2849.986080
882.573602	2813.888898
882.883526	2796.902730
883.193408	2776.821294
883.503248	2756.502923
883.813048	2733.079202
884.122806	2701.541743
884.432522	2681.246058
884.742197	2661.653613
885.051831	2655.334527
885.361424	2643.409678
885.670975	2634.101187
885.980485	2622.826647
886.289954	2615.612755
886.599382	2610.730398
886.908768	2608.928185
887.218113	2599.622215
887.527417	2597.411669
887.836680	2593.255238
888.145901	2594.628952
888.455082	2590.233066
888.764221	2588.884558
889.073319	2584.072776
889.382376	2587.644434
889.691392	2587.369691
890.000366	2585.796851
890.309300	2584.672674
890.618193	2584.768456
890.927044	2585.607808
891.235855	2586.810123
891.544625	2583.619072
891.853353	2584.352560
892.162041	2587.178127
892.470687	2592.551997
892.779293	2598.112390
893.087858	2597.328490
893.396381	2604.859974
893.704864	2616.379011
894.013306	2633.241670
894.321707	2658.991884
894.630068	2676.736746
894.938387	2683.590194
895.246665	2686.909794
895.554903	2678.057528
895.863100	2671.700633
896.171256	2650.752118
896.479371	2632.669499
896.787446	2618.370267
897.095480	2615.680811
897.403473	2613.243413
897.711425	2606.571446
898.019336	2598.634149
898.327207	2593.492172
898.635038	2595.790938
898.942827	2592.524271
899.250576	2589.272727
899.558284	2585.791810
899.865952	2581.320306
900.173579	2585.232242
900.481165	2584.526480
900.788711	2581.448856
901.096216	2580.208732
901.403681	2577.572208
901.711105	2580.901891
902.018489	2578.615727
902.325832	2579.623958
902.633135	2581.426171
902.940397	2585.005390
903.247619	2596.917636
903.554800	2614.105450
903.861941	2642.497229
904.169041	2679.118691
904.476101	2695.235260
904.783121	2697.120651
905.090100	2689.500947
905.397039	2674.828669
905.703938	2652.433343
906.010796	2632.737555
906.317614	2616.689042
906.624391	2603.844182
906.931129	2597.331011
907.237826	2588.657706
907.544483	2578.018351
907.851099	2575.119687
908.157675	2572.331929
908.464211	2569.619788
908.770707	2565.291958
909.077163	2566.461505
909.383578	2562.630228
909.689954	2560.565876
909.996289	2559.587892
910.302584	2564.185424
910.608839	2562.174004
910.915054	2559.348437
911.221229	2563.368757
911.527363	2563.575445
911.833458	2561.584189
912.139513	2565.312122
912.445527	2563.746844
912.751502	2564.596278
913.057436	2566.239695
913.363331	2570.002916
913.669186	2571.792526
913.975000	2579.863413
914.280775	2583.556058
914.586510	2589.156780
914.892205	2597.336052
915.197859	2617.493106
915.503475	2643.976807
915.809050	2663.425579
916.114585	2661.968686
916.420081	2667.110662
916.725536	2675.322702
917.030952	2673.870850
917.336328	2662.404745
917.641665	2647.334216
917.946961	2629.848974
918.252218	2616.686521
918.557435	2607.861981
918.862612	2601.363934
919.167750	2596.421083
919.472848	2594.805393
919.777906	2585.688466
920.082925	2581.912642
920.387904	2576.228741
920.692843	2576.198494
920.997743	2576.057342
921.302603	2569.292113
921.607423	2566.622822
921.912204	2570.307906
922.216946	2566.852195
922.521647	2567.333625
922.826310	2566.448903
923.130932	2564.016546
923.435516	2559.807182
923.740059	2560.281051
924.044564	2557.692418
924.349028	2559.731565
924.653454	2553.225956
924.957840	2553.989691
925.262186	2552.684032
925.566493	2554.103117
925.870761	2549.921480
926.174989	2553.344423
926.479178	2551.118754
926.783328	2553.813250
927.087438	2551.151521
927.391509	2554.768549
927.695541	2550.972560
927.999533	2548.706562
928.303486	2548.714123
928.607400	2550.281922
928.911275	2551.701007
929.215110	2547.199257
929.518906	2549.535831
929.822663	2551.844680
930.126381	2552.109340
930.430060	2549.379556
930.733699	2550.412992
931.037299	2550.007179
931.340861	2548.078938
931.644383	2550.720502
931.947866	2549.598846
932.251309	2551.771583
932.554714	2548.792261
932.858080	2550.113043
933.161407	2551.993394
933.464694	2550.556665
933.767943	2548.741850
934.071153	2549.003990
934.374323	2546.586756
934.677455	2546.846376
934.980548	2548.464586
935.283602	2548.484751
935.586617	2547.194215
935.889593	2548.951058
936.192530	2547.879812
936.495428	2546.269164
936.798287	2548.439380
937.101108	2549.402241
937.403890	2550.798640
937.706632	2552.235369
938.009336	2554.564382
938.312002	2557.347099
938.614628	2555.350802
938.917216	2555.736451
939.219765	2557.495813
939.522275	2558.632593
939.824747	2557.326935
940.127179	2554.871893
940.429573	2555.265103
940.731929	2555.275185
941.034246	2552.873075
941.336524	2553.430123
941.638763	2553.203271
941.940964	2554.123281
942.243126	2557.079918
942.545250	2554.390463
942.847335	2553.530946
943.149381	2551.506922
943.451389	2552.182437
943.753359	2553.772921
944.055290	2551.617828
944.357182	2548.893084
944.659036	2550.395348
944.960851	2549.014072
945.262628	2549.402241
945.564367	2551.814433
945.866067	2551.149001
946.167729	2551.897612
946.469352	2551.390976
946.770937	2550.851572
947.072484	2551.887530
947.373992	2552.300904
947.675462	2546.818649
947.976893	2548.782179
948.278286	2550.627241
948.579641	2549.084648
948.880958	2548.787220
949.182236	2550.014741
949.483476	2548.008362
949.784678	2550.024823
950.085841	2551.902653
950.386967	2549.719833
950.688054	2551.348126
950.989103	2548.628424
951.290114	2548.993907
951.591087	2550.171017
951.892021	2551.660678
952.192917	2550.992725
952.493776	2551.108671
952.794596	2551.126315
953.095378	2551.781665
953.396122	2551.212015
953.696828	2548.842673
953.997496	2549.848383
954.298126	2551.554813
954.598718	2548.666232
954.899272	2549.886192
955.199788	2550.125646
955.500266	2548.641027
955.800706	2543.904862
956.101108	2541.767413
956.401472	2544.419060
956.701798	2545.260933
957.002087	2543.617517
957.302337	2544.817311
957.602550	2546.173382
957.902724	2544.587939
958.202861	2542.896632
958.502960	2544.086344
958.803022	2547.741181
959.103045	2543.776313
959.403031	2544.839997
959.702979	2547.221942
960.002889	2546.601880
960.302762	2541.956457
960.602596	2543.854451
960.902393	2546.080120
961.202153	2542.889070
961.501875	2543.194060
961.801559	2542.200953
962.101205	2542.395037
962.400814	2545.134904
962.700385	2544.587939
962.999918	2543.153731
963.299414	2541.694317
963.598873	2544.466951
963.898293	2543.640202
964.197677	2542.697506
964.497022	2544.847558
964.796331	2543.312527
965.095601	2543.403268
965.394835	2542.538710
965.694030	2540.905376
965.993189	2545.407126
966.292309	2542.218597
966.591393	2541.258257
966.890439	2541.613658
967.189447	2542.808412
967.488419	2542.085006
967.787353	2544.915614
968.086249	2541.749769
968.385108	2543.335212
968.683930	2539.889583
968.982714	2542.828576
969.281462	2544.439225
969.580172	2542.795809
969.878844	2541.520397
970.177480	2542.778165
970.476078	2542.321940
970.774639	2543.438556
971.073162	2546.158258
971.371649	2542.112732
971.670098	2538.614172
971.968510	2541.981662
972.266885	2537.149716
972.565223	2543.627599
972.863524	2543.904863
973.161788	2543.221786
973.460014	2544.701365
973.758204	2545.046684
974.056356	2542.339584
974.354471	2540.590304
974.652550	2544.330840
974.950591	2539.753472
975.248595	2543.312527
975.546563	2541.119625
975.844493	2543.715819
976.142386	2545.633978
976.440243	2543.451159
976.738062	2543.662887
977.035845	2544.209852
977.333590	2541.827907
977.631299	2540.471837
977.928971	2546.102806
978.226606	2541.613658
978.524204	2540.562577
978.821765	2542.967208
979.119290	2541.424615
979.416777	2541.636343
979.714228	2542.720191
980.011642	2541.280942
980.309020	2545.654143
980.606360	2541.916127
980.903664	2544.414019
981.200931	2544.169523
981.498162	2544.028371
981.795356	2544.482075
982.092513	2546.468289
982.389633	2546.826211
982.686717	2547.433670
982.983764	2547.630275
983.280775	2547.534493
983.577749	2549.697148
983.874686	2549.876109
984.171587	2545.480223
984.468451	2546.995090
984.765279	2544.474513
985.062070	2543.741025
985.358824	2544.441745
985.655543	2544.953422
985.952224	2544.265305
986.248869	2544.971067
986.545478	2538.072247
986.842050	2541.931251
987.138586	2536.741383
987.435086	2540.915458
987.731549	2537.643749
988.027975	2542.475695
988.324366	2539.539223
988.620719	2542.788247
988.917037	2542.299255
989.213318	2541.313709
989.509563	2541.404450
989.805772	2540.557536
990.101944	2546.064997
990.398080	2540.612989
990.694180	2541.187681
990.990244	2540.575180
991.286271	2540.199614
991.582262	2540.933102
991.878217	2542.049718
992.174136	2543.302445
992.470019	2541.719522
992.765865	2543.872095
993.061676	2538.931764
993.357450	2541.149872
993.653188	2542.236241
993.948890	2541.684234
994.244556	2541.096940
994.540186	2544.479554
994.835780	2540.076106
995.131337	2542.362269
995.426859	2540.035777
995.722345	2542.425284
996.017795	2545.170192
996.313208	2545.840666
996.608586	2543.224307
996.903928	2543.559543
997.199234	2543.524255
997.494504	2542.616848
997.789738	2541.588452
998.084936	2542.085006
998.380099	2543.713299
998.675225	2541.228010
998.970316	2543.781354
999.265371	2548.078938
999.560390	2541.689275
999.855373	2546.901828
1000.150320	2541.061652
1000.445232	2542.420243
1000.740108	2540.426466
1001.034948	2541.573329
1001.329752	2541.976621
1001.624521	2541.911086
1001.919254	2536.418749
1002.213951	2539.864378
1002.508613	2537.515200
1002.803239	2537.689120
1003.097829	2536.378420
1003.392384	2542.392516
1003.686903	2539.972762
1003.981386	2542.523586
1004.275834	2537.616023
1004.570246	2540.149203
1004.864623	2541.883360
1005.158964	2542.725232
1005.453270	2542.362269
1005.747540	2539.365303
1006.041775	2540.527289
1006.335974	2540.101312
1006.630138	2540.479398
1006.924266	2540.635674
1007.218359	2539.040149
1007.512416	2540.885211
1007.806438	2540.983514
1008.100425	2540.789429
1008.394376	2541.958977
1008.688292	2539.839172
1008.982172	2540.741538
1009.276017	2542.163144
1009.569827	2539.529141
1009.863602	2542.014430
1010.157341	2540.060983
1010.451045	2540.802032
1010.744714	2539.685417
1011.038347	2539.082999
1011.331945	2539.385468
1011.625508	2541.374203
1011.919036	2539.924872
1012.212528	2539.428318
1012.505986	2540.580222
1012.799408	2541.308668
1013.092795	2540.272711
1013.386147	2541.076775
1013.679464	2540.703730
1013.972745	2541.938813
1014.265992	2539.733308
1014.559204	2537.530323
1014.852380	2540.292876
1015.145521	2538.659542
1015.438628	2542.145500
1015.731699	2541.449821
1016.024736	2539.917310
1016.317737	2538.717515
1016.610703	2540.807073
1016.903635	2536.575025
1017.196531	2536.058307
1017.489393	2537.515200
1017.782219	2536.829603
1018.075011	2536.960673
1018.367768	2540.963349
1018.660490	2541.379244
1018.953177	2541.379244
1019.245829	2541.379244
