Dividing Wavelength (nm)	Counts (n)	Blue Motor Position (mm): 7.800000	Red Motor Position (mm): 0.000000	
326.493990	2061.400904
326.888308	2061.400904
327.282561	2061.400904
327.676750	2037.180681
328.070874	2037.382327
328.464933	2043.633358
328.858929	2053.950079
329.252859	2062.068857
329.646726	2076.171485
330.040528	2092.837540
330.434265	2110.877309
330.827938	2132.065278
331.221547	2152.920532
331.615091	2170.604900
332.008571	2193.685823
332.401986	2214.495706
332.795338	2235.469426
333.188625	2254.983733
333.581847	2271.672473
333.975006	2289.608898
334.368100	2309.140848
334.761129	2321.310194
335.154095	2342.271312
335.546996	2364.638911
335.939833	2400.630229
336.332606	2410.117681
336.725315	2424.313570
337.117960	2432.724735
337.510540	2442.819646
337.903056	2455.314145
338.295508	2458.885803
338.687896	2467.987606
339.080220	2470.911475
339.472480	2479.635192
339.864676	2476.973463
340.256807	2481.175265
340.648875	2483.390852
341.040879	2484.751963
341.432818	2488.822695
341.824694	2484.812457
342.216506	2485.228352
342.608253	2482.125522
342.999937	2487.748929
343.391557	2482.811119
343.783113	2483.612662
344.174605	2481.563433
344.566033	2481.202991
344.957397	2478.314410
345.348697	2475.536734
345.739934	2474.614203
346.131106	2473.033801
346.522215	2471.745786
346.913260	2471.181177
347.304241	2469.613378
347.695159	2465.204889
348.086012	2466.379478
348.476802	2462.858232
348.867528	2457.764146
349.258191	2458.106945
349.648789	2458.389249
350.039324	2453.151490
350.429796	2459.039558
350.820203	2453.643003
351.210548	2457.091152
351.600828	2454.610904
351.991045	2456.309773
352.381198	2455.853549
352.771288	2453.000256
353.161314	2452.213836
353.551276	2454.396655
353.941175	2453.471604
354.331010	2454.492437
354.720782	2454.137036
355.110490	2453.544700
355.500135	2453.857252
355.889717	2456.818930
356.279235	2454.081583
356.668689	2454.197530
357.058080	2456.443364
357.447408	2455.041923
357.836672	2456.720627
358.225873	2458.926132
358.615010	2457.572582
359.004084	2457.214660
359.393095	2457.650720
359.782043	2460.619960
360.170927	2457.907819
360.559748	2458.706842
360.948505	2459.596606
361.337199	2459.082408
361.725830	2460.146091
362.114398	2458.817747
362.502903	2461.461833
362.891344	2462.623818
363.279722	2463.841257
363.668037	2464.607513
364.056289	2465.028449
364.444478	2464.000053
364.832603	2465.025928
365.220665	2467.344859
365.608665	2465.837554
365.996601	2465.343521
366.384474	2466.366875
366.772284	2467.027266
367.160031	2465.290589
367.547715	2465.950980
367.935336	2467.412915
368.322893	2465.867801
368.710388	2462.918726
369.097820	2465.827472
369.485189	2463.642132
369.872495	2470.064562
370.259738	2465.766978
370.646918	2469.073975
371.034035	2467.387709
371.421090	2465.928295
371.808081	2469.734366
372.195010	2467.896865
372.581875	2471.133286
372.968678	2468.463995
373.355418	2468.950467
373.742096	2471.166054
374.128710	2471.287041
374.515262	2469.363841
374.901751	2473.094295
375.288177	2473.235447
375.674540	2469.956177
376.060841	2471.166054
376.447079	2471.463482
376.833254	2472.769141
377.219367	2471.791157
377.605417	2472.587659
377.991404	2470.873667
378.377329	2472.441466
378.763191	2474.767958
379.148991	2474.311734
379.534727	2471.057669
379.920402	2474.939357
380.306013	2473.084213
380.691563	2476.466827
381.077049	2473.711836
381.462474	2474.833493
381.847835	2475.902218
382.233134	2474.745273
382.618371	2475.735860
383.003545	2477.732157
383.388657	2476.842393
383.773706	2476.237454
384.158693	2476.832311
384.543618	2477.331385
384.928480	2476.469348
385.313280	2479.536890
385.698017	2476.224852
386.082692	2476.466827
386.467305	2479.597383
386.851856	2478.584112
387.236344	2476.555047
387.620770	2476.118987
388.005133	2475.037660
388.389435	2475.730818
388.773674	2474.573874
389.157851	2483.433702
389.541965	2479.151241
389.926018	2480.313227
390.310008	2479.310038
390.693936	2479.637713
391.077802	2480.071252
391.461606	2481.074442
391.845348	2480.857672
392.229027	2481.903711
392.612645	2482.085193
392.996200	2479.920017
393.379694	2481.190388
393.763125	2479.736015
394.146494	2481.762559
394.529801	2479.090747
394.913047	2481.941520
395.296230	2482.072590
395.679351	2481.379431
396.062410	2485.288846
396.445408	2485.946717
396.828343	2484.318424
397.211217	2481.570995
397.594028	2481.883547
397.976778	2480.799699
398.359466	2482.604432
398.742092	2484.951089
399.124656	2483.012765
399.507158	2482.198619
399.889598	2484.043681
400.271977	2482.309524
400.654294	2483.017806
401.036549	2480.507312
401.418742	2483.564772
401.800874	2486.430668
402.182944	2484.290698
402.564952	2483.935296
402.946898	2486.657519
403.328783	2487.630462
403.710606	2484.323465
404.092367	2485.712303
404.474067	2485.147694
404.855705	2487.993425
405.237282	2485.470328
405.618797	2485.351861
406.000250	2487.023003
406.381642	2487.063332
406.762972	2482.072590
407.144240	2486.067704
407.525447	2486.392859
407.906593	2483.632827
408.287677	2485.450163
408.668700	2489.117602
409.049661	2488.220277
409.430560	2488.200113
409.811399	2490.425782
410.192176	2488.777325
410.572891	2486.682725
410.953545	2489.651965
411.334138	2488.883189
411.714669	2486.768425
412.095139	2488.500061
412.475547	2487.837149
412.855894	2492.364106
413.236180	2485.954278
413.616405	2493.425268
413.996568	2486.496203
414.376670	2490.231697
414.756711	2491.912922
415.136691	2490.297232
415.516609	2488.860504
415.896466	2489.019300
416.276262	2490.559372
416.655997	2493.407624
417.035670	2492.464929
417.415283	2491.721358
417.794834	2493.342089
418.174324	2489.248673
418.553753	2492.147336
418.933121	2491.071050
419.312428	2490.942500
419.691674	2489.951913
420.070859	2491.439054
420.449983	2492.560711
420.829045	2489.611636
421.208047	2494.070536
421.586988	2491.610453
421.965867	2494.355361
422.344686	2490.466111
422.723444	2493.160608
423.102141	2492.008704
423.480777	2494.090701
423.859352	2490.864362
424.237866	2495.149343
424.616319	2492.406955
424.994712	2493.904178
425.373044	2492.354023
425.751314	2492.439723
426.129524	2491.156749
426.507673	2491.670947
426.885762	2490.272027
427.263789	2495.015752
427.641756	2491.681029
428.019662	2494.239415
428.397508	2494.201606
428.775292	2493.274034
429.153016	2494.562049
429.530679	2494.332676
429.908282	2492.848056
430.285824	2494.534322
430.663305	2495.209837
431.040726	2492.631287
431.418086	2492.631287
431.795385	2493.384939
432.172624	2494.738489
432.549802	2493.279075
432.926920	2493.495845
433.303977	2496.122286
433.680974	2493.901658
434.057910	2494.506596
434.434786	2493.798314
434.811601	2497.858963
435.188355	2492.860659
435.565050	2495.151864
435.941683	2495.865187
436.318257	2495.729076
436.694770	2494.995588
437.071222	2495.804693
437.447614	2494.781339
437.823946	2496.757471
438.200218	2495.303098
438.576429	2493.705052
438.952580	2494.413335
439.328670	2494.685557
439.704700	2496.175218
440.080670	2496.475167
440.456580	2495.759323
440.832429	2493.684888
441.208218	2495.653458
441.583947	2496.361741
441.959616	2494.441061
442.335224	2495.338386
442.710773	2498.516834
443.086261	2493.687408
443.461689	2496.719663
443.837057	2496.402070
444.212365	2495.388798
444.587612	2494.927532
444.962800	2493.369816
445.337927	2494.393170
445.712995	2493.556338
446.088002	2495.852584
446.462949	2497.652276
446.837837	2497.828716
447.212664	2494.060454
447.587431	2495.338386
447.962139	2495.915598
448.336786	2500.775271
448.711374	2497.422903
449.085901	2498.068171
449.460369	2496.480208
449.834776	2498.700836
450.209124	2497.301916
450.583412	2496.880979
450.957640	2494.269662
451.331808	2498.196721
451.705917	2498.708398
452.079965	2497.248984
452.453954	2496.840650
452.827883	2498.060609
453.201752	2497.349807
453.575562	2498.347955
453.949311	2498.844509
454.323001	2497.954745
454.696632	2498.569766
455.070202	2496.835609
455.443713	2497.445589
455.817164	2497.175887
456.190556	2497.193531
456.563888	2498.622698
456.937160	2498.005157
457.310373	2498.194200
457.683526	2495.981133
458.056619	2497.117914
458.429653	2497.049858
458.802628	2499.956083
459.175542	2497.100270
459.548398	2499.114211
459.921194	2495.328304
460.293930	2499.424242
460.666607	2499.121772
461.039224	2497.395177
461.411782	2498.879797
461.784280	2496.928870
462.156719	2497.858963
462.529099	2501.612102
462.901419	2501.208810
463.273680	2497.425424
463.645882	2495.209837
464.018024	2496.407111
464.390106	2495.698829
464.762130	2498.756289
465.134094	2496.144971
465.505999	2500.097236
465.877845	2499.343583
466.249631	2496.369302
466.621358	2499.847698
466.993026	2497.213696
467.364634	2503.016064
467.736184	2500.364417
468.107674	2499.378871
468.479105	2500.281238
468.850477	2500.808038
469.221790	2501.339880
469.593043	2499.928357
469.964238	2503.905827
470.335373	2499.288130
470.706449	2501.102946
471.077467	2498.002636
471.448425	2499.328460
471.819324	2503.431959
472.190164	2501.186125
472.560945	2498.489107
472.931667	2499.149499
473.302330	2499.061278
473.672934	2502.436331
474.043479	2501.629746
474.413965	2502.572442
474.784393	2501.448265
475.154761	2502.159067
475.525070	2498.776453
475.895321	2501.004643
476.265513	2496.795280
476.635645	2501.528923
477.005719	2498.728562
477.375734	2504.571260
477.745691	2501.833913
478.115588	2500.863491
478.485427	2501.531444
478.855207	2499.777122
479.224928	2503.048831
479.594591	2503.653770
479.964194	2503.759634
480.333739	2501.831392
480.703226	2501.493635
481.072653	2502.557319
481.442022	2501.286948
481.811333	2502.937926
482.180584	2496.812924
482.549777	2502.713594
482.918912	2499.474653
483.287988	2503.235354
483.657005	2503.250477
484.025964	2503.487412
484.394864	2502.514469
484.763706	2500.225785
485.132489	2502.516989
485.501213	2505.168636
485.869879	2502.360714
486.238487	2501.589417
486.607036	2503.321053
486.975527	2503.235354
487.343959	2503.525220
487.712333	2502.847185
488.080648	2505.322392
488.448905	2501.438182
488.817104	2503.162257
489.185244	2502.955570
489.553326	2503.089160
489.921350	2504.442710
490.289315	2504.089829
490.657222	2503.134531
491.025070	2508.261384
491.392861	2506.118894
491.760593	2504.185611
492.128267	2502.756444
492.495883	2504.520848
492.863440	2503.421877
493.230939	2504.109994
493.598380	2504.069665
493.965763	2502.179232
494.333088	2505.251815
494.700354	2501.901969
495.067563	2506.227279
495.434713	2505.357680
495.801805	2506.945643
496.168839	2504.052021
496.535815	2504.152844
496.902733	2507.220386
497.269593	2506.035715
497.636395	2505.481188
498.003139	2505.337515
498.369825	2506.562515
498.736453	2506.038235
499.103023	2505.889521
499.469535	2505.476147
499.835989	2507.180057
500.202385	2501.627226
500.568723	2500.034221
500.935003	2501.942298
501.301226	2499.719149
501.667390	2507.296003
502.033497	2505.128307
502.399546	2506.237361
502.765537	2502.922802
503.131470	2506.048318
503.497345	2502.504387
503.863163	2507.215345
504.228923	2505.007319
504.594625	2505.967659
504.960269	2507.729543
505.325856	2505.178719
505.691385	2505.032525
506.056856	2504.563698
506.422270	2507.043946
506.787625	2507.311127
507.152924	2507.225427
507.518164	2506.060921
507.883347	2503.777278
508.248472	2504.810714
508.613540	2504.185611
508.978550	2508.861282
509.343503	2503.842813
509.708398	2504.654439
510.073236	2504.304078
510.438016	2507.232989
510.802738	2504.659480
511.167403	2503.842813
511.532010	2502.960611
511.896561	2507.442197
512.261053	2503.938595
512.625488	2506.743997
512.989866	2505.176198
513.354186	2507.157372
513.718449	2507.719460
514.082655	2506.275170
514.446803	2507.812722
514.810894	2507.091837
515.174927	2505.624861
515.538904	2507.535458
515.902822	2508.130314
516.266684	2504.803153
516.630488	2506.597803
516.994235	2505.521517
517.357925	2504.999758
517.721558	2504.702330
518.085133	2506.335663
518.448651	2504.533451
518.812112	2502.393481
519.175516	2506.005468
519.538863	2499.734273
519.902152	2506.446569
520.265385	2507.510252
520.628560	2508.974707
520.991678	2507.134686
521.354739	2506.257526
521.717743	2509.100736
522.080690	2507.041425
522.443580	2508.019409
522.806413	2505.970180
523.169189	2509.486385
523.531908	2506.859943
523.894569	2509.864471
524.257174	2505.423215
524.619722	2506.930520
524.982213	2508.001765
525.344647	2511.865809
525.707025	2511.502846
526.069345	2507.996724
526.431608	2510.295490
526.793815	2510.408916
527.155964	2512.236334
527.518057	2511.659122
527.880093	2512.914369
528.242072	2510.350943
528.603995	2512.248937
528.965860	2513.950326
529.327669	2513.163906
529.689421	2511.477640
530.051117	2514.222549
530.412755	2510.683659
530.774337	2511.472599
531.135862	2514.552744
531.497331	2513.519308
531.858743	2515.800430
532.220098	2515.092148
532.581396	2514.099040
532.942638	2513.390758
533.303824	2516.221366
533.664953	2515.480317
534.026025	2517.350585
534.387040	2517.872344
534.747999	2517.905112
535.108902	2516.906963
535.469748	2517.635410
535.830537	2517.239679
536.191270	2518.046264
536.551947	2515.117353
536.912567	2511.283556
537.273131	2519.306552
537.633638	2515.530728
537.994089	2520.163548
538.354483	2521.171779
538.714821	2520.899557
539.075103	2522.021214
539.435328	2522.016172
539.795497	2521.159176
540.155609	2523.566327
540.515665	2524.322500
540.875665	2524.892151
541.235609	2524.423323
541.595496	2522.845442
541.955328	2526.643952
542.315102	2527.511030
542.674821	2525.396266
543.034483	2528.718387
543.394090	2525.557583
543.753640	2527.044723
544.113134	2528.920033
544.472571	2530.349200
544.831953	2530.485311
545.191278	2528.930115
545.550548	2529.076308
545.909761	2531.246525
546.268918	2531.617050
546.628019	2531.042358
546.987064	2532.779036
547.346053	2529.829961
547.704986	2534.487987
548.063863	2533.888090
548.422684	2532.063192
548.781449	2534.982020
549.140158	2536.189377
549.498811	2533.603265
549.857408	2533.938501
550.215949	2536.731301
550.574434	2535.776002
550.932864	2536.363296
551.291237	2537.109387
551.649555	2536.915303
552.007817	2534.803059
552.366022	2535.707946
552.724173	2539.897145
553.082267	2535.337422
553.440305	2539.680376
553.798288	2540.716333
554.156215	2539.057793
554.514086	2538.533513
554.871902	2536.391023
555.229661	2540.860006
555.587365	2535.970086
555.945014	2542.596683
556.302606	2543.685572
556.660143	2540.928061
557.017625	2541.752290
557.375050	2541.964018
557.732421	2544.043494
558.089735	2544.298073
558.446994	2544.093906
558.804197	2544.971067
559.161345	2546.140614
559.518437	2545.041643
559.875474	2544.131714
560.232455	2543.221786
560.589381	2546.163299
560.946251	2544.875285
561.303065	2547.022816
561.659825	2546.163299
562.016528	2548.046170
562.373177	2545.134904
562.729770	2547.163968
563.086307	2547.035419
563.442789	2550.085317
563.799216	2546.427960
564.155587	2547.660522
564.511904	2547.937786
564.868164	2548.971222
565.224370	2549.591284
565.580520	2551.358208
565.936615	2550.017262
566.292654	2548.295708
566.648638	2550.395348
567.004567	2550.680173
567.360441	2551.030533
567.716260	2550.589432
568.072023	2551.680842
568.427732	2550.917107
568.783385	2551.446429
569.138982	2550.521377
569.494525	2552.865513
569.850013	2550.753270
570.205445	2551.476676
570.560823	2551.093548
570.916145	2552.646223
571.271412	2552.008517
571.626625	2552.860472
571.981782	2553.309135
572.336884	2550.783517
572.691931	2549.757642
573.046923	2550.445760
573.401860	2547.630275
573.756743	2552.978939
574.111570	2554.897098
574.466342	2554.085473
574.821059	2554.944989
575.175722	2551.375853
575.530330	2553.770401
575.884882	2552.983981
576.239380	2552.857952
576.593823	2555.043292
576.948211	2551.297715
577.302544	2551.597663
577.656823	2553.498178
578.011047	2553.311656
578.365216	2552.762170
578.719330	2556.230484
579.073389	2552.318548
579.427394	2553.462890
579.781344	2554.244269
580.135239	2551.544731
580.489080	2555.479352
580.842866	2552.941131
581.196597	2555.504557
581.550273	2551.665719
581.903895	2551.091027
582.257463	2553.916594
582.610975	2553.082283
582.964434	2554.072870
583.317837	2554.803837
583.671186	2556.706873
584.024481	2556.913560
584.377721	2553.785524
584.730906	2554.662685
585.084037	2553.727551
585.437113	2553.225956
585.790135	2552.273178
586.143103	2552.290822
586.496016	2552.542880
586.848874	2556.762325
587.201679	2556.903478
587.554428	2554.307283
587.907124	2555.267623
588.259765	2552.053888
588.612352	2555.081101
588.964884	2551.849721
589.317362	2554.108158
589.669786	2552.421892
590.022155	2554.075390
590.374470	2547.849565
590.726731	2549.455173
591.078937	2548.908208
591.431090	2552.598332
591.783188	2552.399207
592.135232	2554.009855
592.487222	2552.434495
592.839157	2552.089176
593.191038	2552.164793
593.542866	2553.218394
593.894639	2552.452139
594.246358	2554.571944
594.598022	2553.215874
594.949633	2555.381049
595.301190	2552.008517
595.652692	2555.378529
596.004141	2550.828887
596.355535	2552.096737
596.706876	2551.761501
597.058162	2551.733774
597.409395	2554.859290
597.760573	2552.666388
598.111698	2553.488096
598.462768	2552.767211
598.813785	2551.912735
599.164748	2551.267468
599.515657	2553.208312
599.866511	2552.058929
600.217312	2551.824515
600.568060	2549.566078
600.918753	2553.041954
601.269392	2552.247972
601.619978	2553.566234
601.970510	2553.261244
602.320988	2551.597663
602.671412	2552.527756
603.021783	2551.053219
603.372100	2552.109340
603.722363	2554.216543
604.072572	2555.600339
604.422728	2553.931718
604.772830	2554.360216
605.122878	2554.619835
605.472872	2552.142108
605.822813	2553.208312
606.172701	2554.992880
606.522534	2555.116389
606.872314	2557.077398
607.222041	2553.805689
607.571714	2554.997922
607.921333	2554.864331
608.270899	2554.677808
608.620411	2553.324258
608.969870	2556.827860
609.319276	2558.554456
609.668627	2561.140567
610.017926	2562.242060
610.367171	2560.512944
610.716362	2559.045968
611.065500	2562.965465
611.414585	2560.543191
611.763616	2563.361196
612.112594	2561.614436
612.461518	2560.066802
612.810389	2563.449416
613.159207	2564.606361
613.507971	2564.437482
613.856682	2566.264900
614.205340	2566.088460
614.553945	2567.804973
614.902496	2566.348079
615.250994	2568.409911
615.599439	2570.499470
615.947830	2571.139696
616.296169	2570.741445
616.644454	2572.780592
616.992686	2573.110787
617.340864	2578.769482
617.688990	2579.311407
618.037063	2577.892322
618.385082	2583.543455
618.733048	2585.333065
619.080961	2582.527663
619.428821	2589.827253
619.776628	2589.746595
620.124382	2590.414548
620.472083	2590.918663
620.819731	2592.163828
621.167326	2592.811617
621.514868	2590.575865
621.862357	2593.104003
622.209793	2595.211206
622.557176	2595.052409
622.904506	2595.007039
623.251783	2596.247163
623.599007	2595.879159
623.946179	2596.106011
624.293297	2600.814448
624.640363	2595.523757
624.987376	2598.077102
625.334336	2598.435024
625.681243	2601.641197
626.028097	2598.503079
626.374899	2603.889552
626.721647	2610.296859
627.068343	2608.083792
627.414987	2613.442539
627.761577	2612.701489
628.108115	2614.365070
628.454600	2615.353136
628.801032	2618.397993
629.147412	2619.126440
629.493739	2621.498302
629.840014	2624.545680
630.186236	2628.351751
630.532405	2629.932153
630.878521	2634.862401
631.224585	2640.929430
631.570597	2639.845582
631.916556	2647.084679
632.262462	2648.791109
632.608316	2654.873262
632.954117	2657.570279
633.299866	2659.906854
633.645562	2662.422389
633.991206	2667.244253
634.336797	2664.234684
634.682336	2666.903975
635.027823	2666.896413
635.373257	2669.396826
635.718639	2671.630057
636.063968	2676.323371
636.409245	2672.008143
636.754470	2673.553257
637.099642	2678.354956
637.444762	2676.981242
637.789829	2681.082220
638.134845	2685.115143
638.479808	2684.951306
638.824719	2693.286854
639.169577	2695.709128
639.514383	2696.283820
639.859137	2699.217771
640.203839	2703.419573
640.548489	2708.173381
640.893086	2711.808053
641.237632	2714.653784
641.582125	2719.934393
641.926566	2724.358006
642.270955	2727.032338
642.615292	2728.912688
642.959576	2735.940057
643.303809	2739.567167
643.647990	2751.567633
643.992118	2754.743560
644.336195	2756.964189
644.680219	2763.394180
645.024192	2773.605037
645.368112	2783.682304
645.711981	2795.466001
646.055797	2811.905204
646.399562	2819.875268
646.743274	2837.592403
647.086935	2852.753673
647.430544	2861.774818
647.774101	2872.845192
648.117606	2883.340874
648.461059	2891.598284
648.804460	2897.486352
649.147810	2895.306053
649.491108	2897.072977
649.834354	2899.558266
650.177548	2895.195148
650.520690	2897.345200
650.863781	2906.429359
651.206820	2909.834658
651.549807	2909.597724
651.892742	2911.881367
652.235626	2920.199271
652.578458	2929.326280
652.921238	2923.360074
653.263967	2937.566046
653.606644	2939.927826
653.949269	2949.586677
654.291843	2954.002728
654.634365	2966.330870
654.976836	2966.565283
655.319255	2977.134062
655.661622	2983.372490
656.003938	2993.331290
656.346203	2995.246928
656.688416	3010.519104
657.030577	3013.586646
657.372687	3019.484796
657.714746	3030.585417
658.056753	3042.200235
658.398708	3043.178219
658.740612	3052.378325
659.082465	3065.064388
659.424266	3071.950604
659.766016	3080.729774
660.107715	3092.054726
660.449362	3103.717435
660.790958	3118.437605
661.132503	3126.679891
661.473996	3139.547436
661.815438	3152.624189
662.156829	3164.475942
662.498168	3170.699247
662.839456	3179.821214
663.180693	3193.170190
663.521879	3210.617623
663.863013	3222.174468
664.204097	3227.336610
664.545129	3255.304932
664.886110	3264.994029
665.227040	3279.071451
665.567918	3296.914615
665.908746	3309.391471
666.249522	3327.448884
666.590248	3344.137624
666.930922	3361.574975
667.271545	3377.961246
667.612118	3389.288718
667.952639	3393.833319
668.293109	3408.243457
668.633528	3417.809046
668.973896	3429.484359
669.314213	3438.432407
669.654480	3445.258129
669.994695	3454.856486
670.334859	3466.861994
670.674973	3471.625884
671.015035	3488.914521
671.355047	3503.488497
671.695008	3513.076772
672.034918	3529.374822
672.374777	3547.404509
672.714585	3557.227197
673.054342	3578.069848
673.394049	3588.116867
673.733705	3612.367338
674.073310	3617.836990
674.412864	3632.703353
674.752368	3632.524392
675.091820	3656.527846
675.431223	3650.022237
675.770574	3652.134480
676.109875	3658.277126
676.449125	3659.267713
676.788324	3664.800379
677.127473	3656.908453
677.466571	3665.417920
677.805619	3665.899351
678.144616	3675.391843
678.483562	3688.128318
678.822458	3685.287628
679.161303	3695.848846
679.500098	3707.405691
679.838842	3715.111094
680.177535	3732.641707
680.516179	3761.358640
680.854771	3782.377731
681.193314	3845.830734
681.531805	3924.863424
681.870247	3986.471365
682.208638	4044.893297
682.546978	4074.089139
682.885268	4100.542594
683.223508	4090.084720
683.561697	4089.192436
683.899836	4099.733489
684.237925	4097.739713
684.575963	4108.991568
684.913951	4107.315384
685.251889	4136.725476
685.589776	4161.837984
685.927614	4185.060059
686.265401	4216.496694
686.603137	4248.059358
686.940824	4306.400632
687.278460	4356.292932
687.616046	4391.986821
687.953582	4465.789314
688.291068	4484.285307
688.628504	4529.224673
688.965889	4546.959452
689.303224	4543.831416
689.640510	4540.191703
689.977745	4509.349924
690.314930	4472.269717
690.652065	4445.866674
690.989150	4411.070109
691.326185	4359.748642
691.663170	4322.252540
692.000105	4277.149337
692.336990	4246.552053
692.673825	4227.372984
693.010610	4198.792162
693.347345	4175.295344
693.684030	4140.551712
694.020665	4134.640959
694.357251	4097.994291
694.693786	4112.477526
695.030272	4105.563583
695.366707	4083.861416
695.703093	4075.750199
696.039429	4092.895164
696.375716	4089.789813
696.711952	4107.874952
697.048139	4106.153398
697.384276	4109.349490
697.720363	4134.328407
698.056400	4140.103049
698.392388	4140.897031
698.728326	4151.992610
699.064214	4150.059328
699.400053	4161.878313
699.735842	4140.362668
700.071581	4131.437305
700.407270	4121.024802
700.742910	4114.307465
701.078501	4104.358748
701.414042	4097.966564
701.749533	4076.372782
702.084974	4063.159918
702.420366	4087.917024
702.755709	4063.611101
703.091002	4043.859860
703.426246	4063.386770
703.761440	4067.293664
704.096584	4058.055749
704.431679	4056.001479
704.766725	4065.761153
705.101721	4073.133841
705.436668	4094.604115
705.771565	4078.071651
706.106413	4120.019092
706.441212	4135.671875
706.775961	4159.763549
707.110661	4182.322712
707.445311	4231.670567
707.779913	4232.754415
708.114465	4279.251498
708.448967	4323.699351
708.783421	4404.385539
709.117825	4460.342347
709.452180	4498.692925
709.786485	4566.914860
710.120742	4666.664171
710.454949	4698.761197
710.789107	4776.669710
711.123216	4868.305284
711.457275	4919.344446
711.791286	4999.413092
712.125247	5033.667733
712.459159	5023.293038
712.793023	5119.047235
713.126837	5021.982338
713.460602	5059.914500
713.794318	5033.745871
714.127985	5010.785935
714.461602	4923.831073
714.795171	4922.671607
715.128691	4821.883818
715.462162	4767.572947
715.795584	4723.583839
716.128957	4703.179769
716.462281	4666.875899
716.795556	4644.011746
717.128782	4594.878140
717.461960	4534.112072
717.795088	4536.650293
718.128167	4512.036859
718.461198	4466.396773
718.794180	4460.773366
719.127113	4427.645423
719.459997	4415.695368
719.792833	4378.070716
720.125619	4394.295670
720.458357	4360.446842
720.791046	4357.051625
721.123686	4346.860933
721.456278	4326.262778
721.788821	4334.512626
722.121315	4312.749965
722.453761	4333.269982
722.786158	4330.096576
723.118506	4353.820246
723.450805	4347.788505
723.783056	4380.853433
724.115259	4378.562229
724.447412	4389.078076
724.779518	4428.663736
725.111574	4448.107467
725.443582	4494.662522
725.775542	4500.336341
726.107453	4588.490998
726.439315	4592.680197
726.771129	4663.639479
727.102895	4732.955344
727.434612	4787.026760
727.766281	4825.672246
728.097901	4886.241709
728.429473	4906.607971
728.760996	4919.213376
729.092471	4947.252273
729.423897	4946.770843
729.755276	4936.867497
730.086606	4966.796827
730.417887	5069.953958
730.749120	5164.818391
731.080305	5208.870514
731.411442	5283.582935
731.742530	5317.870343
732.073570	5360.369790
732.404562	5417.181073
732.735506	5405.581378
733.066401	5391.904728
733.397249	5322.397299
733.728048	5236.359926
734.058798	5110.066419
734.389501	5001.469883
734.720156	4922.676648
735.050762	4842.613043
735.381320	4787.558602
735.711831	4754.720526
736.042293	4701.816137
736.372707	4721.038056
736.703073	4697.770611
737.033391	4738.180500
737.363661	4752.391513
737.693883	4786.754538
738.024056	4832.203060
738.354182	4877.586048
738.684260	4951.880053
739.014290	5007.471377
739.344272	5064.915325
739.674207	5136.509792
740.004093	5174.613353
740.333931	5196.348288
740.663722	5223.850303
740.993464	5244.100618
741.323159	5225.576898
741.652806	5190.092216
741.982405	5162.239841
742.311956	5114.598417
742.641460	5105.509216
742.970915	5060.209408
743.300323	5000.978371
743.629683	4968.352023
743.958996	4920.786216
744.288260	4873.991705
744.617477	4827.250127
744.946647	4831.278009
745.275768	4781.413435
745.604842	4754.833952
745.933869	4726.583326
746.262847	4732.834356
746.591778	4726.117019
746.920662	4710.890214
747.249498	4721.607707
747.578286	4761.228655
747.907027	4805.951252
748.235720	4865.706569
748.564365	4891.829828
748.892963	4884.925968
749.221514	4912.107869
749.550017	4893.304366
749.878473	4901.304677
750.206881	4863.042319
750.535242	4855.868757
750.863555	4849.869784
751.191821	4842.774360
751.520039	4853.355742
751.848210	4847.543292
752.176334	4864.060632
752.504411	4859.952092
752.832440	4831.335982
753.160421	4859.042163
753.488356	4850.424311
753.816243	4841.647662
754.144082	4809.417045
754.471875	4806.740192
754.799620	4810.072395
755.127318	4816.656142
755.454969	4821.059590
755.782572	4822.861802
756.110129	4833.332279
756.437638	4822.748376
756.765100	4834.645499
757.092515	4840.576417
757.419882	4862.727247
757.747203	4871.322414
758.074477	4897.470879
758.401703	4896.782762
758.728882	4950.380309
759.056014	4972.178259
759.383099	5014.014794
759.710138	5044.448240
760.037129	5082.274538
760.364073	5107.165235
760.690970	5119.659735
761.017820	5136.358557
761.344623	5196.260068
761.671379	5293.592146
761.998088	5469.351974
762.324751	5883.707094
762.651366	6652.147819
762.977935	7671.587594
763.304456	8368.995940
763.630931	8635.481415
763.957359	8382.231490
764.283740	7894.683857
764.610074	7381.522122
764.936362	6791.026566
765.262602	6367.441094
765.588796	5941.728254
765.914943	5641.154497
766.241044	5388.149068
766.567097	5205.313980
766.893104	5041.153846
767.219064	4943.055513
767.544978	4833.387732
767.870845	4744.993619
768.196665	4694.561916
768.522438	4644.931757
768.848165	4604.405921
769.173846	4556.855237
769.499479	4531.664592
769.825066	4494.269312
770.150607	4447.651242
770.476101	4431.058284
770.801548	4409.041045
771.126949	4372.749778
771.452303	4352.728836
771.777611	4302.692863
772.102872	4306.032628
772.428087	4277.358545
772.753256	4243.048452
773.078378	4223.670256
773.403453	4180.954039
773.728482	4152.532014
774.053465	4140.100528
774.378401	4122.484216
774.703291	4092.353240
775.028135	4064.135381
775.352932	4062.741502
775.677683	4038.309550
776.002388	4009.169160
776.327046	4017.217362
776.651658	3992.067046
776.976224	3970.077532
777.300743	3972.688850
777.625216	3953.585398
777.949643	3949.232361
778.274024	3954.729740
778.598359	3936.253911
778.922647	3945.333029
779.246889	3933.811472
779.571086	3939.923871
779.895236	3940.657359
780.219339	3950.107002
780.543397	3956.295018
780.867409	3979.096157
781.191374	3983.895335
781.515294	3985.594204
781.839167	4014.066641
782.162995	4010.288296
782.486776	3999.157428
782.810511	3987.973629
783.134201	3972.033500
783.457844	3972.744303
783.781441	3961.217705
784.104993	3948.965180
784.428498	3947.319243
784.751958	3946.742031
785.075372	3939.863377
785.398739	3932.203344
785.722061	3946.830252
786.045337	3955.503557
786.368568	4004.306967
786.691752	4014.537989
787.014891	4115.751755
787.337983	4219.917117
787.661030	4389.365421
787.984031	4575.915840
788.306987	4702.037947
788.629897	4774.572590
788.952760	4772.319194
789.275579	4720.665011
789.598351	4608.917754
789.921078	4508.132485
790.243759	4391.361718
790.566395	4310.002536
790.888984	4236.305908
791.211529	4177.629398
791.534027	4114.183956
791.856480	4056.619021
792.178888	4038.445661
792.501249	4007.286289
792.823566	3965.187613
793.145836	3965.999239
793.468062	3961.893219
793.790241	3950.671611
794.112375	3975.015343
794.434464	4026.621635
794.756507	4045.195766
795.078505	4095.919856
795.400457	4189.541645
795.722364	4297.374446
796.044226	4388.238723
796.366042	4478.409842
796.687812	4468.627483
797.009538	4501.785673
797.331218	4474.039162
797.652852	4454.494608
797.974442	4415.261829
798.295986	4387.046491
798.617484	4334.898275
798.938938	4297.250938
799.260346	4269.184314
799.581709	4206.212740
799.903026	4187.116850
800.224299	4155.382786
800.545526	4099.231894
800.866708	4070.346082
801.187845	4050.433525
801.508936	4022.639123
801.829983	4008.344931
802.150984	3960.504381
802.471940	3952.335192
802.792851	3949.018112
803.113717	3939.709622
803.434538	3927.527673
803.755314	3910.665014
804.076045	3915.610386
804.396731	3900.310484
804.717372	3909.669386
805.037967	3912.114346
805.358518	3930.151594
805.679024	3955.919452
805.999485	3960.953044
806.319901	3976.593224
806.640272	3983.439111
806.960598	4014.679141
807.280879	4019.571581
807.601115	4049.062331
807.921306	4028.277654
808.241453	4037.911299
808.561554	4051.598031
808.881611	4043.761558
809.201623	4050.511663
809.521590	4037.001370
809.841513	4034.145557
810.161390	4056.843352
810.481223	4013.378523
810.801011	4012.420704
811.120755	4006.777132
811.440453	3983.736539
811.760107	3976.807473
812.079716	3973.555929
812.399281	3951.137917
812.718801	3950.744707
813.038276	3937.549487
813.357707	3924.807971
813.677093	3939.228192
813.996434	3907.224426
814.315731	3927.570523
814.634983	3931.069084
814.954191	3936.831123
815.273354	3980.580777
815.592473	4002.817306
815.911547	4054.708423
816.230577	4084.607507
816.549562	4141.910303
816.868502	4183.278011
817.187399	4224.043302
817.506250	4282.253505
817.825058	4299.300167
818.143821	4406.903596
818.462539	4516.152961
818.781213	4652.009537
819.099843	4853.431359
819.418429	5217.506011
819.736970	5572.829219
820.055466	6007.540518
820.373919	6566.556588
820.692327	7433.370389
821.010691	8842.221655
821.329011	11639.918367
821.647286	15526.660585
821.965517	19995.454426
822.283704	22684.216844
822.601847	24327.441434
822.919945	22986.739007
823.237999	21147.824387
823.556010	18898.204442
823.873976	16625.891743
824.191897	14444.309731
824.509775	12841.474865
824.827609	11353.288441
825.145398	10512.441624
825.463144	10075.260159
825.780845	10192.290546
826.098502	10781.301482
826.416116	12032.394879
826.733685	13300.774392
827.051210	13749.129574
827.368692	13206.116646
827.686129	11866.137625
828.003522	10469.412855
828.320872	9154.039705
828.638177	8148.253896
828.955439	7361.322219
829.272656	6696.323450
829.589830	6165.134549
829.906960	5693.428742
830.224046	5341.536039
830.541088	5067.549328
830.858086	4898.121188
831.175041	4760.134725
831.491952	4720.163416
831.808819	4749.089557
832.125642	4919.420063
832.442421	5276.648828
832.759157	5956.803825
833.075849	7025.417535
833.392497	8189.982047
833.709101	8979.099064
834.025662	8961.749933
834.342179	8396.520640
834.658653	7597.149916
834.975083	6877.028651
835.291469	6268.571464
835.607811	5752.558956
835.924110	5400.706582
836.240366	5057.096495
836.556578	4738.301488
836.872746	4492.638499
837.188871	4293.341523
837.504952	4128.452942
837.820990	4001.683047
838.136984	3912.081578
838.452935	3881.648132
838.768842	3892.466448
839.084706	4065.584713
839.400526	4537.111558
839.716303	5150.562008
840.032037	5596.815029
840.347727	5580.194345
840.663373	5213.190783
840.978977	4801.925890
841.294537	4478.114935
841.610054	4234.344899
841.925527	4055.026016
842.240957	3908.141916
842.556344	3771.269548
842.871687	3655.431395
843.186987	3539.666338
843.502244	3445.878191
843.817458	3375.662480
844.132629	3321.827998
844.447756	3285.173768
844.762840	3253.936258
845.077881	3220.931824
845.392879	3191.715817
845.707833	3176.274763
846.022745	3156.478152
846.337613	3143.509783
846.652438	3128.151908
846.967221	3119.859210
847.281960	3104.249277
847.596656	3097.257197
847.911309	3092.697473
848.225919	3082.784044
848.540485	3073.858681
848.855009	3067.080850
849.169490	3057.752195
849.483928	3057.837894
849.798323	3054.220866
850.112675	3047.949671
850.426984	3049.444373
850.741251	3042.154865
851.055474	3040.138403
851.369654	3042.394319
851.683792	3044.183929
851.997887	3047.995041
852.311938	3046.530586
852.625947	3051.599466
852.939914	3045.802139
853.253837	3051.896894
853.567718	3051.344888
853.881555	3045.638302
854.195350	3053.436967
854.509103	3052.022923
854.822812	3054.203222
855.136479	3050.785320
855.450103	3053.227759
855.763685	3048.166441
856.077224	3052.209446
856.390720	3060.242525
856.704173	3068.988927
857.017584	3076.104515
857.330953	3079.605597
857.644278	3090.663367
857.957561	3098.159563
858.270802	3098.431786
858.584000	3098.446909
858.897155	3097.272320
859.210268	3091.147318
859.523339	3080.301276
859.836367	3081.667428
860.149352	3079.088878
860.462295	3077.148034
860.775195	3072.313568
861.088054	3069.999678
861.400869	3070.720563
861.713642	3072.275759
862.026373	3079.277922
862.339062	3082.126173
862.651708	3088.258737
862.964312	3104.445882
863.276873	3112.819239
863.589392	3136.174904
863.901869	3155.666526
864.214303	3177.298117
864.526696	3195.962989
864.839045	3215.812532
865.151353	3227.702094
865.463619	3236.193917
865.775842	3238.054103
866.088023	3249.784868
866.400162	3244.126173
866.712258	3249.928541
867.024313	3253.656474
867.336325	3255.226794
867.648296	3258.679984
867.960224	3259.504213
868.272110	3269.158022
868.583954	3271.247581
868.895755	3276.359311
869.207515	3273.778240
869.519233	3297.391004
869.830909	3301.368475
870.142542	3315.332471
870.454134	3324.126764
870.765684	3338.002540
871.077191	3353.272195
871.388657	3364.501365
871.700081	3382.387379
872.011463	3402.947725
872.322803	3418.091351
872.634101	3434.522992
872.945357	3450.016978
873.256571	3477.425732
873.567744	3491.319152
873.878874	3497.991119
874.189963	3519.179088
874.501010	3525.823329
874.812015	3526.513967
875.122979	3549.725960
875.433900	3552.617062
875.744780	3561.960841
876.055618	3579.347780
876.366415	3579.854416
876.677169	3592.321190
876.987882	3616.165847
877.298554	3649.888646
877.609183	3687.069676
877.919771	3744.463213
878.230317	3819.581446
878.540822	3927.978857
878.851285	4086.742435
879.161707	4315.507476
879.472087	4673.789842
879.782425	5238.762036
880.092722	6170.881464
880.402977	7402.014413
880.713191	8633.366651
881.023363	9759.449515
881.333494	10430.250651
881.643583	10953.419077
881.953631	11153.555405
882.263637	11054.010261
882.573602	10646.309464
882.883526	10149.037446
883.193408	9566.930370
883.503248	8935.472919
883.813048	8333.488573
884.122806	7756.568845
884.432522	7149.132492
884.742197	6642.209184
885.051831	6204.463111
885.361424	5780.744048
885.670975	5430.416623
885.980485	5126.866064
886.289954	4878.453126
886.599382	4661.963295
886.908768	4488.827387
887.218113	4324.228673
887.527417	4189.715564
887.836680	4064.357192
888.145901	3962.881285
888.455082	3888.627610
888.764221	3816.118173
889.073319	3752.889501
889.382376	3718.811301
889.691392	3688.392979
890.000366	3676.503418
890.309300	3667.494876
890.618193	3669.448323
890.927044	3663.126716
891.235855	3674.907892
891.544625	3691.402548
891.853353	3724.233062
892.162041	3774.747944
892.470687	3870.260166
892.779293	3989.629648
893.087858	4169.830733
893.396381	4439.824851
893.704864	4808.353362
894.013306	5321.275642
894.321707	5849.717114
894.630068	6224.040432
894.938387	6339.334141
895.246665	6259.504949
895.554903	5997.896791
895.863100	5691.465213
896.171256	5434.671357
896.479371	5196.050860
896.787446	4967.752126
897.095480	4764.412144
897.403473	4606.767702
897.711425	4457.315134
898.019336	4328.992563
898.327207	4198.787121
898.635038	4092.895164
898.942827	3972.474601
899.250576	3879.382134
899.558284	3782.876805
899.865952	3724.144842
900.173579	3654.750839
900.481165	3597.160697
900.788711	3556.614697
901.096216	3517.361752
901.403681	3483.654077
901.711105	3475.016060
902.018489	3468.891058
902.325832	3503.261645
902.633135	3567.821182
902.940397	3736.039445
903.247619	4110.067854
903.554800	4749.729783
903.861941	5580.731227
904.169041	6245.195634
904.476101	6548.589916
904.783121	6439.297701
905.090100	6146.189893
905.397039	5781.855622
905.703938	5438.091779
906.010796	5114.006081
906.317614	4855.026884
906.624391	4597.469293
906.931129	4392.662336
907.237826	4200.117985
907.544483	4018.810367
907.851099	3840.716484
908.157675	3673.302285
908.464211	3515.879653
908.770707	3402.945204
909.077163	3305.532468
909.383578	3234.164853
909.689954	3176.978004
909.996289	3141.594145
910.302584	3110.336470
910.608839	3093.985488
910.915054	3076.911100
911.221229	3070.163515
911.527363	3078.428487
911.833458	3084.659353
912.139513	3099.618977
912.445527	3116.463993
912.751502	3161.027793
913.057436	3214.942933
913.363331	3284.271402
913.669186	3392.489851
913.975000	3524.565561
914.280775	3739.094384
914.586510	4019.765665
914.892205	4394.424219
915.197859	4868.610273
915.503475	5405.384773
915.809050	5869.186051
916.114585	6156.993085
916.420081	6297.260671
916.725536	6311.842208
917.030952	6135.530373
917.336328	5958.427077
917.641665	5776.728768
917.946961	5558.582918
918.252218	5363.303742
918.557435	5122.800374
918.862612	4925.040950
919.167750	4743.781222
919.472848	4540.829409
919.777906	4363.237121
920.082925	4192.407541
920.387904	4016.632588
920.692843	3884.783730
920.997743	3764.743775
921.302603	3650.475940
921.607423	3570.878642
921.912204	3485.917555
922.216946	3424.100406
922.521647	3361.701004
922.826310	3307.470792
923.130932	3260.688884
923.435516	3209.957232
923.740059	3172.027591
924.044564	3131.905047
924.349028	3100.203751
924.653454	3065.528174
924.957840	3026.492000
925.262186	3001.089625
925.566493	2970.288175
925.870761	2945.415122
926.174989	2921.439395
926.479178	2901.297464
926.783328	2881.163096
927.087438	2865.480066
927.391509	2846.737056
927.695541	2830.585199
927.999533	2814.962664
928.303486	2804.955973
928.607400	2792.577420
928.911275	2789.252779
929.215110	2777.433794
929.518906	2774.590583
929.822663	2776.765841
930.126381	2773.567229
930.430060	2780.022426
930.733699	2777.890018
931.037299	2784.337654
931.340861	2782.192643
931.644383	2788.083231
931.947866	2785.217335
932.251309	2784.529218
932.554714	2782.928652
932.858080	2780.418157
933.161407	2774.078906
933.464694	2768.619336
933.767943	2767.671599
934.071153	2766.912906
934.374323	2763.031217
934.677455	2761.191196
934.980548	2754.153745
935.283602	2752.497726
935.586617	2750.866913
935.889593	2755.950917
936.192530	2759.119282
936.495428	2768.984820
936.798287	2781.113836
937.101108	2798.982206
937.403890	2824.644200
937.706632	2858.669467
938.009336	2900.264028
938.312002	2941.341870
938.614628	2975.664566
938.917216	3005.997189
939.219765	3022.411186
939.522275	3040.057745
939.824747	3043.349618
940.127179	3044.894732
940.429573	3038.668907
940.731929	3041.360883
941.034246	3031.384439
941.336524	3024.901516
941.638763	3017.947244
941.940964	3010.201511
942.243126	2984.841987
942.545250	2975.442755
942.847335	2956.619087
943.149381	2936.194852
943.451389	2919.117943
943.753359	2899.659089
944.055290	2887.003273
944.357182	2872.330994
944.659036	2865.028883
944.960851	2860.214581
945.262628	2849.638240
945.564367	2850.601101
945.866067	2848.093127
946.167729	2846.646316
946.469352	2847.326871
946.770937	2842.550378
947.072484	2833.730879
947.373992	2836.800942
947.675462	2834.449244
947.976893	2824.482883
948.278286	2819.252686
948.579641	2815.313024
948.880958	2811.358239
949.182236	2816.172541
949.483476	2813.346974
949.784678	2815.000472
950.085841	2814.692962
950.386967	2823.333500
950.688054	2830.955724
950.989103	2844.052642
951.290114	2852.151256
951.591087	2869.409646
951.892021	2884.036554
952.192917	2895.941238
952.493776	2907.966911
952.794596	2911.309196
953.095378	2915.407654
953.396122	2910.537899
953.696828	2910.757190
953.997496	2905.993299
954.298126	2885.017058
954.598718	2879.050853
954.899272	2864.978472
955.199788	2846.608507
955.500266	2829.995384
955.800706	2809.550985
956.101108	2789.235135
956.401472	2774.653597
956.701798	2754.554517
957.002087	2733.343862
957.302337	2718.507747
957.602550	2701.196424
957.902724	2686.871986
958.202861	2671.362876
958.502960	2658.535660
958.803022	2649.799340
959.103045	2639.812814
959.403031	2629.546505
959.702979	2619.910339
960.002889	2612.668722
960.302762	2604.136569
960.602596	2598.687081
960.902393	2594.119796
961.202153	2589.053436
961.501875	2582.265523
961.801559	2579.467682
962.101205	2578.192270
962.400814	2572.546178
962.700385	2567.464695
962.999918	2563.940928
963.299414	2561.064950
963.598873	2555.824671
963.898293	2553.810730
964.197677	2555.554969
964.497022	2555.353323
964.796331	2556.535473
965.095601	2552.515153
965.394835	2550.460883
965.694030	2551.476676
965.993189	2550.428116
966.292309	2548.807385
966.591393	2548.487271
966.890439	2549.314021
967.189447	2549.492982
967.488419	2548.472148
967.787353	2549.860986
968.086249	2550.231511
968.385108	2552.293343
968.683930	2553.528425
968.982714	2557.331976
969.281462	2556.565720
969.580172	2562.116031
969.878844	2565.037379
970.177480	2570.333112
970.476078	2575.941395
970.774639	2578.272929
971.073162	2583.170410
971.371649	2586.361460
971.670098	2590.275916
971.968510	2594.165166
972.266885	2598.152719
972.565223	2599.178594
972.863524	2598.069540
973.161788	2602.102463
973.460014	2604.824686
973.758204	2606.029522
974.056356	2604.638163
974.354471	2607.539347
974.652550	2606.969697
974.950591	2607.758638
975.248595	2605.598503
975.546563	2607.786364
975.844493	2604.570108
976.142386	2601.338728
976.440243	2597.305805
976.738062	2594.334045
977.035845	2590.182655
977.333590	2585.454052
977.631299	2582.469689
977.928971	2581.847107
978.226606	2575.349060
978.524204	2573.604820
978.821765	2567.741958
979.119290	2576.841241
979.416777	2575.013823
979.714228	2577.756211
980.011642	2577.894842
980.309020	2581.892477
980.606360	2592.166349
980.903664	2608.023298
981.200931	2625.248921
981.498162	2655.861328
981.795356	2692.762574
982.092513	2740.507342
982.389633	2786.389404
982.686717	2832.926815
982.983764	2868.149357
983.280775	2891.804972
983.577749	2895.265724
983.874686	2893.728172
984.171587	2877.684700
984.468451	2858.467821
984.765279	2837.289934
985.062070	2811.822025
985.358824	2786.739764
985.655543	2760.687081
985.952224	2732.454099
986.248869	2701.052751
986.545478	2670.163081
986.842050	2641.108391
987.138586	2617.278857
987.435086	2595.838829
987.731549	2576.102712
988.027975	2561.102759
988.324366	2552.802499
988.620719	2547.287477
988.917037	2538.107536
989.213318	2534.152750
989.509563	2531.294416
989.805772	2525.950793
990.101944	2527.488345
990.398080	2525.209743
990.694180	2524.398118
990.990244	2523.503313
991.286271	2522.979033
991.582262	2525.179497
991.878217	2526.447347
992.174136	2530.424817
992.470019	2529.035979
992.765865	2529.320804
993.061676	2531.722914
993.357450	2535.695343
993.653188	2540.408822
993.948890	2555.807027
994.244556	2565.075188
994.540186	2578.739236
994.835780	2594.933942
995.131337	2618.405555
995.426859	2638.577732
995.722345	2665.452123
996.017795	2690.073118
996.313208	2709.365614
996.608586	2721.819785
996.903928	2731.110631
997.199234	2730.757750
997.494504	2731.476115
997.789738	2724.186606
998.084936	2712.211345
998.380099	2696.029242
998.675225	2680.769669
998.970316	2662.515651
999.265371	2644.846407
999.560390	2626.060547
999.855373	2608.852568
1000.150320	2590.369177
1000.445232	2575.180181
1000.740108	2565.952349
1001.034948	2553.997252
1001.329752	2545.139945
1001.624521	2538.931764
1001.919254	2529.938346
1002.213951	2528.282327
1002.508613	2522.258148
1002.803239	2519.140194
1003.097829	2516.480986
1003.392384	2514.424195
1003.686903	2511.157527
1003.981386	2507.487567
1004.275834	2505.052690
1004.570246	2503.850375
1004.864623	2504.790550
1005.158964	2502.264932
1005.453270	2501.884325
1005.747540	2499.731752
1006.041775	2499.209993
1006.335974	2499.146978
1006.630138	2494.436020
1006.924266	2499.010867
1007.218359	2495.114055
1007.512416	2496.495331
1007.806438	2493.037100
1008.100425	2497.448109
1008.394376	2489.762870
1008.688292	2494.735968
1008.982172	2494.355361
1009.276017	2495.552635
1009.569827	2491.857470
1009.863602	2494.403252
1010.157341	2493.216061
1010.451045	2492.411997
1010.744714	2492.699342
1011.038347	2492.863180
1011.331945	2490.783704
1011.625508	2493.813437
1011.919036	2494.231853
1012.212528	2491.386122
1012.505986	2491.449136
1012.799408	2490.627428
1013.092795	2489.717500
1013.386147	2490.433344
1013.679464	2490.758498
1013.972745	2489.127685
1014.265992	2487.290184
1014.559204	2490.612305
1014.852380	2486.133239
1015.145521	2491.262613
1015.438628	2489.415031
1015.731699	2489.324290
1016.024736	2491.600371
1016.317737	2493.095073
1016.610703	2488.805051
1016.903635	2495.240084
1017.196531	2493.969713
1017.489393	2495.406442
1017.782219	2494.524240
1018.075011	2497.982472
1018.367768	2497.455671
1018.660490	2498.690754
1018.953177	2498.690754
1019.245829	2498.690754
