Dividing Wavelength (nm)	Counts (n)	Blue Motor Position (mm): 6.700000	Red Motor Position (mm): 0.000000	
326.493990	2142.268574
326.888308	2142.268574
327.282561	2142.268574
327.676750	2108.182812
328.070874	2108.893615
328.464933	2110.688266
328.858929	2116.162959
329.252859	2128.163425
329.646726	2139.349746
330.040528	2152.635707
330.434265	2169.788233
330.827938	2184.977229
331.221547	2201.842409
331.615091	2223.683208
332.008571	2240.545868
332.401986	2261.201996
332.795338	2279.319903
333.188625	2300.381844
333.581847	2320.191058
333.975006	2334.518017
334.368100	2358.866790
334.761129	2374.610313
335.154095	2388.617159
335.546996	2407.831517
335.939833	2419.383321
336.332606	2436.593821
336.725315	2449.166458
337.117960	2459.261369
337.510540	2471.007257
337.903056	2480.976139
338.295508	2485.397231
338.687896	2494.010042
339.080220	2501.803666
339.472480	2508.629388
339.864676	2512.732888
340.256807	2519.609022
340.648875	2520.793693
341.040879	2522.573220
341.432818	2528.529343
341.824694	2527.465660
342.216506	2528.796524
342.608253	2527.339631
342.999937	2526.966586
343.391557	2527.543798
343.783113	2525.534898
344.174605	2526.550690
344.566033	2524.738396
344.957397	2521.993487
345.348697	2519.954341
345.739934	2518.714217
346.131106	2518.794875
346.522215	2514.285563
346.913260	2514.157014
347.304241	2511.180212
347.695159	2508.495798
348.086012	2508.798267
348.476802	2505.166116
348.867528	2505.266939
349.258191	2503.245436
349.648789	2502.242247
350.039324	2497.001967
350.429796	2501.513800
350.820203	2496.351658
351.210548	2500.523213
351.600828	2496.081957
351.991045	2498.458861
352.381198	2493.173211
352.771288	2492.595999
353.161314	2493.185814
353.551276	2494.254538
353.941175	2494.299909
354.331010	2493.213540
354.720782	2494.582213
355.110490	2493.155567
355.500135	2493.682367
355.889717	2493.805876
356.279235	2496.886021
356.668689	2493.082470
357.058080	2493.263952
357.447408	2493.957110
357.836672	2488.749598
358.225873	2496.036586
358.615010	2493.861328
359.004084	2497.939622
359.393095	2497.228819
359.782043	2495.842502
360.170927	2498.292502
360.559748	2498.552122
360.948505	2499.615805
361.337199	2499.058758
361.725830	2499.731752
362.114398	2498.912564
362.502903	2497.685043
362.891344	2502.411125
363.279722	2501.607061
363.668037	2503.588235
364.056289	2503.905827
364.444478	2501.259222
364.832603	2503.633605
365.220665	2505.786178
365.608665	2505.017402
365.996601	2502.338028
366.384474	2505.723163
366.772284	2506.315499
367.160031	2504.601507
367.547715	2507.611075
367.935336	2505.425735
368.322893	2505.786178
368.710388	2508.901611
369.097820	2510.991169
369.485189	2509.428411
369.872495	2506.285252
370.259738	2509.814060
370.646918	2508.914214
371.034035	2507.366579
371.421090	2509.060407
371.808081	2508.163082
372.195010	2508.705006
372.581875	2509.403206
372.968678	2509.350273
373.355418	2507.943792
373.742096	2511.155007
374.128710	2510.290449
374.515262	2512.148114
374.901751	2510.582836
375.288177	2508.571415
375.674540	2509.516632
376.060841	2510.199708
376.447079	2511.323885
376.833254	2514.683814
377.219367	2510.933196
377.605417	2510.696262
377.991404	2504.357011
378.377329	2508.639471
378.763191	2508.405057
379.148991	2510.983607
379.534727	2511.500326
379.920402	2514.257837
380.306013	2512.808505
380.691563	2516.057529
381.077049	2513.156345
381.462474	2515.412261
381.847835	2516.503671
382.233134	2514.751870
382.618371	2514.686335
383.003545	2517.849659
383.388657	2515.644154
383.773706	2515.893691
384.158693	2513.998217
384.543618	2513.514267
384.928480	2514.759432
385.313280	2517.153980
385.698017	2516.838908
386.082692	2519.001562
386.467305	2516.848990
386.851856	2514.416633
387.236344	2518.996521
387.620770	2519.263702
388.005133	2519.359484
388.389435	2519.437622
388.773674	2517.466531
389.157851	2519.558610
389.541965	2517.096006
389.926018	2521.421316
390.310008	2520.130781
390.693936	2518.966274
391.077802	2518.333610
391.461606	2519.024248
391.845348	2518.878054
392.229027	2518.981398
392.612645	2521.549866
392.996200	2519.944258
393.379694	2520.082890
393.763125	2523.747809
394.146494	2520.670184
394.529801	2522.474918
394.913047	2519.057015
395.296230	2522.968951
395.679351	2521.958199
396.062410	2522.563138
396.445408	2522.283354
396.828343	2523.901564
397.211217	2521.088600
397.594028	2519.727489
397.976778	2517.932838
398.359466	2520.705473
398.742092	2520.665143
399.124656	2525.396266
399.507158	2523.578930
399.889598	2526.689322
400.271977	2523.992305
400.654294	2525.681091
401.036549	2523.853673
401.418742	2526.018849
401.800874	2521.804444
402.182944	2524.246883
402.564952	2522.779907
402.946898	2526.507841
403.328783	2523.397449
403.710606	2528.184024
404.092367	2525.217305
404.474067	2522.580782
404.855705	2524.544311
405.237282	2526.245701
405.618797	2526.084384
406.000250	2529.398942
406.381642	2525.759229
406.762972	2526.389373
407.144240	2526.424662
407.525447	2529.522451
407.906593	2528.678057
408.287677	2525.940711
408.668700	2528.826771
409.049661	2530.573531
409.430560	2529.809796
409.811399	2525.849970
410.192176	2526.364168
410.572891	2530.588655
410.953545	2524.662778
411.334138	2529.378778
411.714669	2524.531708
412.095139	2526.686802
412.475547	2526.167563
412.855894	2529.635877
413.236180	2529.494724
413.616405	2530.336597
413.996568	2529.842564
414.376670	2529.424148
414.756711	2529.673685
415.136691	2531.463295
415.516609	2531.425486
415.896466	2530.329035
416.276262	2530.548325
416.655997	2528.012625
417.035670	2527.826102
417.415283	2528.824251
417.794834	2527.637059
418.174324	2529.749303
418.553753	2529.030938
418.933121	2531.523789
419.312428	2530.591175
419.691674	2530.795342
420.070859	2532.920188
420.449983	2532.733666
420.829045	2530.790301
421.208047	2533.953625
421.586988	2530.845753
421.965867	2534.692154
422.344686	2533.532688
422.723444	2532.751310
423.102141	2531.947246
423.480777	2532.501772
423.859352	2532.519417
424.237866	2535.080323
424.616319	2531.796011
424.994712	2531.042358
425.373044	2534.079654
425.751314	2531.536392
426.129524	2533.772143
426.507673	2534.009077
426.885762	2534.666948
427.263789	2535.034952
427.641756	2531.647297
428.019662	2534.949253
428.397508	2535.700385
428.775292	2533.467153
429.153016	2535.287010
429.530679	2535.972607
429.908282	2536.065868
430.285824	2532.554705
430.663305	2531.347348
431.040726	2534.278779
431.418086	2533.641073
431.795385	2535.647452
432.172624	2534.072092
432.549802	2534.946732
432.926920	2537.263142
433.303977	2535.866743
433.680974	2533.494880
434.057910	2535.702905
434.434786	2536.580066
434.811601	2537.479912
435.188355	2536.471681
435.565050	2539.493853
435.941683	2536.328008
436.318257	2533.194931
436.694770	2531.848943
437.071222	2534.006557
437.447614	2534.011598
437.823946	2536.270035
438.200218	2536.736342
438.576429	2538.467978
438.952580	2538.651980
439.328670	2537.905889
439.704700	2536.171732
440.080670	2536.683410
440.456580	2538.402443
440.832429	2539.229192
441.208218	2538.152906
441.583947	2537.812628
441.959616	2537.520241
442.335224	2539.715664
442.710773	2538.722556
443.086261	2539.725746
443.461689	2536.640560
443.837057	2538.755324
444.212365	2540.033256
444.587612	2539.788760
444.962800	2535.274407
445.337927	2537.910931
445.712995	2536.128883
446.088002	2540.796991
446.462949	2542.437887
446.837837	2540.479398
447.212664	2538.626774
447.587431	2538.735159
447.962139	2539.372865
448.336786	2543.128525
448.711374	2539.524100
449.085901	2540.824718
449.460369	2539.146013
449.834776	2539.234233
450.209124	2538.417567
450.583412	2538.694830
450.957640	2538.732639
451.331808	2538.541075
451.705917	2542.057280
452.079965	2541.989224
452.453954	2539.798843
452.827883	2539.851775
453.201752	2538.722556
453.575562	2540.973432
453.949311	2540.262629
454.323001	2538.707433
454.696632	2543.136087
455.070202	2538.639377
455.443713	2540.406302
455.817164	2538.304141
456.190556	2541.177598
456.563888	2540.156765
456.937160	2534.220806
457.310373	2540.116435
457.683526	2541.901004
458.056619	2541.041487
458.429653	2543.395706
458.802628	2541.575849
459.175542	2542.407640
459.548398	2540.275232
459.921194	2542.833617
460.293930	2541.699358
460.666607	2541.893442
461.039224	2540.870088
461.411782	2539.718184
461.784280	2544.003165
462.156719	2544.025850
462.529099	2544.471992
462.901419	2542.853782
463.273680	2542.843700
463.645882	2543.357897
464.018024	2542.579039
464.390106	2544.066179
464.762130	2543.486447
465.134094	2542.516025
465.505999	2542.926879
465.877845	2542.934440
466.249631	2542.495860
466.621358	2539.821528
466.993026	2546.047353
467.364634	2546.306972
467.736184	2543.962836
468.107674	2545.150028
468.479105	2546.112888
468.850477	2542.395037
469.221790	2545.659184
469.593043	2542.455531
469.964238	2545.029040
470.335373	2545.046684
470.706449	2542.878988
471.077467	2545.817980
471.448425	2545.729760
471.819324	2545.248330
472.190164	2546.228834
472.560945	2544.605583
472.931667	2543.183978
473.302330	2542.962167
473.672934	2544.456869
474.043479	2544.323278
474.413965	2544.265305
474.784393	2539.183822
475.154761	2540.623071
475.525070	2542.102650
475.895321	2541.974101
476.265513	2538.362114
476.635645	2544.509801
477.005719	2545.349153
477.375734	2542.032074
477.745691	2549.147662
478.115588	2544.368649
478.485427	2546.763197
478.855207	2547.713454
479.224928	2545.250851
479.594591	2545.124822
479.964194	2544.466951
480.333739	2545.588608
480.703226	2545.081972
481.072653	2545.447456
481.442022	2543.882177
481.811333	2546.042312
482.180584	2545.122301
482.549777	2545.749925
482.918912	2544.905532
483.287988	2546.695141
483.657005	2548.162117
484.025964	2544.782023
484.394864	2544.550130
484.763706	2547.116078
485.132489	2546.369987
485.501213	2546.221273
485.869879	2546.075079
486.238487	2546.869061
486.607036	2545.744884
486.975527	2548.119267
487.343959	2545.576005
487.712333	2546.569112
488.080648	2543.816642
488.448905	2544.804708
488.817104	2545.452497
489.185244	2546.435522
489.553326	2546.364946
489.921350	2547.645399
490.289315	2543.425953
490.657222	2549.314021
491.025070	2549.203115
491.392861	2546.286808
491.760593	2545.281097
492.128267	2548.073897
492.495883	2550.070194
492.863440	2547.826880
493.230939	2548.469627
493.598380	2548.643547
493.965763	2543.289842
494.333088	2544.915614
494.700354	2544.076262
495.067563	2546.122970
495.434713	2542.473175
495.801805	2544.484595
496.168839	2547.131201
496.535815	2548.560368
496.902733	2546.279246
497.269593	2549.142621
497.636395	2546.319575
498.003139	2549.286294
498.369825	2547.027857
498.736453	2548.177240
499.103023	2547.985677
499.469535	2548.038609
499.835989	2545.051725
500.202385	2548.429298
500.568723	2546.138094
500.935003	2546.125491
501.301226	2549.495502
501.667390	2545.318906
502.033497	2548.298228
502.399546	2546.957281
502.765537	2547.093392
503.131470	2546.599359
503.497345	2550.201264
503.863163	2550.980122
504.228923	2547.632796
504.594625	2550.347457
504.960269	2545.964174
505.325856	2550.218908
505.691385	2548.724206
506.056856	2551.673281
506.422270	2549.132539
506.787625	2549.500543
507.152924	2546.135573
507.518164	2547.978115
507.883347	2549.382076
508.248472	2546.997610
508.613540	2549.956768
508.978550	2548.005841
509.343503	2549.414844
509.708398	2549.364432
510.073236	2549.750080
510.438016	2548.935934
510.802738	2546.639688
511.167403	2548.061294
511.532010	2548.905687
511.896561	2548.394010
512.261053	2550.904505
512.625488	2546.317055
512.989866	2544.250182
513.354186	2546.952240
513.718449	2546.075079
514.082655	2548.462066
514.446803	2549.132539
514.810894	2548.419216
515.174927	2549.777807
515.538904	2549.679504
515.902822	2549.465255
516.266684	2544.124153
516.630488	2550.009700
516.994235	2547.713454
517.357925	2550.150852
517.721558	2550.307128
518.085133	2549.124977
518.448651	2548.923331
518.812112	2549.409803
519.175516	2548.550286
519.538863	2549.624052
519.902152	2549.775286
520.265385	2547.773948
520.628560	2550.775955
520.991678	2549.029195
521.354739	2548.782179
521.717743	2550.239072
522.080690	2550.019782
522.443580	2547.594987
522.806413	2549.936603
523.169189	2548.192364
523.531908	2549.445091
523.894569	2549.480379
524.257174	2550.927190
524.619722	2548.220090
524.982213	2550.186140
525.344647	2549.026675
525.707025	2550.269319
526.069345	2547.708413
526.431608	2548.628424
526.793815	2551.978270
527.155964	2552.724361
527.518057	2550.884340
527.880093	2548.966181
528.242072	2549.573640
528.603995	2550.407951
528.965860	2550.642365
529.327669	2551.726213
529.689421	2547.489123
530.051117	2546.959802
530.412755	2548.572971
530.774337	2549.437529
531.135862	2552.878116
531.497331	2549.079607
531.858743	2547.776469
532.220098	2547.620193
532.581396	2543.892260
532.942638	2548.646068
533.303824	2546.559030
533.664953	2552.474824
534.026025	2552.379042
534.387040	2551.479196
534.747999	2550.602035
535.108902	2551.514484
535.469748	2551.869886
535.830537	2550.347457
536.191270	2550.344937
536.551947	2552.066491
536.912567	2550.150852
537.273131	2551.201933
537.633638	2550.571788
537.994089	2548.870399
538.354483	2551.083466
538.714821	2550.196223
539.075103	2548.792261
539.435328	2549.399720
539.795497	2551.617828
540.155609	2552.305945
540.515665	2551.181768
540.875665	2550.044988
541.235609	2550.972560
541.595496	2549.540873
541.955328	2552.469783
542.315102	2550.244113
542.674821	2551.572458
543.034483	2549.772766
543.394090	2549.137580
543.753640	2549.535831
544.113134	2553.364588
544.472571	2553.984650
544.831953	2552.830225
545.191278	2550.692776
545.550548	2552.222766
545.909761	2550.244113
546.268918	2553.704866
546.628019	2550.307128
546.987064	2552.308466
547.346053	2553.818292
547.704986	2552.124464
548.063863	2554.312325
548.422684	2550.770914
548.781449	2552.522715
549.140158	2551.597663
549.498811	2553.825853
549.857408	2551.852242
550.215949	2550.377704
550.574434	2546.957281
550.932864	2550.113043
551.291237	2547.655481
551.649555	2553.566234
552.007817	2550.523897
552.366022	2549.379556
552.724173	2551.330482
553.082267	2553.026830
553.440305	2552.968857
553.798288	2553.924156
554.156215	2552.434495
554.514086	2551.963147
554.871902	2552.550441
555.229661	2550.216387
555.587365	2552.787376
555.945014	2551.698486
556.302606	2552.716799
556.660143	2551.605225
557.017625	2551.819474
557.375050	2552.094217
557.732421	2550.299566
558.089735	2550.279402
558.446994	2553.341902
558.804197	2551.378373
559.161345	2554.221584
559.518437	2552.144628
559.875474	2552.394166
560.232455	2555.769218
560.589381	2550.665050
560.946251	2553.165462
561.303065	2550.753270
561.659825	2552.656306
562.016528	2550.221428
562.373177	2551.224618
562.729770	2552.661347
563.086307	2552.830225
563.442789	2550.770914
563.799216	2554.619835
564.155587	2551.821995
564.511904	2551.779145
564.868164	2551.716130
565.224370	2552.706717
565.580520	2552.890719
565.936615	2555.151677
566.292654	2551.668239
566.648638	2552.215205
567.004567	2552.593291
567.360441	2549.384597
567.716260	2551.547252
568.072023	2550.234031
568.427732	2551.789227
568.783385	2549.992056
569.138982	2547.607590
569.494525	2551.196892
569.850013	2549.684545
570.205445	2555.686039
570.560823	2550.748229
570.916145	2555.020607
571.271412	2552.764690
571.626625	2553.825853
571.981782	2553.001625
572.336884	2552.290822
572.691931	2556.646379
573.046923	2552.923487
573.401860	2553.230997
573.756743	2553.573796
574.111570	2552.900802
574.466342	2553.021789
574.821059	2552.500030
575.175722	2551.927859
575.530330	2554.677808
575.884882	2552.870555
576.239380	2552.069011
576.593823	2555.877603
576.948211	2552.663867
577.302544	2554.803837
577.656823	2549.911397
578.011047	2553.160421
578.365216	2551.827036
578.719330	2553.457849
579.073389	2553.583878
579.427394	2548.391489
579.781344	2555.892726
580.135239	2552.159752
580.489080	2551.698486
580.842866	2551.950544
581.196597	2555.126471
581.550273	2554.960113
581.903895	2552.726882
582.257463	2553.039433
582.610975	2550.213867
582.964434	2552.235369
583.317837	2551.431305
583.671186	2553.195709
584.024481	2551.580019
584.377721	2553.777962
584.730906	2553.082283
585.084037	2553.437684
585.437113	2550.670091
585.790135	2553.977088
586.143103	2551.683363
586.496016	2552.681511
586.848874	2545.908721
587.201679	2551.441388
587.554428	2549.664381
587.907124	2551.224618
588.259765	2550.002138
588.612352	2553.772921
588.964884	2550.206305
589.317362	2552.734443
589.669786	2551.887530
590.022155	2551.953065
590.374470	2553.472973
590.726731	2551.103630
591.078937	2553.934238
591.431090	2548.683876
591.783188	2551.690925
592.135232	2550.448280
592.487222	2552.197561
592.839157	2551.663198
593.191038	2551.643034
593.542866	2552.994063
593.894639	2551.993394
594.246358	2551.206974
594.598022	2550.649926
594.949633	2552.023641
595.301190	2552.817623
595.652692	2553.840977
596.004141	2551.960626
596.355535	2554.524053
596.706876	2551.075904
597.058162	2552.406768
597.409395	2553.646892
597.760573	2552.177396
598.111698	2551.703527
598.462768	2554.375339
598.813785	2556.379198
599.164748	2552.406768
599.515657	2553.170503
599.866511	2550.276881
600.217312	2552.910884
600.568060	2551.481717
600.918753	2554.655123
601.269392	2550.788558
601.619978	2553.674619
601.970510	2553.810730
602.320988	2552.174875
602.671412	2549.750080
603.021783	2550.861655
603.372100	2551.806871
603.722363	2552.817622
604.072572	2553.246121
604.422728	2552.595812
604.772830	2548.688918
605.122878	2548.540203
605.472872	2550.735626
605.822813	2549.782848
606.172701	2549.893753
606.522534	2551.486758
606.872314	2555.872562
607.222041	2551.701007
607.571714	2551.285112
607.921333	2551.343085
608.270899	2550.924669
608.620411	2552.978939
608.969870	2554.740823
609.319276	2553.581357
609.668627	2556.270813
610.017926	2558.546894
610.367171	2560.888510
610.716362	2557.226112
611.065500	2557.442881
611.414585	2555.665874
611.763616	2555.411296
612.112594	2556.553117
612.461518	2555.421378
612.810389	2553.069680
613.159207	2554.035061
613.507971	2555.945658
613.856682	2555.933056
614.205340	2554.246790
614.553945	2555.214691
614.902496	2552.636141
615.250994	2553.999773
615.599439	2554.198899
615.947830	2553.268806
616.296169	2553.651933
616.644454	2555.955741
616.992686	2553.747715
617.340864	2548.635985
617.688990	2553.611604
618.037063	2550.831408
618.385082	2550.997766
618.733048	2552.890719
619.080961	2555.098745
619.428821	2552.482386
619.776628	2551.693445
620.124382	2553.740154
620.472083	2552.227807
620.819731	2552.963816
621.167326	2550.425595
621.514868	2554.740823
621.862357	2550.702858
622.209793	2552.552962
622.557176	2551.988353
622.904506	2548.126829
623.251783	2547.105995
623.599007	2549.908877
623.946179	2550.435677
624.293297	2549.576161
624.640363	2552.895760
624.987376	2552.189999
625.334336	2552.578168
625.681243	2551.769063
626.028097	2551.839639
626.374899	2553.359547
626.721647	2553.452808
627.068343	2553.145298
627.414987	2550.952396
627.761577	2553.115051
628.108115	2551.345606
628.454600	2555.194527
628.801032	2554.556821
629.147412	2551.330482
629.493739	2552.288301
629.840014	2554.503888
630.186236	2552.305945
630.532405	2550.778476
630.878521	2552.908363
631.224585	2552.177396
631.570597	2551.786707
631.916556	2551.610266
632.262462	2554.314845
632.608316	2551.620348
632.954117	2553.911553
633.299866	2553.115051
633.645562	2550.332334
633.991206	2551.247303
634.336797	2547.804195
634.682336	2551.821995
635.027823	2550.549103
635.373257	2552.583209
635.718639	2549.830739
636.063968	2551.637993
636.409245	2551.287632
636.754470	2551.761501
637.099642	2548.583053
637.444762	2554.516491
637.789829	2551.194371
638.134845	2551.022972
638.479808	2550.886861
638.824719	2549.682025
639.169577	2551.282591
639.514383	2552.656306
639.859137	2551.554813
640.203839	2553.914073
640.548489	2554.279557
640.893086	2550.259237
641.237632	2547.156407
641.582125	2547.433670
641.926566	2549.324103
642.270955	2550.680173
642.615292	2552.636141
642.959576	2552.391645
643.303809	2553.359547
643.647990	2552.598332
643.992118	2552.558003
644.336195	2550.082797
644.680219	2551.398538
645.024192	2551.501881
645.368112	2552.258054
645.711981	2552.366439
646.055797	2551.338044
646.399562	2552.205122
646.743274	2552.535318
647.086935	2552.668908
647.430544	2552.177396
647.774101	2554.130843
648.117606	2553.576316
648.461059	2552.694114
648.804460	2558.811554
649.147810	2553.339382
649.491108	2552.016079
649.834354	2554.725699
650.177548	2549.200595
650.520690	2554.687891
650.863781	2551.315359
651.206820	2555.232335
651.549807	2550.113043
651.892742	2552.154711
652.235626	2551.126315
652.578458	2554.224104
652.921238	2551.678322
653.263967	2551.524567
653.606644	2551.930379
653.949269	2552.071532
654.291843	2554.995401
654.634365	2549.220759
654.976836	2551.925338
655.319255	2553.195709
655.661622	2551.942982
656.003938	2553.044474
656.346203	2555.368446
656.688416	2551.131357
657.030577	2552.817623
657.372687	2553.024310
657.714746	2552.240410
658.056753	2551.615307
658.398708	2546.622044
658.740612	2550.181099
659.082465	2546.606921
659.424266	2547.660522
659.766016	2545.825542
660.107715	2554.461039
660.449362	2550.856614
660.790958	2553.722510
661.132503	2549.472817
661.473996	2553.243600
661.815438	2550.191181
662.156829	2551.360729
662.498168	2550.440718
662.839456	2550.274360
663.180693	2552.033723
663.521879	2553.294012
663.863013	2550.596994
664.204097	2552.290822
664.545129	2552.678991
664.886110	2551.978270
665.227040	2550.123126
665.567918	2552.242931
665.908746	2552.890719
666.249522	2553.523384
666.590248	2550.191181
666.930922	2553.349464
667.271545	2553.167983
667.612118	2554.478683
667.952639	2552.951213
668.293109	2551.622869
668.633528	2554.551779
668.973896	2552.041285
669.314213	2551.895091
669.654480	2552.615976
669.994695	2553.818292
670.334859	2553.533466
670.674973	2551.935421
671.015035	2552.618497
671.355047	2550.556665
671.695008	2552.779814
672.034918	2551.534649
672.374777	2552.235369
672.714585	2551.494320
673.054342	2552.137067
673.394049	2551.837118
673.733705	2554.385421
674.073310	2554.564382
674.412864	2555.335679
674.752368	2551.890050
675.091820	2552.132026
675.431223	2552.971378
675.770574	2554.748384
676.109875	2549.510626
676.449125	2548.290666
676.788324	2546.478372
677.127473	2549.805533
677.466571	2547.337888
677.805619	2555.441543
678.144616	2554.186296
678.483562	2552.593291
678.822458	2552.626059
679.161303	2559.229970
679.500098	2551.796789
679.838842	2553.238559
680.177535	2552.885678
680.516179	2555.292829
680.854771	2550.249155
681.193314	2553.951882
681.531805	2553.558672
681.870247	2553.984650
682.208638	2556.056564
682.546978	2553.241079
682.885268	2554.967675
683.223508	2555.461708
683.561697	2554.266954
683.899836	2554.193858
684.237925	2553.165462
684.575963	2554.335010
684.913951	2555.270144
685.251889	2555.920453
685.589776	2556.036399
685.927614	2555.368446
686.265401	2553.835936
686.603137	2555.721327
686.940824	2558.103272
687.278460	2556.265772
687.616046	2555.716286
687.953582	2556.028837
688.291068	2554.211502
688.628504	2556.134702
688.965889	2558.521688
689.303224	2559.645865
689.640510	2558.574620
689.977745	2555.239897
690.314930	2557.997408
690.652065	2558.516647
690.989150	2558.735937
691.326185	2557.163097
691.663170	2558.166287
692.000105	2556.628735
692.336990	2558.836760
692.673825	2557.299208
693.010610	2559.441699
693.347345	2554.037582
693.684030	2555.192006
694.020665	2552.731923
694.357251	2554.627397
694.693786	2554.312325
695.030272	2555.527243
695.366707	2560.878428
695.703093	2557.984805
696.039429	2556.883313
696.375716	2558.776266
696.711952	2557.982285
697.048139	2558.320042
697.384276	2557.210988
697.720363	2559.560166
698.056400	2558.433468
698.392388	2558.841801
698.728326	2557.747871
699.064214	2561.695094
699.400053	2558.854404
699.735842	2557.079918
700.071581	2560.286092
700.407270	2558.919939
700.742910	2557.710062
701.078501	2557.765515
701.414042	2559.025803
701.749533	2558.647717
702.084974	2557.939435
702.420366	2559.905485
702.755709	2558.677964
703.091002	2555.333158
703.426246	2559.787018
703.761440	2556.858107
704.096584	2559.562686
704.431679	2558.052861
704.766725	2559.260217
705.101721	2557.538663
705.436668	2559.587892
705.771565	2559.240052
706.106413	2560.454971
706.441212	2560.291133
706.775961	2563.525033
707.110661	2556.240566
707.445311	2558.861966
707.779913	2561.536298
708.114465	2564.520661
708.448967	2564.122410
708.783421	2562.413459
709.117825	2561.606874
709.452180	2561.841288
709.786485	2561.342214
710.120742	2566.975703
710.454949	2566.098542
710.789107	2566.741289
711.123216	2564.989488
711.457275	2563.966134
711.791286	2568.301527
712.125247	2569.841599
712.459159	2567.321022
712.793023	2571.459809
713.126837	2570.186918
713.460602	2572.513411
713.794318	2570.093657
714.127985	2571.840417
714.461602	2570.474264
714.795171	2570.012998
715.128691	2570.199521
715.462162	2566.700960
715.795584	2567.583162
716.128957	2567.459654
716.462281	2565.866649
716.795556	2567.507545
717.128782	2567.436969
717.461960	2568.876218
717.795088	2567.830179
718.128167	2565.417987
718.461198	2564.369427
718.794180	2565.644838
719.127113	2565.299519
719.459997	2568.288924
719.792833	2566.343038
720.125619	2567.996537
720.458357	2565.717935
720.791046	2566.884962
721.123686	2566.839592
721.456278	2566.511917
721.788821	2565.329766
722.121315	2566.506876
722.453761	2562.491597
722.786158	2565.541495
723.118506	2568.785477
723.450805	2565.410425
723.783056	2562.516803
724.115259	2568.921588
724.447412	2566.690878
724.779518	2565.952349
725.111574	2568.966959
725.443582	2571.525344
725.775542	2566.738769
726.107453	2570.002916
726.439315	2570.612896
726.771129	2572.135324
727.102895	2570.708677
727.434612	2575.676735
727.766281	2571.739593
728.097901	2571.237999
728.429473	2569.231619
728.760996	2571.595921
729.092471	2569.544171
729.423897	2570.297823
729.755276	2573.935016
730.086606	2575.288566
730.417887	2575.696899
730.749120	2578.086406
731.080305	2578.953485
731.411442	2582.144535
731.742530	2579.573547
732.073570	2577.625141
732.404562	2580.843917
732.735506	2580.717888
733.066401	2577.960377
733.397249	2578.577919
733.728048	2577.814184
734.058798	2577.126066
734.389501	2574.481981
734.720156	2576.022054
735.050762	2573.773699
735.381320	2574.618092
735.711831	2572.770509
736.042293	2571.192628
736.372707	2572.238668
736.703073	2575.245716
737.033391	2571.008626
737.363661	2570.925447
737.693883	2575.132290
738.024056	2577.292424
738.354182	2575.102043
738.684260	2576.170768
739.014290	2575.777558
739.344272	2574.519790
739.674207	2575.530541
740.004093	2579.870975
740.333931	2579.006417
740.663722	2581.395924
740.993464	2580.168403
741.323159	2582.671336
741.652806	2580.659915
741.982405	2580.226376
742.311956	2578.419122
742.641460	2579.583629
742.970915	2577.476427
743.300323	2577.673032
743.629683	2576.553895
743.958996	2578.464493
744.288260	2573.506518
744.617477	2574.444172
744.946647	2568.823286
745.275768	2572.800756
745.604842	2574.504666
745.933869	2568.140210
746.262847	2571.590879
746.591778	2574.363514
746.920662	2574.224882
747.249498	2573.947619
747.578286	2577.058011
747.907027	2577.700758
748.235720	2575.071796
748.564365	2580.072621
748.892963	2579.276118
749.221514	2576.395099
749.550017	2579.475244
749.878473	2579.777713
750.206881	2576.828638
750.535242	2578.988773
750.863555	2577.874678
751.191821	2576.695048
751.520039	2575.931313
751.848210	2575.689337
752.176334	2579.021540
752.504411	2581.287539
752.832440	2579.553382
753.160421	2574.998699
753.488356	2577.733525
753.816243	2580.501119
754.144082	2575.515418
754.471875	2579.147569
754.799620	2578.663618
755.127318	2577.100861
755.454969	2580.647312
755.782572	2579.997003
756.110129	2575.013823
756.437638	2578.280491
756.765100	2582.222673
757.092515	2579.646643
757.419882	2579.865933
757.747203	2579.651684
758.074477	2579.374421
758.401703	2582.711665
758.728882	2582.706624
759.056014	2580.780903
759.383099	2582.762076
759.710138	2582.177302
760.037129	2583.997159
760.364073	2586.464804
760.690970	2581.569843
761.017820	2580.788465
761.344623	2583.493044
761.671379	2585.811974
761.998088	2581.849628
762.324751	2591.810948
762.651366	2596.075764
762.977935	2610.911879
763.304456	2628.911319
763.630931	2643.628968
763.957359	2630.733696
764.283740	2616.106788
764.610074	2612.676283
764.936362	2602.556167
765.262602	2598.881166
765.588796	2597.204982
765.914943	2589.413879
766.241044	2585.794330
766.567097	2586.565627
766.893104	2585.118816
767.219064	2581.710996
767.544978	2580.690162
767.870845	2577.342836
768.196665	2577.020202
768.522438	2577.121025
768.848165	2576.455593
769.173846	2574.272773
769.499479	2575.807805
769.825066	2573.453586
770.150607	2574.184553
770.476101	2575.810325
770.801548	2575.616241
771.126949	2573.125911
771.452303	2571.043914
771.777611	2573.725808
772.102872	2572.710016
772.428087	2573.065417
772.753256	2572.621795
773.078378	2571.260684
773.403453	2571.074161
773.728482	2571.777402
774.053465	2572.717577
774.378401	2571.522824
774.703291	2570.350756
775.028135	2570.597772
775.352932	2568.359500
775.677683	2570.544840
776.002388	2568.387226
776.327046	2567.459654
776.651658	2570.738924
776.976224	2569.967628
777.300743	2568.999726
777.625216	2566.206927
777.949643	2566.088460
778.274024	2568.931671
778.598359	2564.457647
778.922647	2566.552246
779.246889	2564.790363
779.571086	2561.642162
779.895236	2567.283213
780.219339	2567.961249
780.543397	2568.140210
780.867409	2568.414953
781.191374	2569.239181
781.515294	2565.942267
781.839167	2568.719942
782.162995	2567.820096
782.486776	2568.404870
782.810511	2570.542319
783.134201	2570.063410
783.457844	2569.937381
783.781441	2568.888821
784.104993	2568.707339
784.428498	2570.703636
784.751958	2567.701629
785.075372	2567.870508
785.398739	2565.894376
785.722061	2568.845971
786.045337	2570.751527
786.368568	2568.868656
786.691752	2565.894376
787.014891	2569.168605
787.337983	2572.601631
787.661030	2571.391754
787.984031	2578.482137
788.306987	2580.478434
788.629897	2578.645974
788.952760	2581.779051
789.275579	2578.406519
789.598351	2574.555078
789.921078	2568.873698
790.243759	2572.969635
790.566395	2574.078689
790.888984	2568.477967
791.211529	2568.346897
791.534027	2570.534758
791.856480	2568.898903
792.178888	2567.873028
792.501249	2567.041238
792.823566	2569.864284
793.145836	2566.821948
793.468062	2568.513255
793.790241	2567.240364
794.112375	2568.382185
794.434464	2570.950653
794.756507	2568.903944
795.078505	2570.118863
795.400457	2566.494273
795.722364	2568.513255
796.044226	2569.849161
796.366042	2571.663976
796.687812	2570.048286
797.009538	2575.006261
797.331218	2575.482650
797.652852	2574.010633
797.974442	2570.950653
798.295986	2570.222206
798.617484	2572.667166
798.938938	2569.468554
799.260346	2572.783112
799.581709	2569.133317
799.903026	2571.308575
800.224299	2569.524006
800.545526	2566.501835
800.866708	2569.085426
801.187845	2566.837071
801.508936	2566.499314
801.829983	2568.120045
802.150984	2565.052503
802.471940	2565.574262
802.792851	2565.949828
803.113717	2567.810014
803.434538	2567.905796
803.755314	2568.682134
804.076045	2565.765826
804.396731	2565.783470
804.717372	2567.681465
805.037967	2563.368758
805.358518	2565.672565
805.679024	2567.457133
805.999485	2566.905127
806.319901	2567.096691
806.640272	2567.363872
806.960598	2567.741958
807.280879	2563.782132
807.601115	2567.499983
807.921306	2565.614592
808.241453	2567.706670
808.561554	2566.000240
808.881611	2567.915878
809.201623	2569.450910
809.521590	2570.128945
809.841513	2567.472257
810.161390	2567.686506
810.481223	2564.245918
810.801011	2566.718604
811.120755	2565.869170
811.440453	2566.315312
811.760107	2565.546536
812.079716	2566.771536
812.399281	2565.544015
812.718801	2564.331618
813.038276	2560.122254
813.357707	2566.176680
813.677093	2569.236661
813.996434	2569.148440
814.315731	2567.210117
814.634983	2567.126938
814.954191	2564.994530
815.273354	2568.818245
815.592473	2567.875549
815.911547	2569.624829
816.230577	2569.380333
816.549562	2569.340004
816.868502	2568.770354
817.187399	2572.722618
817.506250	2573.665314
817.825058	2571.979048
818.143821	2572.831003
818.462539	2575.517938
818.781213	2576.253947
819.099843	2578.015830
819.418429	2582.079000
819.736970	2588.335072
820.055466	2592.398242
820.373919	2602.659511
820.692327	2615.033023
821.010691	2625.914353
821.329011	2647.608959
821.647286	2694.055630
821.965517	2755.706421
822.283704	2782.611059
822.601847	2800.691157
822.919945	2798.210909
823.237999	2793.663789
823.556010	2755.472007
823.873976	2719.941955
824.191897	2697.869263
824.509775	2676.948474
824.827609	2652.672798
825.145398	2643.966725
825.463144	2643.291211
825.780845	2648.733136
826.098502	2652.692962
826.416116	2673.139882
826.733685	2689.352233
827.051210	2700.490663
827.368692	2693.904395
827.686129	2680.179854
828.003522	2654.522901
828.320872	2633.203862
828.638177	2620.444701
828.955439	2603.198914
829.272656	2597.681371
829.589830	2588.486307
829.906960	2587.536049
830.224046	2584.718044
830.541088	2581.519432
830.858086	2579.966757
831.175041	2578.945923
831.491952	2578.340984
831.808819	2579.245872
832.125642	2579.923907
832.442421	2584.823908
832.759157	2593.111565
833.075849	2609.492795
833.392497	2624.283540
833.709101	2642.751807
834.025662	2647.344298
834.342179	2636.664614
834.658653	2620.868158
834.975083	2608.078751
835.291469	2605.076744
835.607811	2590.933787
835.924110	2584.382807
836.240366	2578.981211
836.556578	2574.565160
836.872746	2574.451734
837.188871	2567.905796
837.504952	2568.235992
837.820990	2569.851681
838.136984	2563.875393
838.452935	2564.245918
838.768842	2564.707184
839.084706	2567.615930
839.400526	2569.849161
839.716303	2580.493557
840.032037	2586.648806
840.347727	2588.004876
840.663373	2587.160483
840.978977	2579.485326
841.294537	2574.844944
841.610054	2568.926630
841.925527	2569.763461
842.240957	2564.364385
842.556344	2563.557801
842.871687	2560.419682
843.186987	2561.992522
843.502244	2556.913560
843.817458	2560.825495
844.132629	2558.425906
844.447756	2558.055381
844.762840	2551.612787
845.077881	2557.495813
845.392879	2552.701676
845.707833	2556.225443
846.022745	2551.348126
846.337613	2554.481203
846.652438	2557.092521
846.967221	2555.297870
847.281960	2554.844166
847.596656	2555.413817
847.911309	2553.727551
848.225919	2555.922973
848.540485	2554.529094
848.855009	2556.235525
849.169490	2554.892057
849.483928	2555.164280
849.798323	2553.089845
850.112675	2554.914743
850.426984	2552.215205
850.741251	2553.462890
851.055474	2553.432643
851.369654	2555.035730
851.683792	2553.190668
851.997887	2554.647561
852.311938	2552.805020
852.625947	2553.692263
852.939914	2554.647561
853.253837	2556.525391
853.567718	2555.028168
853.881555	2555.081101
854.195350	2554.090514
854.509103	2552.321069
854.822812	2553.326779
855.136479	2555.577654
855.450103	2555.857438
855.763685	2555.318035
856.077224	2552.414330
856.390720	2551.741336
856.704173	2555.885165
857.017584	2554.511450
857.330953	2552.976419
857.644278	2555.128992
857.957561	2559.217367
858.270802	2554.793755
858.584000	2554.690411
858.897155	2554.216543
859.210268	2554.521533
859.523339	2557.122768
859.836367	2553.601522
860.149352	2553.919115
860.462295	2554.302242
860.775195	2552.920966
861.088054	2553.757798
861.400869	2553.046995
861.713642	2550.032385
862.026373	2551.227138
862.339062	2553.165462
862.651708	2557.442881
862.964312	2553.059598
863.276873	2554.919784
863.589392	2554.970195
863.901869	2554.735782
864.214303	2555.295350
864.526696	2553.546069
864.839045	2557.082439
865.151353	2556.870710
865.463619	2557.639486
865.775842	2560.215516
866.088023	2558.315001
866.400162	2560.994374
866.712258	2558.108313
867.024313	2558.640155
867.336325	2557.011862
867.648296	2559.953376
867.960224	2559.298026
868.272110	2558.315001
868.583954	2555.224773
868.895755	2558.531770
869.207515	2557.798282
869.519233	2560.139898
869.830909	2558.524209
870.142542	2555.481872
870.454134	2559.003118
870.765684	2559.416493
871.077191	2558.564538
871.388657	2559.335834
871.700081	2559.613098
872.011463	2559.603016
872.322803	2559.106462
872.634101	2561.574107
872.945357	2561.362378
873.256571	2562.103428
873.567744	2558.955227
873.878874	2563.116700
874.189963	2562.720969
874.501010	2566.431258
874.812015	2564.956721
875.122979	2565.541495
875.433900	2562.983109
875.744780	2562.640311
876.055618	2564.790363
876.366415	2566.007802
876.677169	2568.102401
876.987882	2561.211144
877.298554	2560.812892
877.609183	2565.372616
877.919771	2563.298181
878.230317	2566.224571
878.540822	2568.659448
878.851285	2574.320664
879.161707	2578.643454
879.472087	2586.963878
879.782425	2589.716348
880.092722	2606.274018
880.402977	2625.904271
880.713191	2646.867909
881.023363	2662.180414
881.333494	2672.683658
881.643583	2686.758560
881.953631	2691.766946
882.263637	2690.277285
882.573602	2678.251612
882.883526	2667.627381
883.193408	2655.911739
883.503248	2649.839669
883.813048	2637.390540
884.122806	2622.486369
884.432522	2613.346757
884.742197	2604.512135
885.051831	2599.165991
885.361424	2594.959148
885.670975	2590.333889
885.980485	2584.319793
886.289954	2583.263671
886.599382	2580.329720
886.908768	2578.449369
887.218113	2572.886456
887.527417	2570.428893
887.836680	2571.260684
888.145901	2569.367731
888.455082	2569.526527
888.764221	2565.735579
889.073319	2563.522513
889.382376	2564.079560
889.691392	2564.180383
890.000366	2567.777247
890.309300	2564.908830
890.618193	2564.792883
890.927044	2566.711042
891.235855	2565.775908
891.544625	2565.165929
891.853353	2564.934036
892.162041	2566.862277
892.470687	2571.142217
892.779293	2569.839078
893.087858	2571.830334
893.396381	2571.106929
893.704864	2579.470203
894.013306	2583.735019
894.321707	2600.050713
894.630068	2608.635798
894.938387	2610.853906
895.246665	2615.935389
895.554903	2611.529421
895.863100	2607.095726
896.171256	2600.738831
896.479371	2589.315576
896.787446	2581.705955
897.095480	2578.840059
897.403473	2576.637074
897.711425	2577.045408
898.019336	2573.347722
898.327207	2569.632391
898.635038	2569.760941
898.942827	2570.300344
899.250576	2567.310940
899.558284	2566.290106
899.865952	2564.119889
900.173579	2562.705846
900.481165	2565.198696
900.788711	2561.548901
901.096216	2563.202399
901.403681	2561.201061
901.711105	2562.476473
902.018489	2559.136709
902.325832	2563.194838
902.633135	2564.180383
902.940397	2563.741803
903.247619	2572.135324
903.554800	2579.520614
903.861941	2595.669951
904.169041	2610.380038
904.476101	2620.142232
904.783121	2620.898405
905.090100	2618.397993
905.397039	2610.042280
905.703938	2599.034921
906.010796	2590.520412
906.317614	2582.484813
906.624391	2573.977866
906.931129	2569.967628
907.237826	2566.267421
907.544483	2560.069322
907.851099	2560.066802
908.157675	2556.601008
908.464211	2556.117058
908.770707	2552.363919
909.077163	2552.701676
909.383578	2551.353167
909.689954	2552.313507
909.996289	2552.061449
910.302584	2552.628579
910.608839	2550.055070
910.915054	2552.661347
911.221229	2552.673950
911.527363	2552.404248
911.833458	2551.038095
912.139513	2555.786862
912.445527	2553.162942
912.751502	2556.999260
913.057436	2557.954558
913.363331	2558.060423
913.669186	2558.930022
913.975000	2561.309446
914.280775	2565.317163
914.586510	2565.070147
914.892205	2568.616599
915.197859	2580.828794
915.503475	2591.989908
915.809050	2601.167329
916.114585	2602.536002
916.420081	2607.062958
916.725536	2613.187960
917.030952	2611.408433
917.336328	2601.235385
917.641665	2592.927563
917.946961	2587.967068
918.252218	2579.896180
918.557435	2579.739905
918.862612	2575.220510
919.167750	2568.001578
919.472848	2569.191290
919.777906	2564.626525
920.082925	2563.968655
920.387904	2560.523026
920.692843	2557.662171
920.997743	2559.718962
921.302603	2558.395659
921.607423	2559.456822
921.912204	2556.490103
922.216946	2554.261913
922.521647	2556.303580
922.826310	2551.605225
923.130932	2555.562531
923.435516	2551.012889
923.740059	2552.033723
924.044564	2551.988353
924.349028	2549.664381
924.653454	2544.366128
924.957840	2546.503577
925.262186	2546.392672
925.566493	2548.542724
925.870761	2544.197249
926.174989	2548.129349
926.479178	2548.734288
926.783328	2549.180430
927.087438	2548.467107
927.391509	2548.648588
927.695541	2547.426108
927.999533	2545.838145
928.303486	2547.658002
928.607400	2546.808567
928.911275	2548.681356
929.215110	2548.986346
929.518906	2548.711603
929.822663	2545.248330
930.126381	2546.536345
930.430060	2549.684545
930.733699	2542.505942
931.037299	2544.787064
931.340861	2547.511808
931.644383	2547.552137
931.947866	2547.249668
932.251309	2546.874102
932.554714	2547.015254
932.858080	2549.177909
933.161407	2541.825387
933.464694	2546.032229
933.767943	2546.266643
934.071153	2545.923845
934.374323	2546.145655
934.677455	2546.329658
934.980548	2544.514842
935.283602	2544.650953
935.586617	2542.843700
935.889593	2544.973587
936.192530	2543.854451
936.495428	2546.982487
936.798287	2548.429298
937.101108	2544.708927
937.403890	2545.802857
937.706632	2547.688248
938.009336	2546.841335
938.312002	2546.937117
938.614628	2547.448794
938.917216	2548.457024
939.219765	2550.055070
939.522275	2549.500543
939.824747	2554.052705
940.127179	2547.784030
940.429573	2545.603731
940.731929	2546.483413
941.034246	2541.933771
941.336524	2548.371325
941.638763	2548.386448
941.940964	2550.377704
942.243126	2549.364432
942.545250	2549.019113
942.847335	2547.340409
943.149381	2548.141952
943.451389	2545.099616
943.753359	2547.872251
944.055290	2547.496685
944.357182	2546.105326
944.659036	2546.291849
944.960851	2548.721685
945.262628	2548.063814
945.564367	2545.880995
945.866067	2546.097764
946.167729	2545.903680
946.469352	2545.041643
946.770937	2546.440563
947.072484	2544.824873
947.373992	2548.255378
947.675462	2543.592311
947.976893	2550.924669
948.278286	2544.726571
948.579641	2544.280428
948.880958	2546.730429
949.182236	2545.190357
949.483476	2545.230686
949.784678	2548.063814
950.085841	2544.897970
950.386967	2546.884184
950.688054	2545.807898
950.989103	2547.347971
951.290114	2545.981818
951.591087	2547.839483
951.892021	2548.154555
952.192917	2546.001982
952.493776	2547.504246
952.794596	2549.414844
953.095378	2547.504246
953.396122	2547.390820
953.696828	2547.597508
953.997496	2547.549617
954.298126	2548.459545
954.598718	2545.898639
954.899272	2545.712116
955.199788	2544.721529
955.500266	2545.560882
955.800706	2542.349667
956.101108	2540.517207
956.401472	2543.950233
956.701798	2540.580222
957.002087	2544.875285
957.302337	2545.427291
957.602550	2545.767569
957.902724	2540.686086
958.202861	2544.935778
958.502960	2545.081972
958.803022	2543.534338
959.103045	2545.230686
959.403031	2543.786395
959.702979	2544.250182
960.002889	2545.049204
960.302762	2543.864533
960.602596	2544.512322
960.902393	2540.600386
961.202153	2544.194729
961.501875	2543.244471
961.801559	2541.495191
962.101205	2544.502239
962.400814	2544.577857
962.700385	2543.146169
962.999918	2543.546941
963.299414	2543.257074
963.598873	2542.205994
963.898293	2543.196580
964.197677	2541.543082
964.497022	2543.494008
964.796331	2542.069882
965.095601	2540.766744
965.394835	2541.840510
965.694030	2540.799512
965.993189	2542.435366
966.292309	2542.964687
966.591393	2541.971580
966.890439	2542.780685
967.189447	2542.163144
967.488419	2542.442928
967.787353	2542.972249
968.086249	2544.650953
968.385108	2541.490150
968.683930	2544.708927
968.982714	2544.822352
969.281462	2543.778834
969.580172	2544.837476
969.878844	2543.443597
970.177480	2542.715150
970.476078	2541.999306
970.774639	2542.465613
971.073162	2542.518545
971.371649	2541.243133
971.670098	2537.797505
971.968510	2543.529297
972.266885	2538.790612
972.565223	2544.603062
972.863524	2542.752959
973.161788	2542.417722
973.460014	2541.338915
973.758204	2543.609955
974.056356	2540.739018
974.354471	2544.043494
974.652550	2543.052908
974.950591	2543.151210
975.248595	2542.291693
975.546563	2543.050387
975.844493	2542.465613
976.142386	2543.047866
976.440243	2538.888914
976.738062	2543.100798
977.035845	2542.642053
977.333590	2543.685572
977.631299	2543.297403
977.928971	2540.686086
978.226606	2540.912938
978.524204	2543.118442
978.821765	2541.298586
979.119290	2542.778165
979.416777	2542.304296
979.714228	2542.654656
980.011642	2540.975952
980.309020	2546.387631
980.606360	2542.153062
980.903664	2542.805891
981.200931	2543.577187
981.498162	2540.391178
981.795356	2542.115253
982.092513	2545.492826
982.389633	2543.741025
982.686717	2545.802857
982.983764	2545.276056
983.280775	2545.843186
983.577749	2545.855789
983.874686	2547.201777
984.171587	2543.675490
984.468451	2545.515511
984.765279	2542.833617
985.062070	2544.943340
985.358824	2542.271529
985.655543	2544.371169
985.952224	2542.634492
986.248869	2540.988555
986.545478	2536.312885
986.842050	2540.696168
987.138586	2534.770292
987.435086	2541.250695
987.731549	2535.652494
988.027975	2543.254554
988.324366	2541.865716
988.620719	2541.255736
988.917037	2541.666590
989.213318	2542.609286
989.509563	2540.091230
989.805772	2542.722712
990.101944	2543.279759
990.398080	2541.230530
990.694180	2541.835469
990.990244	2540.542413
991.286271	2537.981507
991.582262	2539.539223
991.878217	2544.131714
992.174136	2539.284645
992.470019	2539.113246
992.765865	2542.079965
993.061676	2541.691796
993.357450	2538.772968
993.653188	2542.120294
993.948890	2540.199614
994.244556	2542.992414
994.540186	2544.038453
994.835780	2539.541744
995.131337	2540.073586
995.426859	2541.931251
995.722345	2543.773792
996.017795	2544.376210
996.313208	2545.523073
996.608586	2541.709440
996.903928	2543.282280
997.199234	2542.889070
997.494504	2541.704399
997.789738	2541.989224
998.084936	2543.451159
998.380099	2539.027546
998.675225	2542.659697
998.970316	2542.150541
999.265371	2540.650798
999.560390	2540.315561
999.855373	2541.853113
1000.150320	2541.653987
1000.445232	2542.415202
1000.740108	2538.447813
1001.034948	2543.496529
1001.329752	2540.875129
1001.624521	2541.911086
1001.919254	2535.972607
1002.213951	2539.327495
1002.508613	2537.295910
1002.803239	2542.548792
1003.097829	2535.118131
1003.392384	2539.632485
1003.686903	2539.473688
1003.981386	2541.608617
1004.275834	2539.327495
1004.570246	2541.843031
1004.864623	2541.497712
1005.158964	2540.993596
1005.453270	2541.568288
1005.747540	2542.516025
1006.041775	2540.434028
1006.335974	2541.280942
1006.630138	2542.168185
1006.924266	2542.150541
1007.218359	2543.017619
1007.512416	2538.757844
1007.806438	2542.644574
1008.100425	2538.876312
1008.394376	2538.052083
1008.688292	2539.914789
1008.982172	2539.090561
1009.276017	2540.350849
1009.569827	2543.781354
1009.863602	2546.692621
1010.157341	2539.052752
1010.451045	2538.515869
1010.744714	2538.641898
1011.038347	2539.103163
1011.331945	2539.819007
1011.625508	2540.093750
1011.919036	2539.892104
1012.212528	2542.455531
1012.505986	2539.718184
1012.799408	2540.237423
1013.092795	2540.222300
1013.386147	2540.244985
1013.679464	2543.919986
1013.972745	2539.125849
1014.265992	2541.180119
1014.559204	2543.607434
1014.852380	2540.136600
1015.145521	2542.321940
1015.438628	2543.511652
1015.731699	2539.148534
1016.024736	2539.516538
1016.317737	2541.265818
1016.610703	2540.844882
1016.903635	2537.472350
1017.196531	2537.066537
1017.489393	2538.619213
1017.782219	2534.931609
1018.075011	2538.165509
1018.367768	2540.492001
1018.660490	2541.104502
1018.953177	2541.104502
1019.245829	2541.104502
