Dividing Wavelength (nm)	Counts (n)	Blue Motor Position (mm): 2.200000	Red Motor Position (mm): 0.000000	
326.493990	2081.996538
326.888308	2081.996538
327.282561	2081.996538
327.676750	2094.599423
328.070874	2099.640577
328.464933	2024.023269
328.858929	2039.146731
329.252859	2081.996538
329.646726	2044.187885
330.040528	2102.161154
330.434265	2114.764038
330.827938	2177.778462
331.221547	2220.628269
331.615091	2145.010962
332.008571	2220.628269
332.401986	2245.834038
332.795338	2197.943077
333.188625	2213.066538
333.581847	2291.204423
333.975006	2268.519231
334.368100	2271.039808
334.761129	2339.095385
335.154095	2301.286731
335.546996	2364.301154
335.939833	2369.342308
336.332606	2334.054231
336.725315	2399.589231
337.117960	2379.424615
337.510540	2432.356731
337.903056	2460.083077
338.295508	2427.315577
338.687896	2450.000769
339.080220	2404.630385
339.472480	2409.671538
339.864676	2510.494615
340.256807	2397.068654
340.648875	2555.865000
341.040879	2452.521346
341.432818	2500.412308
341.824694	2490.330000
342.216506	2412.192115
342.608253	2467.644808
342.999937	2510.494615
343.391557	2455.041923
343.783113	2455.041923
344.174605	2439.918462
344.566033	2487.809423
344.957397	2490.330000
345.348697	2452.521346
345.739934	2397.068654
346.131106	2470.165385
346.522215	2427.315577
346.913260	2470.165385
347.304241	2434.877308
347.695159	2513.015192
348.086012	2429.836154
348.476802	2538.220962
348.867528	2475.206538
349.258191	2472.685962
349.648789	2414.712692
350.039324	2409.671538
350.429796	2492.850577
350.820203	2427.315577
351.210548	2389.506923
351.600828	2417.233269
351.991045	2490.330000
352.381198	2475.206538
352.771288	2427.315577
353.161314	2465.124231
353.551276	2432.356731
353.941175	2495.371154
354.331010	2407.150962
354.720782	2497.891731
355.110490	2442.439038
355.500135	2500.412308
355.889717	2422.274423
356.279235	2422.274423
356.668689	2497.891731
357.058080	2424.795000
357.447408	2419.753846
357.836672	2394.548077
358.225873	2414.712692
358.615010	2442.439038
359.004084	2417.233269
359.393095	2434.877308
359.782043	2447.480192
360.170927	2462.603654
360.559748	2450.000769
360.948505	2442.439038
361.337199	2386.986346
361.725830	2472.685962
362.114398	2480.247692
362.502903	2465.124231
362.891344	2434.877308
363.279722	2381.945192
363.668037	2450.000769
364.056289	2450.000769
364.444478	2482.768269
364.832603	2407.150962
365.220665	2470.165385
365.608665	2460.083077
365.996601	2444.959615
366.384474	2485.288846
366.772284	2518.056346
367.160031	2505.453462
367.547715	2475.206538
367.935336	2447.480192
368.322893	2452.521346
368.710388	2412.192115
369.097820	2412.192115
369.485189	2412.192115
369.872495	2442.439038
370.259738	2495.371154
370.646918	2444.959615
371.034035	2455.041923
371.421090	2510.494615
371.808081	2424.795000
372.195010	2412.192115
372.581875	2432.356731
372.968678	2477.727115
373.355418	2470.165385
373.742096	2507.974038
374.128710	2444.959615
374.515262	2485.288846
374.901751	2462.603654
375.288177	2480.247692
375.674540	2457.562500
376.060841	2487.809423
376.447079	2437.397885
376.833254	2591.153077
377.219367	2409.671538
377.605417	2543.262115
377.991404	2477.727115
378.377329	2467.644808
378.763191	2540.741538
379.148991	2450.000769
379.534727	2399.589231
379.920402	2422.274423
380.306013	2507.974038
380.691563	2490.330000
381.077049	2424.795000
381.462474	2465.124231
381.847835	2434.877308
382.233134	2472.685962
382.618371	2434.877308
383.003545	2462.603654
383.388657	2432.356731
383.773706	2341.615962
384.158693	2455.041923
384.543618	2462.603654
384.928480	2470.165385
385.313280	2550.823846
385.698017	2530.659231
386.082692	2462.603654
386.467305	2500.412308
386.851856	2500.412308
387.236344	2434.877308
387.620770	2460.083077
388.005133	2419.753846
388.389435	2434.877308
388.773674	2540.741538
389.157851	2457.562500
389.541965	2419.753846
389.926018	2455.041923
390.310008	2502.932885
390.693936	2439.918462
391.077802	2427.315577
391.461606	2510.494615
391.845348	2467.644808
392.229027	2500.412308
392.612645	2480.247692
392.996200	2467.644808
393.379694	2465.124231
393.763125	2472.685962
394.146494	2515.535769
394.529801	2505.453462
394.913047	2457.562500
395.296230	2538.220962
395.679351	2439.918462
396.062410	2437.397885
396.445408	2467.644808
396.828343	2477.727115
397.211217	2417.233269
397.594028	2490.330000
397.976778	2452.521346
398.359466	2432.356731
398.742092	2502.932885
399.124656	2568.467885
399.507158	2545.782692
399.889598	2475.206538
400.271977	2409.671538
400.654294	2510.494615
401.036549	2528.138654
401.418742	2568.467885
401.800874	2472.685962
402.182944	2495.371154
402.564952	2465.124231
402.946898	2487.809423
403.328783	2502.932885
403.710606	2444.959615
404.092367	2502.932885
404.474067	2407.150962
404.855705	2507.974038
405.237282	2520.576923
405.618797	2386.986346
406.000250	2540.741538
406.381642	2422.274423
406.762972	2502.932885
407.144240	2465.124231
407.525447	2502.932885
407.906593	2480.247692
408.287677	2369.342308
408.668700	2510.494615
409.049661	2543.262115
409.430560	2475.206538
409.811399	2429.836154
410.192176	2455.041923
410.572891	2455.041923
410.953545	2515.535769
411.334138	2412.192115
411.714669	2429.836154
412.095139	2477.727115
412.475547	2543.262115
412.855894	2482.768269
413.236180	2495.371154
413.616405	2455.041923
413.996568	2477.727115
414.376670	2540.741538
414.756711	2515.535769
415.136691	2533.179808
415.516609	2583.591346
415.896466	2457.562500
416.276262	2495.371154
416.655997	2492.850577
417.035670	2485.288846
417.415283	2444.959615
417.794834	2462.603654
418.174324	2507.974038
418.553753	2510.494615
418.933121	2507.974038
419.312428	2482.768269
419.691674	2490.330000
420.070859	2492.850577
420.449983	2586.111923
420.829045	2497.891731
421.208047	2485.288846
421.586988	2465.124231
421.965867	2470.165385
422.344686	2452.521346
422.723444	2563.426731
423.102141	2477.727115
423.480777	2402.109808
423.859352	2515.535769
424.237866	2485.288846
424.616319	2470.165385
424.994712	2507.974038
425.373044	2485.288846
425.751314	2528.138654
426.129524	2507.974038
426.507673	2515.535769
426.885762	2513.015192
427.263789	2472.685962
427.641756	2432.356731
428.019662	2427.315577
428.397508	2472.685962
428.775292	2530.659231
429.153016	2429.836154
429.530679	2480.247692
429.908282	2467.644808
430.285824	2500.412308
430.663305	2520.576923
431.040726	2520.576923
431.418086	2369.342308
431.795385	2497.891731
432.172624	2470.165385
432.549802	2515.535769
432.926920	2515.535769
433.303977	2455.041923
433.680974	2397.068654
434.057910	2500.412308
434.434786	2467.644808
434.811601	2578.550192
435.188355	2472.685962
435.565050	2563.426731
435.941683	2429.836154
436.318257	2432.356731
436.694770	2477.727115
437.071222	2455.041923
437.447614	2450.000769
437.823946	2545.782692
438.200218	2500.412308
438.576429	2518.056346
438.952580	2507.974038
439.328670	2470.165385
439.704700	2427.315577
440.080670	2490.330000
440.456580	2538.220962
440.832429	2563.426731
441.208218	2555.865000
441.583947	2472.685962
441.959616	2616.358846
442.335224	2492.850577
442.710773	2465.124231
443.086261	2507.974038
443.461689	2424.795000
443.837057	2432.356731
444.212365	2460.083077
444.587612	2507.974038
444.962800	2523.097500
445.337927	2482.768269
445.712995	2535.700385
446.088002	2505.453462
446.462949	2341.615962
446.837837	2530.659231
447.212664	2424.795000
447.587431	2457.562500
447.962139	2548.303269
448.336786	2500.412308
448.711374	2500.412308
449.085901	2533.179808
449.460369	2482.768269
449.834776	2502.932885
450.209124	2470.165385
450.583412	2399.589231
450.957640	2490.330000
451.331808	2475.206538
451.705917	2500.412308
452.079965	2429.836154
452.453954	2439.918462
452.827883	2505.453462
453.201752	2518.056346
453.575562	2515.535769
453.949311	2465.124231
454.323001	2510.494615
454.696632	2427.315577
455.070202	2412.192115
455.443713	2467.644808
455.817164	2472.685962
456.190556	2429.836154
456.563888	2553.344423
456.937160	2470.165385
457.310373	2432.356731
457.683526	2495.371154
458.056619	2444.959615
458.429653	2525.618077
458.802628	2475.206538
459.175542	2606.276538
459.548398	2533.179808
459.921194	2457.562500
460.293930	2487.809423
460.666607	2432.356731
461.039224	2422.274423
461.411782	2510.494615
461.784280	2482.768269
462.156719	2497.891731
462.529099	2520.576923
462.901419	2485.288846
463.273680	2450.000769
463.645882	2510.494615
464.018024	2442.439038
464.390106	2495.371154
464.762130	2442.439038
465.134094	2465.124231
465.505999	2525.618077
465.877845	2490.330000
466.249631	2533.179808
466.621358	2530.659231
466.993026	2487.809423
467.364634	2477.727115
467.736184	2490.330000
468.107674	2444.959615
468.479105	2414.712692
468.850477	2487.809423
469.221790	2563.426731
469.593043	2550.823846
469.964238	2518.056346
470.335373	2543.262115
470.706449	2538.220962
471.077467	2460.083077
471.448425	2530.659231
471.819324	2487.809423
472.190164	2439.918462
472.560945	2502.932885
472.931667	2555.865000
473.302330	2661.729231
473.672934	2497.891731
474.043479	2535.700385
474.413965	2460.083077
474.784393	2432.356731
475.154761	2460.083077
475.525070	2422.274423
475.895321	2487.809423
476.265513	2555.865000
476.635645	2465.124231
477.005719	2429.836154
477.375734	2510.494615
477.745691	2482.768269
478.115588	2467.644808
478.485427	2397.068654
478.855207	2480.247692
479.224928	2460.083077
479.594591	2485.288846
479.964194	2518.056346
480.333739	2487.809423
480.703226	2576.029615
481.072653	2555.865000
481.442022	2497.891731
481.811333	2553.344423
482.180584	2467.644808
482.549777	2518.056346
482.918912	2513.015192
483.287988	2553.344423
483.657005	2505.453462
484.025964	2523.097500
484.394864	2472.685962
484.763706	2520.576923
485.132489	2510.494615
485.501213	2513.015192
485.869879	2520.576923
486.238487	2490.330000
486.607036	2389.506923
486.975527	2444.959615
487.343959	2550.823846
487.712333	2555.865000
488.080648	2480.247692
488.448905	2540.741538
488.817104	2507.974038
489.185244	2525.618077
489.553326	2457.562500
489.921350	2470.165385
490.289315	2414.712692
490.657222	2497.891731
491.025070	2447.480192
491.392861	2543.262115
491.760593	2505.453462
492.128267	2467.644808
492.495883	2507.974038
492.863440	2513.015192
493.230939	2444.959615
493.598380	2457.562500
493.965763	2507.974038
494.333088	2518.056346
494.700354	2414.712692
495.067563	2523.097500
495.434713	2497.891731
495.801805	2543.262115
496.168839	2422.274423
496.535815	2467.644808
496.902733	2596.194231
497.269593	2543.262115
497.636395	2439.918462
498.003139	2581.070769
498.369825	2507.974038
498.736453	2548.303269
499.103023	2480.247692
499.469535	2631.482308
499.835989	2465.124231
500.202385	2538.220962
500.568723	2472.685962
500.935003	2460.083077
501.301226	2535.700385
501.667390	2528.138654
502.033497	2553.344423
502.399546	2465.124231
502.765537	2485.288846
503.131470	2502.932885
503.497345	2407.150962
503.863163	2460.083077
504.228923	2507.974038
504.594625	2467.644808
504.960269	2470.165385
505.325856	2467.644808
505.691385	2530.659231
506.056856	2442.439038
506.422270	2442.439038
506.787625	2470.165385
507.152924	2528.138654
507.518164	2510.494615
507.883347	2495.371154
508.248472	2490.330000
508.613540	2525.618077
508.978550	2543.262115
509.343503	2455.041923
509.708398	2462.603654
510.073236	2495.371154
510.438016	2437.397885
510.802738	2525.618077
511.167403	2427.315577
511.532010	2586.111923
511.896561	2412.192115
512.261053	2543.262115
512.625488	2548.303269
512.989866	2497.891731
513.354186	2518.056346
513.718449	2540.741538
514.082655	2555.865000
514.446803	2472.685962
514.810894	2558.385577
515.174927	2523.097500
515.538904	2576.029615
515.902822	2513.015192
516.266684	2570.988462
516.630488	2462.603654
516.994235	2540.741538
517.357925	2472.685962
517.721558	2460.083077
518.085133	2550.823846
518.448651	2505.453462
518.812112	2429.836154
519.175516	2495.371154
519.538863	2515.535769
519.902152	2530.659231
520.265385	2452.521346
520.628560	2384.465769
520.991678	2482.768269
521.354739	2472.685962
521.717743	2560.906154
522.080690	2505.453462
522.443580	2543.262115
522.806413	2510.494615
523.169189	2500.412308
523.531908	2520.576923
523.894569	2543.262115
524.257174	2495.371154
524.619722	2560.906154
524.982213	2515.535769
525.344647	2505.453462
525.707025	2485.288846
526.069345	2538.220962
526.431608	2490.330000
526.793815	2386.986346
527.155964	2513.015192
527.518057	2548.303269
527.880093	2538.220962
528.242072	2419.753846
528.603995	2487.809423
528.965860	2414.712692
529.327669	2608.797115
529.689421	2502.932885
530.051117	2480.247692
530.412755	2518.056346
530.774337	2548.303269
531.135862	2502.932885
531.497331	2495.371154
531.858743	2444.959615
532.220098	2502.932885
532.581396	2487.809423
532.942638	2570.988462
533.303824	2477.727115
533.664953	2523.097500
534.026025	2444.959615
534.387040	2502.932885
534.747999	2434.877308
535.108902	2543.262115
535.469748	2399.589231
535.830537	2497.891731
536.191270	2535.700385
536.551947	2477.727115
536.912567	2535.700385
537.273131	2490.330000
537.633638	2502.932885
537.994089	2533.179808
538.354483	2487.809423
538.714821	2513.015192
539.075103	2515.535769
539.435328	2465.124231
539.795497	2455.041923
540.155609	2528.138654
540.515665	2535.700385
540.875665	2492.850577
541.235609	2472.685962
541.595496	2573.509038
541.955328	2442.439038
542.315102	2593.673654
542.674821	2490.330000
543.034483	2510.494615
543.394090	2505.453462
543.753640	2535.700385
544.113134	2500.412308
544.472571	2520.576923
544.831953	2616.358846
545.191278	2462.603654
545.550548	2553.344423
545.909761	2530.659231
546.268918	2369.342308
546.628019	2507.974038
546.987064	2450.000769
547.346053	2535.700385
547.704986	2540.741538
548.063863	2455.041923
548.422684	2447.480192
548.781449	2500.412308
549.140158	2462.603654
549.498811	2460.083077
549.857408	2538.220962
550.215949	2487.809423
550.574434	2465.124231
550.932864	2495.371154
551.291237	2520.576923
551.649555	2513.015192
552.007817	2548.303269
552.366022	2523.097500
552.724173	2407.150962
553.082267	2455.041923
553.440305	2555.865000
553.798288	2543.262115
554.156215	2565.947308
554.514086	2432.356731
554.871902	2558.385577
555.229661	2533.179808
555.587365	2581.070769
555.945014	2392.027500
556.302606	2485.288846
556.660143	2497.891731
557.017625	2520.576923
557.375050	2409.671538
557.732421	2540.741538
558.089735	2412.192115
558.446994	2583.591346
558.804197	2525.618077
559.161345	2500.412308
559.518437	2510.494615
559.875474	2535.700385
560.232455	2525.618077
560.589381	2492.850577
560.946251	2555.865000
561.303065	2550.823846
561.659825	2462.603654
562.016528	2528.138654
562.373177	2570.988462
562.729770	2523.097500
563.086307	2450.000769
563.442789	2576.029615
563.799216	2583.591346
564.155587	2460.083077
564.511904	2520.576923
564.868164	2525.618077
565.224370	2492.850577
565.580520	2540.741538
565.936615	2535.700385
566.292654	2485.288846
566.648638	2492.850577
567.004567	2515.535769
567.360441	2505.453462
567.716260	2487.809423
568.072023	2422.274423
568.427732	2505.453462
568.783385	2467.644808
569.138982	2533.179808
569.494525	2507.974038
569.850013	2475.206538
570.205445	2427.315577
570.560823	2497.891731
570.916145	2429.836154
571.271412	2502.932885
571.626625	2497.891731
571.981782	2507.974038
572.336884	2573.509038
572.691931	2419.753846
573.046923	2475.206538
573.401860	2467.644808
573.756743	2507.974038
574.111570	2581.070769
574.466342	2485.288846
574.821059	2538.220962
575.175722	2518.056346
575.530330	2533.179808
575.884882	2601.235385
576.239380	2487.809423
576.593823	2558.385577
576.948211	2477.727115
577.302544	2565.947308
577.656823	2444.959615
578.011047	2472.685962
578.365216	2447.480192
578.719330	2513.015192
579.073389	2452.521346
579.427394	2518.056346
579.781344	2520.576923
580.135239	2497.891731
580.489080	2530.659231
580.842866	2485.288846
581.196597	2462.603654
581.550273	2480.247692
581.903895	2422.274423
582.257463	2515.535769
582.610975	2457.562500
582.964434	2581.070769
583.317837	2450.000769
583.671186	2450.000769
584.024481	2518.056346
584.377721	2523.097500
584.730906	2500.412308
585.084037	2495.371154
585.437113	2565.947308
585.790135	2533.179808
586.143103	2545.782692
586.496016	2470.165385
586.848874	2467.644808
587.201679	2538.220962
587.554428	2525.618077
587.907124	2482.768269
588.259765	2540.741538
588.612352	2492.850577
588.964884	2492.850577
589.317362	2497.891731
589.669786	2540.741538
590.022155	2460.083077
590.374470	2429.836154
590.726731	2434.877308
591.078937	2502.932885
591.431090	2560.906154
591.783188	2460.083077
592.135232	2555.865000
592.487222	2467.644808
592.839157	2555.865000
593.191038	2470.165385
593.542866	2565.947308
593.894639	2477.727115
594.246358	2543.262115
594.598022	2442.439038
594.949633	2475.206538
595.301190	2492.850577
595.652692	2472.685962
596.004141	2560.906154
596.355535	2480.247692
596.706876	2507.974038
597.058162	2460.083077
597.409395	2555.865000
597.760573	2515.535769
598.111698	2470.165385
598.462768	2563.426731
598.813785	2505.453462
599.164748	2497.891731
599.515657	2513.015192
599.866511	2560.906154
600.217312	2470.165385
600.568060	2533.179808
600.918753	2573.509038
601.269392	2475.206538
601.619978	2495.371154
601.970510	2475.206538
602.320988	2581.070769
602.671412	2535.700385
603.021783	2538.220962
603.372100	2548.303269
603.722363	2482.768269
604.072572	2495.371154
604.422728	2553.344423
604.772830	2477.727115
605.122878	2573.509038
605.472872	2525.618077
605.822813	2568.467885
606.172701	2460.083077
606.522534	2518.056346
606.872314	2490.330000
607.222041	2497.891731
607.571714	2462.603654
607.921333	2510.494615
608.270899	2507.974038
608.620411	2465.124231
608.969870	2523.097500
609.319276	2429.836154
609.668627	2490.330000
610.017926	2472.685962
610.367171	2477.727115
610.716362	2475.206538
611.065500	2530.659231
611.414585	2530.659231
611.763616	2475.206538
612.112594	2613.838269
612.461518	2452.521346
612.810389	2570.988462
613.159207	2530.659231
613.507971	2427.315577
613.856682	2495.371154
614.205340	2525.618077
614.553945	2540.741538
614.902496	2560.906154
615.250994	2502.932885
615.599439	2457.562500
615.947830	2528.138654
616.296169	2490.330000
616.644454	2525.618077
616.992686	2520.576923
617.340864	2432.356731
617.688990	2477.727115
618.037063	2419.753846
618.385082	2452.521346
618.733048	2525.618077
619.080961	2510.494615
619.428821	2598.714808
619.776628	2414.712692
620.124382	2535.700385
620.472083	2523.097500
620.819731	2475.206538
621.167326	2472.685962
621.514868	2492.850577
621.862357	2553.344423
622.209793	2450.000769
622.557176	2472.685962
622.904506	2530.659231
623.251783	2470.165385
623.599007	2480.247692
623.946179	2444.959615
624.293297	2505.453462
624.640363	2429.836154
624.987376	2535.700385
625.334336	2565.947308
625.681243	2477.727115
626.028097	2497.891731
626.374899	2495.371154
626.721647	2477.727115
627.068343	2583.591346
627.414987	2548.303269
627.761577	2462.603654
628.108115	2543.262115
628.454600	2558.385577
628.801032	2520.576923
629.147412	2477.727115
629.493739	2550.823846
629.840014	2444.959615
630.186236	2528.138654
630.532405	2555.865000
630.878521	2457.562500
631.224585	2586.111923
631.570597	2563.426731
631.916556	2442.439038
632.262462	2447.480192
632.608316	2437.397885
632.954117	2628.961731
633.299866	2419.753846
633.645562	2525.618077
633.991206	2487.809423
634.336797	2507.974038
634.682336	2422.274423
635.027823	2465.124231
635.373257	2563.426731
635.718639	2518.056346
636.063968	2618.879423
636.409245	2434.877308
636.754470	2492.850577
637.099642	2540.741538
637.444762	2553.344423
637.789829	2467.644808
638.134845	2573.509038
638.479808	2455.041923
638.824719	2545.782692
639.169577	2540.741538
639.514383	2563.426731
639.859137	2545.782692
640.203839	2523.097500
640.548489	2603.755962
640.893086	2439.918462
641.237632	2505.453462
641.582125	2417.233269
641.926566	2500.412308
642.270955	2510.494615
642.615292	2475.206538
642.959576	2492.850577
643.303809	2462.603654
643.647990	2545.782692
643.992118	2520.576923
644.336195	2402.109808
644.680219	2500.412308
645.024192	2480.247692
645.368112	2563.426731
645.711981	2565.947308
646.055797	2480.247692
646.399562	2515.535769
646.743274	2475.206538
647.086935	2490.330000
647.430544	2518.056346
647.774101	2475.206538
648.117606	2507.974038
648.461059	2432.356731
648.804460	2490.330000
649.147810	2482.768269
649.491108	2568.467885
649.834354	2422.274423
650.177548	2515.535769
650.520690	2414.712692
650.863781	2545.782692
651.206820	2467.644808
651.549807	2535.700385
651.892742	2477.727115
652.235626	2482.768269
652.578458	2427.315577
652.921238	2548.303269
653.263967	2502.932885
653.606644	2437.397885
653.949269	2530.659231
654.291843	2477.727115
654.634365	2427.315577
654.976836	2455.041923
655.319255	2528.138654
655.661622	2460.083077
656.003938	2492.850577
656.346203	2513.015192
656.688416	2513.015192
657.030577	2462.603654
657.372687	2525.618077
657.714746	2540.741538
658.056753	2414.712692
658.398708	2540.741538
658.740612	2576.029615
659.082465	2447.480192
659.424266	2475.206538
659.766016	2462.603654
660.107715	2515.535769
660.449362	2507.974038
660.790958	2518.056346
661.132503	2477.727115
661.473996	2530.659231
661.815438	2502.932885
662.156829	2467.644808
662.498168	2482.768269
662.839456	2538.220962
663.180693	2399.589231
663.521879	2540.741538
663.863013	2533.179808
664.204097	2485.288846
664.545129	2507.974038
664.886110	2510.494615
665.227040	2465.124231
665.567918	2460.083077
665.908746	2492.850577
666.249522	2432.356731
666.590248	2485.288846
666.930922	2462.603654
667.271545	2530.659231
667.612118	2515.535769
667.952639	2525.618077
668.293109	2513.015192
668.633528	2485.288846
668.973896	2510.494615
669.314213	2513.015192
669.654480	2417.233269
669.994695	2535.700385
670.334859	2492.850577
670.674973	2450.000769
671.015035	2525.618077
671.355047	2442.439038
671.695008	2553.344423
672.034918	2570.988462
672.374777	2444.959615
672.714585	2518.056346
673.054342	2490.330000
673.394049	2515.535769
673.733705	2540.741538
674.073310	2502.932885
674.412864	2487.809423
674.752368	2535.700385
675.091820	2507.974038
675.431223	2450.000769
675.770574	2475.206538
676.109875	2507.974038
676.449125	2523.097500
676.788324	2548.303269
677.127473	2505.453462
677.466571	2553.344423
677.805619	2467.644808
678.144616	2570.988462
678.483562	2487.809423
678.822458	2528.138654
679.161303	2525.618077
679.500098	2462.603654
679.838842	2439.918462
680.177535	2523.097500
680.516179	2487.809423
680.854771	2467.644808
681.193314	2480.247692
681.531805	2495.371154
681.870247	2576.029615
682.208638	2452.521346
682.546978	2392.027500
682.885268	2560.906154
683.223508	2497.891731
683.561697	2507.974038
683.899836	2515.535769
684.237925	2565.947308
684.575963	2434.877308
684.913951	2568.467885
685.251889	2487.809423
685.589776	2462.603654
685.927614	2543.262115
686.265401	2447.480192
686.603137	2513.015192
686.940824	2533.179808
687.278460	2450.000769
687.616046	2520.576923
687.953582	2472.685962
688.291068	2500.412308
688.628504	2475.206538
688.965889	2515.535769
689.303224	2394.548077
689.640510	2525.618077
689.977745	2450.000769
690.314930	2563.426731
690.652065	2502.932885
690.989150	2513.015192
691.326185	2523.097500
691.663170	2535.700385
692.000105	2444.959615
692.336990	2485.288846
692.673825	2505.453462
693.010610	2550.823846
693.347345	2482.768269
693.684030	2487.809423
694.020665	2507.974038
694.357251	2507.974038
694.693786	2520.576923
695.030272	2495.371154
695.366707	2467.644808
695.703093	2568.467885
696.039429	2492.850577
696.375716	2490.330000
696.711952	2553.344423
697.048139	2437.397885
697.384276	2502.932885
697.720363	2460.083077
698.056400	2510.494615
698.392388	2515.535769
698.728326	2548.303269
699.064214	2460.083077
699.400053	2490.330000
699.735842	2450.000769
700.071581	2457.562500
700.407270	2553.344423
700.742910	2490.330000
701.078501	2525.618077
701.414042	2520.576923
701.749533	2563.426731
702.084974	2540.741538
702.420366	2424.795000
702.755709	2477.727115
703.091002	2450.000769
703.426246	2530.659231
703.761440	2409.671538
704.096584	2533.179808
704.431679	2563.426731
704.766725	2444.959615
705.101721	2576.029615
705.436668	2409.671538
705.771565	2520.576923
706.106413	2591.153077
706.441212	2518.056346
706.775961	2513.015192
707.110661	2480.247692
707.445311	2510.494615
707.779913	2475.206538
708.114465	2578.550192
708.448967	2465.124231
708.783421	2465.124231
709.117825	2495.371154
709.452180	2543.262115
709.786485	2502.932885
710.120742	2462.603654
710.454949	2507.974038
710.789107	2523.097500
711.123216	2510.494615
711.457275	2525.618077
711.791286	2444.959615
712.125247	2513.015192
712.459159	2490.330000
712.793023	2455.041923
713.126837	2502.932885
713.460602	2523.097500
713.794318	2480.247692
714.127985	2535.700385
714.461602	2497.891731
714.795171	2520.576923
715.128691	2450.000769
715.462162	2621.400000
715.795584	2402.109808
716.128957	2558.385577
716.462281	2455.041923
716.795556	2389.506923
717.128782	2470.165385
717.461960	2540.741538
717.795088	2462.603654
718.128167	2538.220962
718.461198	2525.618077
718.794180	2475.206538
719.127113	2490.330000
719.459997	2495.371154
719.792833	2583.591346
720.125619	2457.562500
720.458357	2507.974038
720.791046	2394.548077
721.123686	2492.850577
721.456278	2439.918462
721.788821	2482.768269
722.121315	2487.809423
722.453761	2543.262115
722.786158	2470.165385
723.118506	2545.782692
723.450805	2490.330000
723.783056	2533.179808
724.115259	2495.371154
724.447412	2429.836154
724.779518	2523.097500
725.111574	2505.453462
725.443582	2520.576923
725.775542	2422.274423
726.107453	2510.494615
726.439315	2480.247692
726.771129	2598.714808
727.102895	2490.330000
727.434612	2520.576923
727.766281	2505.453462
728.097901	2560.906154
728.429473	2513.015192
728.760996	2550.823846
729.092471	2450.000769
729.423897	2422.274423
729.755276	2525.618077
730.086606	2475.206538
730.417887	2505.453462
730.749120	2465.124231
731.080305	2455.041923
731.411442	2548.303269
731.742530	2417.233269
732.073570	2578.550192
732.404562	2538.220962
732.735506	2477.727115
733.066401	2538.220962
733.397249	2543.262115
733.728048	2437.397885
734.058798	2603.755962
734.389501	2497.891731
734.720156	2487.809423
735.050762	2475.206538
735.381320	2417.233269
735.711831	2505.453462
736.042293	2462.603654
736.372707	2417.233269
736.703073	2477.727115
737.033391	2442.439038
737.363661	2513.015192
737.693883	2550.823846
738.024056	2528.138654
738.354182	2467.644808
738.684260	2515.535769
739.014290	2424.795000
739.344272	2515.535769
739.674207	2507.974038
740.004093	2538.220962
740.333931	2548.303269
740.663722	2472.685962
740.993464	2467.644808
741.323159	2452.521346
741.652806	2492.850577
741.982405	2457.562500
742.311956	2530.659231
742.641460	2477.727115
742.970915	2475.206538
743.300323	2450.000769
743.629683	2487.809423
743.958996	2455.041923
744.288260	2528.138654
744.617477	2492.850577
744.946647	2581.070769
745.275768	2492.850577
745.604842	2513.015192
745.933869	2482.768269
746.262847	2475.206538
746.591778	2525.618077
746.920662	2535.700385
747.249498	2475.206538
747.578286	2555.865000
747.907027	2482.768269
748.235720	2497.891731
748.564365	2523.097500
748.892963	2477.727115
749.221514	2538.220962
749.550017	2485.288846
749.878473	2543.262115
750.206881	2444.959615
750.535242	2366.821731
750.863555	2477.727115
751.191821	2477.727115
751.520039	2480.247692
751.848210	2502.932885
752.176334	2563.426731
752.504411	2553.344423
752.832440	2528.138654
753.160421	2485.288846
753.488356	2510.494615
753.816243	2450.000769
754.144082	2540.741538
754.471875	2467.644808
754.799620	2568.467885
755.127318	2480.247692
755.454969	2444.959615
755.782572	2409.671538
756.110129	2452.521346
756.437638	2427.315577
756.765100	2490.330000
757.092515	2392.027500
757.419882	2495.371154
757.747203	2525.618077
758.074477	2502.932885
758.401703	2515.535769
758.728882	2460.083077
759.056014	2492.850577
759.383099	2533.179808
759.710138	2535.700385
760.037129	2533.179808
760.364073	2570.988462
760.690970	2414.712692
761.017820	2510.494615
761.344623	2523.097500
761.671379	2520.576923
761.998088	2520.576923
762.324751	2487.809423
762.651366	2485.288846
762.977935	2470.165385
763.304456	2424.795000
763.630931	2535.700385
763.957359	2528.138654
764.283740	2538.220962
764.610074	2475.206538
764.936362	2502.932885
765.262602	2467.644808
765.588796	2568.467885
765.914943	2442.439038
766.241044	2467.644808
766.567097	2439.918462
766.893104	2533.179808
767.219064	2397.068654
767.544978	2576.029615
767.870845	2497.891731
768.196665	2535.700385
768.522438	2525.618077
768.848165	2553.344423
769.173846	2467.644808
769.499479	2513.015192
769.825066	2553.344423
770.150607	2447.480192
770.476101	2586.111923
770.801548	2497.891731
771.126949	2439.918462
771.452303	2495.371154
771.777611	2497.891731
772.102872	2482.768269
772.428087	2528.138654
772.753256	2545.782692
773.078378	2467.644808
773.403453	2427.315577
773.728482	2480.247692
774.053465	2507.974038
774.378401	2507.974038
774.703291	2452.521346
775.028135	2543.262115
775.352932	2475.206538
775.677683	2467.644808
776.002388	2563.426731
776.327046	2515.535769
776.651658	2560.906154
776.976224	2588.632500
777.300743	2548.303269
777.625216	2470.165385
777.949643	2452.521346
778.274024	2450.000769
778.598359	2457.562500
778.922647	2487.809423
779.246889	2475.206538
779.571086	2465.124231
779.895236	2404.630385
780.219339	2482.768269
780.543397	2407.150962
780.867409	2472.685962
781.191374	2457.562500
781.515294	2447.480192
781.839167	2475.206538
782.162995	2563.426731
782.486776	2444.959615
782.810511	2523.097500
783.134201	2487.809423
783.457844	2528.138654
783.781441	2520.576923
784.104993	2482.768269
784.428498	2495.371154
784.751958	2447.480192
785.075372	2412.192115
785.398739	2510.494615
785.722061	2349.177692
786.045337	2422.274423
786.368568	2422.274423
786.691752	2515.535769
787.014891	2475.206538
787.337983	2429.836154
787.661030	2535.700385
787.984031	2470.165385
788.306987	2513.015192
788.629897	2507.974038
788.952760	2581.070769
789.275579	2452.521346
789.598351	2475.206538
789.921078	2480.247692
790.243759	2543.262115
790.566395	2555.865000
790.888984	2505.453462
791.211529	2402.109808
791.534027	2535.700385
791.856480	2439.918462
792.178888	2568.467885
792.501249	2472.685962
792.823566	2510.494615
793.145836	2467.644808
793.468062	2565.947308
793.790241	2462.603654
794.112375	2550.823846
794.434464	2434.877308
794.756507	2467.644808
795.078505	2533.179808
795.400457	2444.959615
795.722364	2576.029615
796.044226	2487.809423
796.366042	2487.809423
796.687812	2434.877308
797.009538	2487.809423
797.331218	2518.056346
797.652852	2528.138654
797.974442	2513.015192
798.295986	2497.891731
798.617484	2467.644808
798.938938	2482.768269
799.260346	2553.344423
799.581709	2490.330000
799.903026	2568.467885
800.224299	2528.138654
800.545526	2520.576923
800.866708	2495.371154
801.187845	2460.083077
801.508936	2487.809423
801.829983	2472.685962
802.150984	2424.795000
802.471940	2558.385577
802.792851	2434.877308
803.113717	2502.932885
803.434538	2505.453462
803.755314	2457.562500
804.076045	2477.727115
804.396731	2487.809423
804.717372	2525.618077
805.037967	2573.509038
805.358518	2437.397885
805.679024	2578.550192
805.999485	2397.068654
806.319901	2482.768269
806.640272	2540.741538
806.960598	2513.015192
807.280879	2482.768269
807.601115	2497.891731
807.921306	2485.288846
808.241453	2540.741538
808.561554	2530.659231
808.881611	2631.482308
809.201623	2472.685962
809.521590	2558.385577
809.841513	2560.906154
810.161390	2460.083077
810.481223	2444.959615
810.801011	2444.959615
811.120755	2502.932885
811.440453	2485.288846
811.760107	2455.041923
812.079716	2533.179808
812.399281	2477.727115
812.718801	2596.194231
813.038276	2472.685962
813.357707	2472.685962
813.677093	2450.000769
813.996434	2502.932885
814.315731	2467.644808
814.634983	2520.576923
814.954191	2530.659231
815.273354	2465.124231
815.592473	2460.083077
815.911547	2442.439038
816.230577	2616.358846
816.549562	2510.494615
816.868502	2467.644808
817.187399	2444.959615
817.506250	2485.288846
817.825058	2593.673654
818.143821	2465.124231
818.462539	2538.220962
818.781213	2528.138654
819.099843	2548.303269
819.418429	2455.041923
819.736970	2477.727115
820.055466	2507.974038
820.373919	2462.603654
820.692327	2543.262115
821.010691	2538.220962
821.329011	2533.179808
821.647286	2568.467885
821.965517	2505.453462
822.283704	2444.959615
822.601847	2538.220962
822.919945	2465.124231
823.237999	2528.138654
823.556010	2568.467885
823.873976	2442.439038
824.191897	2558.385577
824.509775	2482.768269
824.827609	2513.015192
825.145398	2518.056346
825.463144	2414.712692
825.780845	2553.344423
826.098502	2485.288846
826.416116	2535.700385
826.733685	2467.644808
827.051210	2497.891731
827.368692	2450.000769
827.686129	2533.179808
828.003522	2437.397885
828.320872	2588.632500
828.638177	2492.850577
828.955439	2485.288846
829.272656	2510.494615
829.589830	2558.385577
829.906960	2477.727115
830.224046	2525.618077
830.541088	2507.974038
830.858086	2460.083077
831.175041	2417.233269
831.491952	2543.262115
831.808819	2497.891731
832.125642	2477.727115
832.442421	2510.494615
832.759157	2558.385577
833.075849	2455.041923
833.392497	2477.727115
833.709101	2492.850577
834.025662	2485.288846
834.342179	2502.932885
834.658653	2452.521346
834.975083	2538.220962
835.291469	2510.494615
835.607811	2477.727115
835.924110	2515.535769
836.240366	2510.494615
836.556578	2553.344423
836.872746	2555.865000
837.188871	2462.603654
837.504952	2497.891731
837.820990	2480.247692
838.136984	2485.288846
838.452935	2462.603654
838.768842	2510.494615
839.084706	2528.138654
839.400526	2505.453462
839.716303	2548.303269
840.032037	2475.206538
840.347727	2419.753846
840.663373	2482.768269
840.978977	2518.056346
841.294537	2603.755962
841.610054	2568.467885
841.925527	2596.194231
842.240957	2485.288846
842.556344	2492.850577
842.871687	2414.712692
843.186987	2588.632500
843.502244	2492.850577
843.817458	2518.056346
844.132629	2485.288846
844.447756	2502.932885
844.762840	2462.603654
845.077881	2429.836154
845.392879	2502.932885
845.707833	2417.233269
846.022745	2485.288846
846.337613	2460.083077
846.652438	2490.330000
846.967221	2495.371154
847.281960	2462.603654
847.596656	2482.768269
847.911309	2525.618077
848.225919	2424.795000
848.540485	2482.768269
848.855009	2535.700385
849.169490	2570.988462
849.483928	2533.179808
849.798323	2518.056346
850.112675	2535.700385
850.426984	2427.315577
850.741251	2505.453462
851.055474	2424.795000
851.369654	2528.138654
851.683792	2553.344423
851.997887	2432.356731
852.311938	2578.550192
852.625947	2392.027500
852.939914	2402.109808
853.253837	2535.700385
853.567718	2480.247692
853.881555	2558.385577
854.195350	2505.453462
854.509103	2444.959615
854.822812	2518.056346
855.136479	2540.741538
855.450103	2477.727115
855.763685	2548.303269
856.077224	2492.850577
856.390720	2487.809423
856.704173	2515.535769
857.017584	2442.439038
857.330953	2513.015192
857.644278	2515.535769
857.957561	2528.138654
858.270802	2427.315577
858.584000	2550.823846
858.897155	2439.918462
859.210268	2558.385577
859.523339	2437.397885
859.836367	2447.480192
860.149352	2455.041923
860.462295	2505.453462
860.775195	2543.262115
861.088054	2608.797115
861.400869	2502.932885
861.713642	2487.809423
862.026373	2593.673654
862.339062	2515.535769
862.651708	2518.056346
862.964312	2455.041923
863.276873	2518.056346
863.589392	2505.453462
863.901869	2447.480192
864.214303	2472.685962
864.526696	2507.974038
864.839045	2533.179808
865.151353	2523.097500
865.463619	2523.097500
865.775842	2470.165385
866.088023	2467.644808
866.400162	2490.330000
866.712258	2429.836154
867.024313	2465.124231
867.336325	2475.206538
867.648296	2543.262115
867.960224	2475.206538
868.272110	2520.576923
868.583954	2482.768269
868.895755	2502.932885
869.207515	2490.330000
869.519233	2467.644808
869.830909	2510.494615
870.142542	2505.453462
870.454134	2565.947308
870.765684	2636.523462
871.077191	2442.439038
871.388657	2475.206538
871.700081	2482.768269
872.011463	2497.891731
872.322803	2573.509038
872.634101	2515.535769
872.945357	2482.768269
873.256571	2424.795000
873.567744	2507.974038
873.878874	2505.453462
874.189963	2472.685962
874.501010	2535.700385
874.812015	2558.385577
875.122979	2513.015192
875.433900	2437.397885
875.744780	2540.741538
876.055618	2507.974038
876.366415	2462.603654
876.677169	2576.029615
876.987882	2442.439038
877.298554	2404.630385
877.609183	2513.015192
877.919771	2439.918462
878.230317	2507.974038
878.540822	2439.918462
878.851285	2563.426731
879.161707	2419.753846
879.472087	2429.836154
879.782425	2573.509038
880.092722	2530.659231
880.402977	2545.782692
880.713191	2480.247692
881.023363	2490.330000
881.333494	2545.782692
881.643583	2475.206538
881.953631	2477.727115
882.263637	2414.712692
882.573602	2419.753846
882.883526	2543.262115
883.193408	2492.850577
883.503248	2472.685962
883.813048	2442.439038
884.122806	2439.918462
884.432522	2470.165385
884.742197	2545.782692
885.051831	2465.124231
885.361424	2515.535769
885.670975	2384.465769
885.980485	2500.412308
886.289954	2477.727115
886.599382	2538.220962
886.908768	2457.562500
887.218113	2502.932885
887.527417	2475.206538
887.836680	2507.974038
888.145901	2437.397885
888.455082	2583.591346
888.764221	2460.083077
889.073319	2528.138654
889.382376	2452.521346
889.691392	2442.439038
890.000366	2540.741538
890.309300	2495.371154
890.618193	2457.562500
890.927044	2515.535769
891.235855	2455.041923
891.544625	2490.330000
891.853353	2452.521346
892.162041	2462.603654
892.470687	2538.220962
892.779293	2492.850577
893.087858	2515.535769
893.396381	2465.124231
893.704864	2480.247692
894.013306	2462.603654
894.321707	2505.453462
894.630068	2477.727115
894.938387	2472.685962
895.246665	2460.083077
895.554903	2470.165385
895.863100	2427.315577
896.171256	2538.220962
896.479371	2525.618077
896.787446	2439.918462
897.095480	2490.330000
897.403473	2492.850577
897.711425	2553.344423
898.019336	2548.303269
898.327207	2520.576923
898.635038	2540.741538
898.942827	2419.753846
899.250576	2611.317692
899.558284	2457.562500
899.865952	2500.412308
900.173579	2495.371154
900.481165	2565.947308
900.788711	2530.659231
901.096216	2528.138654
901.403681	2520.576923
901.711105	2518.056346
902.018489	2492.850577
902.325832	2530.659231
902.633135	2492.850577
902.940397	2480.247692
903.247619	2502.932885
903.554800	2450.000769
903.861941	2591.153077
904.169041	2490.330000
904.476101	2535.700385
904.783121	2520.576923
905.090100	2495.371154
905.397039	2455.041923
905.703938	2490.330000
906.010796	2467.644808
906.317614	2450.000769
906.624391	2467.644808
906.931129	2412.192115
907.237826	2404.630385
907.544483	2487.809423
907.851099	2565.947308
908.157675	2593.673654
908.464211	2530.659231
908.770707	2452.521346
909.077163	2447.480192
909.383578	2513.015192
909.689954	2485.288846
909.996289	2465.124231
910.302584	2374.383462
910.608839	2528.138654
910.915054	2475.206538
911.221229	2533.179808
911.527363	2467.644808
911.833458	2432.356731
912.139513	2467.644808
912.445527	2538.220962
912.751502	2455.041923
913.057436	2462.603654
913.363331	2510.494615
913.669186	2513.015192
913.975000	2513.015192
914.280775	2507.974038
914.586510	2500.412308
914.892205	2550.823846
915.197859	2480.247692
915.503475	2510.494615
915.809050	2392.027500
916.114585	2525.618077
916.420081	2500.412308
916.725536	2485.288846
917.030952	2480.247692
917.336328	2444.959615
917.641665	2437.397885
917.946961	2470.165385
918.252218	2588.632500
918.557435	2520.576923
918.862612	2472.685962
919.167750	2457.562500
919.472848	2490.330000
919.777906	2563.426731
920.082925	2490.330000
920.387904	2581.070769
920.692843	2467.644808
920.997743	2460.083077
921.302603	2424.795000
921.607423	2515.535769
921.912204	2510.494615
922.216946	2457.562500
922.521647	2485.288846
922.826310	2472.685962
923.130932	2528.138654
923.435516	2429.836154
923.740059	2543.262115
924.044564	2482.768269
924.349028	2485.288846
924.653454	2447.480192
924.957840	2465.124231
925.262186	2570.988462
925.566493	2525.618077
925.870761	2487.809423
926.174989	2467.644808
926.479178	2427.315577
926.783328	2540.741538
927.087438	2507.974038
927.391509	2533.179808
927.695541	2437.397885
927.999533	2482.768269
928.303486	2485.288846
928.607400	2507.974038
928.911275	2455.041923
929.215110	2578.550192
929.518906	2495.371154
929.822663	2467.644808
930.126381	2533.179808
930.430060	2518.056346
930.733699	2523.097500
931.037299	2452.521346
931.340861	2523.097500
931.644383	2540.741538
931.947866	2513.015192
932.251309	2394.548077
932.554714	2515.535769
932.858080	2520.576923
933.161407	2535.700385
933.464694	2490.330000
933.767943	2558.385577
934.071153	2472.685962
934.374323	2540.741538
934.677455	2462.603654
934.980548	2470.165385
935.283602	2548.303269
935.586617	2439.918462
935.889593	2424.795000
936.192530	2475.206538
936.495428	2475.206538
936.798287	2513.015192
937.101108	2515.535769
937.403890	2482.768269
937.706632	2507.974038
938.009336	2492.850577
938.312002	2485.288846
938.614628	2507.974038
938.917216	2439.918462
939.219765	2543.262115
939.522275	2485.288846
939.824747	2568.467885
940.127179	2533.179808
940.429573	2540.741538
940.731929	2540.741538
941.034246	2457.562500
941.336524	2513.015192
941.638763	2495.371154
941.940964	2439.918462
942.243126	2495.371154
942.545250	2502.932885
942.847335	2465.124231
943.149381	2492.850577
943.451389	2520.576923
943.753359	2558.385577
944.055290	2429.836154
944.357182	2533.179808
944.659036	2500.412308
944.960851	2470.165385
945.262628	2457.562500
945.564367	2455.041923
945.866067	2460.083077
946.167729	2374.383462
946.469352	2540.741538
946.770937	2447.480192
947.072484	2553.344423
947.373992	2470.165385
947.675462	2452.521346
947.976893	2475.206538
948.278286	2492.850577
948.579641	2450.000769
948.880958	2409.671538
949.182236	2570.988462
949.483476	2553.344423
949.784678	2470.165385
950.085841	2475.206538
950.386967	2475.206538
950.688054	2485.288846
950.989103	2545.782692
951.290114	2510.494615
951.591087	2497.891731
951.892021	2513.015192
952.192917	2543.262115
952.493776	2497.891731
952.794596	2535.700385
953.095378	2462.603654
953.396122	2550.823846
953.696828	2490.330000
953.997496	2487.809423
954.298126	2523.097500
954.598718	2581.070769
954.899272	2465.124231
955.199788	2555.865000
955.500266	2543.262115
955.800706	2515.535769
956.101108	2455.041923
956.401472	2507.974038
956.701798	2502.932885
957.002087	2570.988462
957.302337	2533.179808
957.602550	2507.974038
957.902724	2492.850577
958.202861	2414.712692
958.502960	2480.247692
958.803022	2455.041923
959.103045	2568.467885
959.403031	2429.836154
959.702979	2518.056346
960.002889	2490.330000
960.302762	2462.603654
960.602596	2523.097500
960.902393	2545.782692
961.202153	2538.220962
961.501875	2535.700385
961.801559	2570.988462
962.101205	2495.371154
962.400814	2518.056346
962.700385	2487.809423
962.999918	2543.262115
963.299414	2601.235385
963.598873	2543.262115
963.898293	2472.685962
964.197677	2513.015192
964.497022	2505.453462
964.796331	2490.330000
965.095601	2530.659231
965.394835	2470.165385
965.694030	2495.371154
965.993189	2497.891731
966.292309	2485.288846
966.591393	2540.741538
966.890439	2535.700385
967.189447	2492.850577
967.488419	2492.850577
967.787353	2462.603654
968.086249	2520.576923
968.385108	2482.768269
968.683930	2495.371154
968.982714	2525.618077
969.281462	2460.083077
969.580172	2570.988462
969.878844	2480.247692
970.177480	2452.521346
970.476078	2447.480192
970.774639	2505.453462
971.073162	2470.165385
971.371649	2535.700385
971.670098	2485.288846
971.968510	2533.179808
972.266885	2513.015192
972.565223	2570.988462
972.863524	2442.439038
973.161788	2482.768269
973.460014	2485.288846
973.758204	2570.988462
974.056356	2515.535769
974.354471	2510.494615
974.652550	2485.288846
974.950591	2467.644808
975.248595	2570.988462
975.546563	2523.097500
975.844493	2495.371154
976.142386	2462.603654
976.440243	2543.262115
976.738062	2525.618077
977.035845	2439.918462
977.333590	2523.097500
977.631299	2485.288846
977.928971	2535.700385
978.226606	2467.644808
978.524204	2485.288846
978.821765	2490.330000
979.119290	2422.274423
979.416777	2548.303269
979.714228	2507.974038
980.011642	2563.426731
980.309020	2465.124231
980.606360	2490.330000
980.903664	2513.015192
981.200931	2452.521346
981.498162	2535.700385
981.795356	2477.727115
982.092513	2429.836154
982.389633	2555.865000
982.686717	2495.371154
982.983764	2397.068654
983.280775	2528.138654
983.577749	2465.124231
983.874686	2558.385577
984.171587	2457.562500
984.468451	2462.603654
984.765279	2492.850577
985.062070	2487.809423
985.358824	2381.945192
985.655543	2412.192115
985.952224	2525.618077
986.248869	2570.988462
986.545478	2497.891731
986.842050	2525.618077
987.138586	2490.330000
987.435086	2477.727115
987.731549	2429.836154
988.027975	2533.179808
988.324366	2482.768269
988.620719	2515.535769
988.917037	2588.632500
989.213318	2555.865000
989.509563	2510.494615
989.805772	2434.877308
990.101944	2538.220962
990.398080	2457.562500
990.694180	2538.220962
990.990244	2500.412308
991.286271	2482.768269
991.582262	2487.809423
991.878217	2518.056346
992.174136	2447.480192
992.470019	2515.535769
992.765865	2465.124231
993.061676	2472.685962
993.357450	2538.220962
993.653188	2518.056346
993.948890	2407.150962
994.244556	2452.521346
994.540186	2555.865000
994.835780	2492.850577
995.131337	2402.109808
995.426859	2492.850577
995.722345	2480.247692
996.017795	2502.932885
996.313208	2444.959615
996.608586	2444.959615
996.903928	2550.823846
997.199234	2384.465769
997.494504	2500.412308
997.789738	2513.015192
998.084936	2447.480192
998.380099	2510.494615
998.675225	2462.603654
998.970316	2485.288846
999.265371	2475.206538
999.560390	2432.356731
999.855373	2576.029615
1000.150320	2565.947308
1000.445232	2462.603654
1000.740108	2513.015192
1001.034948	2586.111923
1001.329752	2452.521346
1001.624521	2518.056346
1001.919254	2520.576923
1002.213951	2565.947308
1002.508613	2507.974038
1002.803239	2480.247692
1003.097829	2513.015192
1003.392384	2565.947308
1003.686903	2507.974038
1003.981386	2442.439038
1004.275834	2545.782692
1004.570246	2515.535769
1004.864623	2518.056346
1005.158964	2518.056346
1005.453270	2444.959615
1005.747540	2462.603654
1006.041775	2467.644808
1006.335974	2548.303269
1006.630138	2417.233269
1006.924266	2507.974038
1007.218359	2460.083077
1007.512416	2538.220962
1007.806438	2467.644808
1008.100425	2492.850577
1008.394376	2462.603654
1008.688292	2520.576923
1008.982172	2467.644808
1009.276017	2518.056346
1009.569827	2540.741538
1009.863602	2505.453462
1010.157341	2409.671538
1010.451045	2457.562500
1010.744714	2518.056346
1011.038347	2485.288846
1011.331945	2452.521346
1011.625508	2505.453462
1011.919036	2467.644808
1012.212528	2513.015192
1012.505986	2497.891731
1012.799408	2444.959615
1013.092795	2513.015192
1013.386147	2477.727115
1013.679464	2520.576923
1013.972745	2467.644808
1014.265992	2507.974038
1014.559204	2555.865000
1014.852380	2492.850577
1015.145521	2510.494615
1015.438628	2472.685962
1015.731699	2462.603654
1016.024736	2497.891731
1016.317737	2505.453462
1016.610703	2470.165385
1016.903635	2540.741538
1017.196531	2525.618077
1017.489393	2502.932885
1017.782219	2462.603654
1018.075011	2455.041923
1018.367768	2465.124231
1018.660490	2407.150962
1018.953177	2407.150962
1019.245829	2407.150962
