Dividing Wavelength (nm)	Counts (n)	Blue Motor Position (mm): 2.800000	Red Motor Position (mm): 0.000000	
326.493990	2074.434808
326.888308	2074.434808
327.282561	2074.434808
327.676750	2139.969808
328.070874	2092.078846
328.464933	2039.146731
328.858929	2079.475962
329.252859	2139.969808
329.646726	2117.284615
330.040528	2099.640577
330.434265	2112.243462
330.827938	2157.613846
331.221547	2202.984231
331.615091	2172.737308
332.008571	2238.272308
332.401986	2180.299038
332.795338	2142.490385
333.188625	2200.463654
333.581847	2291.204423
333.975006	2283.642692
334.368100	2313.889615
334.761129	2301.286731
335.154095	2318.930769
335.546996	2374.383462
335.939833	2392.027500
336.332606	2311.369038
336.725315	2384.465769
337.117960	2399.589231
337.510540	2407.150962
337.903056	2419.753846
338.295508	2465.124231
338.687896	2427.315577
339.080220	2389.506923
339.472480	2487.809423
339.864676	2419.753846
340.256807	2417.233269
340.648875	2457.562500
341.040879	2450.000769
341.432818	2548.303269
341.824694	2404.630385
342.216506	2467.644808
342.608253	2507.974038
342.999937	2399.589231
343.391557	2447.480192
343.783113	2502.932885
344.174605	2447.480192
344.566033	2447.480192
344.957397	2545.782692
345.348697	2477.727115
345.739934	2465.124231
346.131106	2502.932885
346.522215	2472.685962
346.913260	2472.685962
347.304241	2477.727115
347.695159	2457.562500
348.086012	2475.206538
348.476802	2450.000769
348.867528	2520.576923
349.258191	2447.480192
349.648789	2507.974038
350.039324	2477.727115
350.429796	2495.371154
350.820203	2450.000769
351.210548	2477.727115
351.600828	2472.685962
351.991045	2447.480192
352.381198	2381.945192
352.771288	2470.165385
353.161314	2467.644808
353.551276	2470.165385
353.941175	2437.397885
354.331010	2545.782692
354.720782	2409.671538
355.110490	2523.097500
355.500135	2339.095385
355.889717	2472.685962
356.279235	2422.274423
356.668689	2429.836154
357.058080	2490.330000
357.447408	2409.671538
357.836672	2384.465769
358.225873	2439.918462
358.615010	2419.753846
359.004084	2384.465769
359.393095	2450.000769
359.782043	2407.150962
360.170927	2450.000769
360.559748	2419.753846
360.948505	2553.344423
361.337199	2414.712692
361.725830	2397.068654
362.114398	2444.959615
362.502903	2429.836154
362.891344	2485.288846
363.279722	2417.233269
363.668037	2492.850577
364.056289	2553.344423
364.444478	2444.959615
364.832603	2548.303269
365.220665	2477.727115
365.608665	2455.041923
365.996601	2354.218846
366.384474	2371.862885
366.772284	2397.068654
367.160031	2457.562500
367.547715	2427.315577
367.935336	2507.974038
368.322893	2480.247692
368.710388	2492.850577
369.097820	2386.986346
369.485189	2452.521346
369.872495	2402.109808
370.259738	2369.342308
370.646918	2419.753846
371.034035	2502.932885
371.421090	2465.124231
371.808081	2455.041923
372.195010	2455.041923
372.581875	2389.506923
372.968678	2323.971923
373.355418	2502.932885
373.742096	2482.768269
374.128710	2518.056346
374.515262	2475.206538
374.901751	2502.932885
375.288177	2424.795000
375.674540	2535.700385
376.060841	2361.780577
376.447079	2417.233269
376.833254	2500.412308
377.219367	2472.685962
377.605417	2497.891731
377.991404	2444.959615
378.377329	2477.727115
378.763191	2399.589231
379.148991	2495.371154
379.534727	2457.562500
379.920402	2492.850577
380.306013	2442.439038
380.691563	2409.671538
381.077049	2502.932885
381.462474	2397.068654
381.847835	2520.576923
382.233134	2495.371154
382.618371	2424.795000
383.003545	2409.671538
383.388657	2437.397885
383.773706	2424.795000
384.158693	2457.562500
384.543618	2548.303269
384.928480	2505.453462
385.313280	2502.932885
385.698017	2518.056346
386.082692	2356.739423
386.467305	2462.603654
386.851856	2462.603654
387.236344	2470.165385
387.620770	2588.632500
388.005133	2447.480192
388.389435	2475.206538
388.773674	2480.247692
389.157851	2490.330000
389.541965	2487.809423
389.926018	2492.850577
390.310008	2417.233269
390.693936	2439.918462
391.077802	2434.877308
391.461606	2558.385577
391.845348	2465.124231
392.229027	2467.644808
392.612645	2540.741538
392.996200	2417.233269
393.379694	2457.562500
393.763125	2513.015192
394.146494	2336.574808
394.529801	2495.371154
394.913047	2518.056346
395.296230	2502.932885
395.679351	2480.247692
396.062410	2492.850577
396.445408	2482.768269
396.828343	2492.850577
397.211217	2409.671538
397.594028	2460.083077
397.976778	2495.371154
398.359466	2586.111923
398.742092	2470.165385
399.124656	2510.494615
399.507158	2460.083077
399.889598	2487.809423
400.271977	2432.356731
400.654294	2424.795000
401.036549	2379.424615
401.418742	2424.795000
401.800874	2487.809423
402.182944	2414.712692
402.564952	2528.138654
402.946898	2434.877308
403.328783	2513.015192
403.710606	2462.603654
404.092367	2442.439038
404.474067	2452.521346
404.855705	2457.562500
405.237282	2485.288846
405.618797	2475.206538
406.000250	2465.124231
406.381642	2510.494615
406.762972	2492.850577
407.144240	2528.138654
407.525447	2502.932885
407.906593	2472.685962
408.287677	2520.576923
408.668700	2404.630385
409.049661	2452.521346
409.430560	2510.494615
409.811399	2450.000769
410.192176	2495.371154
410.572891	2472.685962
410.953545	2475.206538
411.334138	2465.124231
411.714669	2510.494615
412.095139	2543.262115
412.475547	2530.659231
412.855894	2578.550192
413.236180	2472.685962
413.616405	2480.247692
413.996568	2470.165385
414.376670	2465.124231
414.756711	2533.179808
415.136691	2460.083077
415.516609	2495.371154
415.896466	2444.959615
416.276262	2386.986346
416.655997	2510.494615
417.035670	2399.589231
417.415283	2507.974038
417.794834	2558.385577
418.174324	2533.179808
418.553753	2470.165385
418.933121	2515.535769
419.312428	2412.192115
419.691674	2417.233269
420.070859	2495.371154
420.449983	2500.412308
420.829045	2513.015192
421.208047	2470.165385
421.586988	2507.974038
421.965867	2477.727115
422.344686	2520.576923
422.723444	2520.576923
423.102141	2565.947308
423.480777	2477.727115
423.859352	2538.220962
424.237866	2540.741538
424.616319	2470.165385
424.994712	2593.673654
425.373044	2472.685962
425.751314	2538.220962
426.129524	2450.000769
426.507673	2515.535769
426.885762	2560.906154
427.263789	2495.371154
427.641756	2447.480192
428.019662	2460.083077
428.397508	2477.727115
428.775292	2525.618077
429.153016	2513.015192
429.530679	2492.850577
429.908282	2389.506923
430.285824	2502.932885
430.663305	2457.562500
431.040726	2530.659231
431.418086	2495.371154
431.795385	2450.000769
432.172624	2480.247692
432.549802	2472.685962
432.926920	2500.412308
433.303977	2492.850577
433.680974	2525.618077
434.057910	2409.671538
434.434786	2485.288846
434.811601	2490.330000
435.188355	2399.589231
435.565050	2492.850577
435.941683	2485.288846
436.318257	2518.056346
436.694770	2444.959615
437.071222	2515.535769
437.447614	2485.288846
437.823946	2523.097500
438.200218	2543.262115
438.576429	2427.315577
438.952580	2502.932885
439.328670	2397.068654
439.704700	2490.330000
440.080670	2460.083077
440.456580	2558.385577
440.832429	2439.918462
441.208218	2497.891731
441.583947	2444.959615
441.959616	2460.083077
442.335224	2447.480192
442.710773	2470.165385
443.086261	2543.262115
443.461689	2447.480192
443.837057	2490.330000
444.212365	2502.932885
444.587612	2500.412308
444.962800	2530.659231
445.337927	2457.562500
445.712995	2545.782692
446.088002	2439.918462
446.462949	2439.918462
446.837837	2586.111923
447.212664	2487.809423
447.587431	2452.521346
447.962139	2480.247692
448.336786	2495.371154
448.711374	2608.797115
449.085901	2427.315577
449.460369	2429.836154
449.834776	2525.618077
450.209124	2427.315577
450.583412	2548.303269
450.957640	2492.850577
451.331808	2465.124231
451.705917	2407.150962
452.079965	2427.315577
452.453954	2487.809423
452.827883	2500.412308
453.201752	2427.315577
453.575562	2482.768269
453.949311	2492.850577
454.323001	2568.467885
454.696632	2470.165385
455.070202	2457.562500
455.443713	2540.741538
455.817164	2565.947308
456.190556	2543.262115
456.563888	2455.041923
456.937160	2412.192115
457.310373	2349.177692
457.683526	2482.768269
458.056619	2414.712692
458.429653	2447.480192
458.802628	2520.576923
459.175542	2530.659231
459.548398	2434.877308
459.921194	2457.562500
460.293930	2563.426731
460.666607	2394.548077
461.039224	2570.988462
461.411782	2497.891731
461.784280	2523.097500
462.156719	2485.288846
462.529099	2507.974038
462.901419	2485.288846
463.273680	2472.685962
463.645882	2439.918462
464.018024	2513.015192
464.390106	2543.262115
464.762130	2593.673654
465.134094	2450.000769
465.505999	2525.618077
465.877845	2601.235385
466.249631	2490.330000
466.621358	2500.412308
466.993026	2525.618077
467.364634	2543.262115
467.736184	2555.865000
468.107674	2480.247692
468.479105	2535.700385
468.850477	2568.467885
469.221790	2470.165385
469.593043	2523.097500
469.964238	2540.741538
470.335373	2482.768269
470.706449	2407.150962
471.077467	2520.576923
471.448425	2530.659231
471.819324	2520.576923
472.190164	2480.247692
472.560945	2548.303269
472.931667	2515.535769
473.302330	2495.371154
473.672934	2460.083077
474.043479	2434.877308
474.413965	2487.809423
474.784393	2553.344423
475.154761	2462.603654
475.525070	2485.288846
475.895321	2482.768269
476.265513	2442.439038
476.635645	2450.000769
477.005719	2485.288846
477.375734	2487.809423
477.745691	2450.000769
478.115588	2369.342308
478.485427	2555.865000
478.855207	2513.015192
479.224928	2548.303269
479.594591	2444.959615
479.964194	2450.000769
480.333739	2497.891731
480.703226	2510.494615
481.072653	2432.356731
481.442022	2472.685962
481.811333	2460.083077
482.180584	2528.138654
482.549777	2384.465769
482.918912	2394.548077
483.287988	2540.741538
483.657005	2505.453462
484.025964	2457.562500
484.394864	2507.974038
484.763706	2603.755962
485.132489	2470.165385
485.501213	2553.344423
485.869879	2467.644808
486.238487	2452.521346
486.607036	2505.453462
486.975527	2485.288846
487.343959	2560.906154
487.712333	2457.562500
488.080648	2515.535769
488.448905	2457.562500
488.817104	2583.591346
489.185244	2455.041923
489.553326	2482.768269
489.921350	2447.480192
490.289315	2492.850577
490.657222	2510.494615
491.025070	2492.850577
491.392861	2399.589231
491.760593	2538.220962
492.128267	2434.877308
492.495883	2500.412308
492.863440	2550.823846
493.230939	2419.753846
493.598380	2502.932885
493.965763	2452.521346
494.333088	2434.877308
494.700354	2520.576923
495.067563	2485.288846
495.434713	2545.782692
495.801805	2364.301154
496.168839	2447.480192
496.535815	2500.412308
496.902733	2472.685962
497.269593	2528.138654
497.636395	2462.603654
498.003139	2573.509038
498.369825	2490.330000
498.736453	2545.782692
499.103023	2422.274423
499.469535	2505.453462
499.835989	2490.330000
500.202385	2550.823846
500.568723	2497.891731
500.935003	2550.823846
501.301226	2533.179808
501.667390	2586.111923
502.033497	2455.041923
502.399546	2533.179808
502.765537	2475.206538
503.131470	2409.671538
503.497345	2507.974038
503.863163	2543.262115
504.228923	2434.877308
504.594625	2402.109808
504.960269	2530.659231
505.325856	2507.974038
505.691385	2485.288846
506.056856	2538.220962
506.422270	2510.494615
506.787625	2540.741538
507.152924	2467.644808
507.518164	2523.097500
507.883347	2472.685962
508.248472	2485.288846
508.613540	2444.959615
508.978550	2507.974038
509.343503	2525.618077
509.708398	2525.618077
510.073236	2442.439038
510.438016	2528.138654
510.802738	2437.397885
511.167403	2553.344423
511.532010	2472.685962
511.896561	2581.070769
512.261053	2553.344423
512.625488	2543.262115
512.989866	2535.700385
513.354186	2475.206538
513.718449	2520.576923
514.082655	2450.000769
514.446803	2520.576923
514.810894	2502.932885
515.174927	2528.138654
515.538904	2444.959615
515.902822	2394.548077
516.266684	2444.959615
516.630488	2500.412308
516.994235	2442.439038
517.357925	2518.056346
517.721558	2558.385577
518.085133	2502.932885
518.448651	2545.782692
518.812112	2414.712692
519.175516	2467.644808
519.538863	2462.603654
519.902152	2530.659231
520.265385	2507.974038
520.628560	2477.727115
520.991678	2563.426731
521.354739	2520.576923
521.717743	2444.959615
522.080690	2523.097500
522.443580	2462.603654
522.806413	2555.865000
523.169189	2429.836154
523.531908	2452.521346
523.894569	2480.247692
524.257174	2495.371154
524.619722	2573.509038
524.982213	2480.247692
525.344647	2455.041923
525.707025	2560.906154
526.069345	2437.397885
526.431608	2465.124231
526.793815	2434.877308
527.155964	2553.344423
527.518057	2389.506923
527.880093	2502.932885
528.242072	2507.974038
528.603995	2452.521346
528.965860	2505.453462
529.327669	2419.753846
529.689421	2485.288846
530.051117	2538.220962
530.412755	2515.535769
530.774337	2497.891731
531.135862	2495.371154
531.497331	2507.974038
531.858743	2482.768269
532.220098	2442.439038
532.581396	2497.891731
532.942638	2497.891731
533.303824	2598.714808
533.664953	2475.206538
534.026025	2490.330000
534.387040	2538.220962
534.747999	2412.192115
535.108902	2513.015192
535.469748	2472.685962
535.830537	2510.494615
536.191270	2513.015192
536.551947	2465.124231
536.912567	2550.823846
537.273131	2480.247692
537.633638	2520.576923
537.994089	2545.782692
538.354483	2502.932885
538.714821	2495.371154
539.075103	2515.535769
539.435328	2555.865000
539.795497	2462.603654
540.155609	2540.741538
540.515665	2558.385577
540.875665	2432.356731
541.235609	2472.685962
541.595496	2555.865000
541.955328	2530.659231
542.315102	2477.727115
542.674821	2490.330000
543.034483	2455.041923
543.394090	2533.179808
543.753640	2475.206538
544.113134	2447.480192
544.472571	2510.494615
544.831953	2477.727115
545.191278	2515.535769
545.550548	2482.768269
545.909761	2492.850577
546.268918	2444.959615
546.628019	2513.015192
546.987064	2497.891731
547.346053	2480.247692
547.704986	2460.083077
548.063863	2482.768269
548.422684	2545.782692
548.781449	2507.974038
549.140158	2505.453462
549.498811	2455.041923
549.857408	2485.288846
550.215949	2513.015192
550.574434	2502.932885
550.932864	2583.591346
551.291237	2523.097500
551.649555	2533.179808
552.007817	2515.535769
552.366022	2576.029615
552.724173	2475.206538
553.082267	2485.288846
553.440305	2505.453462
553.798288	2462.603654
554.156215	2467.644808
554.514086	2507.974038
554.871902	2563.426731
555.229661	2563.426731
555.587365	2515.535769
555.945014	2432.356731
556.302606	2553.344423
556.660143	2550.823846
557.017625	2490.330000
557.375050	2487.809423
557.732421	2515.535769
558.089735	2520.576923
558.446994	2450.000769
558.804197	2540.741538
559.161345	2407.150962
559.518437	2598.714808
559.875474	2450.000769
560.232455	2530.659231
560.589381	2450.000769
560.946251	2558.385577
561.303065	2507.974038
561.659825	2540.741538
562.016528	2505.453462
562.373177	2485.288846
562.729770	2568.467885
563.086307	2472.685962
563.442789	2495.371154
563.799216	2497.891731
564.155587	2558.385577
564.511904	2432.356731
564.868164	2505.453462
565.224370	2502.932885
565.580520	2502.932885
565.936615	2437.397885
566.292654	2480.247692
566.648638	2513.015192
567.004567	2510.494615
567.360441	2460.083077
567.716260	2568.467885
568.072023	2510.494615
568.427732	2450.000769
568.783385	2419.753846
569.138982	2439.918462
569.494525	2447.480192
569.850013	2515.535769
570.205445	2495.371154
570.560823	2500.412308
570.916145	2560.906154
571.271412	2487.809423
571.626625	2568.467885
571.981782	2472.685962
572.336884	2409.671538
572.691931	2465.124231
573.046923	2482.768269
573.401860	2507.974038
573.756743	2565.947308
574.111570	2475.206538
574.466342	2538.220962
574.821059	2540.741538
575.175722	2518.056346
575.530330	2492.850577
575.884882	2477.727115
576.239380	2588.632500
576.593823	2399.589231
576.948211	2507.974038
577.302544	2480.247692
577.656823	2432.356731
578.011047	2553.344423
578.365216	2530.659231
578.719330	2482.768269
579.073389	2495.371154
579.427394	2439.918462
579.781344	2525.618077
580.135239	2470.165385
580.489080	2515.535769
580.842866	2497.891731
581.196597	2510.494615
581.550273	2477.727115
581.903895	2470.165385
582.257463	2437.397885
582.610975	2523.097500
582.964434	2475.206538
583.317837	2543.262115
583.671186	2591.153077
584.024481	2457.562500
584.377721	2525.618077
584.730906	2447.480192
585.084037	2550.823846
585.437113	2465.124231
585.790135	2502.932885
586.143103	2568.467885
586.496016	2548.303269
586.848874	2450.000769
587.201679	2437.397885
587.554428	2470.165385
587.907124	2563.426731
588.259765	2472.685962
588.612352	2576.029615
588.964884	2467.644808
589.317362	2586.111923
589.669786	2490.330000
590.022155	2500.412308
590.374470	2412.192115
590.726731	2482.768269
591.078937	2502.932885
591.431090	2465.124231
591.783188	2525.618077
592.135232	2530.659231
592.487222	2460.083077
592.839157	2540.741538
593.191038	2467.644808
593.542866	2482.768269
593.894639	2490.330000
594.246358	2545.782692
594.598022	2434.877308
594.949633	2548.303269
595.301190	2500.412308
595.652692	2465.124231
596.004141	2422.274423
596.355535	2513.015192
596.706876	2412.192115
597.058162	2480.247692
597.409395	2492.850577
597.760573	2480.247692
598.111698	2429.836154
598.462768	2485.288846
598.813785	2465.124231
599.164748	2520.576923
599.515657	2490.330000
599.866511	2475.206538
600.217312	2482.768269
600.568060	2563.426731
600.918753	2460.083077
601.269392	2515.535769
601.619978	2568.467885
601.970510	2535.700385
602.320988	2439.918462
602.671412	2520.576923
603.021783	2412.192115
603.372100	2528.138654
603.722363	2492.850577
604.072572	2515.535769
604.422728	2490.330000
604.772830	2455.041923
605.122878	2507.974038
605.472872	2545.782692
605.822813	2487.809423
606.172701	2409.671538
606.522534	2593.673654
606.872314	2497.891731
607.222041	2513.015192
607.571714	2487.809423
607.921333	2444.959615
608.270899	2525.618077
608.620411	2533.179808
608.969870	2399.589231
609.319276	2472.685962
609.668627	2492.850577
610.017926	2553.344423
610.367171	2510.494615
610.716362	2480.247692
611.065500	2450.000769
611.414585	2485.288846
611.763616	2490.330000
612.112594	2470.165385
612.461518	2480.247692
612.810389	2485.288846
613.159207	2442.439038
613.507971	2485.288846
613.856682	2379.424615
614.205340	2581.070769
614.553945	2437.397885
614.902496	2505.453462
615.250994	2513.015192
615.599439	2525.618077
615.947830	2409.671538
616.296169	2472.685962
616.644454	2412.192115
616.992686	2520.576923
617.340864	2437.397885
617.688990	2485.288846
618.037063	2485.288846
618.385082	2545.782692
618.733048	2485.288846
619.080961	2513.015192
619.428821	2507.974038
619.776628	2507.974038
620.124382	2533.179808
620.472083	2583.591346
620.819731	2505.453462
621.167326	2482.768269
621.514868	2513.015192
621.862357	2424.795000
622.209793	2525.618077
622.557176	2543.262115
622.904506	2465.124231
623.251783	2444.959615
623.599007	2523.097500
623.946179	2437.397885
624.293297	2510.494615
624.640363	2578.550192
624.987376	2432.356731
625.334336	2510.494615
625.681243	2492.850577
626.028097	2515.535769
626.374899	2518.056346
626.721647	2480.247692
627.068343	2626.441154
627.414987	2444.959615
627.761577	2487.809423
628.108115	2513.015192
628.454600	2535.700385
628.801032	2558.385577
629.147412	2518.056346
629.493739	2477.727115
629.840014	2520.576923
630.186236	2487.809423
630.532405	2578.550192
630.878521	2487.809423
631.224585	2538.220962
631.570597	2404.630385
631.916556	2492.850577
632.262462	2492.850577
632.608316	2533.179808
632.954117	2457.562500
633.299866	2513.015192
633.645562	2510.494615
633.991206	2490.330000
634.336797	2525.618077
634.682336	2538.220962
635.027823	2475.206538
635.373257	2439.918462
635.718639	2480.247692
636.063968	2518.056346
636.409245	2518.056346
636.754470	2502.932885
637.099642	2576.029615
637.444762	2470.165385
637.789829	2467.644808
638.134845	2457.562500
638.479808	2510.494615
638.824719	2407.150962
639.169577	2535.700385
639.514383	2502.932885
639.859137	2523.097500
640.203839	2520.576923
640.548489	2583.591346
640.893086	2407.150962
641.237632	2455.041923
641.582125	2510.494615
641.926566	2460.083077
642.270955	2460.083077
642.615292	2462.603654
642.959576	2472.685962
643.303809	2460.083077
643.647990	2545.782692
643.992118	2439.918462
644.336195	2586.111923
644.680219	2465.124231
645.024192	2429.836154
645.368112	2513.015192
645.711981	2485.288846
646.055797	2497.891731
646.399562	2568.467885
646.743274	2525.618077
647.086935	2475.206538
647.430544	2553.344423
647.774101	2543.262115
648.117606	2467.644808
648.461059	2502.932885
648.804460	2533.179808
649.147810	2475.206538
649.491108	2560.906154
649.834354	2462.603654
650.177548	2475.206538
650.520690	2444.959615
650.863781	2437.397885
651.206820	2490.330000
651.549807	2455.041923
651.892742	2533.179808
652.235626	2507.974038
652.578458	2497.891731
652.921238	2490.330000
653.263967	2507.974038
653.606644	2510.494615
653.949269	2533.179808
654.291843	2518.056346
654.634365	2444.959615
654.976836	2422.274423
655.319255	2581.070769
655.661622	2495.371154
656.003938	2497.891731
656.346203	2578.550192
656.688416	2525.618077
657.030577	2535.700385
657.372687	2457.562500
657.714746	2457.562500
658.056753	2482.768269
658.398708	2492.850577
658.740612	2523.097500
659.082465	2467.644808
659.424266	2442.439038
659.766016	2460.083077
660.107715	2525.618077
660.449362	2576.029615
660.790958	2467.644808
661.132503	2500.412308
661.473996	2434.877308
661.815438	2497.891731
662.156829	2492.850577
662.498168	2558.385577
662.839456	2530.659231
663.180693	2437.397885
663.521879	2553.344423
663.863013	2480.247692
664.204097	2538.220962
664.545129	2485.288846
664.886110	2548.303269
665.227040	2586.111923
665.567918	2490.330000
665.908746	2603.755962
666.249522	2543.262115
666.590248	2513.015192
666.930922	2578.550192
667.271545	2555.865000
667.612118	2485.288846
667.952639	2520.576923
668.293109	2500.412308
668.633528	2432.356731
668.973896	2467.644808
669.314213	2376.904038
669.654480	2535.700385
669.994695	2555.865000
670.334859	2560.906154
670.674973	2563.426731
671.015035	2482.768269
671.355047	2487.809423
671.695008	2477.727115
672.034918	2530.659231
672.374777	2480.247692
672.714585	2535.700385
673.054342	2543.262115
673.394049	2392.027500
673.733705	2540.741538
674.073310	2495.371154
674.412864	2462.603654
674.752368	2419.753846
675.091820	2510.494615
675.431223	2429.836154
675.770574	2432.356731
676.109875	2470.165385
676.449125	2439.918462
676.788324	2500.412308
677.127473	2510.494615
677.466571	2555.865000
677.805619	2480.247692
678.144616	2470.165385
678.483562	2500.412308
678.822458	2520.576923
679.161303	2442.439038
679.500098	2495.371154
679.838842	2480.247692
680.177535	2485.288846
680.516179	2495.371154
680.854771	2465.124231
681.193314	2513.015192
681.531805	2510.494615
681.870247	2497.891731
682.208638	2477.727115
682.546978	2513.015192
682.885268	2555.865000
683.223508	2434.877308
683.561697	2568.467885
683.899836	2467.644808
684.237925	2525.618077
684.575963	2588.632500
684.913951	2462.603654
685.251889	2467.644808
685.589776	2467.644808
685.927614	2492.850577
686.265401	2437.397885
686.603137	2424.795000
686.940824	2502.932885
687.278460	2518.056346
687.616046	2490.330000
687.953582	2558.385577
688.291068	2533.179808
688.628504	2520.576923
688.965889	2502.932885
689.303224	2576.029615
689.640510	2563.426731
689.977745	2434.877308
690.314930	2535.700385
690.652065	2505.453462
690.989150	2523.097500
691.326185	2495.371154
691.663170	2467.644808
692.000105	2447.480192
692.336990	2533.179808
692.673825	2525.618077
693.010610	2477.727115
693.347345	2558.385577
693.684030	2487.809423
694.020665	2525.618077
694.357251	2568.467885
694.693786	2487.809423
695.030272	2472.685962
695.366707	2472.685962
695.703093	2543.262115
696.039429	2538.220962
696.375716	2502.932885
696.711952	2520.576923
697.048139	2495.371154
697.384276	2520.576923
697.720363	2397.068654
698.056400	2450.000769
698.392388	2520.576923
698.728326	2487.809423
699.064214	2465.124231
699.400053	2442.439038
699.735842	2510.494615
700.071581	2576.029615
700.407270	2447.480192
700.742910	2492.850577
701.078501	2465.124231
701.414042	2545.782692
701.749533	2497.891731
702.084974	2487.809423
702.420366	2480.247692
702.755709	2543.262115
703.091002	2482.768269
703.426246	2513.015192
703.761440	2538.220962
704.096584	2475.206538
704.431679	2424.795000
704.766725	2525.618077
705.101721	2429.836154
705.436668	2553.344423
705.771565	2578.550192
706.106413	2487.809423
706.441212	2533.179808
706.775961	2475.206538
707.110661	2490.330000
707.445311	2548.303269
707.779913	2492.850577
708.114465	2495.371154
708.448967	2447.480192
708.783421	2515.535769
709.117825	2422.274423
709.452180	2455.041923
709.786485	2442.439038
710.120742	2462.603654
710.454949	2492.850577
710.789107	2414.712692
711.123216	2523.097500
711.457275	2419.753846
711.791286	2450.000769
712.125247	2444.959615
712.459159	2533.179808
712.793023	2530.659231
713.126837	2505.453462
713.460602	2470.165385
713.794318	2497.891731
714.127985	2485.288846
714.461602	2480.247692
714.795171	2462.603654
715.128691	2520.576923
715.462162	2462.603654
715.795584	2568.467885
716.128957	2500.412308
716.462281	2510.494615
716.795556	2404.630385
717.128782	2460.083077
717.461960	2507.974038
717.795088	2560.906154
718.128167	2480.247692
718.461198	2548.303269
718.794180	2414.712692
719.127113	2523.097500
719.459997	2560.906154
719.792833	2455.041923
720.125619	2518.056346
720.458357	2528.138654
720.791046	2485.288846
721.123686	2450.000769
721.456278	2497.891731
721.788821	2467.644808
722.121315	2523.097500
722.453761	2533.179808
722.786158	2596.194231
723.118506	2452.521346
723.450805	2477.727115
723.783056	2404.630385
724.115259	2565.947308
724.447412	2507.974038
724.779518	2500.412308
725.111574	2472.685962
725.443582	2598.714808
725.775542	2497.891731
726.107453	2513.015192
726.439315	2565.947308
726.771129	2570.988462
727.102895	2507.974038
727.434612	2392.027500
727.766281	2540.741538
728.097901	2457.562500
728.429473	2520.576923
728.760996	2507.974038
729.092471	2515.535769
729.423897	2444.959615
729.755276	2422.274423
730.086606	2485.288846
730.417887	2457.562500
730.749120	2543.262115
731.080305	2528.138654
731.411442	2530.659231
731.742530	2568.467885
732.073570	2472.685962
732.404562	2540.741538
732.735506	2487.809423
733.066401	2560.906154
733.397249	2457.562500
733.728048	2414.712692
734.058798	2500.412308
734.389501	2533.179808
734.720156	2470.165385
735.050762	2507.974038
735.381320	2528.138654
735.711831	2535.700385
736.042293	2409.671538
736.372707	2515.535769
736.703073	2462.603654
737.033391	2472.685962
737.363661	2477.727115
737.693883	2455.041923
738.024056	2497.891731
738.354182	2485.288846
738.684260	2540.741538
739.014290	2452.521346
739.344272	2492.850577
739.674207	2457.562500
740.004093	2497.891731
740.333931	2555.865000
740.663722	2450.000769
740.993464	2455.041923
741.323159	2538.220962
741.652806	2583.591346
741.982405	2573.509038
742.311956	2510.494615
742.641460	2553.344423
742.970915	2543.262115
743.300323	2560.906154
743.629683	2515.535769
743.958996	2570.988462
744.288260	2505.453462
744.617477	2475.206538
744.946647	2429.836154
745.275768	2412.192115
745.604842	2485.288846
745.933869	2492.850577
746.262847	2492.850577
746.591778	2450.000769
746.920662	2520.576923
747.249498	2502.932885
747.578286	2560.906154
747.907027	2540.741538
748.235720	2455.041923
748.564365	2555.865000
748.892963	2455.041923
749.221514	2460.083077
749.550017	2480.247692
749.878473	2497.891731
750.206881	2467.644808
750.535242	2538.220962
750.863555	2409.671538
751.191821	2535.700385
751.520039	2482.768269
751.848210	2578.550192
752.176334	2487.809423
752.504411	2570.988462
752.832440	2507.974038
753.160421	2404.630385
753.488356	2497.891731
753.816243	2543.262115
754.144082	2455.041923
754.471875	2598.714808
754.799620	2538.220962
755.127318	2518.056346
755.454969	2520.576923
755.782572	2553.344423
756.110129	2502.932885
756.437638	2492.850577
756.765100	2553.344423
757.092515	2505.453462
757.419882	2439.918462
757.747203	2601.235385
758.074477	2470.165385
758.401703	2586.111923
758.728882	2452.521346
759.056014	2510.494615
759.383099	2485.288846
759.710138	2505.453462
760.037129	2507.974038
760.364073	2485.288846
760.690970	2611.317692
761.017820	2533.179808
761.344623	2477.727115
761.671379	2477.727115
761.998088	2502.932885
762.324751	2505.453462
762.651366	2500.412308
762.977935	2543.262115
763.304456	2502.932885
763.630931	2525.618077
763.957359	2578.550192
764.283740	2409.671538
764.610074	2475.206538
764.936362	2495.371154
765.262602	2452.521346
765.588796	2452.521346
765.914943	2475.206538
766.241044	2467.644808
766.567097	2588.632500
766.893104	2470.165385
767.219064	2470.165385
767.544978	2507.974038
767.870845	2513.015192
768.196665	2462.603654
768.522438	2515.535769
768.848165	2520.576923
769.173846	2477.727115
769.499479	2515.535769
769.825066	2389.506923
770.150607	2447.480192
770.476101	2560.906154
770.801548	2462.603654
771.126949	2573.509038
771.452303	2555.865000
771.777611	2467.644808
772.102872	2485.288846
772.428087	2475.206538
772.753256	2530.659231
773.078378	2497.891731
773.403453	2462.603654
773.728482	2492.850577
774.053465	2553.344423
774.378401	2490.330000
774.703291	2518.056346
775.028135	2535.700385
775.352932	2465.124231
775.677683	2414.712692
776.002388	2505.453462
776.327046	2422.274423
776.651658	2457.562500
776.976224	2518.056346
777.300743	2558.385577
777.625216	2482.768269
777.949643	2424.795000
778.274024	2553.344423
778.598359	2412.192115
778.922647	2442.439038
779.246889	2490.330000
779.571086	2437.397885
779.895236	2591.153077
780.219339	2535.700385
780.543397	2429.836154
780.867409	2364.301154
781.191374	2392.027500
781.515294	2404.630385
781.839167	2502.932885
782.162995	2510.494615
782.486776	2553.344423
782.810511	2465.124231
783.134201	2477.727115
783.457844	2560.906154
783.781441	2485.288846
784.104993	2565.947308
784.428498	2432.356731
784.751958	2452.521346
785.075372	2475.206538
785.398739	2462.603654
785.722061	2467.644808
786.045337	2510.494615
786.368568	2475.206538
786.691752	2432.356731
787.014891	2515.535769
787.337983	2492.850577
787.661030	2460.083077
787.984031	2553.344423
788.306987	2530.659231
788.629897	2513.015192
788.952760	2470.165385
789.275579	2505.453462
789.598351	2520.576923
789.921078	2510.494615
790.243759	2550.823846
790.566395	2515.535769
790.888984	2487.809423
791.211529	2545.782692
791.534027	2475.206538
791.856480	2560.906154
792.178888	2507.974038
792.501249	2487.809423
792.823566	2583.591346
793.145836	2533.179808
793.468062	2520.576923
793.790241	2533.179808
794.112375	2472.685962
794.434464	2429.836154
794.756507	2576.029615
795.078505	2460.083077
795.400457	2555.865000
795.722364	2414.712692
796.044226	2505.453462
796.366042	2573.509038
796.687812	2495.371154
797.009538	2568.467885
797.331218	2442.439038
797.652852	2563.426731
797.974442	2530.659231
798.295986	2543.262115
798.617484	2417.233269
798.938938	2510.494615
799.260346	2444.959615
799.581709	2434.877308
799.903026	2414.712692
800.224299	2523.097500
800.545526	2510.494615
800.866708	2437.397885
801.187845	2487.809423
801.508936	2578.550192
801.829983	2520.576923
802.150984	2545.782692
802.471940	2523.097500
802.792851	2558.385577
803.113717	2452.521346
803.434538	2520.576923
803.755314	2518.056346
804.076045	2495.371154
804.396731	2407.150962
804.717372	2570.988462
805.037967	2601.235385
805.358518	2507.974038
805.679024	2502.932885
805.999485	2548.303269
806.319901	2480.247692
806.640272	2535.700385
806.960598	2462.603654
807.280879	2470.165385
807.601115	2583.591346
807.921306	2444.959615
808.241453	2513.015192
808.561554	2540.741538
808.881611	2470.165385
809.201623	2455.041923
809.521590	2523.097500
809.841513	2439.918462
810.161390	2520.576923
810.481223	2444.959615
810.801011	2477.727115
811.120755	2540.741538
811.440453	2500.412308
811.760107	2419.753846
812.079716	2482.768269
812.399281	2507.974038
812.718801	2495.371154
813.038276	2490.330000
813.357707	2439.918462
813.677093	2460.083077
813.996434	2402.109808
814.315731	2477.727115
814.634983	2470.165385
814.954191	2490.330000
815.273354	2525.618077
815.592473	2495.371154
815.911547	2583.591346
816.230577	2490.330000
816.549562	2505.453462
816.868502	2447.480192
817.187399	2381.945192
817.506250	2570.988462
817.825058	2480.247692
818.143821	2417.233269
818.462539	2523.097500
818.781213	2460.083077
819.099843	2424.795000
819.418429	2490.330000
819.736970	2513.015192
820.055466	2535.700385
820.373919	2439.918462
820.692327	2502.932885
821.010691	2424.795000
821.329011	2540.741538
821.647286	2477.727115
821.965517	2515.535769
822.283704	2455.041923
822.601847	2523.097500
822.919945	2495.371154
823.237999	2492.850577
823.556010	2528.138654
823.873976	2422.274423
824.191897	2555.865000
824.509775	2543.262115
824.827609	2450.000769
825.145398	2523.097500
825.463144	2465.124231
825.780845	2467.644808
826.098502	2434.877308
826.416116	2495.371154
826.733685	2465.124231
827.051210	2558.385577
827.368692	2447.480192
827.686129	2427.315577
828.003522	2497.891731
828.320872	2477.727115
828.638177	2462.603654
828.955439	2447.480192
829.272656	2412.192115
829.589830	2462.603654
829.906960	2578.550192
830.224046	2490.330000
830.541088	2482.768269
830.858086	2419.753846
831.175041	2500.412308
831.491952	2513.015192
831.808819	2495.371154
832.125642	2570.988462
832.442421	2460.083077
832.759157	2500.412308
833.075849	2490.330000
833.392497	2558.385577
833.709101	2455.041923
834.025662	2505.453462
834.342179	2545.782692
834.658653	2576.029615
834.975083	2548.303269
835.291469	2477.727115
835.607811	2533.179808
835.924110	2518.056346
836.240366	2482.768269
836.556578	2477.727115
836.872746	2538.220962
837.188871	2505.453462
837.504952	2507.974038
837.820990	2550.823846
838.136984	2457.562500
838.452935	2507.974038
838.768842	2513.015192
839.084706	2497.891731
839.400526	2545.782692
839.716303	2482.768269
840.032037	2518.056346
840.347727	2439.918462
840.663373	2533.179808
840.978977	2402.109808
841.294537	2555.865000
841.610054	2507.974038
841.925527	2515.535769
842.240957	2505.453462
842.556344	2470.165385
842.871687	2548.303269
843.186987	2523.097500
843.502244	2523.097500
843.817458	2507.974038
844.132629	2429.836154
844.447756	2447.480192
844.762840	2460.083077
845.077881	2495.371154
845.392879	2487.809423
845.707833	2545.782692
846.022745	2538.220962
846.337613	2475.206538
846.652438	2497.891731
846.967221	2477.727115
847.281960	2523.097500
847.596656	2477.727115
847.911309	2492.850577
848.225919	2502.932885
848.540485	2492.850577
848.855009	2560.906154
849.169490	2437.397885
849.483928	2460.083077
849.798323	2485.288846
850.112675	2450.000769
850.426984	2515.535769
850.741251	2487.809423
851.055474	2485.288846
851.369654	2472.685962
851.683792	2450.000769
851.997887	2482.768269
852.311938	2548.303269
852.625947	2543.262115
852.939914	2434.877308
853.253837	2465.124231
853.567718	2414.712692
853.881555	2538.220962
854.195350	2419.753846
854.509103	2507.974038
854.822812	2553.344423
855.136479	2518.056346
855.450103	2492.850577
855.763685	2515.535769
856.077224	2492.850577
856.390720	2465.124231
856.704173	2482.768269
857.017584	2591.153077
857.330953	2543.262115
857.644278	2455.041923
857.957561	2513.015192
858.270802	2480.247692
858.584000	2470.165385
858.897155	2560.906154
859.210268	2533.179808
859.523339	2535.700385
859.836367	2510.494615
860.149352	2505.453462
860.462295	2520.576923
860.775195	2535.700385
861.088054	2543.262115
861.400869	2505.453462
861.713642	2412.192115
862.026373	2560.906154
862.339062	2492.850577
862.651708	2560.906154
862.964312	2462.603654
863.276873	2490.330000
863.589392	2470.165385
863.901869	2495.371154
864.214303	2490.330000
864.526696	2490.330000
864.839045	2505.453462
865.151353	2485.288846
865.463619	2533.179808
865.775842	2475.206538
866.088023	2515.535769
866.400162	2634.002885
866.712258	2507.974038
867.024313	2500.412308
867.336325	2553.344423
867.648296	2452.521346
867.960224	2510.494615
868.272110	2482.768269
868.583954	2480.247692
868.895755	2444.959615
869.207515	2490.330000
869.519233	2495.371154
869.830909	2535.700385
870.142542	2434.877308
870.454134	2467.644808
870.765684	2560.906154
871.077191	2417.233269
871.388657	2487.809423
871.700081	2568.467885
872.011463	2472.685962
872.322803	2555.865000
872.634101	2477.727115
872.945357	2467.644808
873.256571	2487.809423
873.567744	2384.465769
873.878874	2482.768269
874.189963	2528.138654
874.501010	2533.179808
874.812015	2477.727115
875.122979	2528.138654
875.433900	2414.712692
875.744780	2513.015192
876.055618	2495.371154
876.366415	2513.015192
876.677169	2538.220962
876.987882	2482.768269
877.298554	2515.535769
877.609183	2482.768269
877.919771	2535.700385
878.230317	2487.809423
878.540822	2530.659231
878.851285	2462.603654
879.161707	2495.371154
879.472087	2497.891731
879.782425	2523.097500
880.092722	2505.453462
880.402977	2495.371154
880.713191	2432.356731
881.023363	2497.891731
881.333494	2500.412308
881.643583	2452.521346
881.953631	2538.220962
882.263637	2560.906154
882.573602	2533.179808
882.883526	2515.535769
883.193408	2550.823846
883.503248	2482.768269
883.813048	2520.576923
884.122806	2470.165385
884.432522	2482.768269
884.742197	2450.000769
885.051831	2475.206538
885.361424	2616.358846
885.670975	2450.000769
885.980485	2455.041923
886.289954	2500.412308
886.599382	2548.303269
886.908768	2487.809423
887.218113	2485.288846
887.527417	2407.150962
887.836680	2475.206538
888.145901	2432.356731
888.455082	2497.891731
888.764221	2528.138654
889.073319	2558.385577
889.382376	2397.068654
889.691392	2475.206538
890.000366	2507.974038
890.309300	2507.974038
890.618193	2523.097500
890.927044	2518.056346
891.235855	2417.233269
891.544625	2528.138654
891.853353	2502.932885
892.162041	2439.918462
892.470687	2528.138654
892.779293	2507.974038
893.087858	2603.755962
893.396381	2389.506923
893.704864	2576.029615
894.013306	2432.356731
894.321707	2467.644808
894.630068	2525.618077
894.938387	2560.906154
895.246665	2578.550192
895.554903	2515.535769
895.863100	2462.603654
896.171256	2497.891731
896.479371	2505.453462
896.787446	2447.480192
897.095480	2487.809423
897.403473	2439.918462
897.711425	2528.138654
898.019336	2528.138654
898.327207	2533.179808
898.635038	2533.179808
898.942827	2439.918462
899.250576	2477.727115
899.558284	2543.262115
899.865952	2495.371154
900.173579	2480.247692
900.481165	2455.041923
900.788711	2497.891731
901.096216	2490.330000
901.403681	2518.056346
901.711105	2404.630385
902.018489	2437.397885
902.325832	2507.974038
902.633135	2455.041923
902.940397	2497.891731
903.247619	2497.891731
903.554800	2523.097500
903.861941	2548.303269
904.169041	2442.439038
904.476101	2548.303269
904.783121	2417.233269
905.090100	2465.124231
905.397039	2502.932885
905.703938	2560.906154
906.010796	2543.262115
906.317614	2538.220962
906.624391	2482.768269
906.931129	2490.330000
907.237826	2409.671538
907.544483	2485.288846
907.851099	2467.644808
908.157675	2495.371154
908.464211	2434.877308
908.770707	2550.823846
909.077163	2487.809423
909.383578	2487.809423
909.689954	2558.385577
909.996289	2467.644808
910.302584	2399.589231
910.608839	2457.562500
910.915054	2563.426731
911.221229	2502.932885
911.527363	2528.138654
911.833458	2480.247692
912.139513	2462.603654
912.445527	2510.494615
912.751502	2530.659231
913.057436	2543.262115
913.363331	2576.029615
913.669186	2535.700385
913.975000	2510.494615
914.280775	2470.165385
914.586510	2480.247692
914.892205	2492.850577
915.197859	2477.727115
915.503475	2540.741538
915.809050	2616.358846
916.114585	2505.453462
916.420081	2490.330000
916.725536	2538.220962
917.030952	2419.753846
917.336328	2528.138654
917.641665	2482.768269
917.946961	2565.947308
918.252218	2467.644808
918.557435	2545.782692
918.862612	2386.986346
919.167750	2399.589231
919.472848	2528.138654
919.777906	2507.974038
920.082925	2492.850577
920.387904	2502.932885
920.692843	2515.535769
920.997743	2442.439038
921.302603	2533.179808
921.607423	2515.535769
921.912204	2490.330000
922.216946	2528.138654
922.521647	2520.576923
922.826310	2455.041923
923.130932	2538.220962
923.435516	2485.288846
923.740059	2442.439038
924.044564	2550.823846
924.349028	2573.509038
924.653454	2492.850577
924.957840	2417.233269
925.262186	2510.494615
925.566493	2545.782692
925.870761	2520.576923
926.174989	2535.700385
926.479178	2437.397885
926.783328	2485.288846
927.087438	2523.097500
927.391509	2505.453462
927.695541	2457.562500
927.999533	2538.220962
928.303486	2598.714808
928.607400	2475.206538
928.911275	2452.521346
929.215110	2432.356731
929.518906	2553.344423
929.822663	2457.562500
930.126381	2502.932885
930.430060	2500.412308
930.733699	2530.659231
931.037299	2520.576923
931.340861	2558.385577
931.644383	2419.753846
931.947866	2505.453462
932.251309	2500.412308
932.554714	2520.576923
932.858080	2462.603654
933.161407	2475.206538
933.464694	2462.603654
933.767943	2460.083077
934.071153	2465.124231
934.374323	2576.029615
934.677455	2523.097500
934.980548	2596.194231
935.283602	2434.877308
935.586617	2492.850577
935.889593	2442.439038
936.192530	2520.576923
936.495428	2492.850577
936.798287	2588.632500
937.101108	2424.795000
937.403890	2530.659231
937.706632	2465.124231
938.009336	2550.823846
938.312002	2497.891731
938.614628	2452.521346
938.917216	2490.330000
939.219765	2467.644808
939.522275	2510.494615
939.824747	2392.027500
940.127179	2525.618077
940.429573	2444.959615
940.731929	2467.644808
941.034246	2429.836154
941.336524	2535.700385
941.638763	2457.562500
941.940964	2467.644808
942.243126	2467.644808
942.545250	2470.165385
942.847335	2452.521346
943.149381	2457.562500
943.451389	2543.262115
943.753359	2442.439038
944.055290	2404.630385
944.357182	2495.371154
944.659036	2502.932885
944.960851	2510.494615
945.262628	2520.576923
945.564367	2507.974038
945.866067	2467.644808
946.167729	2485.288846
946.469352	2485.288846
946.770937	2424.795000
947.072484	2533.179808
947.373992	2543.262115
947.675462	2553.344423
947.976893	2477.727115
948.278286	2487.809423
948.579641	2460.083077
948.880958	2515.535769
949.182236	2419.753846
949.483476	2422.274423
949.784678	2497.891731
950.085841	2545.782692
950.386967	2467.644808
950.688054	2414.712692
950.989103	2490.330000
951.290114	2518.056346
951.591087	2462.603654
951.892021	2543.262115
952.192917	2472.685962
952.493776	2611.317692
952.794596	2482.768269
953.095378	2525.618077
953.396122	2525.618077
953.696828	2510.494615
953.997496	2530.659231
954.298126	2470.165385
954.598718	2533.179808
954.899272	2543.262115
955.199788	2495.371154
955.500266	2444.959615
955.800706	2409.671538
956.101108	2495.371154
956.401472	2465.124231
956.701798	2482.768269
957.002087	2513.015192
957.302337	2555.865000
957.602550	2452.521346
957.902724	2427.315577
958.202861	2460.083077
958.502960	2505.453462
958.803022	2513.015192
959.103045	2434.877308
959.403031	2507.974038
959.702979	2500.412308
960.002889	2513.015192
960.302762	2555.865000
960.602596	2482.768269
960.902393	2432.356731
961.202153	2505.453462
961.501875	2475.206538
961.801559	2513.015192
962.101205	2439.918462
962.400814	2535.700385
962.700385	2528.138654
962.999918	2477.727115
963.299414	2525.618077
963.598873	2520.576923
963.898293	2467.644808
964.197677	2538.220962
964.497022	2452.521346
964.796331	2523.097500
965.095601	2480.247692
965.394835	2533.179808
965.694030	2513.015192
965.993189	2495.371154
966.292309	2505.453462
966.591393	2470.165385
966.890439	2515.535769
967.189447	2525.618077
967.488419	2518.056346
967.787353	2518.056346
968.086249	2530.659231
968.385108	2437.397885
968.683930	2442.439038
968.982714	2548.303269
969.281462	2432.356731
969.580172	2490.330000
969.878844	2497.891731
970.177480	2550.823846
970.476078	2538.220962
970.774639	2505.453462
971.073162	2535.700385
971.371649	2492.850577
971.670098	2581.070769
971.968510	2538.220962
972.266885	2568.467885
972.565223	2492.850577
972.863524	2429.836154
973.161788	2565.947308
973.460014	2518.056346
973.758204	2457.562500
974.056356	2510.494615
974.354471	2434.877308
974.652550	2543.262115
974.950591	2538.220962
975.248595	2452.521346
975.546563	2520.576923
975.844493	2502.932885
976.142386	2576.029615
976.440243	2457.562500
976.738062	2525.618077
977.035845	2560.906154
977.333590	2444.959615
977.631299	2523.097500
977.928971	2563.426731
978.226606	2523.097500
978.524204	2505.453462
978.821765	2492.850577
979.119290	2505.453462
979.416777	2409.671538
979.714228	2475.206538
980.011642	2452.521346
980.309020	2520.576923
980.606360	2533.179808
980.903664	2444.959615
981.200931	2513.015192
981.498162	2450.000769
981.795356	2470.165385
982.092513	2404.630385
982.389633	2583.591346
982.686717	2409.671538
982.983764	2560.906154
983.280775	2510.494615
983.577749	2472.685962
983.874686	2495.371154
984.171587	2460.083077
984.468451	2515.535769
984.765279	2500.412308
985.062070	2500.412308
985.358824	2457.562500
985.655543	2500.412308
985.952224	2462.603654
986.248869	2570.988462
986.545478	2429.836154
986.842050	2518.056346
987.138586	2450.000769
987.435086	2500.412308
987.731549	2444.959615
988.027975	2424.795000
988.324366	2452.521346
988.620719	2419.753846
988.917037	2444.959615
989.213318	2477.727115
989.509563	2422.274423
989.805772	2485.288846
990.101944	2505.453462
990.398080	2432.356731
990.694180	2507.974038
990.990244	2369.342308
991.286271	2462.603654
991.582262	2447.480192
991.878217	2495.371154
992.174136	2457.562500
992.470019	2495.371154
992.765865	2470.165385
993.061676	2447.480192
993.357450	2502.932885
993.653188	2507.974038
993.948890	2497.891731
994.244556	2424.795000
994.540186	2533.179808
994.835780	2444.959615
995.131337	2523.097500
995.426859	2497.891731
995.722345	2553.344423
996.017795	2515.535769
996.313208	2487.809423
996.608586	2525.618077
996.903928	2558.385577
997.199234	2525.618077
997.494504	2442.439038
997.789738	2507.974038
998.084936	2376.904038
998.380099	2553.344423
998.675225	2442.439038
998.970316	2394.548077
999.265371	2513.015192
999.560390	2507.974038
999.855373	2409.671538
1000.150320	2490.330000
1000.445232	2457.562500
1000.740108	2530.659231
1001.034948	2553.344423
1001.329752	2646.605769
1001.624521	2439.918462
1001.919254	2502.932885
1002.213951	2399.589231
1002.508613	2530.659231
1002.803239	2447.480192
1003.097829	2419.753846
1003.392384	2505.453462
1003.686903	2465.124231
1003.981386	2510.494615
1004.275834	2477.727115
1004.570246	2525.618077
1004.864623	2376.904038
1005.158964	2502.932885
1005.453270	2525.618077
1005.747540	2457.562500
1006.041775	2523.097500
1006.335974	2533.179808
1006.630138	2545.782692
1006.924266	2477.727115
1007.218359	2588.632500
1007.512416	2465.124231
1007.806438	2455.041923
1008.100425	2538.220962
1008.394376	2457.562500
1008.688292	2553.344423
1008.982172	2568.467885
1009.276017	2462.603654
1009.569827	2447.480192
1009.863602	2412.192115
1010.157341	2475.206538
1010.451045	2538.220962
1010.744714	2525.618077
1011.038347	2487.809423
1011.331945	2470.165385
1011.625508	2492.850577
1011.919036	2427.315577
1012.212528	2497.891731
1012.505986	2487.809423
1012.799408	2500.412308
1013.092795	2455.041923
1013.386147	2472.685962
1013.679464	2482.768269
1013.972745	2497.891731
1014.265992	2424.795000
1014.559204	2528.138654
1014.852380	2475.206538
1015.145521	2490.330000
1015.438628	2457.562500
1015.731699	2543.262115
1016.024736	2452.521346
1016.317737	2553.344423
1016.610703	2429.836154
1016.903635	2507.974038
1017.196531	2419.753846
1017.489393	2485.288846
1017.782219	2399.589231
1018.075011	2429.836154
1018.367768	2518.056346
1018.660490	2460.083077
1018.953177	2460.083077
1019.245829	2460.083077
