Dividing Wavelength (nm)	Counts (n)	Blue Motor Position (mm): 38.400000	Red Motor Position (mm): 0.000000	
326.493990	2243.419326
326.888308	2243.419326
327.282561	2243.419326
327.676750	2202.628829
328.070874	2199.823427
328.464933	2202.185208
328.858929	2205.514890
329.252859	2210.351877
329.646726	2217.275902
330.040528	2230.957593
330.434265	2240.583677
330.827938	2263.740217
331.221547	2279.319903
331.615091	2294.453447
332.008571	2315.732157
332.401986	2334.170177
332.795338	2352.772035
333.188625	2373.869264
333.581847	2393.537326
333.975006	2411.292269
334.368100	2431.592996
334.761129	2447.051694
335.154095	2465.396453
335.546996	2490.143477
335.939833	2530.873480
336.332606	2544.797147
336.725315	2560.444888
337.117960	2571.893349
337.510540	2579.843248
337.903056	2592.486462
338.295508	2604.207145
338.687896	2610.899277
339.080220	2617.861110
339.472480	2627.605660
339.864676	2632.800569
340.256807	2634.552370
340.648875	2641.763741
341.040879	2640.463123
341.432818	2645.620224
341.824694	2645.791623
342.216506	2648.715492
342.608253	2648.796151
342.999937	2650.137097
343.391557	2649.779176
343.783113	2646.512508
344.174605	2645.721047
344.566033	2646.220121
344.957397	2648.251706
345.348697	2644.087713
345.739934	2642.572846
346.131106	2641.998155
346.522215	2642.114101
346.913260	2638.166878
347.304241	2636.848616
347.695159	2633.909623
348.086012	2633.294602
348.476802	2632.442648
348.867528	2626.804117
349.258191	2623.015690
349.648789	2624.379322
350.039324	2619.749022
350.429796	2623.794548
350.820203	2624.833026
351.210548	2622.912346
351.600828	2619.998559
351.991045	2619.484362
352.381198	2616.792385
352.771288	2617.109978
353.161314	2616.610904
353.551276	2616.968826
353.941175	2615.617797
354.331010	2616.401696
354.720782	2614.904473
355.110490	2616.608383
355.500135	2616.681480
355.889717	2614.319699
356.279235	2614.919597
356.668689	2616.104268
357.058080	2619.000411
357.447408	2617.540997
357.836672	2616.918414
358.225873	2616.517642
358.615010	2619.350771
359.004084	2617.354474
359.393095	2617.447735
359.782043	2618.892026
360.170927	2621.450412
360.559748	2620.295987
360.948505	2622.372943
361.337199	2621.440329
361.725830	2622.478807
362.114398	2622.307408
362.502903	2621.470576
362.891344	2624.875876
363.279722	2622.536780
363.668037	2623.015690
364.056289	2624.069291
364.444478	2625.150618
364.832603	2625.901750
365.220665	2627.033489
365.608665	2625.647172
365.996601	2627.373767
366.384474	2627.784621
366.772284	2626.952831
367.160031	2627.988788
367.547715	2629.543984
367.935336	2629.039869
368.322893	2626.456277
368.710388	2628.339148
369.097820	2630.403501
369.485189	2629.433079
369.872495	2630.862246
370.259738	2631.588172
370.646918	2634.794346
371.034035	2632.132617
371.421090	2636.289048
371.808081	2636.329377
372.195010	2636.994809
372.581875	2635.358955
372.968678	2635.890797
373.355418	2635.306023
373.742096	2638.252577
374.128710	2638.486991
374.515262	2640.022022
374.901751	2641.796508
375.288177	2640.072434
375.674540	2640.556385
376.060841	2640.747948
376.447079	2639.522948
376.833254	2641.368010
377.219367	2642.744245
377.605417	2641.259626
377.991404	2642.958494
378.377329	2643.230717
378.763191	2643.777682
379.148991	2642.892959
379.534727	2646.953609
379.920402	2644.218783
380.306013	2646.830101
380.691563	2644.299441
381.077049	2647.913949
381.462474	2647.462765
381.847835	2650.825215
382.233134	2650.033754
382.618371	2646.671304
383.003545	2648.937303
383.388657	2650.618528
383.773706	2651.372180
384.158693	2651.299083
384.543618	2652.564413
384.928480	2655.326965
385.313280	2653.698673
385.698017	2654.343940
386.082692	2654.754794
386.467305	2654.411996
386.851856	2657.003149
387.236344	2657.598005
387.620770	2655.357212
388.005133	2653.328148
388.389435	2657.366112
388.773674	2653.693632
389.157851	2660.048006
389.541965	2659.536329
389.926018	2660.945331
390.310008	2661.545229
390.693936	2664.907678
391.077802	2664.537153
391.461606	2667.024963
391.845348	2669.532937
392.229027	2673.129800
392.612645	2676.043587
392.996200	2682.629855
393.379694	2690.950279
393.763125	2703.515355
394.146494	2712.140769
394.529801	2725.809858
394.913047	2749.130236
395.296230	2763.699170
395.679351	2791.226391
396.062410	2822.786534
396.445408	2853.600587
396.828343	2893.929818
397.211217	2939.668207
397.594028	2975.218424
397.976778	3038.038763
398.359466	3098.618308
398.742092	3157.183913
399.124656	3199.365768
399.507158	3285.408182
399.889598	3364.975233
400.271977	3463.996098
400.654294	3524.842825
401.036549	3613.831793
401.418742	3652.678925
401.800874	3797.360040
402.182944	3895.644896
402.564952	4022.255995
402.946898	4127.767345
403.328783	4127.497644
403.710606	4207.475549
404.092367	4455.596101
404.474067	4545.850398
404.855705	4564.606011
405.237282	4601.353502
405.618797	4831.600642
406.000250	4897.314603
406.381642	5098.055870
406.762972	5185.671124
407.144240	5297.622548
407.525447	5354.486763
407.906593	5450.157781
408.287677	5635.621831
408.668700	5629.411130
409.049661	5788.449451
409.430560	5864.308734
409.811399	5796.089320
410.192176	6085.869966
410.572891	6136.281505
410.953545	6369.371856
411.334138	6179.043092
411.714669	6373.550972
412.095139	6227.511266
412.475547	6490.261246
412.855894	6582.025369
413.236180	6773.425378
413.616405	6519.510020
413.996568	6750.168014
414.376670	6788.067409
414.756711	6722.910496
415.136691	6829.936712
415.516609	7043.636265
415.896466	7055.404839
416.276262	7254.721979
416.655997	7252.229129
417.035670	7455.599357
417.415283	7797.797922
417.794834	7841.066145
418.174324	7722.062147
418.553753	7645.567678
418.933121	7970.182698
419.312428	8077.650016
419.691674	7868.043880
420.070859	8341.221703
420.449983	8023.170266
420.829045	8383.128815
421.208047	8173.043770
421.586988	8458.957851
421.965867	8479.946695
422.344686	8601.609902
422.723444	8625.179817
423.102141	8010.569902
423.480777	8755.009693
423.859352	8280.148124
424.237866	8895.196620
424.616319	8769.089636
424.994712	9176.215741
425.373044	8748.597346
425.751314	9200.798928
426.129524	9066.484945
426.507673	9201.257673
426.885762	9348.822328
427.263789	9259.135160
427.641756	9180.999796
428.019662	9284.494685
428.397508	9523.667188
428.775292	9216.544972
429.153016	9597.081511
429.530679	9431.605636
429.908282	9476.557605
430.285824	9187.560858
430.663305	9873.223316
431.040726	9318.441815
431.418086	9304.089650
431.795385	9631.172314
432.172624	9716.012413
432.549802	9632.833374
432.926920	9711.409839
433.303977	9591.916849
433.680974	9796.859917
434.057910	9884.981807
434.434786	9946.146127
434.811601	9793.283219
435.188355	10354.091420
435.565050	10082.007744
435.941683	10014.698258
436.318257	10503.896868
436.694770	10633.313369
437.071222	10700.388442
437.447614	10542.877590
437.823946	10441.883114
438.200218	10580.903013
438.576429	10399.464325
438.952580	10637.154729
439.328670	10688.193891
439.704700	10469.712804
440.080670	10463.418923
440.456580	11018.823007
440.832429	10776.066243
441.208218	10374.515654
441.583947	10707.448578
441.959616	10853.198418
442.335224	10654.776082
442.710773	10802.630604
443.086261	10998.595377
443.461689	10287.417119
443.837057	10944.796183
444.212365	11212.365506
444.587612	10857.548934
444.962800	11083.062430
445.337927	10857.463234
445.712995	10450.183374
446.088002	11527.241016
446.462949	11193.292300
446.837837	11156.176805
447.212664	11135.135029
447.587431	11664.050370
447.962139	12379.808517
448.336786	14649.257840
448.711374	15186.486044
449.085901	13047.935321
449.460369	12666.763596
449.834776	12114.011159
450.209124	12986.675219
450.583412	13403.039239
450.957640	14355.083828
451.331808	13474.374087
451.705917	12475.328300
452.079965	11774.537339
452.453954	12681.728262
452.827883	12312.758650
453.201752	12608.956685
453.575562	12124.826955
453.949311	12545.591902
454.323001	12501.196981
454.696632	12741.070204
455.070202	13015.719827
455.443713	13251.121547
455.817164	13719.606057
456.190556	13707.817318
456.563888	14078.707610
456.937160	14235.563112
457.310373	13589.108227
457.683526	13673.681145
458.056619	13206.887943
458.429653	13375.824570
458.802628	12793.016774
459.175542	13172.199763
459.548398	14120.491213
459.921194	14453.711483
460.293930	14525.363923
460.666607	15397.397838
461.039224	16445.194104
461.411782	17142.713356
461.784280	17004.270668
462.156719	17070.463539
462.529099	16750.882111
462.901419	15687.644792
463.273680	15474.966073
463.645882	15348.849006
464.018024	15071.731738
464.390106	15302.616584
464.762130	16018.891449
465.134094	16792.375848
465.505999	18793.013205
465.877845	22049.553219
466.249631	24878.222780
466.621358	24547.049219
466.993026	23117.072999
467.364634	22553.068707
467.736184	21077.338974
468.107674	20283.256420
468.479105	20422.719941
468.850477	19870.471619
469.221790	19474.834304
469.593043	18789.144119
469.964238	18231.428667
470.335373	17877.504378
470.706449	18335.677207
471.077467	17907.824398
471.448425	19745.506457
471.819324	23791.728097
472.190164	25761.062409
472.560945	22189.175537
472.931667	19832.042904
473.302330	19210.498881
473.672934	18766.660573
474.043479	19066.248785
474.413965	18872.938179
474.784393	18495.012957
475.154761	19201.205514
475.525070	19171.198046
475.895321	18851.994705
476.265513	19441.822308
476.635645	20029.025990
477.005719	19794.831627
477.375734	19991.807151
477.745691	20475.100050
478.115588	21004.272490
478.485427	21539.484232
478.855207	22613.250001
479.224928	24375.750812
479.594591	26609.491122
479.964194	26604.603723
480.333739	26825.307959
480.703226	26393.591106
481.072653	26078.292138
481.442022	26675.585690
481.811333	27576.139934
482.180584	27499.274941
482.549777	26541.236420
482.918912	26194.389912
483.287988	26322.334396
483.657005	25982.464845
484.025964	25750.649906
484.394864	25637.118080
484.763706	25316.170500
485.132489	24756.793987
485.501213	24929.458547
485.869879	24845.339334
486.238487	24674.020761
486.607036	24819.140457
486.975527	24530.627661
487.343959	24843.532080
487.712333	24783.953203
488.080648	24449.031545
488.448905	24927.981489
488.817104	24678.945969
489.185244	25374.219387
489.553326	25321.766181
489.921350	26339.116397
490.289315	28644.025197
490.657222	30406.699927
491.025070	30898.678734
491.392861	30694.065861
491.760593	29822.790639
492.128267	28921.374358
492.495883	27880.476912
492.863440	26999.416810
493.230939	26125.787369
493.598380	25966.466743
493.965763	25570.302627
494.333088	25107.711227
494.700354	25053.775922
495.067563	24912.225363
495.434713	24671.822818
495.801805	24839.186605
496.168839	24628.920078
496.535815	24476.379804
496.902733	24704.890267
497.269593	24377.739547
497.636395	24548.493510
498.003139	24503.236551
498.369825	24253.694395
498.736453	24466.194153
499.103023	24345.234187
499.469535	24338.216901
499.835989	24548.571648
500.202385	24577.956534
500.568723	24090.383695
500.935003	24320.628315
501.301226	23961.688079
501.667390	24802.234948
502.033497	25018.165211
502.399546	24752.665282
502.765537	24310.288908
503.131470	24696.920203
503.497345	24837.210473
503.863163	24067.146497
504.228923	24643.219311
504.594625	24864.213414
504.960269	24393.518358
505.325856	24881.320569
505.691385	24278.075935
506.056856	24886.439861
506.422270	24862.731314
506.787625	24408.669546
507.152924	24836.290463
507.518164	24874.814960
507.883347	24681.433778
508.248472	24366.424677
508.613540	25153.673947
508.978550	24936.821153
509.343503	24924.258597
509.708398	25173.798233
510.073236	25340.819222
510.438016	25557.611522
510.802738	25219.839091
511.167403	25479.829039
511.532010	25187.041344
511.896561	25949.437726
512.261053	25925.648521
512.625488	25746.949699
512.989866	25653.002756
513.354186	25491.519475
513.718449	25612.789472
514.082655	25993.794838
514.446803	25725.791976
514.810894	26182.641503
515.174927	25671.097978
515.538904	25698.269797
515.902822	26202.009616
516.266684	25954.204137
516.630488	25862.573604
516.994235	25825.465670
517.357925	26144.230431
517.721558	26310.376779
518.085133	26405.160554
518.448651	26316.958006
518.812112	26060.587606
519.175516	26273.717508
519.538863	26419.875682
519.902152	26210.488836
520.265385	26488.929407
520.628560	26273.457889
520.991678	26281.576667
521.354739	26346.254671
521.717743	26407.262715
522.080690	26198.750510
522.443580	26536.941357
522.806413	26509.265422
523.169189	26619.679294
523.531908	26677.692892
523.894569	26275.844875
524.257174	26366.489863
524.619722	26538.068054
524.982213	26230.686219
525.344647	26268.373885
525.707025	26424.274089
526.069345	26389.374181
526.431608	26359.223039
526.793815	26538.362962
527.155964	26006.501067
527.518057	26195.193976
527.880093	26105.743742
528.242072	26335.965676
528.603995	26040.450717
528.965860	25839.817835
529.327669	25879.554730
529.689421	25865.341197
530.051117	25713.428547
530.412755	25890.368005
530.774337	25677.838000
531.135862	25564.268366
531.497331	25766.443841
531.858743	25332.241698
532.220098	25792.199096
532.581396	25493.130123
532.942638	25387.528033
533.303824	25507.976322
533.664953	25516.173238
534.026025	25176.200343
534.387040	25426.150833
534.747999	25475.498688
535.108902	25646.408927
535.469748	25129.340297
535.830537	25309.957278
536.191270	25434.592245
536.551947	25283.554235
536.912567	24932.382417
537.273131	25307.882843
537.633638	25001.990669
537.994089	25213.323400
538.354483	24739.291101
538.714821	25237.440280
539.075103	25288.411386
539.435328	25060.531068
539.795497	24644.129240
540.155609	25013.570199
540.515665	25323.356665
540.875665	24543.462438
541.235609	24864.546130
541.595496	24801.745956
541.955328	25173.190774
542.315102	25083.891775
542.674821	24616.365085
543.034483	24492.985365
543.394090	24654.224150
543.753640	24470.945440
544.113134	25087.768422
544.472571	24680.874210
544.831953	24989.627239
545.191278	24618.384067
545.550548	24521.462843
545.909761	24717.934253
546.268918	24957.361334
546.628019	24934.371152
546.987064	24615.490445
547.346053	24367.826118
547.704986	24486.268028
548.063863	24638.268898
548.422684	24664.651777
548.781449	24168.435880
549.140158	24578.894188
549.498811	24150.300329
549.857408	23913.139247
550.215949	24307.304545
550.574434	24007.938145
550.932864	24216.616708
551.291237	24380.834815
551.649555	24240.516819
552.007817	24294.255519
552.366022	24154.933150
552.724173	24185.442213
553.082267	24148.288909
553.440305	24623.097546
553.798288	23867.726012
554.156215	24379.761050
554.514086	24488.395394
554.871902	23873.883782
555.229661	24148.646831
555.587365	24009.533670
555.945014	23883.683785
556.302606	24115.506286
556.660143	24077.642179
557.017625	24336.341592
557.375050	23855.589434
557.732421	24241.232662
558.089735	24062.881681
558.446994	24114.545946
558.804197	24151.074147
559.161345	24065.954264
559.518437	23840.070242
559.875474	24015.890565
560.232455	24200.167423
560.589381	24019.404249
560.946251	24008.621221
561.303065	24322.218799
561.659825	24409.939917
562.016528	24022.512121
562.373177	23767.696917
562.729770	24112.915133
563.086307	23971.127639
563.442789	24140.636437
563.799216	23978.409586
564.155587	23978.974195
564.511904	23957.007368
564.868164	23904.912084
565.224370	23876.094328
565.580520	23810.624863
565.936615	23925.868160
566.292654	23608.870324
566.648638	23877.236149
567.004567	23720.930133
567.360441	23666.503315
567.716260	23395.848807
568.072023	23706.033523
568.427732	23481.356858
568.783385	23255.699688
569.138982	23503.795034
569.494525	23531.412995
569.850013	23287.295120
570.205445	23384.687692
570.560823	23191.278783
570.916145	22955.866981
571.271412	23150.142968
571.626625	22897.165265
571.981782	23005.368591
572.336884	22808.680412
572.691931	22951.952525
573.046923	22686.442514
573.401860	22563.728226
573.756743	22585.337132
574.111570	22478.028611
574.466342	22402.461715
574.821059	22479.024239
575.175722	22203.109286
575.530330	22161.943224
575.884882	22181.631450
576.239380	22106.488011
576.593823	21994.957523
576.948211	21972.385757
577.302544	21819.028816
577.656823	21693.660361
578.011047	21788.890277
578.365216	21653.966315
578.719330	21529.439733
579.073389	21430.081111
579.427394	21578.122156
579.781344	21339.408397
580.135239	21228.066953
580.489080	21178.809839
580.842866	20954.007145
581.196597	21155.935603
581.550273	21116.599480
581.903895	21004.045638
582.257463	21319.730253
582.610975	20849.002431
582.964434	21177.332781
583.317837	20861.791838
583.671186	20953.656785
584.024481	20941.242943
584.377721	20692.703976
584.730906	20769.032087
585.084037	20775.802356
585.437113	20681.568067
585.790135	20896.598485
586.143103	20359.148470
586.496016	20369.049297
586.848874	20604.798856
587.201679	20536.400481
587.554428	20221.524970
587.907124	20547.183509
588.259765	20311.043260
588.612352	20390.746423
588.964884	19956.937490
589.317362	20119.968406
589.669786	20202.242557
590.022155	20202.053514
590.374470	20436.734349
590.726731	20197.995385
591.078937	19983.844649
591.431090	20081.632951
591.783188	19828.695577
592.135232	19797.808428
592.487222	19894.603623
592.839157	19912.320758
593.191038	19793.878848
593.542866	19677.503812
593.894639	19386.621673
594.246358	19610.217011
594.598022	19504.599797
594.949633	19253.583103
595.301190	19234.582994
595.652692	19400.048787
596.004141	19635.498397
596.355535	18958.756261
596.706876	18976.821236
597.058162	18872.890288
597.409395	19106.971225
597.760573	19158.673299
598.111698	18937.457386
598.462768	18886.135919
598.813785	18850.565538
599.164748	18658.074119
599.515657	18710.570175
599.866511	18507.515019
600.217312	18859.185911
600.568060	18381.420638
600.918753	18685.256021
601.269392	18581.539322
601.619978	18370.657774
601.970510	18564.802691
602.320988	18512.934259
602.671412	18718.230208
603.021783	18642.910329
603.372100	18356.446761
603.722363	18515.963992
604.072572	18446.398590
604.422728	18604.703424
604.772830	18346.767746
605.122878	18314.501841
605.472872	18292.686248
605.822813	18270.724461
606.172701	18258.073685
606.522534	18437.095141
606.872314	18469.056056
607.222041	18299.537176
607.571714	18516.541205
607.921333	18332.110591
608.270899	18419.199044
608.620411	18587.863449
608.969870	18373.064925
609.319276	18369.581488
609.668627	18398.552999
610.017926	18527.193163
610.367171	18638.436305
610.716362	18692.905972
611.065500	18512.271347
611.414585	18660.728287
611.763616	18638.660636
612.112594	18571.479699
612.461518	18545.462304
612.810389	18733.194873
613.159207	18577.715607
613.507971	18509.889402
613.856682	18767.477240
614.205340	18693.586528
614.553945	18838.592797
614.902496	18593.675900
615.250994	18806.052149
615.599439	18759.935674
615.947830	18745.122243
616.296169	18814.377615
616.644454	18757.210930
616.992686	18739.246779
617.340864	18959.643504
617.688990	18699.262867
618.037063	18869.195122
618.385082	18739.047653
618.733048	19002.952057
619.080961	18884.772287
619.428821	18915.893851
619.776628	18804.214649
620.124382	18726.671620
620.472083	18783.936608
620.819731	18791.253842
621.167326	18483.700608
621.514868	18522.865332
621.862357	18297.326630
622.209793	18301.803174
622.557176	18140.589595
622.904506	17967.678018
623.251783	17889.451913
623.599007	17642.233728
623.946179	17588.835306
624.293297	17519.958021
624.640363	17251.259480
624.987376	17292.564174
625.334336	17089.561950
625.681243	16930.904236
626.028097	16939.229701
626.374899	16866.077518
626.721647	16727.143318
627.068343	16567.704224
627.414987	16493.934500
627.761577	16468.663195
628.108115	16504.606622
628.454600	16222.196143
628.801032	16335.070098
629.147412	16267.228770
629.493739	16280.350893
629.840014	16079.438228
630.186236	16190.346133
630.532405	15951.947447
630.878521	16150.208466
631.224585	16047.416818
631.570597	15869.280085
631.916556	15892.129115
632.262462	15883.095368
632.608316	15788.987108
632.954117	15738.973820
633.299866	15722.728702
633.645562	15640.436907
633.991206	15405.453602
634.336797	15272.954435
634.682336	15250.057514
635.027823	15112.799498
635.373257	14993.989584
635.718639	14909.915741
636.063968	14847.075238
636.409245	14603.675727
636.754470	14635.709739
637.099642	14485.821112
637.444762	14252.168672
637.789829	14293.410352
638.134845	14129.696360
638.479808	14160.422193
638.824719	14082.521243
639.169577	13955.721100
639.514383	13988.120596
639.859137	13823.297550
640.203839	13910.416250
640.548489	13744.368204
640.893086	13736.153644
641.237632	13615.579326
641.582125	13766.813942
641.926566	13582.600098
642.270955	13607.861320
642.615292	13557.089339
642.959576	13570.743304
643.303809	13598.265483
643.647990	13529.020194
643.992118	13593.408332
644.336195	13363.884597
644.680219	13580.772680
645.024192	13504.356349
645.368112	13733.222213
645.711981	13784.463021
646.055797	13961.387357
646.399562	13950.538794
646.743274	14213.049318
647.086935	14480.401872
647.430544	14452.652840
647.774101	14485.039733
648.117606	14627.994253
648.461059	14602.682620
648.804460	14590.581330
649.147810	14311.848372
649.491108	14218.700452
649.834354	14231.903234
650.177548	13925.983333
650.520690	13729.622829
650.863781	13655.086849
651.206820	13695.060678
651.549807	13534.953632
651.892742	13328.112569
652.235626	13267.802725
652.578458	13263.059000
652.921238	12958.495169
653.263967	13156.531857
653.606644	12989.193276
653.949269	12969.111839
654.291843	12766.638936
654.634365	12935.361314
654.976836	12776.567489
655.319255	12778.916667
655.661622	12735.726581
656.003938	12658.695230
656.346203	12585.447264
656.688416	12656.734221
657.030577	12616.654527
657.372687	12523.521730
657.714746	12510.424813
658.056753	12701.731560
658.398708	12517.293385
658.740612	12513.588137
659.082465	12620.947070
659.424266	12592.081423
659.766016	12621.289868
660.107715	12529.324098
660.449362	12599.774223
660.790958	12551.633725
661.132503	12496.778409
661.473996	12568.498905
661.815438	12583.405597
662.156829	12616.866256
662.498168	12578.039289
662.839456	12580.181779
663.180693	12597.359511
663.521879	12697.189480
663.863013	12664.139676
664.204097	12633.068524
664.545129	12769.976180
664.886110	12734.776323
665.227040	12829.575222
665.567918	12833.358607
665.908746	12855.317874
666.249522	12851.355527
666.590248	12903.171027
666.930922	13010.282943
667.271545	12986.534067
667.612118	13078.033530
667.952639	12970.394813
668.293109	12996.732321
668.633528	12944.145525
668.973896	12921.001588
669.314213	12995.648473
669.654480	12734.047877
669.994695	12815.165083
670.334859	12837.890605
670.674973	12773.313424
671.015035	12811.364053
671.355047	12756.415476
671.695008	12734.783885
672.034918	12742.199422
672.374777	12778.775514
672.714585	12702.984287
673.054342	12738.254720
673.394049	12685.713294
673.733705	12774.659412
674.073310	12683.278416
674.412864	12702.402033
674.752368	12559.379458
675.091820	12594.516300
675.431223	12570.013772
675.770574	12432.196187
676.109875	12350.171573
676.449125	12312.282261
676.788324	12265.631423
677.127473	12093.433169
677.466571	12087.056110
677.805619	11978.789769
678.144616	11908.939542
678.483562	11875.582227
678.822458	11743.982905
679.161303	11721.927857
679.500098	11705.781042
679.838842	11657.448979
680.177535	11695.970956
680.516179	11755.665779
680.854771	11700.636544
681.193314	11914.898185
681.531805	12077.598905
681.870247	12503.878874
682.208638	12924.215323
682.546978	13224.814286
682.885268	13259.280655
683.223508	12962.051703
683.561697	12805.791058
683.899836	12714.805792
684.237925	12505.217301
684.575963	12423.669076
684.913951	12338.468534
685.251889	12299.906228
685.589776	12391.572049
685.927614	12310.691777
686.265401	12277.483176
686.603137	12333.727329
686.940824	12484.064619
687.278460	12614.890123
687.616046	12644.867345
687.953582	12819.853356
688.291068	12746.144125
688.628504	12985.664468
688.965889	12989.278975
689.303224	12949.398407
689.640510	12837.678876
689.977745	12525.538192
690.314930	12299.200467
690.652065	12214.415821
690.989150	11922.568301
691.326185	11689.493073
691.663170	11492.993938
692.000105	11260.064904
692.336990	11131.765018
692.673825	10878.376461
693.010610	10762.480334
693.347345	10550.545185
693.684030	10358.552841
694.020665	10290.106574
694.357251	10097.635321
694.693786	10032.569148
695.030272	9872.247853
695.366707	9759.499926
695.703093	9697.478611
696.039429	9689.299338
696.375716	9601.827757
696.711952	9474.904107
697.048139	9520.201394
697.384276	9471.183735
697.720363	9495.643413
698.056400	9428.520450
698.392388	9374.567501
698.728326	9339.024846
699.064214	9286.231362
699.400053	9319.288728
699.735842	9133.426427
700.071581	9097.417465
700.407270	9016.816977
700.742910	8943.379968
701.078501	8849.866565
701.414042	8718.864620
701.749533	8655.472111
702.084974	8525.516206
702.420366	8638.528792
702.755709	8510.833845
703.091002	8382.586891
703.426246	8407.374245
703.761440	8359.715176
704.096584	8321.656985
704.431679	8254.675174
704.766725	8239.955005
705.101721	8188.678908
705.436668	8236.869819
705.771565	8130.501472
706.106413	8216.027168
706.441212	8251.211901
706.775961	8210.222279
707.110661	8253.246007
707.445311	8384.424392
707.779913	8283.545862
708.114465	8416.690297
708.448967	8454.655227
708.783421	8608.450748
709.117825	8779.756717
709.452180	8817.852717
709.786485	8906.468640
710.120742	9192.354995
710.454949	9188.518677
710.789107	9295.411303
711.123216	9520.481178
711.457275	9683.146610
711.791286	9837.950362
712.125247	9836.559004
712.459159	9825.105502
712.793023	10063.892357
713.126837	9643.928954
713.460602	9793.696593
713.794318	9619.176888
714.127985	9649.373400
714.461602	9312.044590
714.795171	9265.303012
715.128691	9014.374538
715.462162	8771.058207
715.795584	8712.260709
716.128957	8555.415289
716.462281	8389.475628
716.795556	8441.490253
717.128782	8231.826144
717.461960	7972.610013
717.795088	8040.368162
718.128167	7952.049667
718.461198	7782.611446
718.794180	7732.625885
719.127113	7720.617856
719.459997	7547.300466
719.792833	7332.499422
720.125619	7401.767396
720.458357	7252.483707
720.791046	7245.365598
721.123686	7243.679332
721.456278	7074.604073
721.788821	7092.495128
722.121315	6995.226065
722.453761	7063.034625
722.786158	7002.762590
723.118506	7013.391862
723.450805	6975.704196
723.783056	7036.384565
724.115259	6960.336239
724.447412	6950.569003
724.779518	7004.312744
725.111574	7003.002044
725.443582	7084.633449
725.775542	7057.572535
726.107453	7256.377998
726.439315	7163.966087
726.771129	7235.472333
727.102895	7408.424240
727.434612	7512.274529
727.766281	7555.651138
728.097901	7625.337528
728.429473	7628.321891
728.760996	7615.063656
729.092471	7587.730520
729.423897	7527.788680
729.755276	7527.491252
730.086606	7447.997297
730.417887	7553.531333
730.749120	7766.041173
731.080305	7949.453473
731.411442	8061.357006
731.742530	8050.405100
732.073570	8165.998757
732.404562	8250.430522
732.735506	8102.903676
733.066401	8242.775530
733.397249	8164.075557
733.728048	7920.736540
734.058798	7588.799245
734.389501	7359.101590
734.720156	7186.805034
735.050762	6963.103832
735.381320	6867.712599
735.711831	6811.284443
736.042293	6703.416354
736.372707	6718.189455
736.703073	6586.456543
737.033391	6627.007585
737.363661	6631.695858
737.693883	6668.168606
738.024056	6753.227995
738.354182	6788.505989
738.684260	6826.281876
739.014290	6946.707479
739.344272	7052.390229
739.674207	7091.723832
740.004093	7160.838051
740.333931	7173.037643
740.663722	7178.376225
740.993464	7256.151147
741.323159	7236.442756
741.652806	6990.772205
741.982405	7016.484610
742.311956	7069.147024
742.641460	6888.542646
742.970915	6698.654984
743.300323	6688.812131
743.629683	6644.545759
743.958996	6509.019379
744.288260	6414.228043
744.617477	6366.279108
744.946647	6362.863726
745.275768	6196.908942
745.604842	6155.274052
745.933869	6138.711341
746.262847	6098.752635
746.591778	6086.109421
746.920662	6044.852618
747.249498	6038.009252
747.578286	6088.062868
747.907027	6154.991747
748.235720	6220.335183
748.564365	6193.407860
748.892963	6229.210135
749.221514	6372.477207
749.550017	6193.365010
749.878473	6077.811682
750.206881	6142.030941
750.535242	6081.915181
750.863555	6012.261558
751.191821	6020.753382
751.520039	6021.529720
751.848210	5931.149393
752.176334	5957.360873
752.504411	6002.668243
752.832440	5931.429177
753.160421	5857.828331
753.488356	5909.633748
753.816243	5938.161638
754.144082	5786.919461
754.471875	5763.094968
754.799620	5803.585516
755.127318	5819.402136
755.454969	5778.853615
755.782572	5741.818778
756.110129	5781.958966
756.437638	5763.798209
756.765100	5706.175300
757.092515	5712.219643
757.419882	5762.245533
757.747203	5739.590588
758.074477	5800.719620
758.401703	5779.231701
758.728882	5736.210494
759.056014	5801.228776
759.383099	5923.930461
759.710138	5936.601401
760.037129	5922.022384
760.364073	5921.077168
760.690970	6008.702504
761.017820	5988.550491
761.344623	5945.224295
761.671379	6051.786725
761.998088	6179.408576
762.324751	6431.506597
762.651366	7055.624129
762.977935	8401.231599
763.304456	10045.489625
763.630931	10925.417988
763.957359	10486.459517
764.283740	9537.283344
764.610074	8685.923200
764.936362	7685.044954
765.262602	7088.500014
765.588796	6548.642848
765.914943	6221.703857
766.241044	6052.550460
766.567097	5839.987688
766.893104	5584.655766
767.219064	5406.398045
767.544978	5347.257749
767.870845	5265.467548
768.196665	5157.443183
768.522438	5086.776288
768.848165	5051.561308
769.173846	4982.802490
769.499479	4938.684833
769.825066	4888.117018
770.150607	4826.360363
770.476101	4807.939987
770.801548	4794.684273
771.126949	4719.109815
771.452303	4662.328779
771.777611	4624.373931
772.102872	4647.283455
772.428087	4610.924133
772.753256	4566.748502
773.078378	4517.030122
773.403453	4449.960091
773.728482	4432.459725
774.053465	4389.093199
774.378401	4378.380747
774.703291	4368.953789
775.028135	4301.014159
775.352932	4254.237293
775.677683	4241.616764
776.002388	4258.827263
776.327046	4272.201444
776.651658	4198.214950
776.976224	4135.616422
777.300743	4140.657576
777.625216	4160.804547
777.949643	4155.750790
778.274024	4112.840489
778.598359	4068.364909
778.922647	4094.687294
779.246889	4080.728339
779.571086	4074.946135
779.895236	4059.898291
780.219339	4047.895304
780.543397	4044.507648
780.867409	4096.963375
781.191374	4109.011733
781.515294	4043.665776
781.839167	4040.497411
782.162995	4061.758477
782.486776	4049.604255
782.810511	4057.733116
783.134201	4049.768092
783.457844	4006.157071
783.781441	3949.277732
784.104993	3956.615131
784.428498	3975.464005
784.751958	3969.349086
785.075372	3948.080458
785.398739	3909.213162
785.722061	3918.604831
786.045337	3967.594764
786.368568	3997.655165
786.691752	3909.649221
787.014891	3966.253817
787.337983	4094.309207
787.661030	4258.575205
787.984031	4423.685597
788.306987	4586.333384
788.629897	4670.361857
788.952760	4626.458448
789.275579	4561.898912
789.598351	4489.016430
789.921078	4344.491590
790.243759	4145.781909
790.566395	4134.479642
790.888984	4120.049339
791.211529	4020.655429
791.534027	3957.393989
791.856480	3941.716001
792.178888	3879.142679
792.501249	3834.195751
792.823566	3842.145651
793.145836	3868.571379
793.468062	3817.701096
793.790241	3775.494035
794.112375	3805.814055
794.434464	3872.402656
794.756507	3894.208167
795.078505	3871.815362
795.400457	3911.751382
795.722364	4054.090882
796.044226	4157.820184
796.366042	4231.720979
796.687812	4205.053275
797.009538	4210.044017
797.331218	4169.074560
797.652852	4145.807114
797.974442	4124.389772
798.295986	4123.447077
798.617484	4038.967420
798.938938	3952.004996
799.260346	3997.289681
799.581709	3988.760049
799.903026	3915.774223
800.224299	3878.573028
800.545526	3869.927450
800.866708	3829.585616
801.187845	3772.290382
801.508936	3808.919406
801.829983	3802.673416
802.150984	3723.308011
802.471940	3717.288873
802.792851	3727.955954
803.113717	3723.270202
803.434538	3728.490317
803.755314	3669.627284
804.076045	3644.751710
804.396731	3665.901871
804.717372	3691.195861
805.037967	3675.439734
805.358518	3664.742406
805.679024	3694.563351
805.999485	3706.581462
806.319901	3710.740414
806.640272	3724.432188
806.960598	3738.605392
807.280879	3712.015826
807.601115	3726.257086
807.921306	3745.582349
808.241453	3782.972587
808.561554	3754.011158
808.881611	3690.671581
809.201623	3725.657188
809.521590	3743.270980
809.841513	3711.471381
810.161390	3743.336515
810.481223	3721.651992
810.801011	3665.632169
811.120755	3658.272085
811.440453	3693.439174
811.760107	3692.683001
812.079716	3652.106754
812.399281	3621.771610
812.718801	3644.915548
813.038276	3618.401599
813.357707	3618.008389
813.677093	3633.557828
813.996434	3576.922985
814.315731	3590.879420
814.634983	3592.568206
814.954191	3609.667800
815.273354	3637.018580
815.592473	3629.915594
815.911547	3640.073519
816.230577	3682.877957
816.549562	3735.215216
816.868502	3776.741721
817.187399	3799.452119
817.506250	3796.429947
817.825058	3774.810959
818.143821	3868.198334
818.462539	3970.808500
818.781213	4010.671424
819.099843	4075.314140
819.418429	4330.746884
819.736970	4572.364347
820.055466	4828.644006
820.373919	5198.465573
820.692327	5612.251042
821.010691	6085.443989
821.329011	7528.300358
821.647286	10376.282579
821.965517	15048.103850
822.283704	19083.789479
822.601847	21145.122328
822.919945	19251.826261
823.237999	16626.088348
823.556010	14109.383031
823.873976	11972.944551
824.191897	9863.957675
824.509775	8519.625617
824.827609	7383.183182
825.145398	6851.769950
825.463144	6733.988431
825.780845	6843.593198
826.098502	7052.175980
826.416116	7974.969273
826.733685	9329.600409
827.051210	10434.008832
827.368692	10415.023846
827.686129	9120.165672
828.003522	7601.747448
828.320872	6574.924904
828.638177	5866.153797
828.955439	5298.381242
829.272656	4792.715702
829.589830	4518.187067
829.906960	4342.097042
830.224046	4150.969256
830.541088	4028.963251
830.858086	3981.251250
831.175041	3900.554980
831.491952	3890.470152
831.808819	3899.597161
832.125642	3977.205724
832.442421	4130.827326
832.759157	4417.875667
833.075849	4988.398171
833.392497	5875.510178
833.709101	6657.854405
834.025662	6982.708880
834.342179	6580.515543
834.658653	5904.970681
834.975083	5252.635291
835.291469	4667.054860
835.607811	4263.402110
835.924110	4119.104123
836.240366	3918.630037
836.556578	3711.970456
836.872746	3602.264866
837.188871	3563.417734
837.504952	3496.907271
837.820990	3409.942326
838.136984	3367.077395
838.452935	3391.101013
838.768842	3384.759242
839.084706	3408.046852
839.400526	3576.996082
839.716303	3931.371553
840.032037	4474.858349
840.347727	4721.141400
840.663373	4420.912962
840.978977	4033.558262
841.294537	3722.856827
841.610054	3496.360306
841.925527	3389.712175
842.240957	3321.243224
842.556344	3263.489245
842.871687	3203.161757
843.186987	3151.074035
843.502244	3113.018364
843.817458	3082.640371
844.132629	3051.599466
844.447756	3058.727658
844.762840	3039.969524
845.077881	3011.345853
845.392879	2993.711897
845.707833	2989.764673
846.022745	2989.686535
846.337613	2988.585043
846.652438	2977.703713
846.967221	2973.985862
847.281960	2961.788790
847.596656	2955.084055
847.911309	2957.027420
848.225919	2952.477779
848.540485	2945.238682
848.855009	2946.095678
849.169490	2935.589913
849.483928	2925.396700
849.798323	2928.842329
850.112675	2922.195568
850.426984	2937.850871
850.741251	2931.357865
851.055474	2918.633993
851.369654	2914.278436
851.683792	2919.707758
851.997887	2927.791248
852.311938	2931.748554
852.625947	2917.971081
852.939914	2924.693459
853.253837	2925.991557
853.567718	2914.469999
853.881555	2910.633681
854.195350	2924.416196
854.509103	2922.377049
854.822812	2913.600400
855.136479	2911.609145
855.450103	2913.277767
855.763685	2907.432549
856.077224	2905.932805
856.390720	2917.834970
856.704173	2926.941814
857.017584	2917.789599
857.330953	2918.044178
857.644278	2927.352668
857.957561	2932.386260
858.270802	2938.579318
858.584000	2936.346087
858.897155	2922.077101
859.210268	2922.273706
859.523339	2920.690783
859.836367	2918.835639
860.149352	2914.543096
860.462295	2910.028743
860.775195	2918.535690
861.088054	2916.446132
861.400869	2899.704460
861.713642	2900.309398
862.026373	2911.687283
862.339062	2915.137952
862.651708	2922.384611
862.964312	2923.390321
863.276873	2917.073755
863.589392	2930.447937
863.901869	2942.753393
864.214303	2962.683595
864.526696	2974.293372
864.839045	2974.762199
865.151353	2974.071561
865.463619	2972.087867
865.775842	2975.712457
866.088023	2993.817761
866.400162	2998.919409
866.712258	2967.818010
867.024313	2956.916515
867.336325	2964.637042
867.648296	2986.951709
867.960224	2979.934423
868.272110	2969.169039
868.583954	2974.127014
868.895755	2988.229642
869.207515	2970.512507
869.519233	2980.269660
869.830909	2990.823316
870.142542	2998.407732
870.454134	2998.269100
870.765684	3002.022239
871.077191	3003.985768
871.388657	3009.480626
871.700081	3024.185672
872.011463	3034.068854
872.322803	3035.291334
872.634101	3035.296375
872.945357	3052.781617
873.256571	3078.594845
873.567744	3069.442630
873.878874	3063.796538
874.189963	3089.382914
874.501010	3089.055239
874.812015	3080.487798
875.122979	3078.617530
875.433900	3076.505287
875.744780	3085.465938
876.055618	3090.749067
876.366415	3083.267995
876.677169	3095.770056
876.987882	3092.387442
877.298554	3088.294025
877.609183	3111.997531
877.919771	3136.507621
878.230317	3164.523833
878.540822	3217.539127
878.851285	3254.339551
879.161707	3303.659679
879.472087	3407.265473
879.782425	3647.723470
880.092722	4106.115590
880.402977	4644.629288
880.713191	5292.949398
881.023363	6497.018912
881.333494	7800.850340
881.643583	8331.177204
881.953631	8015.079214
882.263637	7353.972216
882.573602	6737.867599
882.883526	6153.638197
883.193408	5581.648717
883.503248	5129.298421
883.813048	4815.718487
884.122806	4491.007686
884.432522	4168.898120
884.742197	3929.266872
885.051831	3740.573962
885.361424	3606.542285
885.670975	3526.836601
885.980485	3439.796039
886.289954	3363.576313
886.599382	3315.871874
886.908768	3280.152779
887.218113	3237.502097
887.527417	3174.096984
887.836680	3124.718882
888.145901	3118.488016
888.455082	3107.589042
888.764221	3055.360167
889.073319	3029.299922
889.382376	3022.829601
889.691392	3029.249511
890.000366	3024.944365
890.309300	3013.609331
890.618193	3029.892258
890.927044	3043.906666
891.235855	3043.032025
891.544625	3032.158257
891.853353	3043.649567
892.162041	3061.573389
892.470687	3103.515789
892.779293	3156.062256
893.087858	3201.402394
893.396381	3276.797891
893.704864	3408.631626
894.013306	3655.310407
894.321707	3965.162407
894.630068	4168.736803
894.938387	4158.188188
895.246665	4116.883494
895.554903	3987.535048
895.863100	3781.067031
896.171256	3611.964046
896.479371	3468.669247
896.787446	3340.253415
897.095480	3240.201635
897.403473	3173.257632
897.711425	3138.478712
898.019336	3129.480252
898.327207	3098.799790
898.635038	3060.116496
898.942827	3047.296842
899.250576	3033.700850
899.558284	3006.655059
899.865952	2982.273519
900.173579	2962.340796
900.481165	2956.135136
900.788711	2939.605193
901.096216	2917.935793
901.403681	2904.571694
901.711105	2912.851789
902.018489	2910.835328
902.325832	2911.137797
902.633135	2920.539549
902.940397	2956.639251
903.247619	3044.569577
903.554800	3245.706575
903.861941	3608.157974
904.169041	4049.604255
904.476101	4344.216847
904.783121	4286.591418
905.090100	4028.532232
905.397039	3750.313472
905.703938	3492.549193
906.010796	3310.724856
906.317614	3194.059953
906.624391	3095.023966
906.931129	3025.587113
907.237826	2964.705098
907.544483	2912.672828
907.851099	2883.083776
908.157675	2863.811444
908.464211	2843.024247
908.770707	2828.916577
909.077163	2812.321099
909.383578	2798.631846
909.689954	2787.853859
909.996289	2788.541976
910.302584	2787.468211
910.608839	2787.702624
910.915054	2780.503857
911.221229	2774.023453
911.527363	2776.717950
911.833458	2783.578960
912.139513	2790.550876
912.445527	2793.479787
912.751502	2799.849284
913.057436	2811.010399
913.363331	2824.911381
913.669186	2848.695545
913.975000	2882.912376
914.280775	2948.366718
914.586510	3016.823067
914.892205	3098.429265
915.197859	3234.661407
915.503475	3435.808486
915.809050	3661.193433
916.114585	3801.398004
916.420081	3819.674707
916.725536	3758.225563
917.030952	3634.694608
917.336328	3502.104700
917.641665	3367.629401
917.946961	3266.148453
918.252218	3191.176413
918.557435	3109.857561
918.862612	3050.182902
919.167750	2998.140550
919.472848	2963.122175
919.777906	2932.174532
920.082925	2906.356262
920.387904	2875.900131
920.692843	2857.794827
920.997743	2846.303517
921.302603	2832.957062
921.607423	2821.037254
921.912204	2808.767086
922.216946	2798.687298
922.521647	2789.426699
922.826310	2778.043773
923.130932	2771.301230
923.435516	2760.132554
923.740059	2755.986205
924.044564	2747.491861
924.349028	2743.116139
924.653454	2736.184552
924.957840	2729.406721
925.262186	2726.732389
925.566493	2720.420864
925.870761	2715.719988
926.174989	2713.307796
926.479178	2706.141796
926.783328	2703.863195
927.087438	2703.535520
927.391509	2700.962011
927.695541	2698.068388
927.999533	2693.924560
928.303486	2688.570854
928.607400	2690.322655
928.911275	2689.732840
929.215110	2689.069929
929.518906	2687.018179
929.822663	2687.360977
930.126381	2684.464835
930.430060	2685.374763
930.733699	2686.577078
931.037299	2690.163859
931.340861	2691.991277
931.644383	2691.938345
931.947866	2688.896009
932.251309	2687.907943
932.554714	2687.973478
932.858080	2683.748991
933.161407	2684.568178
933.464694	2681.576253
933.767943	2679.078362
934.071153	2680.726819
934.374323	2682.027437
934.677455	2684.069104
934.980548	2681.959381
935.283602	2680.338650
935.586617	2679.642971
935.889593	2677.881088
936.192530	2678.402847
936.495428	2678.397806
936.798287	2680.131963
937.101108	2684.732016
937.403890	2690.395752
937.706632	2691.590506
938.009336	2701.647608
938.312002	2708.251519
938.614628	2717.970864
938.917216	2725.111658
939.219765	2725.754405
939.522275	2726.800445
939.824747	2720.708210
940.127179	2718.250648
940.429573	2718.419526
940.731929	2714.696634
941.034246	2710.424256
941.336524	2708.430480
941.638763	2703.709439
941.940964	2700.641897
942.243126	2700.304140
942.545250	2699.371527
942.847335	2694.148891
943.149381	2692.177800
943.451389	2689.634538
943.753359	2685.142870
944.055290	2685.069773
944.357182	2686.350226
944.659036	2682.642457
944.960851	2683.098682
945.262628	2679.090965
945.564367	2682.188754
945.866067	2681.692200
946.167729	2681.901408
946.469352	2684.779907
946.770937	2681.311593
947.072484	2682.289577
947.373992	2679.118691
947.675462	2678.261695
947.976893	2674.405212
948.278286	2673.815397
948.579641	2674.621982
948.880958	2671.347752
949.182236	2674.284224
949.483476	2671.705674
949.784678	2672.532423
950.085841	2670.563853
950.386967	2672.842454
950.688054	2675.703309
950.989103	2674.097702
951.290114	2675.466375
951.591087	2675.864626
951.892021	2679.494257
952.192917	2681.672035
952.493776	2685.911646
952.794596	2686.065401
953.095378	2682.397962
953.396122	2684.815195
953.696828	2681.798064
953.997496	2680.986438
954.298126	2677.598783
954.598718	2676.066272
954.899272	2672.688699
955.199788	2672.164419
955.500266	2669.661486
955.800706	2666.024294
956.101108	2666.767864
956.401472	2664.864828
956.701798	2658.175217
957.002087	2656.710762
957.302337	2656.194044
957.602550	2654.772438
957.902724	2652.919814
958.202861	2654.747233
958.502960	2653.348312
958.803022	2649.741367
959.103045	2651.515853
959.403031	2650.580719
959.702979	2648.092910
960.002889	2652.047695
960.302762	2647.036788
960.602596	2647.487971
960.902393	2646.946047
961.202153	2646.484782
961.501875	2648.571819
961.801559	2644.301962
962.101205	2645.645429
962.400814	2644.246509
962.700385	2646.850265
962.999918	2642.908083
963.299414	2642.567805
963.598873	2642.643422
963.898293	2642.093937
964.197677	2644.654843
964.497022	2646.575522
964.796331	2645.007723
965.095601	2644.410347
965.394835	2643.392034
965.694030	2643.500418
965.993189	2642.361118
966.292309	2643.732312
966.591393	2645.211890
966.890439	2644.352373
967.189447	2646.948568
967.488419	2644.246509
967.787353	2646.073927
968.086249	2643.011427
968.385108	2643.195429
968.683930	2642.590490
968.982714	2645.335398
969.281462	2644.995121
969.580172	2642.562764
969.878844	2643.560912
970.177480	2642.187198
970.476078	2645.983187
970.774639	2645.239617
971.073162	2642.734163
971.371649	2644.755666
971.670098	2644.143166
971.968510	2642.696354
972.266885	2643.878505
972.565223	2646.512508
972.863524	2644.007054
973.161788	2643.886067
973.460014	2641.660397
973.758204	2645.370687
974.056356	2643.573515
974.354471	2642.716519
974.652550	2640.904224
974.950591	2645.317754
975.248595	2642.698875
975.546563	2644.846407
975.844493	2642.204842
976.142386	2641.420942
976.440243	2640.475726
976.738062	2643.767600
977.035845	2641.315078
977.333590	2644.301962
977.631299	2642.852630
977.928971	2640.190901
978.226606	2638.204686
978.524204	2639.409522
978.821765	2638.474388
979.119290	2641.579739
979.416777	2640.062352
979.714228	2640.876498
980.011642	2640.321971
980.309020	2640.548823
980.606360	2639.235602
980.903664	2643.064359
981.200931	2642.295583
981.498162	2641.705768
981.795356	2644.904380
982.092513	2645.481592
982.389633	2647.863537
982.686717	2650.863024
982.983764	2656.501554
983.280775	2661.472132
983.577749	2662.162770
983.874686	2657.192192
984.171587	2654.094403
984.468451	2654.641368
984.765279	2650.893271
985.062070	2648.420585
985.358824	2649.315389
985.655543	2645.287507
985.952224	2645.247178
986.248869	2646.184833
986.545478	2644.586787
986.842050	2641.108391
987.138586	2641.057979
987.435086	2642.794657
987.731549	2637.599748
988.027975	2640.919348
988.324366	2639.326343
988.620719	2638.262660
988.917037	2638.492032
989.213318	2637.239305
989.509563	2639.306178
989.805772	2639.666621
990.101944	2637.493884
990.398080	2637.526651
990.694180	2636.677217
990.990244	2637.632515
991.286271	2637.771147
991.582262	2639.848102
991.878217	2637.090591
992.174136	2639.553195
992.470019	2638.905407
992.765865	2637.496404
993.061676	2635.888276
993.357450	2634.093625
993.653188	2632.067082
993.948890	2636.959521
994.244556	2637.083030
994.540186	2637.312402
994.835780	2636.750313
995.131337	2639.570839
995.426859	2638.371044
995.722345	2637.995478
996.017795	2642.063690
996.313208	2645.148876
996.608586	2644.193577
996.903928	2641.660397
997.199234	2644.422950
997.494504	2641.788947
997.789738	2641.980511
998.084936	2641.559574
998.380099	2640.705099
998.675225	2638.920530
998.970316	2642.532517
999.265371	2641.057979
999.560390	2638.555047
999.855373	2639.827938
1000.150320	2640.919348
1000.445232	2637.624954
1000.740108	2638.978503
1001.034948	2639.515386
1001.329752	2638.134110
1001.624521	2636.470529
1001.919254	2637.103194
1002.213951	2635.721918
1002.508613	2637.750982
1002.803239	2639.449851
1003.097829	2635.300982
1003.392384	2637.380458
1003.686903	2636.276445
1003.981386	2637.672845
1004.275834	2635.875673
1004.570246	2637.491363
1004.864623	2633.463481
1005.158964	2635.061527
1005.453270	2637.829120
1005.747540	2635.132103
1006.041775	2636.294089
1006.335974	2635.089253
1006.630138	2634.741414
1006.924266	2637.181332
1007.218359	2634.398615
1007.512416	2632.714870
1007.806438	2631.754530
1008.100425	2632.815693
1008.394376	2628.797893
1008.688292	2634.328039
1008.982172	2636.604120
1009.276017	2636.369706
1009.569827	2633.259314
1009.863602	2634.282669
1010.157341	2633.188738
1010.451045	2634.317957
1010.744714	2633.869294
1011.038347	2635.994140
1011.331945	2633.574387
1011.625508	2633.934829
1011.919036	2638.066055
1012.212528	2636.145375
1012.505986	2635.190076
1012.799408	2635.563122
1013.092795	2632.805611
1013.386147	2634.305354
1013.679464	2635.162350
1013.972745	2635.706795
1014.265992	2632.125055
1014.559204	2633.599592
1014.852380	2634.633029
1015.145521	2634.524644
1015.438628	2632.477936
1015.731699	2635.575725
1016.024736	2634.088584
1016.317737	2634.711167
1016.610703	2634.864922
1016.903635	2637.239305
1017.196531	2635.051445
1017.489393	2635.119500
1017.782219	2635.235447
1018.075011	2634.587658
1018.367768	2635.343832
1018.660490	2632.500621
1018.953177	2632.500621
1019.245829	2632.500621
