Dividing Wavelength (nm)	Counts (n)	Blue Motor Position (mm): 49.900000	Red Motor Position (mm): 0.000000	
326.493990	2288.033537
326.888308	2288.033537
327.282561	2288.033537
327.676750	2248.586508
328.070874	2245.755901
328.464933	2244.036867
328.858929	2250.169431
329.252859	2251.449884
329.646726	2262.893303
330.040528	2275.644902
330.434265	2289.051850
330.827938	2304.432411
331.221547	2320.312045
331.615091	2342.349449
332.008571	2360.270751
332.401986	2381.062990
332.795338	2401.179715
333.188625	2421.929104
333.581847	2438.476692
333.975006	2457.428909
334.368100	2475.728298
334.761129	2494.579693
335.154095	2509.025119
335.546996	2538.808256
335.939833	2580.911973
336.332606	2595.322111
336.725315	2606.684872
337.117960	2618.889505
337.510540	2630.826958
337.903056	2641.047897
338.295508	2648.019813
338.687896	2658.823006
339.080220	2668.081085
339.472480	2671.806497
339.864676	2674.077537
340.256807	2680.414267
340.648875	2683.670853
341.040879	2689.395083
341.432818	2691.804755
341.824694	2691.587985
342.216506	2694.980682
342.608253	2694.753830
342.999937	2693.735517
343.391557	2693.206195
343.783113	2691.512368
344.174605	2694.516895
344.566033	2694.393387
344.957397	2692.855835
345.348697	2693.339786
345.739934	2687.386183
346.131106	2689.354754
346.522215	2686.509023
346.913260	2685.909125
347.304241	2682.581964
347.695159	2681.780420
348.086012	2682.022396
348.476802	2678.526355
348.867528	2675.065603
349.258191	2671.415808
349.648789	2670.115190
350.039324	2668.562515
350.429796	2670.120231
350.820203	2671.524193
351.210548	2668.933040
351.600828	2669.573266
351.991045	2664.965652
352.381198	2666.538492
352.771288	2667.576969
353.161314	2663.849036
353.551276	2663.859118
353.941175	2666.909016
354.331010	2662.404745
354.720782	2664.464057
355.110490	2666.089829
355.500135	2663.634787
355.889717	2664.524551
356.279235	2663.352482
356.668689	2666.825837
357.058080	2661.721669
357.447408	2666.891372
357.836672	2664.748882
358.225873	2668.572597
358.615010	2665.137051
359.004084	2669.764830
359.393095	2669.137206
359.782043	2668.214675
360.170927	2667.503872
360.559748	2668.222237
360.948505	2671.257012
361.337199	2673.167609
361.725830	2673.523010
362.114398	2670.175684
362.502903	2669.701816
362.891344	2673.790191
363.279722	2674.090140
363.668037	2675.952846
364.056289	2676.656087
364.444478	2675.930161
364.832603	2674.095181
365.220665	2677.593742
365.608665	2678.702796
365.996601	2678.763290
366.384474	2678.460820
366.772284	2680.361335
367.160031	2679.942920
367.547715	2683.285205
367.935336	2681.298990
368.322893	2677.671880
368.710388	2679.673218
369.097820	2682.163548
369.485189	2683.171779
369.872495	2690.768797
370.259738	2691.398942
370.646918	2696.097297
371.034035	2700.488142
371.421090	2708.637167
371.808081	2712.153372
372.195010	2717.726368
372.581875	2728.763974
372.968678	2736.570201
373.355418	2747.017992
373.742096	2764.029366
374.128710	2775.200563
374.515262	2793.242852
374.901751	2809.843372
375.288177	2821.730413
375.674540	2843.210769
376.060841	2865.104500
376.447079	2887.078890
376.833254	2916.410844
377.219367	2931.569593
377.605417	2969.746251
377.991404	2993.220384
378.377329	3025.635003
378.763191	3048.844476
379.148991	3092.531115
379.534727	3131.267341
379.920402	3166.568021
380.306013	3190.374870
380.691563	3252.368459
381.077049	3275.582973
381.462474	3315.710558
381.847835	3371.979917
382.233134	3413.488778
382.618371	3438.767643
383.003545	3506.301461
383.388657	3528.621170
383.773706	3588.252978
384.158693	3620.032412
384.543618	3647.693223
384.928480	3706.145402
385.313280	3761.706479
385.698017	3782.229017
386.082692	3874.467009
386.467305	3875.939026
386.851856	3910.617123
387.236344	3993.105523
387.620770	4017.713916
388.005133	4070.293150
388.389435	4115.938278
388.773674	4125.997900
389.157851	4202.570507
389.541965	4267.548459
389.926018	4230.337182
390.310008	4335.241073
390.693936	4385.113208
391.077802	4423.942696
391.461606	4420.093775
391.845348	4487.163806
392.229027	4545.573135
392.612645	4539.954769
392.996200	4646.244977
393.379694	4702.836970
393.763125	4809.999298
394.146494	4842.973486
394.529801	4894.993152
394.913047	4980.221420
395.296230	4926.472637
395.679351	5032.412485
396.062410	5094.738791
396.445408	5059.203698
396.828343	5120.955312
397.211217	5175.319115
397.594028	5059.990118
397.976778	5174.056306
398.359466	5221.301999
398.742092	5242.898303
399.124656	5168.165717
399.507158	5287.222648
399.889598	5350.796639
400.271977	5467.607735
400.654294	5468.394155
401.036549	5513.961145
401.418742	5436.977684
401.800874	5640.945290
402.182944	5703.788313
402.564952	5806.211957
402.946898	5863.771851
403.328783	5696.718095
403.710606	5731.365946
404.092367	6052.023659
404.474067	6071.779941
404.855705	5962.865813
405.237282	5903.937245
405.618797	6171.428429
406.000250	6133.032481
406.381642	6348.630028
406.762972	6371.194233
407.144240	6424.990906
407.525447	6406.401651
407.906593	6412.244349
408.287677	6587.590803
408.668700	6505.682135
409.049661	6613.522498
409.430560	6637.604090
409.811399	6502.145766
410.192176	6760.603203
410.572891	6789.504138
410.953545	6973.624720
411.334138	6702.841662
411.714669	6874.150152
412.095139	6673.459297
412.475547	6918.010711
412.855894	6990.885631
413.236180	7179.994435
413.616405	6827.418656
413.996568	7043.807664
414.376670	7113.438602
414.756711	6998.757393
415.136691	7096.875891
415.516609	7307.656615
415.896466	7275.267202
416.276262	7493.594534
416.655997	7487.159501
417.035670	7644.839232
417.415283	8001.450455
417.794834	8069.480826
418.174324	7924.474556
418.553753	7853.729523
418.933121	8138.998337
419.312428	8239.150941
419.691674	8012.344388
420.070859	8497.046289
420.449983	8177.603493
420.829045	8546.653764
421.208047	8311.206673
421.586988	8628.378429
421.965867	8650.985484
422.344686	8730.476918
422.723444	8825.550559
423.102141	8146.071076
423.480777	8926.340868
423.859352	8454.763611
424.237866	9070.409484
424.616319	8928.942104
424.994712	9372.556081
425.373044	8893.573368
425.751314	9393.887723
426.129524	9283.025188
426.507673	9337.661214
426.885762	9505.060289
427.263789	9423.368391
427.641756	9373.967604
428.019662	9445.211710
428.397508	9730.294002
428.775292	9370.753868
429.153016	9774.260425
429.530679	9605.492676
429.908282	9600.126368
430.285824	9333.489659
430.663305	10022.002889
431.040726	9475.919899
431.418086	9450.784706
431.795385	9789.532600
432.172624	9897.206605
432.549802	9790.240883
432.926920	9862.553714
433.303977	9729.689063
433.680974	9928.469321
434.057910	10040.279593
434.434786	10118.296490
434.811601	9918.845758
435.188355	10490.293314
435.565050	10248.683413
435.941683	10157.027675
436.318257	10630.840683
436.694770	10820.549385
437.071222	10867.081756
437.447614	10671.202682
437.823946	10623.392379
438.200218	10691.873933
438.576429	10548.899248
438.952580	10803.505244
439.328670	10808.679988
439.704700	10623.634354
440.080670	10612.448034
440.456580	11104.096645
440.832429	10912.777295
441.208218	10515.171408
441.583947	10787.797008
441.959616	10992.951805
442.335224	10817.176853
442.710773	10895.849100
443.086261	11150.039200
443.461689	10403.605633
443.837057	11100.487179
444.212365	11313.521299
444.587612	10954.392020
444.962800	11157.865592
445.337927	10883.778057
445.712995	10609.519123
446.088002	11628.558126
446.462949	11331.200626
446.837837	11288.464244
447.212664	11195.739781
447.587431	11816.104173
447.962139	12601.679780
448.336786	14900.418207
448.711374	15353.358318
449.085901	13150.850477
449.460369	12811.530411
449.834776	12271.264912
450.209124	13216.292215
450.583412	13653.098114
450.957640	14564.942022
451.331808	13567.111153
451.705917	12682.529805
452.079965	11890.632591
452.453954	12804.704689
452.827883	12475.121612
453.201752	12760.274480
453.575562	12338.632372
453.949311	12736.029050
454.323001	12738.592477
454.696632	12978.874034
455.070202	13243.799271
455.443713	13419.748143
455.817164	13928.209003
456.190556	13892.719280
456.563888	14256.176390
456.937160	14380.413106
457.310373	13748.746446
457.683526	13875.478533
458.056619	13382.189027
458.429653	13622.097538
458.802628	12944.566461
459.175542	13377.823387
459.548398	14323.566534
459.921194	14707.420153
460.293930	14781.446976
460.666607	15602.580362
461.039224	16671.836819
461.411782	17407.782266
461.784280	17148.944222
462.156719	17287.147454
462.529099	16935.584947
462.901419	15919.545430
463.273680	15658.519525
463.645882	15583.975983
464.018024	15293.595440
464.390106	15526.549679
464.762130	16227.746453
465.134094	17044.073098
465.505999	19144.782400
465.877845	22420.889653
466.249631	25210.311310
466.621358	24783.764160
466.993026	23382.537640
467.364634	22765.432353
467.736184	21291.819905
468.107674	20507.975935
468.479105	20635.121397
468.850477	20080.733105
469.221790	19697.834785
469.593043	19003.567078
469.964238	18427.494263
470.335373	18052.888641
470.706449	18591.989634
471.077467	18186.237243
471.448425	20093.225084
471.819324	24266.566981
472.190164	26007.015264
472.560945	22276.654679
472.931667	20020.851759
473.302330	19428.932077
473.672934	19111.150342
474.043479	19286.184245
474.413965	19103.051728
474.784393	18687.080919
475.154761	19487.727055
475.525070	19363.480257
475.895321	19116.269634
476.265513	19727.723787
476.635645	20317.256482
477.005719	20054.294774
477.375734	20235.410829
477.745691	20729.058257
478.115588	21288.422167
478.485427	21867.333152
478.855207	22979.749447
479.224928	24794.136334
479.594591	27024.063012
479.964194	26860.757353
480.333739	27101.341379
480.703226	26690.827619
481.072653	26422.708810
481.442022	27085.129029
481.811333	28012.933229
482.180584	27873.018525
482.549777	26929.758147
482.918912	26606.673117
483.287988	26750.104026
483.657005	26360.891661
484.025964	26144.069114
484.394864	26004.230027
484.763706	25650.908157
485.132489	25144.859489
485.501213	25320.331972
485.869879	25233.435083
486.238487	25099.559681
486.607036	25204.050197
486.975527	24986.395859
487.343959	25240.356587
487.712333	25155.980275
488.080648	24807.961698
488.448905	25331.374620
488.817104	25110.587205
489.185244	25812.020913
489.553326	25758.435968
489.921350	26848.623296
490.289315	29240.194572
490.657222	30909.907904
491.025070	31433.610692
491.392861	31160.801090
491.760593	30271.672622
492.128267	29347.538381
492.495883	28277.944167
492.863440	27422.357015
493.230939	26557.163945
493.598380	26382.389662
493.965763	26005.578535
494.333088	25484.413968
494.700354	25473.996424
495.067563	25305.243799
495.434713	25055.449585
495.801805	25264.128148
496.168839	25010.185064
496.535815	24898.006788
496.902733	25123.989113
497.269593	24846.549211
497.636395	24985.576672
498.003139	24909.639251
498.369825	24647.912626
498.736453	24872.390165
499.103023	24725.299378
499.469535	24720.797628
499.835989	24955.228926
500.202385	24975.391021
500.568723	24530.983062
500.935003	24680.128119
501.301226	24403.454473
501.667390	25250.479224
502.033497	25428.106801
502.399546	25170.150958
502.765537	24688.246897
503.131470	25072.493726
503.497345	25234.395423
503.863163	24484.117975
504.228923	24998.456820
504.594625	25271.311793
504.960269	24844.681463
505.325856	25320.969678
505.691385	24706.548807
506.056856	25306.103316
506.422270	25322.638300
506.787625	24810.434384
507.152924	25256.211016
507.518164	25300.860516
507.883347	25110.332627
508.248472	24788.099552
508.613540	25545.971498
508.978550	25357.134916
509.343503	25397.864919
509.708398	25572.132566
510.073236	25741.933751
510.438016	25956.737316
510.802738	25605.510046
511.167403	25865.424376
511.532010	25620.741892
511.896561	26352.362029
512.261053	26337.072209
512.625488	26150.753684
512.989866	26063.309829
513.354186	25872.461827
513.718449	26025.241556
514.082655	26382.021658
514.446803	26089.599447
514.810894	26582.979694
515.174927	26085.934528
515.538904	26120.763860
515.902822	26635.183363
516.266684	26364.443154
516.630488	26278.869568
516.994235	26208.668980
517.357925	26569.277838
517.721558	26711.241771
518.085133	26858.831632
518.448651	26729.190800
518.812112	26517.905960
519.175516	26730.448567
519.538863	26869.216409
519.902152	26679.238006
520.265385	26922.269512
520.628560	26744.576401
520.991678	26700.373044
521.354739	26753.456394
521.717743	26874.081123
522.080690	26635.808466
522.443580	26966.790463
522.806413	26912.794664
523.169189	27041.424745
523.531908	27087.667250
523.894569	26728.144760
524.257174	26822.875603
524.619722	26934.058251
524.982213	26682.018202
525.344647	26670.781471
525.707025	26844.262698
526.069345	26778.311803
526.431608	26769.124300
526.793815	26921.014265
527.155964	26450.384745
527.518057	26625.965613
527.880093	26536.946398
528.242072	26748.352225
528.603995	26476.419784
528.965860	26262.886589
529.327669	26293.010004
529.689421	26287.069004
530.051117	26138.107949
530.412755	26309.144217
530.774337	26068.061117
531.135862	25996.761557
531.497331	26155.290722
531.858743	25781.587467
532.220098	26201.830655
532.581396	25907.533134
532.942638	25784.488651
533.303824	25919.634424
533.664953	25889.639559
534.026025	25561.556225
534.387040	25805.792567
534.747999	25844.790933
535.108902	26015.348292
535.469748	25523.361923
535.830537	25668.655539
536.191270	25826.315105
536.551947	25613.427178
536.912567	25238.317441
537.273131	25727.594189
537.633638	25381.463525
537.994089	25588.886841
538.354483	25067.150103
538.714821	25575.426960
539.075103	25628.346472
539.435328	25380.835901
539.795497	25010.394272
540.155609	25323.051675
540.515665	25647.112168
540.875665	24859.126889
541.235609	25222.316818
541.595496	25138.830269
541.955328	25507.454562
542.315102	25430.516472
542.674821	24919.086373
543.034483	24819.831095
543.394090	24990.325439
543.753640	24790.536950
544.113134	25428.326091
544.472571	25008.876885
544.831953	25310.907535
545.191278	24973.755166
545.550548	24853.816034
545.909761	25062.386212
546.268918	25290.553877
546.628019	25274.349088
546.987064	24945.975888
547.346053	24684.347565
547.704986	24771.942654
548.063863	24933.675472
548.422684	24964.174453
548.781449	24446.301760
549.140158	24871.528128
549.498811	24447.617501
549.857408	24219.613674
550.215949	24583.771505
550.574434	24314.916688
550.932864	24481.970444
551.291237	24704.015627
551.649555	24515.907492
552.007817	24600.006541
552.366022	24433.333392
552.724173	24441.169865
553.082267	24427.914151
553.440305	24899.534258
553.798288	24115.733137
554.156215	24616.465908
554.514086	24770.153045
554.871902	24165.723740
555.229661	24428.345170
555.587365	24264.081692
555.945014	24186.256359
556.302606	24381.018817
556.660143	24386.301947
557.017625	24611.407110
557.375050	24115.881852
557.732421	24513.480176
558.089735	24334.257074
558.446994	24379.748447
558.804197	24434.306334
559.161345	24295.914058
559.518437	24108.713331
559.875474	24265.420119
560.232455	24444.865031
560.589381	24258.478450
560.946251	24268.817856
561.303065	24568.617796
561.659825	24643.766277
562.016528	24268.288535
562.373177	23989.671524
562.729770	24352.531257
563.086307	24189.618809
563.442789	24366.628844
563.799216	24232.932403
564.155587	24203.250089
564.511904	24188.229971
564.868164	24154.265197
565.224370	24119.604744
565.580520	24072.316200
565.936615	24186.510937
566.292654	23886.224526
566.648638	24099.127577
567.004567	23951.278096
567.360441	23875.869996
567.716260	23610.049954
568.072023	23905.721189
568.427732	23682.440923
568.783385	23446.361168
569.138982	23715.531057
569.494525	23729.973963
569.850013	23497.281863
570.205445	23601.895888
570.560823	23427.943313
570.916145	23202.593653
571.271412	23402.402307
571.626625	23155.267301
571.981782	23248.102670
572.336884	23049.680334
572.691931	23186.041025
573.046923	22931.586264
573.401860	22801.796717
573.756743	22851.799922
574.111570	22735.840780
574.466342	22650.662924
574.821059	22723.986507
575.175722	22442.007046
575.530330	22377.661758
575.884882	22383.045711
576.239380	22310.059885
576.593823	22193.904139
576.948211	22182.092716
577.302544	22032.579654
577.656823	21889.526832
578.011047	21997.410044
578.365216	21861.795444
578.719330	21729.704611
579.073389	21618.584977
579.427394	21785.759721
579.781344	21518.838186
580.135239	21417.843710
580.489080	21352.575891
580.842866	21142.052266
581.196597	21360.099813
581.550273	21319.611786
581.903895	21183.924089
582.257463	21500.395125
582.610975	21033.271727
582.964434	21371.386957
583.317837	21020.368894
583.671186	21109.768716
584.024481	21111.933892
584.377721	20872.158971
584.730906	20963.363526
585.084037	20930.704411
585.437113	20880.562574
585.790135	21087.086045
586.143103	20528.248935
586.496016	20568.878114
586.848874	20785.556989
587.201679	20689.243224
587.554428	20407.064638
587.907124	20741.008313
588.259765	20469.915223
588.612352	20561.097093
588.964884	20127.147009
589.317362	20297.323760
589.669786	20362.989830
590.022155	20330.781898
590.374470	20618.336875
590.726731	20343.674649
591.078937	20165.419449
591.431090	20222.490351
591.783188	20013.829432
592.135232	19965.267997
592.487222	20054.365350
592.839157	20062.562266
593.191038	19937.879408
593.542866	19837.779737
593.894639	19539.240085
594.246358	19745.715665
594.598022	19635.417739
594.949633	19399.322860
595.301190	19397.319002
595.652692	19554.756757
596.004141	19749.337734
596.355535	19089.150747
596.706876	19121.272979
597.058162	19008.676287
597.409395	19264.587942
597.760573	19289.292116
598.111698	19064.078568
598.462768	19010.561679
598.813785	18993.129369
599.164748	18774.063508
599.515657	18851.629221
599.866511	18650.633376
600.217312	19003.131018
600.568060	18490.417945
600.918753	18810.626997
601.269392	18698.655408
601.619978	18513.324948
601.970510	18683.867183
602.320988	18637.584350
602.671412	18834.814453
603.021783	18771.353887
603.372100	18463.929202
603.722363	18634.975553
604.072572	18589.322863
604.422728	18740.086131
604.772830	18477.875555
605.122878	18446.892623
605.472872	18416.799455
605.822813	18403.246313
606.172701	18409.530111
606.522534	18554.087718
606.872314	18598.477599
607.222041	18443.439433
607.571714	18643.462335
607.921333	18471.995049
608.270899	18553.686947
608.620411	18706.716213
608.969870	18504.165172
609.319276	18499.038318
609.668627	18530.343884
610.017926	18654.318460
610.367171	18760.326363
610.716362	18823.615529
611.065500	18632.712074
611.414585	18792.385581
611.763616	18769.344988
612.112594	18692.253142
612.461518	18677.875772
612.810389	18870.770482
613.159207	18729.189677
613.507971	18646.169435
613.856682	18875.902377
614.205340	18790.051527
614.553945	18953.606723
614.902496	18694.244398
615.250994	18887.338235
615.599439	18850.910857
615.947830	18840.493313
616.296169	18924.635211
616.644454	18877.056801
616.992686	18868.955667
617.340864	19086.587320
617.688990	18812.277974
618.037063	18993.262959
618.385082	18860.068113
618.733048	19121.404049
619.080961	19021.334624
619.428821	19050.487617
619.776628	18920.272093
620.124382	18854.399335
620.472083	18904.571419
620.819731	18913.637934
621.167326	18599.929451
621.514868	18643.371594
621.862357	18439.159493
622.209793	18426.024767
622.557176	18255.273324
622.904506	18091.408098
623.251783	18031.695631
623.599007	17775.259696
623.946179	17716.139564
624.293297	17641.827916
624.640363	17370.722223
624.987376	17389.843320
625.334336	17193.384513
625.681243	17041.577727
626.028097	17079.525013
626.374899	16975.765464
626.721647	16850.422214
627.068343	16687.373655
627.414987	16623.396372
627.761577	16569.151036
628.108115	16589.887822
628.454600	16333.872824
628.801032	16439.840398
629.147412	16380.153137
629.493739	16374.534771
629.840014	16199.546238
630.186236	16290.972605
630.532405	16049.771037
630.878521	16243.157260
631.224585	16162.881927
631.570597	15975.421580
631.916556	15998.419323
632.262462	15979.585573
632.608316	15898.874179
632.954117	15840.306054
633.299866	15825.737119
633.645562	15748.453710
633.991206	15526.695873
634.336797	15390.924997
634.682336	15364.423651
635.027823	15223.858638
635.373257	15081.377986
635.718639	15011.714281
636.063968	14939.978662
636.409245	14682.229507
636.754470	14728.696342
637.099642	14582.293673
637.444762	14356.447460
637.789829	14404.842537
638.134845	14231.724273
638.479808	14255.490793
638.824719	14163.469570
639.169577	14026.393036
639.514383	14063.644642
639.859137	13890.042427
640.203839	13994.558149
640.548489	13850.426519
640.893086	13835.847503
641.237632	13710.287484
641.582125	13879.168658
641.926566	13687.466180
642.270955	13701.795660
642.615292	13650.391014
642.959576	13669.285259
643.303809	13683.345037
643.647990	13618.225932
643.992118	13696.149568
644.336195	13459.575779
644.680219	13701.316750
645.024192	13589.819030
645.368112	13843.164737
645.711981	13865.988561
646.055797	14065.119179
646.399562	14035.114232
646.743274	14304.783195
647.086935	14576.193877
647.430544	14536.646025
647.774101	14586.019086
648.117606	14720.943048
648.461059	14700.551581
648.804460	14674.506459
649.147810	14397.976486
649.491108	14315.399865
649.834354	14336.484491
650.177548	14000.020239
650.520690	13812.113750
650.863781	13738.878388
651.206820	13790.320842
651.549807	13622.604174
651.892742	13385.067526
652.235626	13329.327487
652.578458	13334.545082
652.921238	13053.334397
653.263967	13249.909150
653.606644	13077.579826
653.949269	13060.230695
654.291843	12846.732789
654.634365	13019.346938
654.976836	12865.697609
655.319255	12843.977798
655.661622	12817.090804
656.003938	12750.260228
656.346203	12669.286694
656.688416	12754.315836
657.030577	12700.287269
657.372687	12592.577976
657.714746	12592.754417
658.056753	12778.173096
658.398708	12586.125299
658.740612	12591.574787
659.082465	12713.822768
659.424266	12677.692818
659.766016	12709.857900
660.107715	12626.565436
660.449362	12700.839276
660.790958	12639.886685
661.132503	12588.257707
661.473996	12662.370231
661.815438	12670.567147
662.156829	12707.465873
662.498168	12668.742249
662.839456	12682.340762
663.180693	12692.208820
663.521879	12785.843212
663.863013	12750.207295
664.204097	12726.798698
664.545129	12865.216179
664.886110	12834.250892
665.227040	12935.779730
665.567918	12924.046445
665.908746	12944.029578
666.249522	12935.968773
666.590248	13003.484947
666.930922	13111.920166
667.271545	13070.333168
667.612118	13166.112570
667.952639	13060.961663
668.293109	13095.617075
668.633528	13034.079710
668.973896	13018.467256
669.314213	13070.975915
669.654480	12820.123058
669.994695	12913.913725
670.334859	12933.808639
670.674973	12875.633724
671.015035	12894.671641
671.355047	12855.055734
671.695008	12825.817041
672.034918	12841.926048
672.374777	12877.977860
672.714585	12791.786732
673.054342	12835.186026
673.394049	12783.703242
673.733705	12875.971481
674.073310	12772.952982
674.412864	12785.323973
674.752368	12638.023978
675.091820	12700.652753
675.431223	12651.877069
675.770574	12522.102646
676.109875	12437.126436
676.449125	12388.592727
676.788324	12351.870442
677.127473	12177.370902
677.466571	12173.816888
677.805619	12052.347766
678.144616	11996.189312
678.483562	11973.471352
678.822458	11837.541680
679.161303	11810.435395
679.500098	11796.733539
679.838842	11758.037642
680.177535	11796.443673
680.516179	11866.750125
680.854771	11799.002058
681.193314	12016.772343
681.531805	12191.274404
681.870247	12641.457004
682.208638	13041.732181
682.546978	13326.683402
682.885268	13345.847349
683.223508	13060.137434
683.561697	12911.670412
683.899836	12821.544663
684.237925	12618.302984
684.575963	12530.493646
684.913951	12442.129781
685.251889	12403.086044
685.589776	12506.475069
685.927614	12415.610791
686.265401	12390.321843
686.603137	12463.302627
686.940824	12605.677415
687.278460	12742.040626
687.616046	12770.697065
687.953582	12917.926484
688.291068	12872.974515
688.628504	13100.880039
688.965889	13103.486316
689.303224	13041.028940
689.640510	12924.174994
689.977745	12603.716406
690.314930	12396.998851
690.652065	12299.422277
690.989150	11996.514466
691.326185	11770.622883
691.663170	11565.513456
692.000105	11339.949548
692.336990	11214.029087
692.673825	10944.682757
693.010610	10844.925884
693.347345	10634.034254
693.684030	10442.321694
694.020665	10383.834227
694.357251	10182.712353
694.693786	10100.231515
695.030272	9958.068456
695.366707	9842.615950
695.703093	9782.227968
696.039429	9768.725238
696.375716	9669.033900
696.711952	9546.188543
697.048139	9605.694322
697.384276	9555.270181
697.720363	9581.451414
698.056400	9505.133386
698.392388	9445.428480
698.728326	9422.115664
699.064214	9364.197847
699.400053	9395.223629
699.735842	9213.701761
700.071581	9180.437708
700.407270	9102.350234
700.742910	9024.411475
701.078501	8923.638810
701.414042	8790.791803
701.749533	8739.946726
702.084974	8598.996064
702.420366	8720.863438
702.755709	8594.890044
703.091002	8461.075136
703.426246	8492.920105
703.761440	8449.770348
704.096584	8406.948267
704.431679	8333.904468
704.766725	8321.830905
705.101721	8276.727702
705.436668	8332.407246
705.771565	8215.023978
706.106413	8301.767113
706.441212	8332.992020
706.775961	8299.070095
707.110661	8354.656378
707.445311	8477.491653
707.779913	8375.315027
708.114465	8494.066967
708.448967	8527.774643
708.783421	8706.874236
709.117825	8870.643680
709.452180	8898.465808
709.786485	8983.525197
710.120742	9278.699878
710.454949	9288.744377
710.789107	9395.034586
711.123216	9618.471127
711.457275	9805.916350
711.791286	9937.553480
712.125247	9945.389954
712.459159	9934.639693
712.793023	10145.513679
713.126837	9723.281757
713.460602	9882.617506
713.794318	9715.835972
714.127985	9737.951514
714.461602	9390.225325
714.795171	9354.586888
715.128691	9100.358979
715.462162	8866.328452
715.795584	8793.750961
716.128957	8628.728789
716.462281	8458.922563
716.795556	8506.347218
717.128782	8299.924571
717.461960	8046.296559
717.795088	8107.271836
718.128167	8020.737909
718.461198	7856.766819
718.794180	7806.735887
719.127113	7804.462327
719.459997	7625.718135
719.792833	7403.224289
720.125619	7475.090979
720.458357	7328.113618
720.791046	7329.724266
721.123686	7306.865154
721.456278	7141.399362
721.788821	7163.774523
722.121315	7070.263640
722.453761	7150.445712
722.786158	7076.106337
723.118506	7090.546722
723.450805	7052.937194
723.783056	7103.116839
724.115259	7029.780654
724.447412	7027.761672
724.779518	7086.206289
725.111574	7086.599499
725.443582	7159.882752
725.775542	7131.309492
726.107453	7326.366858
726.439315	7232.840851
726.771129	7322.585992
727.102895	7501.078127
727.434612	7599.415915
727.766281	7648.302504
728.097901	7716.569810
728.429473	7731.680668
728.760996	7726.304278
729.092471	7706.633695
729.423897	7635.003940
729.755276	7624.909030
730.086606	7529.359000
730.417887	7641.433932
730.749120	7866.713015
731.080305	8046.286477
731.411442	8148.440418
731.742530	8136.089592
732.073570	8234.782781
732.404562	8323.554980
732.735506	8188.046244
733.066401	8314.874113
733.397249	8227.919250
733.728048	7979.085376
734.058798	7644.486351
734.389501	7415.854900
734.720156	7252.266937
735.050762	7033.299379
735.381320	6952.908099
735.711831	6880.650720
736.042293	6776.818074
736.372707	6791.497914
736.703073	6664.780951
737.033391	6712.687036
737.363661	6717.753395
737.693883	6751.534167
738.024056	6838.521797
738.354182	6862.621033
738.684260	6901.942033
739.014290	7028.429624
739.344272	7141.114536
739.674207	7162.990623
740.004093	7245.375680
740.333931	7251.576299
740.663722	7261.368741
740.993464	7339.965370
741.323159	7303.815256
741.652806	7062.964049
741.982405	7118.215095
742.311956	7142.566389
742.641460	6959.174253
742.970915	6771.270284
743.300323	6756.303099
743.629683	6722.245063
743.958996	6581.914464
744.288260	6489.560525
744.617477	6439.234686
744.946647	6426.765392
745.275768	6275.911384
745.604842	6225.341049
745.933869	6207.666764
746.262847	6162.223282
746.591778	6155.697509
746.920662	6113.193020
747.249498	6115.600171
747.578286	6166.858623
747.907027	6235.448563
748.235720	6296.932996
748.564365	6268.914262
748.892963	6323.527603
749.221514	6439.363236
749.550017	6245.306539
749.878473	6148.556714
750.206881	6217.287806
750.535242	6175.741137
750.863555	6101.863027
751.191821	6104.474345
751.520039	6093.807263
751.848210	6005.622359
752.176334	6042.516043
752.504411	6080.060037
752.832440	5998.864692
753.160421	5932.535710
753.488356	5984.701570
753.816243	6007.452298
754.144082	5861.669690
754.471875	5841.822668
754.799620	5881.216764
755.127318	5895.178240
755.454969	5854.586869
755.782572	5819.964224
756.110129	5857.795563
756.437638	5832.970401
756.765100	5778.664572
757.092515	5791.103619
757.419882	5852.444379
757.747203	5818.673689
758.074477	5874.726279
758.401703	5851.637794
758.728882	5826.006047
759.056014	5893.416357
759.383099	6006.925497
759.710138	6013.995715
760.037129	6001.919631
760.364073	6003.215208
760.690970	6083.024235
761.017820	6055.255039
761.344623	6024.811511
761.671379	6136.266381
761.998088	6267.096927
762.324751	6532.155755
762.651366	7187.157915
762.977935	8581.800688
763.304456	10246.616540
763.630931	11081.892883
763.957359	10598.342885
764.283740	9621.599163
764.610074	8729.146053
764.936362	7731.131182
765.262602	7152.086608
765.588796	6630.357432
765.914943	6304.192257
766.241044	6124.218024
766.567097	5899.682511
766.893104	5648.355786
767.219064	5476.051668
767.544978	5419.472278
767.870845	5337.024207
768.196665	5228.543617
768.522438	5158.174150
768.848165	5120.972956
769.173846	5048.355134
769.499479	5002.440305
769.825066	4959.822391
770.150607	4899.510026
770.476101	4880.651069
770.801548	4867.314697
771.126949	4777.935039
771.452303	4728.849324
771.777611	4695.698697
772.102872	4719.099733
772.428087	4673.802445
772.753256	4629.936845
773.078378	4575.487342
773.403453	4510.620295
773.728482	4498.367770
774.053465	4452.359680
774.378401	4447.613433
774.703291	4432.106844
775.028135	4356.061038
775.352932	4311.121673
775.677683	4301.672030
776.002388	4314.584945
776.327046	4319.600893
776.651658	4248.223196
776.976224	4196.069939
777.300743	4197.239487
777.625216	4211.455540
777.949643	4195.341492
778.274024	4166.248993
778.598359	4134.913181
778.922647	4160.086183
779.246889	4144.443482
779.571086	4133.274806
779.895236	4119.303248
780.219339	4113.490798
780.543397	4109.140282
780.867409	4159.914783
781.191374	4170.826361
781.515294	4104.152060
781.839167	4098.654682
782.162995	4129.609887
782.486776	4117.652270
782.810511	4126.345740
783.134201	4110.957618
783.457844	4057.085327
783.781441	4011.979603
784.104993	4017.545037
784.428498	4033.631359
784.751958	4027.072818
785.075372	4000.631966
785.398739	3968.106441
785.722061	3984.177640
786.045337	4028.277654
786.368568	4052.596180
786.691752	3964.504537
787.014891	4030.241183
787.337983	4164.038447
787.661030	4328.105320
787.984031	4484.766737
788.306987	4647.265811
788.629897	4741.217795
788.952760	4693.082338
789.275579	4626.009786
789.598351	4547.236716
789.921078	4392.942120
790.243759	4199.770146
790.566395	4194.161862
790.888984	4182.748690
791.211529	4074.875559
791.534027	4015.306765
791.856480	3995.815143
792.178888	3939.051751
792.501249	3897.623549
792.823566	3907.882297
793.145836	3927.376439
793.468062	3873.819220
793.790241	3836.441585
794.112375	3867.293447
794.434464	3936.538736
794.756507	3952.821663
795.078505	3925.420471
795.400457	3976.263028
795.722364	4123.845328
796.044226	4223.297211
796.366042	4298.155825
796.687812	4262.010752
797.009538	4265.037965
797.331218	4235.038058
797.652852	4209.940674
797.974442	4183.388916
798.295986	4180.069317
798.617484	4094.662088
798.938938	4015.089995
799.260346	4063.195206
799.581709	4052.334040
799.903026	3968.275320
800.224299	3932.810803
800.545526	3929.402983
800.866708	3887.992424
801.187845	3839.557018
801.508936	3870.287892
801.829983	3854.375490
802.150984	3782.581898
802.471940	3778.848923
802.792851	3782.445786
803.113717	3785.296559
803.434538	3781.193060
803.755314	3721.861199
804.076045	3707.773695
804.396731	3727.376222
804.717372	3749.902618
805.037967	3731.081470
805.358518	3720.084193
805.679024	3754.295983
805.999485	3768.943056
806.319901	3771.720732
806.640272	3783.166671
806.960598	3794.771408
807.280879	3769.200155
807.601115	3789.563896
807.921306	3804.077378
808.241453	3841.074406
808.561554	3808.735404
808.881611	3746.356166
809.201623	3791.890388
809.521590	3796.525729
809.841513	3769.071605
810.161390	3796.898774
810.481223	3775.143675
810.801011	3721.052094
811.120755	3724.162486
811.440453	3754.482506
811.760107	3751.876229
812.079716	3700.169114
812.399281	3681.859644
812.718801	3707.196483
813.038276	3675.749765
813.357707	3672.036955
813.677093	3687.311652
813.996434	3632.778970
814.315731	3649.376969
814.634983	3653.853513
814.954191	3672.394877
815.273354	3690.399358
815.592473	3681.564736
815.911547	3699.576779
816.230577	3750.641147
816.549562	3800.727531
816.868502	3835.561904
817.187399	3859.429247
817.506250	3855.905480
817.825058	3839.138603
818.143821	3938.106535
818.462539	4032.315618
818.781213	4075.150302
819.099843	4144.904748
819.418429	4421.888425
819.736970	4660.193850
820.055466	4914.515020
820.373919	5288.475374
820.692327	5706.245876
821.010691	6225.401543
821.329011	7754.675892
821.647286	10703.398011
821.965517	15505.467574
822.283704	19473.833635
822.601847	21363.532839
822.919945	19414.012783
823.237999	16723.690127
823.556010	14196.907544
823.873976	12009.989470
824.191897	9904.314632
824.509775	8588.606246
824.827609	7468.366079
825.145398	6955.526978
825.463144	6826.901938
825.780845	6931.026970
826.098502	7186.573141
826.416116	8168.461361
826.733685	9541.253253
827.051210	10612.846285
827.368692	10512.542447
827.686129	9163.524636
828.003522	7668.406626
828.320872	6642.524256
828.638177	5920.212610
828.955439	5343.524774
829.272656	4843.039021
829.589830	4584.299279
829.906960	4404.398142
830.224046	4210.278431
830.541088	4082.986776
830.858086	4034.430382
831.175041	3959.191161
831.491952	3951.647074
831.808819	3963.826502
832.125642	4042.823903
832.442421	4205.559911
832.759157	4506.365561
833.075849	5103.008804
833.392497	6012.390108
833.709101	6800.982845
834.025662	7088.389108
834.342179	6642.839328
834.658653	5965.862778
834.975083	5300.191016
835.291469	4714.703847
835.607811	4318.126356
835.924110	4175.459181
836.240366	3970.629539
836.556578	3771.193931
836.872746	3662.539422
837.188871	3613.483953
837.504952	3544.248747
837.820990	3461.445274
838.136984	3422.336003
838.452935	3447.829118
838.768842	3440.181687
839.084706	3465.163125
839.400526	3640.660814
839.716303	4020.128628
840.032037	4574.196807
840.347727	4793.849962
840.663373	4467.319304
840.978977	4075.084767
841.294537	3768.668313
841.610054	3545.425856
841.925527	3440.854681
842.240957	3364.571941
842.556344	3308.882315
842.871687	3249.114395
843.186987	3200.013556
843.502244	3163.840757
843.817458	3130.276754
844.132629	3101.232147
844.447756	3109.860081
844.762840	3090.789396
845.077881	3058.697411
845.392879	3042.530431
845.707833	3040.264432
846.022745	3041.118908
846.337613	3036.178577
846.652438	3022.985877
846.967221	3022.696011
847.281960	3008.318640
847.596656	3003.655573
847.911309	3007.746469
848.225919	2999.640294
848.540485	2994.594099
848.855009	2995.496465
849.169490	2982.011379
849.483928	2976.254381
849.798323	2977.744042
850.112675	2969.733648
850.426984	2985.242758
850.741251	2980.302428
851.055474	2964.611836
851.369654	2965.821713
851.683792	2971.215748
851.997887	2979.556337
852.311938	2981.988693
852.625947	2966.277938
852.939914	2971.971921
853.253837	2975.021819
853.567718	2958.691001
853.881555	2966.051086
854.195350	2974.011068
854.509103	2968.571663
854.822812	2964.563945
855.136479	2955.036164
855.450103	2960.783080
855.763685	2957.750826
856.077224	2955.734364
856.390720	2967.283648
856.704173	2973.501911
857.017584	2965.325159
857.330953	2966.910602
857.644278	2978.280925
857.957561	2983.148159
858.270802	2988.242245
858.584000	2985.388952
858.897155	2969.771457
859.210268	2969.910089
859.523339	2969.368165
859.836367	2967.623926
860.149352	2964.132927
860.462295	2958.486834
860.775195	2965.113431
861.088054	2962.769294
861.400869	2948.414609
861.713642	2947.981070
862.026373	2963.921198
862.339062	2966.860191
862.651708	2969.655511
862.964312	2971.485449
863.276873	2966.509831
863.589392	2976.899649
863.901869	2993.525374
864.214303	3013.188395
864.526696	3025.745909
864.839045	3019.149559
865.151353	3021.891947
865.463619	3020.926566
865.775842	3025.561907
866.088023	3046.689383
866.400162	3044.413302
866.712258	3015.209897
867.024313	3009.160513
867.336325	3018.816843
867.648296	3041.766696
867.960224	3031.152546
868.272110	3016.036647
868.583954	3021.987729
868.895755	3036.380223
869.207515	3023.396731
869.519233	3034.293185
869.830909	3044.597304
870.142542	3047.863971
870.454134	3047.185936
870.765684	3051.571740
871.077191	3054.150290
871.388657	3064.237639
871.700081	3074.750965
872.011463	3083.978797
872.322803	3085.508788
872.634101	3086.300249
872.945357	3109.247581
873.256571	3130.969913
873.567744	3122.730147
873.878874	3117.139507
874.189963	3141.926861
874.501010	3137.709936
874.812015	3129.570993
875.122979	3125.074284
875.433900	3125.210395
875.744780	3137.906541
876.055618	3141.586583
876.366415	3135.935450
876.677169	3146.310144
876.987882	3143.948364
877.298554	3142.930051
877.609183	3168.196314
877.919771	3192.436702
878.230317	3217.695403
878.540822	3268.921088
878.851285	3308.171512
879.161707	3358.666229
879.472087	3479.888335
879.782425	3735.805031
880.092722	4205.229715
880.402977	4749.938991
880.713191	5424.616775
881.023363	6670.396796
881.333494	7989.540729
881.643583	8499.123245
881.953631	8150.179617
882.263637	7441.451359
882.573602	6809.164638
882.883526	6224.365586
883.193408	5656.898021
883.503248	5211.191965
883.813048	4885.631729
884.122806	4545.989030
884.432522	4220.149010
884.742197	3980.971466
885.051831	3792.112199
885.361424	3668.883714
885.670975	3590.002259
885.980485	3494.729492
886.289954	3415.961463
886.599382	3368.501521
886.908768	3336.676716
887.218113	3289.148718
887.527417	3230.668813
887.836680	3179.785926
888.145901	3176.884742
888.455082	3161.879748
888.764221	3106.543002
889.073319	3080.397058
889.382376	3075.524782
889.691392	3084.180444
890.000366	3083.230186
890.309300	3068.946077
890.618193	3081.228848
890.927044	3094.124120
891.235855	3092.604212
891.544625	3083.280598
891.853353	3099.470263
892.162041	3114.480299
892.470687	3157.463697
892.779293	3205.180739
893.087858	3258.417844
893.396381	3338.279803
893.704864	3473.387768
894.013306	3735.754619
894.321707	4047.373544
894.630068	4233.772728
894.938387	4214.139955
895.246665	4177.889018
895.554903	4049.231210
895.863100	3838.823530
896.171256	3663.053619
896.479371	3516.910569
896.787446	3391.375756
897.095480	3286.035805
897.403473	3227.510530
897.711425	3193.021476
898.019336	3180.766431
898.327207	3147.550268
898.635038	3107.778085
898.942827	3099.460181
899.250576	3084.891246
899.558284	3054.230949
899.865952	3034.020963
900.173579	3012.623785
900.481165	3003.073319
900.788711	2986.676967
901.096216	2963.159984
901.403681	2955.252934
901.711105	2962.928091
902.018489	2959.490024
902.325832	2960.069757
902.633135	2972.604586
902.940397	3009.480626
903.247619	3102.210130
903.554800	3315.148469
903.861941	3693.739123
904.169041	4147.042197
904.476101	4436.991722
904.783121	4351.690358
905.090100	4085.948454
905.397039	3794.801654
905.703938	3543.101884
906.010796	3357.708410
906.317614	3241.164495
906.624391	3140.906027
906.931129	3069.535892
907.237826	3007.355780
907.544483	2958.806948
907.851099	2933.336518
908.157675	2909.073444
908.464211	2888.505537
908.770707	2874.581870
909.077163	2861.406814
909.383578	2846.227900
909.689954	2837.899914
909.996289	2837.680623
910.302584	2836.564008
910.608839	2835.938905
910.915054	2825.276864
911.221229	2820.807882
911.527363	2823.177224
911.833458	2833.017556
912.139513	2840.854030
912.445527	2842.300841
912.751502	2847.258816
913.057436	2860.282637
913.363331	2872.265459
913.669186	2896.989798
913.975000	2935.705860
914.280775	3002.715398
914.586510	3073.871284
914.892205	3157.304901
915.197859	3299.205820
915.503475	3512.872605
915.809050	3739.212851
916.114585	3883.631826
916.420081	3883.586456
916.725536	3816.009789
917.030952	3689.756611
917.336328	3558.560582
917.641665	3425.012855
917.946961	3319.022596
918.252218	3242.346646
918.557435	3162.136847
918.862612	3099.369440
919.167750	3048.327758
919.472848	3011.040863
919.777906	2983.344764
920.082925	2955.300825
920.387904	2923.017276
920.692843	2906.378948
920.997743	2894.806979
921.302603	2879.121429
921.607423	2869.424769
921.912204	2854.129908
922.216946	2842.562981
922.521647	2834.345900
922.826310	2827.169818
923.130932	2821.188489
923.435516	2810.191212
923.740059	2802.344656
924.044564	2792.025414
924.349028	2787.647172
924.653454	2782.487551
924.957840	2776.780964
925.262186	2769.670417
925.566493	2768.626898
925.870761	2759.673809
926.174989	2756.117275
926.479178	2751.943199
926.783328	2748.938672
927.087438	2746.551685
927.391509	2745.530852
927.695541	2739.569687
927.999533	2737.152454
928.303486	2735.987947
928.607400	2736.313102
928.911275	2737.951477
929.215110	2733.285889
929.518906	2731.382853
929.822663	2732.305385
930.126381	2732.590210
930.430060	2733.895869
930.733699	2733.177504
931.037299	2733.429562
931.340861	2736.171950
931.644383	2735.919892
931.947866	2734.140365
932.251309	2734.016856
932.554714	2732.706156
932.858080	2732.171794
933.161407	2728.622822
933.464694	2728.537122
933.767943	2724.030331
934.071153	2726.785321
934.374323	2725.956051
934.677455	2724.080742
934.980548	2725.429251
935.283602	2723.664847
935.586617	2722.422203
935.889593	2725.046123
936.192530	2724.940259
936.495428	2726.432440
936.798287	2726.145095
937.101108	2730.170456
937.403890	2734.215982
937.706632	2738.629512
938.009336	2747.078486
938.312002	2753.886564
938.614628	2765.622370
938.917216	2769.441044
939.219765	2771.114707
939.522275	2770.988679
939.824747	2768.077412
940.127179	2765.899634
940.429573	2764.266300
940.731929	2757.674991
941.034246	2753.478231
941.336524	2752.389342
941.638763	2749.742736
941.940964	2749.926738
942.243126	2747.040677
942.545250	2744.807446
942.847335	2740.855182
943.149381	2737.021384
943.451389	2734.377299
943.753359	2732.575086
944.055290	2729.573079
944.357182	2729.746999
944.659036	2727.395301
944.960851	2727.163408
945.262628	2723.511092
945.564367	2727.380177
945.866067	2727.322204
946.167729	2728.456464
946.469352	2728.925291
946.770937	2725.300701
947.072484	2723.551421
947.373992	2725.330948
947.675462	2720.619990
947.976893	2717.953220
948.278286	2717.920452
948.579641	2717.008003
948.880958	2714.827704
949.182236	2718.185113
949.483476	2716.660164
949.784678	2716.856769
950.085841	2718.361553
950.386967	2717.920452
950.688054	2719.458004
950.989103	2717.728888
951.290114	2719.820967
951.591087	2720.725854
951.892021	2724.345403
952.192917	2727.904457
952.493776	2730.286402
952.794596	2730.722462
953.095378	2730.276320
953.396122	2729.653738
953.696828	2725.363716
953.997496	2726.538305
954.298126	2722.144939
954.598718	2720.753581
954.899272	2718.986656
955.199788	2717.945658
955.500266	2715.432643
955.800706	2713.781665
956.101108	2709.363093
956.401472	2707.656663
956.701798	2705.183977
957.002087	2703.545602
957.302337	2704.205993
957.602550	2702.832279
957.902724	2697.924715
958.202861	2697.952442
958.502960	2698.814479
958.803022	2694.605116
959.103045	2696.682071
959.403031	2692.656710
959.702979	2694.337934
960.002889	2694.847091
960.302762	2695.378933
960.602596	2692.260979
960.902393	2691.862728
961.202153	2691.540094
961.501875	2691.451874
961.801559	2690.771318
962.101205	2689.972295
962.400814	2690.027748
962.700385	2689.589167
962.999918	2685.808302
963.299414	2687.320648
963.598873	2688.805268
963.898293	2683.595236
964.197677	2689.906760
964.497022	2687.938190
964.796331	2691.812316
965.095601	2687.907943
965.394835	2688.661595
965.694030	2688.301153
965.993189	2689.311904
966.292309	2687.106399
966.591393	2685.704958
966.890439	2687.595391
967.189447	2687.247552
967.488419	2686.481296
967.787353	2689.095134
968.086249	2688.394414
968.385108	2688.419620
968.683930	2690.070598
968.982714	2692.003880
969.281462	2689.387521
969.580172	2688.865762
969.878844	2687.907943
970.177480	2687.996163
970.476078	2685.568847
970.774639	2690.146215
971.073162	2688.170083
971.371649	2688.840556
971.670098	2688.404496
971.968510	2688.606142
972.266885	2685.899043
972.565223	2687.189578
972.863524	2691.474559
973.161788	2688.901050
973.460014	2690.078159
973.758204	2689.178313
974.056356	2689.702593
974.354471	2690.415917
974.652550	2686.559434
974.950591	2690.173941
975.248595	2690.819209
975.546563	2688.089424
975.844493	2687.318128
976.142386	2686.985412
976.440243	2685.198322
976.738062	2687.232428
977.035845	2686.788807
977.333590	2687.953313
977.631299	2685.909125
977.928971	2682.443332
978.226606	2681.205729
978.524204	2684.926100
978.821765	2682.682787
979.119290	2686.259485
979.416777	2687.383663
979.714228	2686.367870
980.011642	2685.710000
980.309020	2688.233097
980.606360	2687.121523
980.903664	2683.517098
981.200931	2686.866944
981.498162	2687.955834
981.795356	2686.970288
982.092513	2690.042871
982.389633	2690.506657
982.686717	2695.668799
982.983764	2700.951928
983.280775	2702.497042
983.577749	2702.123997
983.874686	2705.115921
984.171587	2700.231043
984.468451	2698.610312
984.765279	2696.087215
985.062070	2694.577389
985.358824	2691.409024
985.655543	2691.197296
985.952224	2689.120340
986.248869	2687.519774
986.545478	2688.250741
986.842050	2687.295442
987.138586	2686.609846
987.435086	2684.358970
987.731549	2684.585822
988.027975	2681.215811
988.324366	2683.794361
988.620719	2681.903928
988.917037	2685.054650
989.213318	2682.072807
989.509563	2685.437777
989.805772	2682.808816
990.101944	2682.017354
990.398080	2683.244875
990.694180	2681.609021
990.990244	2682.917200
991.286271	2683.043229
991.582262	2682.012313
991.878217	2683.388548
992.174136	2683.012982
992.470019	2682.183712
992.765865	2678.428053
993.061676	2678.201201
993.357450	2679.670697
993.653188	2678.256654
993.948890	2684.001048
994.244556	2682.350071
994.540186	2683.325534
994.835780	2682.201357
995.131337	2687.121523
995.426859	2684.361491
995.722345	2686.725792
996.017795	2684.968950
996.313208	2687.744105
996.608586	2686.027592
996.903928	2686.808971
997.199234	2688.719568
997.494504	2685.611697
997.789738	2687.600432
998.084936	2687.282840
998.380099	2684.840401
998.675225	2685.130267
998.970316	2685.271419
999.265371	2686.309897
999.560390	2683.902746
999.855373	2683.479289
1000.150320	2684.358970
1000.445232	2685.833508
1000.740108	2681.235976
1001.034948	2682.970132
1001.329752	2682.992818
1001.624521	2683.575071
1001.919254	2683.842252
1002.213951	2682.511387
1002.508613	2682.186233
1002.803239	2682.186233
1003.097829	2680.736901
1003.392384	2683.416275
1003.686903	2680.273115
1003.981386	2680.888136
1004.275834	2681.324196
1004.570246	2680.411747
1004.864623	2681.142714
1005.158964	2677.336643
1005.453270	2679.867302
1005.747540	2680.152127
1006.041775	2679.854699
1006.335974	2681.548527
1006.630138	2679.600121
1006.924266	2680.497447
1007.218359	2679.161541
1007.512416	2678.503670
1007.806438	2677.399657
1008.100425	2677.245902
1008.394376	2677.593742
1008.688292	2679.653053
1008.982172	2679.269926
1009.276017	2680.096675
1009.569827	2680.628517
1009.863602	2680.673887
1010.157341	2677.631551
1010.451045	2681.525842
1010.744714	2679.675738
1011.038347	2682.329906
1011.331945	2679.723629
1011.625508	2680.008455
1011.919036	2681.914011
1012.212528	2683.232272
1012.505986	2680.343691
1012.799408	2680.061387
1013.092795	2678.967456
1013.386147	2680.585667
1013.679464	2678.624658
1013.972745	2677.651715
1014.265992	2679.143897
1014.559204	2679.272446
1014.852380	2680.540296
1015.145521	2679.947961
1015.438628	2679.592559
1015.731699	2677.369411
1016.024736	2681.871161
1016.317737	2678.801098
1016.610703	2679.191788
1016.903635	2678.657425
1017.196531	2681.122550
1017.489393	2679.716068
1017.782219	2680.076510
1018.075011	2676.882939
1018.367768	2676.739266
1018.660490	2677.876047
1018.953177	2677.876047
1019.245829	2677.876047
