Dividing Wavelength (nm)	Counts (n)	Blue Motor Position (mm): 28.600000	Red Motor Position (mm): 0.000000	
326.493990	2056.437888
326.888308	2056.437888
327.282561	2056.437888
327.676750	2029.505524
328.070874	2031.416121
328.464933	2036.464837
328.858929	2044.417257
329.252859	2058.313198
329.646726	2068.549261
330.040528	2089.240677
330.434265	2101.309199
330.827938	2126.159567
331.221547	2143.735550
331.615091	2166.524086
332.008571	2187.268434
332.401986	2208.653008
332.795338	2229.480535
333.188625	2247.212794
333.581847	2267.465630
333.975006	2284.744184
334.368100	2302.930147
334.761129	2318.535039
335.154095	2333.950887
335.546996	2381.526777
335.939833	2490.009887
336.332606	2498.902482
336.725315	2510.628206
337.117960	2522.656399
337.510540	2532.559746
337.903056	2539.559388
338.295508	2546.566592
338.687896	2553.094886
339.080220	2554.498847
339.472480	2563.325908
339.864676	2567.005950
340.256807	2570.854871
340.648875	2571.532906
341.040879	2571.611044
341.432818	2574.489543
341.824694	2576.805953
342.216506	2573.108267
342.608253	2575.533062
342.999937	2574.449214
343.391557	2572.246229
343.783113	2569.662638
344.174605	2568.009140
344.566033	2568.785477
344.957397	2566.431258
345.348697	2565.380178
345.739934	2563.890517
346.131106	2563.459498
346.522215	2560.482697
346.913260	2558.894733
347.304241	2557.389949
347.695159	2554.153528
348.086012	2554.995401
348.476802	2553.331820
348.867528	2549.858465
349.258191	2544.114070
349.648789	2547.428629
350.039324	2541.568288
350.429796	2547.410985
350.820203	2544.683721
351.210548	2545.455017
351.600828	2543.158772
351.991045	2546.070038
352.381198	2541.969059
352.771288	2544.015768
353.161314	2540.053421
353.551276	2542.324461
353.941175	2538.954449
354.331010	2542.536189
354.720782	2547.836963
355.110490	2544.847558
355.500135	2542.516025
355.889717	2542.868905
356.279235	2543.521735
356.668689	2542.659697
357.058080	2544.114070
357.447408	2544.794626
357.836672	2548.013403
358.225873	2545.117260
358.615010	2547.463917
359.004084	2545.218083
359.393095	2546.173382
359.782043	2545.208001
360.170927	2548.507436
360.559748	2548.419216
360.948505	2550.806202
361.337199	2551.453990
361.725830	2548.986346
362.114398	2549.974412
362.502903	2550.566747
362.891344	2552.464742
363.279722	2550.654968
363.668037	2551.706048
364.056289	2554.524053
364.444478	2553.150339
364.832603	2557.578992
365.220665	2555.504558
365.608665	2554.725699
365.996601	2555.650751
366.384474	2555.517160
366.772284	2558.924980
367.160031	2554.491286
367.547715	2556.361554
367.935336	2556.492624
368.322893	2552.777293
368.710388	2551.380894
369.097820	2552.489948
369.485189	2554.319886
369.872495	2559.451781
370.259738	2557.379867
370.646918	2555.164280
371.034035	2558.067984
371.421090	2559.897923
371.808081	2560.286092
372.195010	2561.259035
372.581875	2559.587892
372.968678	2560.674261
373.355418	2559.237532
373.742096	2561.543860
374.128710	2562.612584
374.515262	2566.171639
374.901751	2561.130485
375.288177	2560.951524
375.674540	2560.785166
376.060841	2562.123593
376.447079	2563.111659
376.833254	2563.391443
377.219367	2564.203068
377.605417	2563.698953
377.991404	2560.709549
378.377329	2565.780950
378.763191	2563.053685
379.148991	2565.102914
379.534727	2565.233984
379.920402	2567.714232
380.306013	2567.328584
380.691563	2567.918399
381.077049	2566.872359
381.462474	2566.814386
381.847835	2567.913358
382.233134	2565.730538
382.618371	2567.694067
383.003545	2567.033676
383.388657	2569.652556
383.773706	2566.756413
384.158693	2568.969479
384.543618	2570.882597
384.928480	2569.493759
385.313280	2569.450910
385.698017	2571.580797
386.082692	2571.485015
386.467305	2571.497618
386.851856	2573.655232
387.236344	2574.240006
387.620770	2570.461661
388.005133	2567.547874
388.389435	2569.730694
388.773674	2569.529048
389.157851	2572.745304
389.541965	2574.315623
389.926018	2575.021385
390.310008	2572.601631
390.693936	2573.738411
391.077802	2575.603638
391.461606	2574.862588
391.845348	2576.251426
392.229027	2574.648339
392.612645	2572.324367
392.996200	2574.723957
393.379694	2576.140521
393.763125	2578.285532
394.146494	2574.182033
394.529801	2574.905438
394.913047	2580.213773
395.296230	2578.038515
395.679351	2575.538103
396.062410	2578.451890
396.445408	2580.453228
396.828343	2579.268557
397.211217	2579.765110
397.594028	2582.295770
397.976778	2579.066911
398.359466	2579.384503
398.742092	2578.708989
399.124656	2578.724112
399.507158	2579.132446
399.889598	2584.229052
400.271977	2585.035637
400.654294	2581.214442
401.036549	2585.580081
401.418742	2583.999680
401.800874	2582.779720
402.182944	2581.078331
402.564952	2582.459607
402.946898	2583.792992
403.328783	2582.827611
403.710606	2584.705441
404.092367	2587.606625
404.474067	2584.385328
404.855705	2585.128898
405.237282	2587.019331
405.618797	2586.739547
406.000250	2589.250041
406.381642	2586.721903
406.762972	2584.319793
407.144240	2584.849114
407.525447	2590.447315
407.906593	2583.253589
408.287677	2588.743405
408.668700	2588.758529
409.049661	2589.509661
409.430560	2589.620566
409.811399	2591.700042
410.192176	2594.069384
410.572891	2594.192893
410.953545	2591.579054
411.334138	2590.603591
411.714669	2592.499065
412.095139	2590.953951
412.475547	2594.437389
412.855894	2593.577872
413.236180	2592.665423
413.616405	2593.590475
413.996568	2594.187852
414.376670	2595.879159
414.756711	2594.258428
415.136691	2596.834457
415.516609	2595.795980
415.896466	2597.767071
416.276262	2597.189859
416.655997	2596.957966
417.035670	2595.770774
417.415283	2598.593820
417.794834	2598.109869
418.174324	2594.674323
418.553753	2602.004161
418.933121	2598.503079
419.312428	2601.038780
419.691674	2598.848398
420.070859	2601.129520
420.449983	2601.391660
420.829045	2603.128338
421.208047	2600.574993
421.586988	2601.923502
421.965867	2604.557505
422.344686	2606.140427
422.723444	2605.779985
423.102141	2606.233689
423.480777	2608.071189
423.859352	2608.839965
424.237866	2609.523042
424.616319	2609.162599
424.994712	2611.441201
425.373044	2609.553288
425.751314	2609.838114
426.129524	2607.004985
426.507673	2611.486571
426.885762	2606.783174
427.263789	2613.752570
427.641756	2616.094186
428.019662	2613.475306
428.397508	2617.170472
428.775292	2616.076542
429.153016	2621.551235
429.530679	2620.260699
429.908282	2618.100565
430.285824	2622.234311
430.663305	2622.660288
431.040726	2621.944445
431.418086	2625.677419
431.795385	2628.381998
432.172624	2627.041051
432.549802	2632.215796
432.926920	2634.045734
433.303977	2635.091774
433.680974	2636.629326
434.057910	2642.023360
434.434786	2645.668115
434.811601	2648.902015
435.188355	2653.713796
435.565050	2658.076915
435.941683	2663.549087
436.318257	2669.953873
436.694770	2675.320182
437.071222	2684.563137
437.447614	2687.449198
437.823946	2693.715352
438.200218	2704.137937
438.576429	2710.565409
438.952580	2721.093858
439.328670	2727.191134
439.704700	2741.813001
440.080670	2748.744587
440.456580	2766.464243
440.832429	2782.565688
441.208218	2789.928294
441.583947	2806.057465
441.959616	2825.841474
442.335224	2843.999710
442.710773	2867.539378
443.086261	2891.194992
443.461689	2903.376940
443.837057	2933.147474
444.212365	2965.204172
444.587612	2991.266937
444.962800	3012.994310
445.337927	3045.645864
445.712995	3046.170144
446.088002	3121.769807
446.462949	3165.335459
446.837837	3201.165460
447.212664	3245.096595
447.587431	3375.622150
447.962139	3521.974408
448.336786	3645.525527
448.711374	3649.399654
449.085901	3572.524578
449.460369	3621.310345
449.834776	3672.677182
450.209124	3863.618446
450.583412	3894.210688
450.957640	3983.222341
451.331808	3986.514215
451.705917	3978.239161
452.079965	4027.874361
452.453954	4130.650885
452.827883	4195.054146
453.201752	4256.881378
453.575562	4331.984488
453.949311	4487.070545
454.323001	4587.709619
454.696632	4656.516328
455.070202	4879.342890
455.443713	4990.122246
455.817164	5121.116628
456.190556	5306.646213
456.563888	5354.390982
456.937160	5512.680692
457.310373	5463.534483
457.683526	5571.752932
458.056619	5690.850192
458.429653	5821.350542
458.802628	5985.848433
459.175542	6120.086798
459.548398	6442.869358
459.921194	6774.985615
460.293930	7022.208841
460.666607	7484.328893
461.039224	7922.954648
461.411782	8179.390583
461.784280	8140.167885
462.156719	8244.718895
462.529099	8342.900408
462.901419	8212.677321
463.273680	8179.136004
463.645882	8424.451153
464.018024	8545.544710
464.390106	8891.471207
464.762130	9654.122167
465.134094	10699.604542
465.505999	12075.491703
465.877845	13371.900032
466.249631	14069.094129
466.621358	13917.738526
466.993026	13633.417449
467.364634	13413.494592
467.736184	13169.696830
468.107674	12988.371568
468.479105	13067.943661
468.850477	13055.149212
469.221790	12934.952981
469.593043	12659.204386
469.964238	12563.180488
470.335373	12798.120942
470.706449	13530.431717
471.077467	14463.309839
471.448425	16277.263187
471.819324	17503.218870
472.190164	17273.609436
472.560945	16177.586972
472.931667	15270.317912
473.302330	15208.909096
473.672934	14997.546118
474.043479	15439.100784
474.413965	15418.064049
474.784393	15399.084104
475.154761	15999.989643
475.525070	16227.940537
475.895321	16201.431630
476.265513	16712.665124
476.635645	17303.004404
477.005719	17472.183006
477.375734	17899.965239
477.745691	18521.221916
478.115588	19177.933027
478.485427	20356.658140
478.855207	22066.143657
479.224928	23660.113653
479.594591	24779.131340
479.964194	24426.331229
480.333739	24867.283476
480.703226	25226.470729
481.072653	25781.905060
481.442022	26318.992111
481.811333	26680.097523
482.180584	26335.396026
482.549777	26249.341009
482.918912	26162.771795
483.287988	26205.183022
483.657005	26151.792162
484.025964	25899.318574
484.394864	26165.486456
484.763706	26193.323708
485.132489	25823.650855
485.501213	25968.735263
485.869879	26223.852935
486.238487	26237.073361
486.607036	26552.218573
486.975527	26356.132812
487.343959	26739.131955
487.712333	27090.923835
488.080648	27118.070448
488.448905	27576.034070
488.817104	27575.517351
489.185244	28477.672161
489.553326	29658.133952
489.921350	31555.687274
490.289315	33902.689708
490.657222	34593.413485
491.025070	35017.646746
491.392861	34687.297413
491.760593	33926.584777
492.128267	33002.016998
492.495883	32133.683289
492.863440	31361.297861
493.230939	30550.743337
493.598380	30088.580435
493.965763	30013.280720
494.333088	29614.613671
494.700354	29474.880448
495.067563	29473.393307
495.434713	29420.824155
495.801805	29750.805483
496.168839	29611.402456
496.535815	29514.100625
496.902733	29679.493321
497.269593	29528.480516
497.636395	29720.321626
498.003139	29999.611631
498.369825	29806.306066
498.736453	30228.371631
499.103023	30090.281824
499.469535	30199.705109
499.835989	30366.882374
500.202385	30232.379348
500.568723	30319.835806
500.935003	30657.212506
501.301226	30588.055437
501.667390	31259.204413
502.033497	31466.350466
502.399546	31278.557403
502.765537	30916.549625
503.131470	31369.754397
503.497345	31806.719091
503.863163	30828.911686
504.228923	31582.392786
504.594625	31987.754488
504.960269	31502.135097
505.325856	32182.211956
505.691385	31875.505636
506.056856	32195.767619
506.422270	32676.711340
506.787625	32242.607500
507.152924	32709.405743
507.518164	32914.784871
507.883347	32489.419872
508.248472	32656.536642
508.613540	33332.346165
508.978550	33583.259515
509.343503	33453.422077
509.708398	33805.655058
510.073236	34404.501286
510.438016	34526.726581
510.802738	34221.774582
511.167403	34784.216117
511.532010	35048.889297
511.896561	35523.274476
512.261053	36271.094361
512.625488	36065.233803
512.989866	36009.292119
513.354186	36070.078352
513.718449	36034.618876
514.082655	36919.968999
514.446803	36639.844683
514.810894	37242.844821
515.174927	37269.547813
515.538904	37274.044522
515.902822	37929.946528
516.266684	37621.841287
516.630488	37990.742844
516.994235	38021.572020
517.357925	38611.608831
517.721558	38868.117862
518.085133	39237.107638
518.448651	39432.114593
518.812112	39325.161473
519.175516	39490.070218
519.538863	39943.154002
519.902152	40009.984578
520.265385	40549.614892
520.628560	40557.673176
520.991678	40526.682683
521.354739	40766.500454
521.717743	41137.221867
522.080690	41040.141846
522.443580	41719.686864
522.806413	41762.917279
523.169189	41896.207907
523.531908	42115.742596
523.894569	41996.594924
524.257174	42192.544574
524.619722	42529.994372
524.982213	42671.262626
525.344647	42689.567056
525.707025	42846.462887
526.069345	43281.806851
526.431608	43192.381822
526.793815	43579.204681
527.155964	43140.891477
527.518057	43400.808328
527.880093	43263.250363
528.242072	43875.344743
528.603995	43621.212616
528.965860	43554.001432
529.327669	43777.193477
529.689421	43834.861757
530.051117	43780.855876
530.412755	44063.722580
530.774337	44136.554650
531.135862	44075.420577
531.497331	44222.909615
531.858743	44223.048247
532.220098	44633.098221
532.581396	44363.358682
532.942638	44138.155216
533.303824	44389.219801
533.664953	44441.103357
534.026025	44115.086896
534.387040	44704.715373
534.747999	44767.230722
535.108902	45074.075675
535.469748	44415.332978
535.830537	44673.072051
536.191270	44927.017655
536.551947	44657.172252
536.912567	44951.673939
537.273131	45098.868069
537.633638	44714.454883
537.994089	44938.380416
538.354483	44664.290361
538.714821	45314.110215
539.075103	45605.534278
539.435328	45449.810515
539.795497	45213.950050
540.155609	45336.684502
540.515665	45933.388239
540.875665	45233.804634
541.235609	45518.521442
541.595496	45650.728222
541.955328	46206.762450
542.315102	45640.257745
542.674821	45535.971396
543.034483	45430.177741
543.394090	45443.309947
543.753640	45430.081959
544.113134	46484.209914
544.472571	45603.815244
544.831953	46728.090854
545.191278	45976.278376
545.550548	45680.002202
545.909761	46318.575242
546.268918	46467.742985
546.628019	46869.669140
546.987064	46319.394430
547.346053	45592.142452
547.704986	46504.077101
548.063863	46158.972312
548.422684	46391.646767
548.781449	45954.873636
549.140158	46477.167422
549.498811	46260.120543
549.857408	45648.232851
550.215949	46498.471338
550.574434	46335.815988
550.932864	46260.612055
551.291237	46971.964233
551.649555	46733.426916
552.007817	46902.237514
552.366022	46580.054851
552.724173	46650.225192
553.082267	47062.674756
553.440305	47392.174653
553.798288	46649.065727
554.156215	47034.023358
554.514086	47250.649300
554.871902	46860.602624
555.229661	47037.547124
555.587365	46721.865029
555.945014	46854.291100
556.302606	46872.570324
556.660143	46972.110427
557.017625	47185.116821
557.375050	46886.383085
557.732421	47297.610169
558.089735	47354.991103
558.446994	47226.948316
558.804197	47699.004482
559.161345	47561.443997
559.518437	46922.313909
559.875474	47171.782969
560.232455	47389.906134
560.589381	47439.437991
560.946251	47253.172398
561.303065	47909.412162
561.659825	47599.628217
562.016528	47403.040861
562.373177	46985.640884
562.729770	47608.616594
563.086307	47135.388359
563.442789	47661.500818
563.799216	47545.224084
564.155587	47408.906243
564.511904	47388.063592
564.868164	47435.508412
565.224370	47737.579392
565.580520	47475.341089
565.936615	47665.311931
566.292654	47323.680496
566.648638	47691.016774
567.004567	47625.017988
567.360441	47732.893639
567.716260	47438.707024
568.072023	47811.298705
568.427732	47750.018439
568.783385	47281.470915
569.138982	47679.903550
569.494525	47810.880289
569.850013	47411.331038
570.205445	47535.051036
570.560823	47309.156932
570.916145	47195.093264
571.271412	47438.954041
571.626625	47088.369517
571.981782	47158.905342
572.336884	46745.903772
572.691931	47089.140813
573.046923	46736.033192
573.401860	46578.119048
573.756743	46588.526510
574.111570	46738.589057
574.466342	46646.351065
574.821059	46790.608724
575.175722	46305.107800
575.530330	46392.735657
575.884882	46032.469597
576.239380	45943.931812
576.593823	46030.632096
576.948211	45951.712833
577.302544	45501.333628
577.656823	45498.419841
578.011047	45771.695750
578.365216	45585.513335
578.719330	45308.753989
579.073389	45285.020237
579.427394	45343.419483
579.781344	45268.560869
580.135239	45039.258946
580.489080	45097.123830
580.842866	44580.582001
581.196597	45083.306027
581.550273	45069.238688
581.903895	45007.971024
582.257463	45445.790195
582.610975	44879.454369
582.964434	45214.852416
583.317837	44738.138223
583.671186	44674.080282
584.024481	44939.091219
584.377721	44496.084701
584.730906	44699.117172
585.084037	44823.666440
585.437113	44527.728024
585.790135	44650.706972
586.143103	44201.051172
586.496016	44378.091454
586.848874	44483.764121
587.201679	44503.550650
587.554428	44010.941699
587.907124	44271.040032
588.259765	44055.550869
588.612352	44195.979771
588.964884	43671.483002
589.317362	43955.365498
589.669786	43973.974918
590.022155	43824.923122
590.374470	44271.145896
590.726731	43853.831619
591.078937	43194.521792
591.431090	43530.703739
591.783188	43064.273500
592.135232	42844.582536
592.487222	43117.762663
592.839157	43257.770629
593.191038	42894.729414
593.542866	42706.553223
593.894639	42111.039199
594.246358	42397.575863
594.598022	42410.335023
594.949633	41988.355158
595.301190	41978.910557
595.652692	41915.855804
596.004141	42374.545352
596.355535	41297.996866
596.706876	41329.988028
597.058162	41044.663761
597.409395	41523.296113
597.760573	41752.159457
598.111698	41351.458302
598.462768	41271.903853
598.813785	41290.730042
599.164748	40890.787581
599.515657	41168.494664
599.866511	40659.534731
600.217312	41360.948274
600.568060	40306.311163
600.918753	41124.334157
601.269392	41048.565614
601.619978	40770.679570
601.970510	40978.249080
602.320988	41114.153547
602.671412	41366.480941
603.021783	41244.006108
603.372100	40812.745479
603.722363	40920.071644
604.072572	40956.955246
604.422728	40952.095574
604.772830	40731.948385
605.122878	40905.328790
605.472872	40746.164439
605.822813	41002.436536
606.172701	40757.653229
606.522534	41082.951325
606.872314	41301.699593
607.222041	41114.768567
607.571714	41457.372944
607.921333	40962.553447
608.270899	41170.412823
608.620411	41555.183932
608.969870	41296.151803
609.319276	41296.474437
609.668627	41326.610455
610.017926	41736.219328
610.367171	41872.668239
610.716362	41914.666092
611.065500	41811.266986
611.414585	42024.107022
611.763616	42197.550440
612.112594	42110.605660
612.461518	42232.873805
612.810389	42639.788182
613.159207	42414.851897
613.507971	42382.361661
613.856682	42870.678069
614.205340	42717.122003
614.553945	43399.026280
614.902496	42738.660332
615.250994	43146.424143
615.599439	43219.840987
615.947830	43329.216382
616.296169	43320.679188
616.644454	43363.092936
616.992686	43527.366496
617.340864	43984.528573
617.688990	43519.086400
618.037063	44175.157285
618.385082	44020.086352
618.733048	44343.829252
619.080961	44208.466709
619.428821	44230.917488
619.776628	44242.693623
620.124382	44069.633332
620.472083	44174.948078
620.819731	44261.010656
621.167326	43809.494671
621.514868	43802.106860
621.862357	43277.587405
622.209793	43357.366185
622.557176	42918.926953
622.904506	42689.430944
623.251783	42301.675473
623.599007	42007.476255
623.946179	41903.358784
624.293297	41657.829386
624.640363	41122.262243
624.987376	40955.725205
625.334336	40767.498602
625.681243	40366.139577
626.028097	40264.167117
626.374899	40089.730591
626.721647	40053.850179
627.068343	39856.017658
627.414987	39560.081762
627.761577	39311.840223
628.108115	39627.474427
628.454600	38888.128722
628.801032	39107.733987
629.147412	39008.753451
629.493739	38924.916542
629.840014	38492.388063
630.186236	38907.857278
630.532405	38362.550625
630.878521	38595.923281
631.224585	38383.168944
631.570597	38051.002276
631.916556	38211.068993
632.262462	38082.194416
632.608316	38025.365488
632.954117	37901.106087
633.299866	37835.371962
633.645562	37767.006354
633.991206	37232.152533
634.336797	36821.555594
634.682336	36715.320838
635.027823	36475.384600
635.373257	36343.429878
635.718639	36008.006624
636.063968	35914.140340
636.409245	35270.286691
636.754470	35228.853448
637.099642	35006.742730
637.444762	34432.651089
637.789829	34569.815844
638.134845	34203.467632
638.479808	34114.556802
638.824719	34063.459666
639.169577	33555.790268
639.514383	33650.228724
639.859137	33279.461941
640.203839	33425.983077
640.548489	33143.824655
640.893086	33143.386075
641.237632	32872.799622
641.582125	32973.458861
641.926566	32770.121400
642.270955	32812.860302
642.615292	32739.345156
642.959576	32628.407004
643.303809	32635.078971
643.647990	32730.031624
643.992118	32674.916689
644.336195	32521.640406
644.680219	32622.571868
645.024192	32819.340706
645.368112	33357.907336
645.711981	33363.719786
646.055797	34100.948207
646.399562	33917.359466
646.743274	34790.993948
647.086935	35176.080129
647.430544	35124.418384
647.774101	35161.385165
648.117606	35438.131908
648.461059	35574.348927
648.804460	35168.115106
649.147810	34657.695758
649.491108	34306.944876
649.834354	34148.488808
650.177548	33332.504961
650.520690	32832.422500
650.863781	32823.592919
651.206820	32642.552481
651.549807	32242.902407
651.892742	31677.625224
652.235626	31577.835583
652.578458	31448.492178
652.921238	30768.929517
653.263967	31080.697156
653.606644	30795.239298
653.949269	30686.864573
654.291843	30304.566151
654.634365	30661.941108
654.976836	30216.983664
655.319255	30287.411104
655.661622	30155.307668
656.003938	30034.269564
656.346203	29849.654948
656.688416	30089.785270
657.030577	29860.732884
657.372687	29674.653813
657.714746	29844.626397
658.056753	30033.848627
658.398708	29413.065819
658.740612	29486.661624
659.082465	29695.942606
659.424266	29582.345245
659.766016	29602.058677
660.107715	29453.657190
660.449362	29562.069724
660.790958	29545.391067
661.132503	29470.343409
661.473996	29550.190245
661.815438	29629.865682
662.156829	29736.672608
662.498168	29553.542612
662.839456	29529.869354
663.180693	29653.869136
663.521879	29746.712066
663.863013	29692.449086
664.204097	29693.406905
664.545129	30090.833830
664.886110	30032.122032
665.227040	30125.680806
665.567918	30127.203235
665.908746	30208.895133
666.249522	30292.149789
666.590248	30320.763378
666.930922	30408.827294
667.271545	30419.350703
667.612118	30466.447683
667.952639	30258.719377
668.293109	30313.108386
668.633528	30179.795072
668.973896	30130.989141
669.314213	30112.283940
669.654480	29919.243036
669.994695	29903.988504
670.334859	29826.984879
670.674973	29665.524283
671.015035	29861.806649
671.355047	29784.777819
671.695008	29721.075278
672.034918	29630.372318
672.374777	29724.780526
672.714585	29605.587485
673.054342	29752.307747
673.394049	29589.929661
673.733705	29805.938062
674.073310	29530.257523
674.412864	29579.504555
674.752368	29279.109759
675.091820	29509.916467
675.431223	29103.445712
675.770574	28897.527180
676.109875	28734.660102
676.449125	28531.184009
676.788324	28433.236911
677.127473	27955.617831
677.466571	27859.258696
677.805619	27584.780472
678.144616	27522.000462
678.483562	27473.917937
678.822458	27154.838104
679.161303	27101.296009
679.500098	27017.030602
679.838842	26955.561293
680.177535	27041.797791
680.516179	27285.063711
680.854771	27431.171473
681.193314	28212.716677
681.531805	29233.744415
681.870247	29976.560955
682.208638	30703.129856
682.546978	30956.147888
682.885268	31091.016398
683.223508	30632.906583
683.561697	30356.943739
683.899836	30202.384483
684.237925	29779.250193
684.575963	29657.327367
684.913951	29279.833164
685.251889	29448.555542
685.589776	29489.461985
685.927614	29496.542286
686.265401	29706.957527
686.603137	29805.549893
686.940824	30307.363991
687.278460	30648.229170
687.616046	30832.107777
687.953582	31480.009472
688.291068	31390.627294
688.628504	31726.552142
688.965889	31717.480586
689.303224	31425.070978
689.640510	31138.519190
689.977745	30494.133700
690.314930	29759.627502
690.652065	29294.265988
690.989150	28633.418609
691.326185	27787.311348
691.663170	27156.451273
692.000105	26419.714365
692.336990	25815.315307
692.673825	25392.866615
693.010610	24919.139305
693.347345	24428.498925
693.684030	23797.817811
694.020665	23613.145222
694.357251	22934.999125
694.693786	22939.999949
695.030272	22709.422614
695.366707	22220.960012
695.703093	21950.668466
696.039429	22017.665401
696.375716	21782.198146
696.711952	21789.623765
697.048139	21659.002428
697.384276	21499.951503
697.720363	21619.444494
698.056400	21502.550218
698.392388	21358.758867
698.728326	21337.999395
699.064214	21191.526149
699.400053	21185.436436
699.735842	20797.297836
700.071581	20608.627612
700.407270	20354.591267
700.742910	20181.437715
701.078501	19938.713719
701.414042	19723.068281
701.749533	19431.130021
702.084974	19112.289643
702.420366	19346.794037
702.755709	18941.853272
703.091002	18630.420870
703.426246	18713.362974
703.761440	18641.108116
704.096584	18402.081807
704.431679	18336.350202
704.766725	18286.042007
705.101721	18222.732676
705.436668	18350.107510
705.771565	18073.237259
706.106413	18393.620230
706.441212	18461.416187
706.775961	18571.875430
707.110661	18653.506834
707.445311	19018.771198
707.779913	18907.591070
708.114465	19200.749290
708.448967	19514.064563
708.783421	20141.448762
709.117825	20502.959987
709.452180	20738.215513
709.786485	21192.332734
710.120742	21954.625772
710.454949	22067.882855
710.789107	22570.526222
711.123216	23291.214617
711.457275	23510.560262
711.791286	24053.714342
712.125247	24196.633574
712.459159	23918.918930
712.793023	24664.303937
713.126837	23626.584939
713.460602	23875.063412
713.794318	23522.245657
714.127985	23247.006219
714.461602	22347.611440
714.795171	22320.424498
715.128691	21333.724497
715.462162	20836.681851
715.795584	20406.681510
716.128957	20149.809516
716.462281	19759.644373
716.795556	19482.801848
717.128782	19011.668212
717.461960	18423.743645
717.795088	18378.653044
718.128167	18039.075880
718.461198	17598.574816
718.794180	17464.966595
719.127113	17131.000235
719.459997	16943.950742
719.792833	16579.669403
720.125619	16621.752955
720.458357	16283.930113
720.791046	16154.057387
721.123686	16005.184552
721.456278	15784.966787
721.788821	15788.120029
722.121315	15526.930287
722.453761	15639.305168
722.786158	15512.885632
723.118506	15591.139463
723.450805	15484.146014
723.783056	15659.512633
724.115259	15553.424071
724.447412	15552.569595
724.779518	15770.039931
725.111574	15824.544886
725.443582	16091.441215
725.775542	16045.017229
726.107453	16558.060497
726.439315	16484.000906
726.771129	16911.886483
727.102895	17314.039490
727.434612	17603.437008
727.766281	17756.015091
728.097901	18078.911078
728.429473	18161.250764
728.760996	18174.014965
729.092471	18290.611813
729.423897	18176.903547
729.755276	18049.959731
730.086606	18169.334254
730.417887	18752.406711
730.749120	19307.465476
731.080305	19524.041007
731.411442	19913.951571
731.742530	20019.571306
732.073570	20187.759322
732.404562	20494.979840
732.735506	20343.407467
733.066401	20121.279106
733.397249	19611.164748
733.728048	18996.201952
734.058798	18134.242782
734.389501	17379.692957
734.720156	16866.634565
735.050762	16299.035930
735.381320	15921.398054
735.711831	15655.691438
736.042293	15290.739626
736.372707	15338.388612
736.703073	15131.149298
737.033391	15327.570296
737.363661	15329.793445
737.693883	15454.423371
738.024056	15666.358520
738.354182	15887.072838
738.684260	16242.060809
739.014290	16527.581681
739.344272	16749.052172
739.674207	17103.173065
740.004093	17270.304959
740.333931	17314.767936
740.663722	17388.835089
740.993464	17425.028053
741.323159	17269.823529
741.652806	16964.501005
741.982405	16795.841642
742.311956	16437.246725
742.641460	16323.210783
742.970915	15996.980074
743.300323	15644.585776
743.629683	15435.272027
743.958996	15115.340240
744.288260	14806.040245
744.617477	14510.179967
744.946647	14472.154544
745.275768	14148.600687
745.604842	13950.132981
745.933869	13784.463021
746.262847	13755.390687
746.591778	13674.066793
746.920662	13552.181776
747.249498	13568.714240
747.578286	13729.514444
747.907027	13912.939348
748.235720	14170.507021
748.564365	14244.130552
748.892963	14171.278318
749.221514	14271.632567
749.550017	14136.106187
749.878473	14104.926651
750.206881	13883.216705
750.535242	13812.227176
750.863555	13728.281882
751.191821	13628.651038
751.520039	13646.811795
751.848210	13571.375969
752.176334	13622.967137
752.504411	13546.933934
752.832440	13373.586298
753.160421	13487.775994
753.488356	13381.349675
753.816243	13282.480045
754.144082	13121.931898
754.471875	13072.924321
754.799620	13042.710165
755.127318	13010.756811
755.454969	13000.349349
755.782572	12975.471255
756.110129	12982.649858
756.437638	12892.246846
756.765100	12902.124987
757.092515	12922.771033
757.419882	12968.045635
757.747203	12984.111793
758.074477	13072.553796
758.401703	13055.497052
758.728882	13259.333587
759.056014	13300.156851
759.383099	13468.559116
759.710138	13591.497734
760.037129	13714.111199
760.364073	13773.438018
760.690970	13801.401298
761.017820	13818.848732
761.344623	14040.770406
761.671379	14426.776598
761.998088	15131.797086
762.324751	16912.191473
762.651366	20338.235244
762.977935	24805.733508
763.304456	27753.414629
763.630931	28760.750594
763.957359	27532.682667
764.283740	25257.133547
764.610074	22977.206185
764.936362	20352.375680
765.262602	18484.973499
765.588796	16570.255048
765.914943	15290.222908
766.241044	14202.725035
766.567097	13419.148246
766.893104	12713.641286
767.219064	12246.323804
767.544978	11774.718820
767.870845	11397.464072
768.196665	11175.045844
768.522438	10946.043869
768.848165	10744.901830
769.173846	10536.198061
769.499479	10408.883721
769.825066	10239.218647
770.150607	10015.207414
770.476101	9931.375546
770.801548	9809.351897
771.126949	9654.744749
771.452303	9545.749962
771.777611	9341.011060
772.102872	9332.491510
772.428087	9196.879431
772.753256	9041.997541
773.078378	8952.693500
773.403453	8770.065099
773.728482	8654.564703
774.053465	8584.875792
774.378401	8488.108323
774.703291	8356.332562
775.028135	8238.609017
775.352932	8203.804891
775.677683	8099.057275
776.002388	7997.094898
776.327046	8008.349274
776.651658	7907.644664
776.976224	7810.027761
777.300743	7811.356105
777.625216	7721.192548
777.949643	7674.665218
778.274024	7692.347065
778.598359	7607.259950
778.922647	7629.249463
779.246889	7576.226607
779.571086	7587.629697
779.895236	7596.718897
780.219339	7607.547296
780.543397	7609.914118
780.867409	7691.822785
781.191374	7697.388219
781.515294	7664.509814
781.839167	7755.696725
782.162995	7734.667552
782.486776	7670.097933
782.810511	7626.479349
783.134201	7536.668673
783.457844	7534.327057
783.781441	7476.056360
784.104993	7406.594301
784.428498	7391.763226
784.751958	7374.598097
785.075372	7348.336206
785.398739	7295.091539
785.722061	7335.566964
786.045337	7341.255906
786.368568	7496.611664
786.691752	7527.067795
787.014891	7874.332719
787.337983	8225.242397
787.661030	8823.811361
787.984031	9449.746228
788.306987	9861.986584
788.629897	10054.475482
788.952760	9999.675619
789.275579	9776.410477
789.598351	9374.920382
789.921078	9018.309159
790.243759	8609.229606
790.566395	8314.775810
790.888984	8069.208603
791.211529	7854.296653
791.534027	7636.596945
791.856480	7439.084537
792.178888	7366.998558
792.501249	7273.732171
792.823566	7115.762574
793.145836	7111.931297
793.468062	7089.793070
793.790241	7039.162241
794.112375	7113.446163
794.434464	7265.671366
794.756507	7309.095865
795.078505	7466.500853
795.400457	7783.685211
795.722364	8137.014643
796.044226	8423.510978
796.366042	8696.865025
796.687812	8648.439701
797.009538	8715.126605
797.331218	8610.706664
797.652852	8527.081484
797.974442	8375.078093
798.295986	8282.580481
798.617484	8092.748271
798.938938	7945.533976
799.260346	7843.385076
799.581709	7643.420147
799.903026	7565.131028
800.224299	7460.307795
800.545526	7292.107176
800.866708	7195.763165
801.187845	7129.398895
801.508936	7023.378388
801.829983	6988.420507
802.150984	6835.449214
802.471940	6791.119828
802.792851	6776.283712
803.113717	6746.997129
803.434538	6712.286264
803.755314	6654.570093
804.076045	6657.221740
804.396731	6606.497650
804.717372	6640.936293
805.037967	6641.687425
805.358518	6688.328180
805.679024	6772.817919
805.999485	6781.241687
806.319901	6819.763664
806.640272	6846.441450
806.960598	6926.583193
807.280879	6931.324398
807.601115	7008.519587
807.921306	6955.837009
808.241453	6960.570652
808.561554	6986.746844
808.881611	6946.624300
809.201623	6955.804242
809.521590	6898.811477
809.841513	6880.917901
810.161390	6917.526760
810.481223	6783.936183
810.801011	6766.680314
811.120755	6744.854638
811.440453	6661.799108
811.760107	6632.935982
812.079716	6602.638647
812.399281	6536.735643
812.718801	6525.193921
813.038276	6483.120451
813.357707	6420.400936
813.677093	6460.392409
813.996434	6365.994283
814.315731	6411.359626
814.634983	6402.451907
814.954191	6413.305512
815.273354	6520.588827
815.592473	6582.184165
815.911547	6709.667384
816.230577	6795.160313
816.549562	6935.737929
816.868502	7038.166613
817.187399	7133.625902
817.506250	7290.993081
817.825058	7319.125240
818.143821	7586.651713
818.462539	7863.297633
818.781213	8230.684323
819.099843	8783.288046
819.418429	9780.093040
819.736970	10753.549930
820.055466	11934.581371
820.373919	13459.749699
820.692327	15811.223637
821.010691	19954.041347
821.329011	28963.402458
821.647286	41978.577841
821.965517	55448.861031
822.283704	60807.695789
822.601847	62766.645324
822.919945	60013.900581
823.237999	55750.921928
823.556010	49522.427637
823.873976	42784.618011
824.191897	36261.208659
824.509775	31442.412547
824.827609	26944.352287
825.145398	24364.655232
825.463144	23017.598431
825.780845	23337.681453
826.098502	25136.697861
826.416116	28944.014180
826.733685	32612.292955
827.051210	33802.481652
827.368692	32001.594976
827.686129	28008.040790
828.003522	23883.950966
828.320872	20160.030455
828.638177	17320.860171
828.955439	15178.969683
829.272656	13373.409857
829.589830	11901.576936
829.906960	10639.685388
830.224046	9695.285709
830.541088	8954.241134
830.858086	8492.549580
831.175041	8117.893547
831.491952	8008.142586
831.808819	8062.042603
832.125642	8466.028070
832.442421	9354.922124
832.759157	11161.696869
833.075849	14093.705042
833.392497	17317.412022
833.709101	19503.314303
834.025662	19335.189301
834.342179	17612.299357
834.658653	15405.267080
834.975083	13477.822236
835.291469	11861.759383
835.607811	10550.787160
835.924110	9638.209765
836.240366	8771.615254
836.556578	7973.217472
836.872746	7331.942374
837.188871	6823.027811
837.504952	6419.662407
837.820990	6107.269664
838.136984	5887.225820
838.452935	5796.122087
838.768842	5830.525442
839.084706	6255.580411
839.400526	7468.706357
839.716303	9053.388028
840.032037	10145.972424
840.347727	10063.264734
840.663373	9080.474147
840.978977	8035.705095
841.294537	7229.942188
841.610054	6635.849769
841.925527	6199.958840
842.240957	5839.818809
842.556344	5513.898130
842.871687	5232.407661
843.186987	4952.235454
843.502244	4730.434767
843.817458	4567.522319
844.132629	4427.080814
844.447756	4341.943287
844.762840	4262.098972
845.077881	4181.553936
845.392879	4123.557982
845.707833	4077.013008
846.022745	4034.105227
846.337613	3999.636338
846.652438	3960.060760
846.967221	3945.224644
847.281960	3911.080909
847.596656	3894.266140
847.911309	3876.778378
848.225919	3850.536651
848.540485	3832.731296
848.855009	3820.362825
849.169490	3801.554280
849.483928	3789.594143
849.798323	3780.232720
850.112675	3762.281171
850.426984	3768.038169
850.741251	3755.672218
851.055474	3748.261722
851.369654	3751.374635
851.683792	3750.623503
851.997887	3758.429729
852.311938	3759.841253
852.625947	3764.632869
852.939914	3754.323710
853.253837	3766.240997
853.567718	3760.254627
853.881555	3753.900253
854.195350	3763.531377
854.509103	3757.512239
854.822812	3761.817385
855.136479	3752.549223
855.450103	3760.728496
855.763685	3745.300044
856.077224	3751.498143
856.390720	3769.089249
856.704173	3789.508443
857.017584	3802.706184
857.330953	3809.882266
857.644278	3834.735155
857.957561	3841.071885
858.270802	3840.590455
858.584000	3848.172350
858.897155	3833.802541
859.210268	3820.098164
859.523339	3798.539670
859.836367	3795.416675
860.149352	3790.551962
860.462295	3780.565436
860.775195	3772.799538
861.088054	3766.515740
861.400869	3763.428033
861.713642	3763.259155
862.026373	3774.274076
862.339062	3779.327833
862.651708	3801.687871
862.964312	3835.125844
863.276873	3847.925334
863.589392	3906.730393
863.901869	3951.095068
864.214303	3997.337572
864.526696	4030.495761
864.839045	4071.818099
865.151353	4103.274899
865.463619	4110.408132
865.775842	4118.627733
866.088023	4137.108603
866.400162	4123.071511
866.712258	4129.458653
867.024313	4134.109117
867.336325	4128.692397
867.648296	4133.950321
867.960224	4137.249756
868.272110	4145.302999
868.583954	4150.424811
868.895755	4166.584230
869.207515	4160.257582
869.519233	4199.835681
869.830909	4216.320254
870.142542	4242.819079
870.454134	4255.313579
870.765684	4284.857261
871.077191	4320.709947
871.388657	4347.254143
871.700081	4380.684554
872.011463	4424.477058
872.322803	4457.453766
872.634101	4489.936441
872.945357	4534.853121
873.256571	4586.371193
873.567744	4615.204072
873.878874	4634.332731
874.189963	4672.040562
874.501010	4682.067417
874.812015	4680.292930
875.122979	4718.756934
875.433900	4715.767530
875.744780	4729.106423
876.055618	4758.337554
876.366415	4758.806381
876.677169	4776.997385
876.987882	4824.290969
877.298554	4879.489083
877.609183	4958.259633
877.919771	5064.393565
878.230317	5211.998550
878.540822	5427.669194
878.851285	5750.832361
879.161707	6206.966043
879.472087	6968.533155
879.782425	8200.873460
880.092722	10379.871880
880.402977	13694.117983
880.713191	17453.923947
881.023363	21185.484327
881.333494	23392.604824
881.643583	24604.979639
881.953631	24590.859367
882.263637	23739.620211
882.573602	22245.049165
882.883526	20682.253664
883.193408	18994.354369
883.503248	17288.611910
883.813048	15738.885600
884.122806	14322.712059
884.432522	12843.440915
884.742197	11591.233423
885.051831	10506.470377
885.361424	9506.796966
885.670975	8691.554169
885.980485	8010.554778
886.289954	7438.474558
886.599382	6968.699513
886.908768	6595.296207
887.218113	6232.776751
887.527417	5948.533812
887.836680	5680.659500
888.145901	5465.949196
888.455082	5303.074556
888.764221	5151.192152
889.073319	5017.271380
889.382376	4946.939722
889.691392	4887.229775
890.000366	4865.532649
890.309300	4849.499259
890.618193	4850.026060
890.927044	4836.719934
891.235855	4858.994272
891.544625	4884.804980
891.853353	4952.195125
892.162041	5070.407662
892.470687	5257.709212
892.779293	5503.891440
893.087858	5873.677719
893.396381	6452.893693
893.704864	7258.691888
894.013306	8413.348012
894.321707	9594.003887
894.630068	10423.442573
894.938387	10627.339602
895.246665	10385.981759
895.554903	9775.855950
895.863100	9067.220954
896.171256	8512.812498
896.479371	8000.817790
896.787446	7501.796491
897.095480	7076.257572
897.403473	6755.166318
897.711425	6440.157217
898.019336	6170.894067
898.327207	5901.290639
898.635038	5673.453170
898.942827	5421.702988
899.250576	5228.281477
899.558284	5039.739803
899.865952	4916.801184
900.173579	4765.803502
900.481165	4661.645702
900.788711	4565.452925
901.096216	4494.498685
901.403681	4433.629273
901.711105	4406.202875
902.018489	4393.594949
902.325832	4462.212615
902.633135	4589.927727
902.940397	4933.890695
903.247619	5728.472323
903.554800	7177.579723
903.861941	9088.487061
904.169041	10620.100505
904.476101	11236.038764
904.783121	10869.017559
905.090100	10124.693714
905.397039	9279.206514
905.703938	8530.937967
906.010796	7840.012544
906.317614	7282.486134
906.624391	6757.455002
906.931129	6328.999775
907.237826	5929.755514
907.544483	5560.927055
907.851099	5182.255742
908.157675	4828.623841
908.464211	4506.257176
908.770707	4277.590438
909.077163	4079.493256
909.383578	3934.181997
909.689954	3819.480623
909.996289	3747.273656
910.302584	3682.666228
910.608839	3653.853513
910.915054	3626.308649
911.221229	3611.984210
911.527363	3620.239100
911.833458	3635.077736
912.139513	3660.364164
912.445527	3692.496478
912.751502	3773.575876
913.057436	3873.778891
913.363331	4011.820807
913.669186	4210.454871
913.975000	4470.507834
914.280775	4889.576432
914.586510	5471.791893
914.892205	6267.805209
915.197859	7310.172151
915.503475	8531.079119
915.809050	9592.559596
916.114585	10246.397250
916.420081	10502.810499
916.725536	10473.796138
917.030952	10023.898363
917.336328	9609.860836
917.641665	9193.050674
917.946961	8710.060245
918.252218	8288.266903
918.557435	7782.944162
918.862612	7346.644899
919.167750	6971.998948
919.472848	6547.347272
919.777906	6175.058060
920.082925	5819.349204
920.387904	5454.178101
920.692843	5185.358573
920.997743	4942.921922
921.302603	4706.375860
921.607423	4544.050707
921.912204	4382.128845
922.216946	4267.167852
922.521647	4146.780057
922.826310	4038.039848
923.130932	3945.590128
923.435516	3846.362576
923.740059	3779.118625
924.044564	3701.305895
924.349028	3644.189622
924.653454	3577.452306
924.957840	3513.336391
925.262186	3466.196562
925.566493	3404.235740
925.870761	3346.688448
926.174989	3312.048159
926.479178	3275.446862
926.783328	3230.099162
927.087438	3205.815924
927.391509	3169.771674
927.695541	3139.653301
927.999533	3114.467696
928.303486	3093.708224
928.607400	3083.986359
928.911275	3067.337949
929.215110	3051.034857
929.518906	3040.889535
929.822663	3040.458516
930.126381	3038.222765
930.430060	3047.929506
930.733699	3046.888508
931.037299	3058.909139
931.340861	3053.739436
931.644383	3064.396435
931.947866	3063.201682
932.251309	3058.193296
932.554714	3057.709345
932.858080	3050.694579
933.161407	3042.933723
933.464694	3032.977444
933.767943	3030.494676
934.071153	3022.466638
934.374323	3015.570340
934.677455	3009.057169
934.980548	3000.351096
935.283602	2998.163236
935.586617	2993.956393
935.889593	3003.544667
936.192530	3009.039525
936.495428	3021.385311
936.798287	3045.313148
937.101108	3075.802046
937.403890	3129.722227
937.706632	3194.087680
938.009336	3269.558794
938.312002	3346.317923
938.614628	3409.012233
938.917216	3460.351344
939.219765	3495.730161
939.522275	3523.816950
939.824747	3527.940614
940.127179	3526.861807
940.429573	3520.464583
940.731929	3514.006865
941.034246	3500.279803
941.336524	3488.254130
941.638763	3471.182263
941.940964	3459.854790
942.243126	3412.762851
942.545250	3393.732496
942.847335	3354.754294
943.149381	3318.732729
943.451389	3287.711989
943.753359	3251.410640
944.055290	3226.482134
944.357182	3201.964483
944.659036	3190.137936
944.960851	3178.218127
945.262628	3162.719100
945.564367	3165.098525
945.866067	3160.886641
946.167729	3157.912360
946.469352	3152.215856
946.770937	3153.511432
947.072484	3136.389153
947.373992	3136.656335
947.675462	3132.099132
947.976893	3114.548354
948.278286	3107.684823
948.579641	3100.193669
948.880958	3093.302412
949.182236	3100.670058
949.483476	3091.601022
949.784678	3086.630444
950.085841	3094.270313
950.386967	3101.383381
950.688054	3120.033130
950.989103	3141.069865
951.290114	3160.155673
951.591087	3190.142977
951.892021	3217.466031
952.192917	3245.363776
952.493776	3269.470574
952.794596	3278.900052
953.095378	3283.099333
953.396122	3275.625823
953.696828	3270.511572
953.997496	3258.730396
954.298126	3234.346334
954.598718	3212.901266
954.899272	3185.167358
955.199788	3160.425375
955.500266	3130.186014
955.800706	3092.891557
956.101108	3057.341341
956.401472	3023.046371
956.701798	2990.611587
957.002087	2948.023919
957.302337	2924.106165
957.602550	2894.159191
957.902724	2861.492514
958.202861	2841.040552
958.502960	2821.768221
958.803022	2800.232412
959.103045	2780.307252
959.403031	2763.316042
959.702979	2750.985380
960.002889	2735.168760
960.302762	2724.410938
960.602596	2709.559698
960.902393	2702.862526
961.202153	2695.449509
961.501875	2688.933817
961.801559	2681.402334
962.101205	2672.129131
962.400814	2666.853564
962.700385	2662.578665
962.999918	2656.022645
963.299414	2647.679535
963.598873	2648.576860
963.898293	2643.906231
964.197677	2646.147024
964.497022	2640.001858
964.796331	2639.359111
965.095601	2637.083030
965.394835	2633.120683
965.694030	2632.820734
965.993189	2628.719755
966.292309	2630.796711
966.591393	2630.126237
966.890439	2628.596247
967.189447	2627.325876
967.488419	2628.737399
967.787353	2629.596916
968.086249	2628.545836
968.385108	2632.692185
968.683930	2636.014305
968.982714	2637.067906
969.281462	2642.290542
969.580172	2644.755666
969.878844	2654.280926
970.177480	2662.119920
970.476078	2670.347083
970.774639	2677.180367
971.073162	2684.217818
971.371649	2689.178313
971.670098	2695.459591
971.968510	2702.381095
972.266885	2703.288503
972.565223	2711.051880
972.863524	2711.137580
973.161788	2716.030019
973.460014	2717.980946
973.758204	2721.373642
974.056356	2723.727861
974.354471	2724.448746
974.652550	2725.121740
974.950591	2724.136195
975.248595	2723.311966
975.546563	2719.810885
975.844493	2716.385421
976.142386	2711.505584
976.440243	2705.574666
976.738062	2698.980837
977.035845	2692.260979
977.333590	2689.145546
977.631299	2682.118177
977.928971	2676.860254
978.226606	2669.033863
978.524204	2667.077895
978.821765	2663.609581
979.119290	2666.639315
979.416777	2667.445899
979.714228	2668.764161
980.011642	2669.928667
980.309020	2680.595749
980.606360	2693.377595
980.903664	2715.518342
981.200931	2754.710793
981.498162	2800.663431
981.795356	2875.496839
982.092513	2965.889769
982.389633	3068.547826
982.686717	3164.917043
982.983764	3238.220461
983.280775	3286.502112
983.577749	3297.486786
983.874686	3280.641771
984.171587	3245.898138
984.468451	3208.084443
984.765279	3163.301353
985.062070	3118.036833
985.358824	3075.464289
985.655543	3016.495392
985.952224	2966.492187
986.248869	2902.013308
986.545478	2839.422342
986.842050	2786.616256
987.138586	2742.395254
987.435086	2705.902341
987.731549	2673.041580
988.027975	2648.576860
988.324366	2632.432565
988.620719	2618.783641
988.917037	2606.848709
989.213318	2600.970724
989.509563	2589.461770
989.805772	2589.459249
990.101944	2582.504977
990.398080	2579.235789
990.694180	2577.458782
990.990244	2581.542117
991.286271	2576.894173
991.582262	2581.844586
991.878217	2582.358784
992.174136	2583.462797
992.470019	2589.507140
992.765865	2593.492172
993.061676	2593.615681
993.357450	2603.425766
993.653188	2610.495984
993.948890	2627.474590
994.244556	2648.397899
994.540186	2670.079902
994.835780	2703.792618
995.131337	2741.238309
995.426859	2780.143414
995.722345	2828.515806
996.017795	2878.163609
996.313208	2918.487799
996.608586	2944.250616
996.903928	2959.689149
997.199234	2957.919704
997.494504	2953.944755
997.789738	2937.472784
998.084936	2915.178282
998.380099	2884.396996
998.675225	2855.218798
998.970316	2824.699652
999.265371	2788.536935
999.560390	2751.320617
999.855373	2719.546224
1000.150320	2693.518747
1000.445232	2667.876918
1000.740108	2646.141983
1001.034948	2627.925774
1001.329752	2611.680655
1001.624521	2600.184304
1001.919254	2590.044023
1002.213951	2586.464804
1002.508613	2573.723287
1002.803239	2570.378482
1003.097829	2563.124262
1003.392384	2555.774259
1003.686903	2551.902653
1003.981386	2550.808723
1004.275834	2544.754297
1004.570246	2543.864533
1004.864623	2542.142979
1005.158964	2537.875643
1005.453270	2536.627957
1005.747540	2536.706095
1006.041775	2532.211906
1006.335974	2534.666948
1006.630138	2529.134282
1006.924266	2531.417924
1007.218359	2526.596061
1007.512416	2525.671009
1007.806438	2522.101872
1008.100425	2525.247552
1008.394376	2523.483148
1008.688292	2526.641431
1008.982172	2523.863755
1009.276017	2526.636390
1009.569827	2523.435257
1009.863602	2525.882737
1010.157341	2522.910977
1010.451045	2523.258817
1010.744714	2522.885772
1011.038347	2520.776049
1011.331945	2521.877541
1011.625508	2518.431912
1011.919036	2516.980060
1012.212528	2518.310924
1012.505986	2516.264216
1012.799408	2515.777745
1013.092795	2513.998217
1013.386147	2516.964936
1013.679464	2516.024761
1013.972745	2513.060563
1014.265992	2513.685666
1014.559204	2514.106602
1014.852380	2514.240193
1015.145521	2515.165244
1015.438628	2511.354132
1015.731699	2516.027282
1016.024736	2516.453259
1016.317737	2517.821933
1016.610703	2519.195647
1016.903635	2518.631038
1017.196531	2520.382839
1017.489393	2522.600946
1017.782219	2523.904085
1018.075011	2525.802079
1018.367768	2525.557583
1018.660490	2527.077491
1018.953177	2527.077491
1019.245829	2527.077491
