Dividing Wavelength (nm)	Counts (n)	Blue Motor Position (mm): 37.400000	Red Motor Position (mm): 0.000000	
326.493990	2238.123594
326.888308	2238.123594
327.282561	2238.123594
327.676750	2200.221678
328.070874	2195.525844
328.464933	2195.561132
328.858929	2201.227389
329.252859	2202.893490
329.646726	2212.476723
330.040528	2224.968703
330.434265	2238.315158
330.827938	2257.504310
331.221547	2272.302617
331.615091	2290.710390
332.008571	2309.559264
332.401986	2330.739672
332.795338	2348.844976
333.188625	2366.922554
333.581847	2384.982488
333.975006	2406.724984
334.368100	2426.042686
334.761129	2439.994079
335.154095	2458.059054
335.546996	2484.232724
335.939833	2524.695546
336.332606	2540.718853
336.725315	2554.266954
337.117960	2566.148954
337.510540	2578.028433
337.903056	2590.298601
338.295508	2598.399736
338.687896	2604.726384
339.080220	2613.734926
339.472480	2621.712552
339.864676	2626.216823
340.256807	2631.353758
340.648875	2634.270066
341.040879	2639.769965
341.432818	2641.211735
341.824694	2641.534368
342.216506	2643.918834
342.608253	2642.827424
342.999937	2647.273722
343.391557	2643.886067
343.783113	2645.466468
344.174605	2640.374903
344.566033	2646.706592
344.957397	2641.559574
345.348697	2638.239974
345.739934	2636.760396
346.131106	2637.410705
346.522215	2635.724439
346.913260	2635.099336
347.304241	2631.678913
347.695159	2630.912657
348.086012	2629.049951
348.476802	2625.417800
348.867528	2624.102058
349.258191	2618.521501
349.648789	2621.044599
350.039324	2615.912704
350.429796	2617.528394
350.820203	2618.612242
351.210548	2617.016717
351.600828	2617.883795
351.991045	2615.574947
352.381198	2613.240892
352.771288	2614.556634
353.161314	2613.356839
353.551276	2611.942795
353.941175	2609.732249
354.331010	2611.307610
354.720782	2611.927672
355.110490	2612.396499
355.500135	2610.448093
355.889717	2612.618310
356.279235	2612.061262
356.668689	2612.073865
357.058080	2612.704010
357.447408	2610.974894
357.836672	2611.486571
358.225873	2612.036057
358.615010	2611.234513
359.004084	2614.226438
359.393095	2612.872888
359.782043	2613.389607
360.170927	2613.538321
360.559748	2612.721654
360.948505	2615.622838
361.337199	2618.708024
361.725830	2618.592077
362.114398	2615.988321
362.502903	2617.266254
362.891344	2616.986470
363.279722	2617.664505
363.668037	2616.195009
364.056289	2620.197685
364.444478	2619.822119
364.832603	2622.572068
365.220665	2620.011162
365.608665	2622.025103
365.996601	2619.249948
366.384474	2622.088117
366.772284	2624.275978
367.160031	2623.943262
367.547715	2623.242542
367.935336	2623.739095
368.322893	2624.684312
368.710388	2620.348919
369.097820	2621.813375
369.485189	2620.336317
369.872495	2625.707666
370.259738	2626.257152
370.646918	2628.424848
371.034035	2626.471401
371.421090	2626.398304
371.808081	2630.385857
372.195010	2627.855197
372.581875	2630.116155
372.968678	2630.690847
373.355418	2630.191772
373.742096	2629.228912
374.128710	2633.675210
374.515262	2630.726135
374.901751	2629.415435
375.288177	2634.892648
375.674540	2633.750827
376.060841	2635.484984
376.447079	2636.294089
376.833254	2637.249388
377.219367	2636.427680
377.605417	2634.330560
377.991404	2635.190076
378.377329	2638.645787
378.763191	2639.676703
379.148991	2637.327526
379.534727	2636.687299
379.920402	2636.563791
380.306013	2637.365334
380.691563	2642.383803
381.077049	2639.807773
381.462474	2638.728966
381.847835	2638.809625
382.233134	2641.317599
382.618371	2644.175933
383.003545	2646.333547
383.388657	2645.305152
383.773706	2644.405306
384.158693	2645.007723
384.543618	2643.938999
384.928480	2648.097951
385.313280	2646.419247
385.698017	2646.908238
386.082692	2648.463434
386.467305	2648.236582
386.851856	2649.605256
387.236344	2650.575678
387.620770	2649.287663
388.005133	2648.266829
388.389435	2649.138949
388.773674	2648.932262
389.157851	2656.516678
389.541965	2652.340082
389.926018	2651.800678
390.310008	2655.710093
390.693936	2657.315701
391.077802	2656.241935
391.461606	2659.911895
391.845348	2657.313180
392.229027	2658.197902
392.612645	2657.983653
392.996200	2661.557832
393.379694	2661.484735
393.763125	2664.007832
394.146494	2665.106804
394.529801	2666.561177
394.913047	2668.930519
395.296230	2674.629543
395.679351	2680.820080
396.062410	2686.932479
396.445408	2692.296267
396.828343	2703.535520
397.211217	2717.744012
397.594028	2726.465208
397.976778	2744.993969
398.359466	2767.129675
398.742092	2788.544497
399.124656	2814.703044
399.507158	2853.741740
399.889598	2894.849829
400.271977	2946.385544
400.654294	2990.246103
401.036549	3046.749876
401.418742	3085.695310
401.800874	3174.782581
402.182944	3245.696492
402.564952	3335.025738
402.946898	3416.747883
403.328783	3446.926751
403.710606	3522.113040
404.092367	3684.511291
404.474067	3774.004374
404.855705	3819.105057
405.237282	3871.802759
405.618797	4043.736352
406.000250	4122.272488
406.381642	4286.084782
406.762972	4380.548443
407.144240	4487.068024
407.525447	4565.359664
407.906593	4672.343031
408.287677	4843.528012
408.668700	4874.742837
409.049661	5031.943658
409.430560	5131.183813
409.811399	5109.272438
410.192176	5366.106623
410.572891	5445.693839
410.953545	5673.097769
411.334138	5558.991252
411.714669	5759.586325
412.095139	5672.770094
412.475547	5930.274753
412.855894	6044.033431
413.236180	6249.420121
413.616405	6061.964815
413.996568	6295.776051
414.376670	6368.285487
414.756711	6336.695097
415.136691	6464.269056
415.516609	6686.069743
415.896466	6736.745942
416.276262	6949.424661
416.655997	6964.056610
417.035670	7184.438212
417.415283	7522.495469
417.794834	7605.455217
418.174324	7505.521904
418.553753	7461.426931
418.933121	7796.182232
419.312428	7914.614059
419.691674	7723.476190
420.070859	8206.091054
420.449983	7913.068945
420.829045	8282.547714
421.208047	8083.883402
421.586988	8381.949185
421.965867	8414.421778
422.344686	8539.278556
422.723444	8565.631187
423.102141	7962.439486
423.480777	8704.376344
423.859352	8241.479954
424.237866	8862.983647
424.616319	8741.118794
424.994712	9138.722159
425.373044	8724.762770
425.751314	9175.940998
426.129524	9039.345894
426.507673	9183.880816
426.885762	9334.230708
427.263789	9246.076051
427.641756	9163.585130
428.019662	9266.991798
428.397508	9504.871246
428.775292	9207.644815
429.153016	9584.057690
429.530679	9418.922093
429.908282	9462.465059
430.285824	9178.627933
430.663305	9855.972487
431.040726	9308.856061
431.418086	9295.658320
431.795385	9620.598494
432.172624	9705.703253
432.549802	9619.854924
432.926920	9703.200320
433.303977	9591.316952
433.680974	9789.943454
434.057910	9868.267862
434.434786	9937.984499
434.811601	9782.021281
435.188355	10347.973979
435.565050	10079.104039
435.941683	10003.579993
436.318257	10500.592392
436.694770	10620.962542
437.071222	10696.794099
437.447614	10546.756758
437.823946	10433.739130
438.200218	10577.414535
438.576429	10395.474252
438.952580	10628.892277
439.328670	10681.615185
439.704700	10465.803389
440.080670	10461.425147
440.456580	11018.845692
440.832429	10775.572210
441.208218	10370.875941
441.583947	10703.773577
441.959616	10845.608961
442.335224	10655.975877
442.710773	10796.838318
443.086261	10997.440953
443.461689	10284.150451
443.837057	10929.985273
444.212365	11211.410207
444.587612	10845.374547
444.962800	11084.126114
445.337927	10851.300423
445.712995	10436.204254
446.088002	11516.410097
446.462949	11174.624908
446.837837	11153.550364
447.212664	11138.454629
447.587431	11659.326809
447.962139	12371.485572
448.336786	14638.633608
448.711374	15193.284040
449.085901	13043.748643
449.460369	12654.369920
449.834776	12103.286105
450.209124	12972.935555
450.583412	13385.949727
450.957640	14331.471063
451.331808	13469.370741
451.705917	12466.954943
452.079965	11764.016451
452.453954	12679.321111
452.827883	12310.026344
453.201752	12597.644336
453.575562	12112.516457
453.949311	12543.252807
454.323001	12500.765962
454.696632	12727.950601
455.070202	13006.368487
455.443713	13240.565371
455.817164	13714.010376
456.190556	13703.703737
456.563888	14064.426021
456.937160	14229.944746
457.310373	13577.884098
457.683526	13664.602027
458.056619	13203.964074
458.429653	13359.269421
458.802628	12790.770940
459.175542	13167.337570
459.548398	14114.446870
459.921194	14448.493888
460.293930	14511.208363
460.666607	15383.615324
461.039224	16427.897905
461.411782	17127.428577
461.784280	17005.316708
462.156719	17063.668063
462.529099	16740.696460
462.901419	15672.806155
463.273680	15461.138188
463.645882	15332.432489
464.018024	15068.654114
464.390106	15290.074194
464.762130	16010.941550
465.134094	16764.808299
465.505999	18754.914685
465.877845	22027.341895
466.249631	24856.054306
466.621358	24536.036819
466.993026	23105.743006
467.364634	22554.795302
467.736184	21076.940722
468.107674	20280.415730
468.479105	20407.140255
468.850477	19873.929851
469.221790	19461.933991
469.593043	18773.118291
469.964238	18219.050113
470.335373	17876.360037
470.706449	18322.638263
471.077467	17877.683339
471.448425	19714.079904
471.819324	23763.336319
472.190164	25750.470945
472.560945	22188.162265
472.931667	19827.548715
473.302330	19200.562767
473.672934	18741.638806
474.043479	19053.701353
474.413965	18862.306385
474.784393	18485.031473
475.154761	19185.792186
475.525070	19166.812242
475.895321	18838.320575
476.265513	19424.788249
476.635645	20010.167034
477.005719	19782.299318
477.375734	19963.483428
477.745691	20467.929009
478.115588	20990.260603
478.485427	21512.201507
478.855207	22579.345721
479.224928	24351.701987
479.594591	26573.013333
479.964194	26578.740084
480.333739	26803.157129
480.703226	26369.207045
481.072653	26062.455354
481.442022	26643.483622
481.811333	27551.380307
482.180584	27475.775602
482.549777	26513.646185
482.918912	26163.051579
483.287988	26289.629911
483.657005	25954.365453
484.025964	25707.056528
484.394864	25625.294054
484.763706	25296.787263
485.132489	24734.116356
485.501213	24917.397587
485.869879	24827.667569
486.238487	24646.372553
486.607036	24785.483193
486.975527	24499.730429
487.343959	24813.658202
487.712333	24748.650003
488.080648	24419.354272
488.448905	24905.404682
488.817104	24657.621888
489.185244	25339.702606
489.553326	25307.756814
489.921350	26300.276827
490.289315	28592.595346
490.657222	30362.030263
491.025070	30879.093852
491.392861	30641.219446
491.760593	29791.268304
492.128267	28891.434946
492.495883	27846.892745
492.863440	26968.791801
493.230939	26101.846930
493.598380	25950.435874
493.965763	25561.039507
494.333088	25090.904020
494.700354	25025.011098
495.067563	24889.315839
495.434713	24645.777697
495.801805	24792.961745
496.168839	24610.514826
496.535815	24435.211221
496.902733	24665.241592
497.269593	24345.430792
497.636395	24521.006619
498.003139	24485.816844
498.369825	24225.494180
498.736453	24435.150728
499.103023	24297.678462
499.469535	24304.002590
499.835989	24527.403843
500.202385	24555.382247
500.568723	24070.304780
500.935003	24290.275528
501.301226	23931.380662
501.667390	24767.597180
502.033497	24986.715973
502.399546	24721.727721
502.765537	24287.674292
503.131470	24671.245606
503.497345	24806.608149
503.863163	24031.094685
504.228923	24618.631083
504.594625	24825.300747
504.960269	24367.372414
505.325856	24846.929818
505.691385	24252.391257
506.056856	24854.703277
506.422270	24837.833056
506.787625	24393.165478
507.152924	24808.463293
507.518164	24841.820608
507.883347	24659.504759
508.248472	24329.248688
508.613540	25117.286898
508.978550	24918.940180
509.343503	24905.903756
509.708398	25142.679190
510.073236	25309.748070
510.438016	25525.292685
510.802738	25182.474059
511.167403	25451.792662
511.532010	25165.634084
511.896561	25924.945280
512.261053	25882.201336
512.625488	25716.322169
512.989866	25616.479596
513.354186	25458.023528
513.718449	25574.441414
514.082655	25954.080628
514.446803	25686.032396
514.810894	26165.015108
515.174927	25645.688042
515.538904	25671.798698
515.902822	26166.799677
516.266684	25915.142756
516.630488	25828.717214
516.994235	25804.338194
517.357925	26113.774300
517.721558	26283.709075
518.085133	26387.347637
518.448651	26278.236903
518.812112	26035.885952
519.175516	26243.314310
519.538863	26402.435810
519.902152	26187.317173
520.265385	26451.584540
520.628560	26247.495947
520.991678	26251.120536
521.354739	26308.148589
521.717743	26393.815437
522.080690	26165.161302
522.443580	26496.044996
522.806413	26487.086866
523.169189	26596.910923
523.531908	26627.977033
523.894569	26258.589006
524.257174	26333.359400
524.619722	26495.545922
524.982213	26203.774019
525.344647	26254.107420
525.707025	26386.399900
526.069345	26366.000871
526.431608	26334.241602
526.793815	26504.496490
527.155964	25976.866644
527.518057	26149.029609
527.880093	26072.106643
528.242072	26307.669680
528.603995	26015.887695
528.965860	25811.143752
529.327669	25849.433836
529.689421	25841.231879
530.051117	25684.217581
530.412755	25858.187800
530.774337	25657.078529
531.135862	25529.340732
531.497331	25724.100669
531.858743	25295.922706
532.220098	25765.453254
532.581396	25452.735358
532.942638	25370.975404
533.303824	25485.265923
533.664953	25484.938248
534.026025	25140.624920
534.387040	25387.553238
534.747999	25441.617093
535.108902	25608.948112
535.469748	25106.428253
535.830537	25265.527068
536.191270	25416.340748
536.551947	25257.672951
536.912567	24892.625357
537.273131	25288.197137
537.633638	24985.758153
537.994089	25195.404618
538.354483	24707.277253
538.714821	25207.614293
539.075103	25255.583392
539.435328	25039.060794
539.795497	24604.871254
540.155609	24980.485107
540.515665	25291.846933
540.875665	24513.830536
541.235609	24836.580329
541.595496	24779.272492
541.955328	25138.464786
542.315102	25054.070829
542.674821	24589.541105
543.034483	24462.567043
543.394090	24640.555062
543.753640	24434.016468
544.113134	25074.769807
544.472571	24659.938298
544.831953	24961.800070
545.191278	24585.019190
545.550548	24500.461396
545.909761	24703.970256
546.268918	24939.477841
546.628019	24912.243007
546.987064	24602.416212
547.346053	24346.469270
547.704986	24461.374810
548.063863	24626.402022
548.422684	24627.753051
548.781449	24150.486852
549.140158	24567.221397
549.498811	24142.000070
549.857408	23894.197111
550.215949	24306.649195
550.574434	23982.560976
550.932864	24195.169119
551.291237	24364.748493
551.649555	24219.654003
552.007817	24281.655155
552.366022	24130.470951
552.724173	24172.856972
553.082267	24119.231698
553.440305	24602.373362
553.798288	23846.921170
554.156215	24356.975034
554.514086	24474.227232
554.871902	23863.183933
555.229661	24127.473985
555.587365	23992.426514
555.945014	23863.763665
556.302606	24090.184570
556.660143	24067.622886
557.017625	24310.785462
557.375050	23836.801054
557.732421	24218.824734
558.089735	24035.863617
558.446994	24097.766465
558.804197	24116.864877
559.161345	24054.616709
559.518437	23822.695906
559.875474	24005.924204
560.232455	24188.479508
560.589381	23995.549509
560.946251	23988.353262
561.303065	24306.165245
561.659825	24399.885336
562.016528	24001.329192
562.373177	23737.024017
562.729770	24097.269912
563.086307	23963.606238
563.442789	24127.408450
563.799216	23961.052893
564.155587	23966.779644
564.511904	23943.542446
564.868164	23901.499223
565.224370	23868.593091
565.580520	23784.347848
565.936615	23906.237907
566.292654	23602.969653
566.648638	23882.978023
567.004567	23705.320200
567.360441	23648.970182
567.716260	23374.474314
568.072023	23707.508061
568.427732	23474.795796
568.783385	23247.525457
569.138982	23494.952850
569.494525	23522.785060
569.850013	23276.509572
570.205445	23371.328634
570.560823	23197.086193
570.916145	22948.174180
571.271412	23133.378611
571.626625	22873.802038
571.981782	22993.920131
572.336884	22801.088435
572.691931	22942.051699
573.046923	22662.154235
573.401860	22545.315412
573.756743	22559.602042
574.111570	22471.346562
574.466342	22390.572153
574.821059	22477.695895
575.175722	22189.858613
575.530330	22154.643633
575.884882	22184.494825
576.239380	22090.878078
576.593823	21983.995534
576.948211	21956.367490
577.302544	21811.557826
577.656823	21678.022701
578.011047	21781.015995
578.365216	21642.832927
578.719330	21525.318590
579.073389	21417.127866
579.427394	21572.256773
579.781344	21327.843991
580.135239	21211.509283
580.489080	21165.826347
580.842866	20934.845719
581.196597	21144.968573
581.550273	21109.168819
581.903895	21000.816779
582.257463	21312.435704
582.610975	20839.789722
582.964434	21172.629384
583.317837	20848.687359
583.671186	20938.606420
584.024481	20919.722257
584.377721	20674.891059
584.730906	20767.381109
585.084037	20750.533573
585.437113	20673.872746
585.790135	20891.146477
586.143103	20342.066521
586.496016	20365.245746
586.848874	20599.906416
587.201679	20525.259531
587.554428	20213.194464
587.907124	20541.870133
588.259765	20308.497477
588.612352	20387.227697
588.964884	19956.327511
589.317362	20116.598394
589.669786	20184.303611
590.022155	20199.217865
590.374470	20416.622665
590.726731	20191.630928
591.078937	19961.726586
591.431090	20067.794984
591.783188	19816.732919
592.135232	19792.948756
592.487222	19882.434277
592.839157	19896.423479
593.191038	19777.762280
593.542866	19671.822432
593.894639	19381.005828
594.246358	19601.768037
594.598022	19495.440020
594.949633	19247.208564
595.301190	19230.716429
595.652692	19399.118694
596.004141	19629.978334
596.355535	18948.898285
596.706876	18971.583477
597.058162	18864.090954
597.409395	19093.932281
597.760573	19163.066665
598.111698	18937.815308
598.462768	18890.975427
598.813785	18838.481892
599.164748	18650.066247
599.515657	18694.995530
599.866511	18493.503132
600.217312	18846.088993
600.568060	18366.632413
600.918753	18670.520728
601.269392	18570.584894
601.619978	18372.666674
601.970510	18555.839519
602.320988	18510.494341
602.671412	18710.590340
603.021783	18641.634917
603.372100	18352.078602
603.722363	18500.364142
604.072572	18433.475592
604.422728	18596.075489
604.772830	18335.694852
605.122878	18304.081776
605.472872	18287.940001
605.822813	18270.898381
606.172701	18248.795442
606.522534	18434.854348
606.872314	18461.764027
607.222041	18297.911403
607.571714	18513.740844
607.921333	18328.347370
608.270899	18404.282270
608.620411	18587.003933
608.969870	18366.506384
609.319276	18359.630250
609.668627	18389.998161
610.017926	18525.665693
610.367171	18645.171286
610.716362	18688.288275
611.065500	18492.991454
611.414585	18645.231780
611.763616	18632.704513
612.112594	18558.574345
612.461518	18535.435449
612.810389	18724.173729
613.159207	18580.533612
613.507971	18494.564294
613.856682	18767.867930
614.205340	18675.579526
614.553945	18836.672118
614.902496	18588.221371
615.250994	18803.985276
615.599439	18747.625176
615.947830	18732.819308
616.296169	18804.754052
616.644454	18759.204707
616.992686	18732.738649
617.340864	18943.111040
617.688990	18700.860913
618.037063	18873.172592
618.385082	18731.072548
618.733048	18991.732969
619.080961	18872.739053
619.428821	18917.635569
619.776628	18794.729718
620.124382	18716.745588
620.472083	18766.257281
620.819731	18788.783677
621.167326	18482.233632
621.514868	18521.957924
621.862357	18297.034243
622.209793	18294.795970
622.557176	18132.203635
622.904506	17955.271738
623.251783	17881.254997
623.599007	17625.983569
623.946179	17575.440961
624.293297	17509.333790
624.640363	17254.906755
624.987376	17280.992206
625.334336	17076.593582
625.681243	16927.289728
626.028097	16932.855162
626.374899	16858.346908
626.721647	16719.637040
627.068343	16566.385963
627.414987	16490.491392
627.761577	16462.124819
628.108115	16493.463152
628.454600	16225.142697
628.801032	16327.831001
629.147412	16252.967346
629.493739	16267.344717
629.840014	16082.321768
630.186236	16180.352045
630.532405	15942.218020
630.878521	16147.229144
631.224585	16038.181424
631.570597	15859.303642
631.916556	15892.081224
632.262462	15872.130858
632.608316	15780.938905
632.954117	15724.586367
633.299866	15721.264247
633.645562	15636.640918
633.991206	15398.935390
634.336797	15266.416059
634.682336	15246.034674
635.027823	15114.455517
635.373257	14990.823740
635.718639	14900.221602
636.063968	14848.247306
636.409245	14598.987454
636.754470	14633.721004
637.099642	14480.747191
637.444762	14245.731119
637.789829	14288.895999
638.134845	14121.207057
638.479808	14155.249969
638.824719	14092.389301
639.169577	13940.920272
639.514383	13983.802847
639.859137	13822.349813
640.203839	13908.538420
640.548489	13749.084204
640.893086	13728.191142
641.237632	13605.670938
641.582125	13758.122992
641.926566	13577.279160
642.270955	13593.045369
642.615292	13546.868399
642.959576	13563.781471
643.303809	13596.178446
643.647990	13524.760419
643.992118	13588.493207
644.336195	13355.780942
644.680219	13576.396958
645.024192	13483.778359
645.368112	13727.929002
645.711981	13778.940437
646.055797	13959.920381
646.399562	13942.427577
646.743274	14197.250342
647.086935	14474.289472
647.430544	14443.021716
647.774101	14481.780627
648.117606	14623.885713
648.461059	14597.956538
648.804460	14585.091513
649.147810	14303.805211
649.491108	14218.897057
649.834354	14232.389705
650.177548	13911.215273
650.520690	13727.568559
650.863781	13644.601249
651.206820	13691.458774
651.549807	13518.731199
651.892742	13319.091425
652.235626	13252.270930
652.578458	13268.856327
652.921238	12950.693984
653.263967	13152.390549
653.606644	12986.183707
653.949269	12960.935088
654.291843	12754.577976
654.634365	12925.765478
654.976836	12771.453238
655.319255	12770.792847
655.661622	12728.999161
656.003938	12657.934015
656.346203	12573.708938
656.688416	12654.790856
657.030577	12616.087397
657.372687	12521.840506
657.714746	12500.740756
658.056753	12693.547247
658.398708	12502.353925
658.740612	12504.569512
659.082465	12614.270061
659.424266	12581.235380
659.766016	12604.112136
660.107715	12516.585103
660.449362	12595.020415
660.790958	12548.470401
661.132503	12489.851864
661.473996	12566.051425
661.815438	12579.851583
662.156829	12607.104061
662.498168	12574.911253
662.839456	12574.495358
663.180693	12582.810741
663.521879	12686.736648
663.863013	12659.007781
664.204097	12626.343625
664.545129	12753.358017
664.886110	12730.219120
665.227040	12825.696054
665.567918	12826.336280
665.908746	12843.960154
666.249522	12833.545130
666.590248	12891.505797
666.930922	12998.960511
667.271545	12970.974546
667.612118	13058.930077
667.952639	12967.690234
668.293109	12977.354126
668.633528	12928.961570
668.973896	12912.408941
669.314213	12988.018687
669.654480	12721.785270
669.994695	12796.543061
670.334859	12832.824245
670.674973	12765.194646
671.015035	12803.842652
671.355047	12746.111358
671.695008	12720.099004
672.034918	12730.745921
672.374777	12767.659770
672.714585	12682.237418
673.054342	12724.293244
673.394049	12663.900221
673.733705	12763.692382
674.073310	12671.880368
674.412864	12688.538860
674.752368	12549.597099
675.091820	12576.859659
675.431223	12560.962380
675.770574	12425.927512
676.109875	12335.408554
676.449125	12306.197588
676.788324	12250.061819
677.127473	12081.906571
677.466571	12076.633524
677.805619	11966.154117
678.144616	11896.387068
678.483562	11863.861544
678.822458	11736.552245
679.161303	11713.723379
679.500098	11696.248220
679.838842	11651.076961
680.177535	11689.162878
680.516179	11746.135478
680.854771	11692.797550
681.193314	11906.141701
681.531805	12070.150600
681.870247	12500.511384
682.208638	12904.847210
682.546978	13213.060836
682.885268	13251.444181
683.223508	12954.167339
683.561697	12797.402578
683.899836	12699.503370
684.237925	12495.371927
684.575963	12409.079976
684.913951	12325.898417
685.251889	12281.006942
685.589776	12385.212633
685.927614	12302.880509
686.265401	12269.152669
686.603137	12316.680668
686.940824	12475.403917
687.278460	12606.622631
687.616046	12643.959937
687.953582	12799.852578
688.291068	12734.090727
688.628504	12975.559475
688.965889	12974.079897
689.303224	12937.521449
689.640510	12829.028256
689.977745	12502.237979
690.314930	12293.430866
690.652065	12204.923328
690.989150	11910.582958
691.326185	11685.697085
691.663170	11477.789818
692.000105	11241.780639
692.336990	11120.679520
692.673825	10859.920797
693.010610	10757.487071
693.347345	10550.978724
693.684030	10348.311737
694.020665	10284.793198
694.357251	10095.696997
694.693786	10022.343167
695.030272	9868.545125
695.366707	9747.222196
695.703093	9688.308752
696.039429	9683.706178
696.375716	9594.011448
696.711952	9466.414803
697.048139	9511.391978
697.384276	9462.119740
697.720363	9486.239141
698.056400	9421.528370
698.392388	9367.386377
698.728326	9331.369854
699.064214	9271.022201
699.400053	9313.105753
699.735842	9130.805027
700.071581	9087.945137
700.407270	9010.099640
700.742910	8934.769678
701.078501	8836.434410
701.414042	8709.586377
701.749533	8651.895412
702.084974	8517.042026
702.420366	8634.942012
702.755709	8506.115325
703.091002	8372.749079
703.426246	8402.847288
703.761440	8356.594702
704.096584	8314.533835
704.431679	8245.757373
704.766725	8227.384888
705.101721	8181.578443
705.436668	8229.018222
705.771565	8117.371787
706.106413	8198.655352
706.441212	8243.998010
706.775961	8199.540074
707.110661	8244.209739
707.445311	8379.569761
707.779913	8277.617465
708.114465	8402.822083
708.448967	8438.279038
708.783421	8596.437678
709.117825	8768.018391
709.452180	8807.198238
709.786485	8897.737362
710.120742	9183.893418
710.454949	9181.574488
710.789107	9284.066187
711.123216	9508.725208
711.457275	9678.702833
711.791286	9824.979474
712.125247	9821.982508
712.459159	9812.696702
712.793023	10049.603207
713.126837	9623.144277
713.460602	9783.672259
713.794318	9603.940001
714.127985	9638.058530
714.461602	9305.579311
714.795171	9256.496116
715.128691	9003.944391
715.462162	8758.271320
715.795584	8712.837921
716.128957	8549.285246
716.462281	8382.113023
716.795556	8430.782843
717.128782	8223.261224
717.461960	7967.583983
717.795088	8030.038838
718.128167	7941.571629
718.461198	7778.833101
718.794180	7718.682053
719.127113	7707.790640
719.459997	7543.522122
719.792833	7325.920716
720.125619	7386.006228
720.458357	7248.725527
720.791046	7236.069710
721.123686	7226.851960
721.456278	7068.456386
721.788821	7090.695436
722.121315	6985.247101
722.453761	7052.193624
722.786158	6991.147771
723.118506	7000.292424
723.450805	6969.352343
723.783056	7029.095057
724.115259	6947.498941
724.447412	6944.605318
724.779518	6990.870508
725.111574	6992.334963
725.443582	7073.142138
725.775542	7053.436268
726.107453	7250.510095
726.439315	7153.122565
726.771129	7220.081691
727.102895	7401.074237
727.434612	7505.358066
727.766281	7536.847634
728.097901	7624.309133
728.429473	7620.278730
728.760996	7598.463137
729.092471	7572.274343
729.423897	7510.600866
729.755276	7517.429109
730.086606	7440.954805
730.417887	7540.520114
730.749120	7754.600274
731.080305	7942.244623
731.411442	8054.843836
731.742530	8041.870426
732.073570	8154.396542
732.404562	8243.733350
732.735506	8100.466278
733.066401	8231.770692
733.397249	8155.112386
733.728048	7919.791324
734.058798	7585.197340
734.389501	7351.343255
734.720156	7173.521594
735.050762	6950.137985
735.381320	6861.985848
735.711831	6800.745911
736.042293	6696.923348
736.372707	6715.638631
736.703073	6573.344502
737.033391	6617.474763
737.363661	6619.350072
737.693883	6660.876577
738.024056	6746.677015
738.354182	6781.040041
738.684260	6813.195040
739.014290	6930.900942
739.344272	7046.192130
739.674207	7074.253713
740.004093	7144.945813
740.333931	7167.746952
740.663722	7169.027405
740.993464	7244.304435
741.323159	7224.200313
741.652806	6979.233004
741.982405	7009.968919
742.311956	7055.845940
742.641460	6878.379680
742.970915	6689.235588
743.300323	6680.801738
743.629683	6633.939171
743.958996	6496.398850
744.288260	6410.205202
744.617477	6356.206882
744.946647	6355.329722
745.275768	6193.866605
745.604842	6143.734851
745.933869	6126.181553
746.262847	6085.040697
746.591778	6072.223563
746.920662	6033.260485
747.249498	6030.165216
747.578286	6079.775211
747.907027	6151.195758
748.235720	6211.576179
748.564365	6184.111972
748.892963	6218.248146
749.221514	6362.049580
749.550017	6184.976530
749.878473	6069.992852
750.206881	6128.742459
750.535242	6073.357823
750.863555	5999.255382
751.191821	6016.372619
751.520039	6013.584861
751.848210	5922.322333
752.176334	5948.775788
752.504411	5994.620041
752.832440	5916.240181
753.160421	5853.109811
753.488356	5901.404065
753.816243	5928.066728
754.144082	5784.534995
754.471875	5755.734883
754.799620	5796.908507
755.127318	5809.720600
755.454969	5765.517242
755.782572	5727.214555
756.110129	5774.656854
756.437638	5751.522999
756.765100	5693.053176
757.092515	5702.210432
757.419882	5753.330253
757.747203	5726.158434
758.074477	5790.193690
758.401703	5772.678201
758.728882	5729.654474
759.056014	5792.890708
759.383099	5913.893523
759.710138	5924.409370
760.037129	5909.842956
760.364073	5915.531898
760.690970	5995.358570
761.017820	5981.797866
761.344623	5933.286842
761.671379	6044.207350
761.998088	6166.104971
762.324751	6420.287510
762.651366	7038.688372
762.977935	8373.356538
763.304456	10020.903918
763.630931	10903.940152
763.957359	10474.073402
764.283740	9521.116364
764.610074	8676.493722
764.936362	7675.635640
765.262602	7077.008703
765.588796	6545.973557
765.914943	6209.610129
766.241044	6037.043871
766.567097	5834.099620
766.893104	5579.579324
767.219064	5402.818826
767.544978	5336.504968
767.870845	5253.618316
768.196665	5149.122759
768.522438	5076.588117
768.848165	5040.795924
769.173846	4975.792766
769.499479	4933.126960
769.825066	4878.906830
770.150607	4821.568746
770.476101	4797.608142
770.801548	4785.942912
771.126949	4710.068506
771.452303	4660.382893
771.777611	4620.129280
772.102872	4637.243997
772.428087	4596.907205
772.753256	4557.039239
773.078378	4512.798073
773.403453	4439.920633
773.728482	4426.659877
774.053465	4380.155233
774.378401	4370.692988
774.703291	4365.445146
775.028135	4292.648364
775.352932	4246.471395
775.677683	4234.518819
776.002388	4253.196294
776.327046	4266.333541
776.651658	4188.941747
776.976224	4126.020586
777.300743	4131.069301
777.625216	4154.866068
777.949643	4145.396260
778.274024	4105.324128
778.598359	4062.217222
778.922647	4088.390893
779.246889	4079.135334
779.571086	4068.601843
779.895236	4053.874112
780.219339	4043.156619
780.543397	4036.779560
780.867409	4088.360646
781.191374	4099.703242
781.515294	4039.413562
781.839167	4030.145401
782.162995	4052.117270
782.486776	4038.904406
782.810511	4053.906880
783.134201	4042.970097
783.457844	3996.818333
783.781441	3943.291362
784.104993	3955.080100
784.428498	3969.248263
784.751958	3965.500165
785.075372	3942.124334
785.398739	3906.022111
785.722061	3915.965787
786.045337	3961.000935
786.368568	3991.832632
786.691752	3903.740989
787.014891	3960.345585
787.337983	4086.933999
787.661030	4247.411570
787.984031	4410.495418
788.306987	4577.110593
788.629897	4661.895239
788.952760	4617.812870
789.275579	4553.248292
789.598351	4480.093588
789.921078	4336.337524
790.243759	4138.441989
790.566395	4123.963795
790.888984	4114.229327
791.211529	4010.210158
791.534027	3951.105150
791.856480	3932.581430
792.178888	3873.572204
792.501249	3828.978157
792.823566	3840.512317
793.145836	3866.466697
793.468062	3810.018377
793.790241	3767.713014
794.112375	3796.634114
794.434464	3865.818909
794.756507	3886.674163
795.078505	3866.227243
795.400457	3905.800300
795.722364	4043.615364
796.044226	4147.674862
796.366042	4222.856110
796.687812	4197.806616
797.009538	4203.724931
797.331218	4162.667253
797.652852	4139.551043
797.974442	4116.273515
798.295986	4113.999954
798.617484	4028.822098
798.938938	3944.612144
799.260346	3986.496571
799.581709	3982.788802
799.903026	3907.632760
800.224299	3870.313098
800.545526	3861.967468
800.866708	3823.760563
801.187845	3769.177469
801.508936	3801.992860
801.829983	3798.116213
802.150984	3722.942527
802.471940	3710.838717
802.792851	3716.585632
803.113717	3719.549830
803.434538	3718.836507
803.755314	3659.134122
804.076045	3639.503869
804.396731	3656.749656
804.717372	3686.585725
805.037967	3669.256759
805.358518	3656.817712
805.679024	3688.597146
805.999485	3701.689022
806.319901	3704.015515
806.640272	3716.769634
806.960598	3730.058116
807.280879	3702.621636
807.601115	3716.257957
807.921306	3734.711101
808.241453	3774.165691
808.561554	3746.958584
808.881611	3683.929037
809.201623	3722.234245
809.521590	3734.138930
809.841513	3704.844785
810.161390	3738.272676
810.481223	3710.286710
810.801011	3656.926097
811.120755	3653.044408
811.440453	3683.707227
811.760107	3689.108823
812.079716	3640.696102
812.399281	3618.371352
812.718801	3636.229640
813.038276	3612.856330
813.357707	3607.542954
813.677093	3627.843680
813.996434	3573.096749
814.315731	3581.197884
814.634983	3587.469079
814.954191	3600.513065
815.273354	3627.689925
815.592473	3620.844038
815.911547	3636.796769
816.230577	3677.267152
816.549562	3729.979978
816.868502	3767.108076
817.187399	3788.444759
817.506250	3787.275212
817.825058	3766.298971
818.143821	3857.785831
818.462539	3962.914053
818.781213	4002.968541
819.099843	4067.200402
819.418429	4318.244823
819.736970	4564.328748
820.055466	4815.196728
820.373919	5182.331360
820.692327	5595.824442
821.010691	6067.568057
821.329011	7496.488156
821.647286	10325.750053
821.965517	14984.867616
822.283704	18998.573815
822.601847	21065.356151
822.919945	19193.096818
823.237999	16589.517297
823.556010	14084.782200
823.873976	11953.268928
824.191897	9845.953194
824.509775	8500.940581
824.827609	7372.574074
825.145398	6833.757907
825.463144	6717.609722
825.780845	6825.770199
826.098502	7033.952208
826.416116	7949.662681
826.733685	9296.182600
827.051210	10396.916022
827.368692	10387.022757
827.686129	9090.899253
828.003522	7583.702638
828.320872	6567.877371
828.638177	5856.114339
828.955439	5285.485970
829.272656	4783.538282
829.589830	4509.062578
829.906960	4330.774611
830.224046	4142.084222
830.541088	4021.094009
830.858086	3968.376143
831.175041	3893.966192
831.491952	3876.922051
831.808819	3891.634658
832.125642	3967.655258
832.442421	4121.901963
832.759157	4404.950148
833.075849	4970.839832
833.392497	5852.109142
833.709101	6642.320090
834.025662	6955.093439
834.342179	6564.139355
834.658653	5895.127828
834.975083	5239.485441
835.291469	4656.082789
835.607811	4257.352726
835.924110	4108.283286
836.240366	3911.252308
836.556578	3706.044579
836.872746	3595.086262
837.188871	3555.286353
837.504952	3488.609532
837.820990	3403.414032
838.136984	3359.840818
838.452935	3384.418964
838.768842	3380.557440
839.084706	3401.591654
839.400526	3568.612643
839.716303	3921.851334
840.032037	4459.238334
840.347727	4710.512127
840.663373	4411.342332
840.978977	4024.423692
841.294537	3716.164696
841.610054	3488.682628
841.925527	3382.601628
842.240957	3311.029846
842.556344	3257.477669
842.871687	3199.184286
843.186987	3149.228972
843.502244	3110.873353
843.817458	3077.621903
844.132629	3044.932540
844.447756	3055.534087
844.762840	3038.779812
845.077881	3004.794873
845.392879	2987.700321
845.707833	2986.187975
846.022745	2984.060608
846.337613	2984.433653
846.652438	2971.296406
846.967221	2971.303968
847.281960	2955.827626
847.596656	2954.403500
847.911309	2950.799075
848.225919	2946.246913
848.540485	2937.810542
848.855009	2940.396654
849.169490	2931.327618
849.483928	2921.421751
849.798323	2922.704724
850.112675	2917.925710
850.426984	2929.795107
850.741251	2928.053388
851.055474	2913.101326
851.369654	2908.284504
851.683792	2912.612334
851.997887	2924.242276
852.311938	2925.689087
852.625947	2915.014444
852.939914	2917.219949
853.253837	2920.017789
853.567718	2906.941036
853.881555	2905.572363
854.195350	2921.270516
854.509103	2917.345978
854.822812	2909.963208
855.136479	2906.570511
855.450103	2907.422466
855.763685	2902.930798
856.077224	2899.028945
856.390720	2911.639392
856.704173	2919.410330
857.017584	2914.590987
857.330953	2910.147210
857.644278	2919.049888
857.957561	2930.226126
858.270802	2931.965324
858.584000	2928.295364
858.897155	2917.139290
859.210268	2916.965371
859.523339	2912.372879
859.836367	2917.124167
860.149352	2907.566139
860.462295	2904.422980
860.775195	2911.838517
861.088054	2912.655184
861.400869	2893.783625
861.713642	2893.662637
862.026373	2909.905235
862.339062	2911.042015
862.651708	2916.115936
862.964312	2917.411513
863.276873	2911.067221
863.589392	2922.432502
863.901869	2935.368103
864.214303	2957.135805
864.526696	2972.120635
864.839045	2968.228864
865.151353	2966.497228
865.463619	2964.879017
865.775842	2968.690130
866.088023	2988.136381
866.400162	2991.690394
866.712258	2962.973461
867.024313	2953.654888
867.336325	2960.311732
867.648296	2986.593788
867.960224	2976.385451
868.272110	2964.029583
868.583954	2966.524954
868.895755	2980.952736
869.207515	2966.267855
869.519233	2974.865543
869.830909	2984.509270
870.142542	2994.102586
870.454134	2994.016887
870.765684	2996.038389
871.077191	2994.594099
871.388657	3004.439472
871.700081	3018.342974
872.011463	3030.605581
872.322803	3028.642052
872.634101	3029.277237
872.945357	3045.902963
873.256571	3072.908424
873.567744	3064.154460
873.878874	3060.066084
874.189963	3081.634661
874.501010	3081.962336
874.812015	3072.356417
875.122979	3072.464802
875.433900	3070.420614
875.744780	3075.658373
876.055618	3084.787903
876.366415	3080.344126
876.677169	3090.471804
876.987882	3084.004003
877.298554	3081.959815
877.609183	3106.036366
877.919771	3128.996301
878.230317	3155.084272
878.540822	3209.075030
878.851285	3245.255391
879.161707	3293.945376
879.472087	3402.940163
879.782425	3641.691730
880.092722	4089.515070
880.402977	4629.531032
880.713191	5275.796873
881.023363	6461.735877
881.333494	7758.182014
881.643583	8296.872152
881.953631	7983.282136
882.263637	7325.993812
882.573602	6720.629373
882.883526	6136.851155
883.193408	5569.484413
883.503248	5112.352583
883.813048	4798.444974
884.122806	4484.854957
884.432522	4158.036954
884.742197	3921.957198
885.051831	3728.444946
885.361424	3597.183382
885.670975	3519.123636
885.980485	3432.161211
886.289954	3352.974767
886.599382	3309.023467
886.908768	3274.068106
887.218113	3227.606312
887.527417	3166.530212
887.836680	3117.318468
888.145901	3113.719085
888.455082	3099.641663
888.764221	3049.267933
889.073319	3019.333561
889.382376	3017.609487
889.691392	3024.316742
890.000366	3023.668953
890.309300	3008.895852
890.618193	3024.833460
890.927044	3040.990358
891.235855	3037.859802
891.544625	3026.544932
891.853353	3034.704039
892.162041	3056.592729
892.470687	3095.495313
892.779293	3146.869712
893.087858	3196.504913
893.396381	3274.375617
893.704864	3398.889596
894.013306	3646.014519
894.321707	3954.875933
894.630068	4157.978980
894.938387	4146.543123
895.246665	4105.472843
895.554903	3975.388388
895.863100	3772.996143
896.171256	3604.598920
896.479371	3460.341261
896.787446	3339.013291
897.095480	3229.824419
897.403473	3166.341169
897.711425	3132.809934
898.019336	3123.718213
898.327207	3091.918615
898.635038	3054.954354
898.942827	3040.748383
899.250576	3029.867052
899.558284	2999.869666
899.865952	2975.651963
900.173579	2957.241669
900.481165	2947.872685
900.788711	2936.784667
901.096216	2912.708116
901.403681	2900.344686
901.711105	2909.282652
902.018489	2905.637898
902.325832	2905.801735
902.633135	2915.740370
902.940397	2949.473251
903.247619	3037.166643
903.554800	3239.319433
903.861941	3597.372426
904.169041	4035.040362
904.476101	4327.260927
904.783121	4268.087863
905.090100	4018.767517
905.397039	3741.564549
905.703938	3484.649705
906.010796	3300.186324
906.317614	3188.227338
906.624391	3090.620518
906.931129	3018.005217
907.237826	2955.197481
907.544483	2909.270049
907.851099	2875.499360
908.157675	2856.242152
908.464211	2838.469564
908.770707	2822.670588
909.077163	2810.193732
909.383578	2792.642955
909.689954	2783.752880
909.996289	2780.728188
910.302584	2780.380348
910.608839	2781.537293
910.915054	2776.619647
911.221229	2767.653955
911.527363	2770.204779
911.833458	2780.211470
912.139513	2782.278343
912.445527	2786.434774
912.751502	2794.432565
913.057436	2802.876497
913.363331	2820.659167
913.669186	2840.480984
913.975000	2877.261243
914.280775	2939.698454
914.586510	3011.350894
914.892205	3095.104624
915.197859	3228.775859
915.503475	3427.780449
915.809050	3648.204901
916.114585	3791.469452
916.420081	3809.322698
916.725536	3743.611258
917.030952	3623.558699
917.336328	3491.908967
917.641665	3359.339223
917.946961	3259.627721
918.252218	3183.907070
918.557435	3106.674072
918.862612	3047.543858
919.167750	2994.810868
919.472848	2955.184878
919.777906	2927.695467
920.082925	2901.063051
920.387904	2868.489635
920.692843	2853.391379
920.997743	2838.010819
921.302603	2828.309118
921.607423	2817.203457
921.912204	2802.914306
922.216946	2793.227729
922.521647	2784.451080
922.826310	2774.691406
923.130932	2768.579007
923.435516	2758.224477
923.740059	2750.680390
924.044564	2742.491036
924.349028	2738.143041
924.653454	2732.678430
924.957840	2725.094014
925.262186	2718.364074
925.566493	2716.226624
925.870761	2712.385265
926.174989	2707.787733
926.479178	2701.816486
926.783328	2697.836495
927.087438	2696.949252
927.391509	2696.041844
927.695541	2689.982377
927.999533	2690.521781
928.303486	2683.222190
928.607400	2684.747139
928.911275	2685.135308
929.215110	2682.912159
929.518906	2683.035667
929.822663	2684.174968
930.126381	2682.652540
930.430060	2684.278312
930.733699	2684.474917
931.037299	2687.008097
931.340861	2685.810823
931.644383	2688.225535
931.947866	2685.233611
932.251309	2684.910977
932.554714	2684.898374
932.858080	2680.391582
933.161407	2679.622806
933.464694	2677.457631
933.767943	2674.206087
934.071153	2677.223217
934.374323	2675.274811
934.677455	2677.891170
934.980548	2675.063083
935.283602	2670.831034
935.586617	2675.725994
935.889593	2674.823628
936.192530	2671.824141
936.495428	2674.929492
936.798287	2679.174144
937.101108	2680.661284
937.403890	2685.077335
937.706632	2688.538087
938.009336	2696.251052
938.312002	2707.109698
938.614628	2711.848382
938.917216	2718.989177
939.219765	2719.536142
939.522275	2718.424567
939.824747	2715.241079
940.127179	2713.920297
940.429573	2710.845193
940.731929	2710.391489
941.034246	2704.563915
941.336524	2703.248174
941.638763	2698.396063
941.940964	2697.649972
942.243126	2696.510672
942.545250	2695.668799
942.847335	2689.410207
943.149381	2687.650844
943.451389	2685.851152
943.753359	2683.098682
944.055290	2679.574915
944.357182	2680.636078
944.659036	2679.274967
944.960851	2677.389575
945.262628	2676.172137
945.564367	2677.318999
945.866067	2679.464010
946.167729	2679.491736
946.469352	2677.646674
946.770937	2675.783968
947.072484	2674.823628
947.373992	2676.151972
947.675462	2673.127280
947.976893	2668.917916
948.278286	2668.335663
948.579641	2666.440189
948.880958	2665.416835
949.182236	2667.415652
949.483476	2666.036897
949.784678	2664.983296
950.085841	2668.108811
950.386967	2666.412463
950.688054	2668.559994
950.989103	2669.424552
951.290114	2669.117042
951.591087	2672.040911
951.892021	2675.322702
952.192917	2678.123063
952.493776	2678.428053
952.794596	2681.573733
953.095378	2679.660615
953.396122	2679.438804
953.696828	2678.168433
953.997496	2676.346056
954.298126	2672.976045
954.598718	2671.526713
954.899272	2670.100067
955.199788	2666.828358
955.500266	2662.492966
955.800706	2663.778460
956.101108	2659.899292
956.401472	2658.553304
956.701798	2654.648930
957.002087	2653.837304
957.302337	2652.128353
957.602550	2653.376039
957.902724	2649.280101
958.202861	2648.846562
958.502960	2648.728095
958.803022	2650.888229
959.103045	2646.172230
959.403031	2644.564102
959.702979	2644.654843
960.002889	2645.171561
960.302762	2643.729791
960.602596	2644.289359
960.902393	2643.898670
961.202153	2643.175264
961.501875	2641.438587
961.801559	2639.848102
962.101205	2642.199801
962.400814	2641.206693
962.700385	2642.993782
962.999918	2637.246867
963.299414	2637.561939
963.598873	2636.601599
963.898293	2637.488842
964.197677	2642.368679
964.497022	2639.336425
964.796331	2639.941364
965.095601	2638.217289
965.394835	2640.279121
965.694030	2641.310037
965.993189	2640.667290
966.292309	2638.653349
966.591393	2640.725263
966.890439	2637.680406
967.189447	2639.379275
967.488419	2639.969090
967.787353	2638.434059
968.086249	2639.162506
968.385108	2640.831127
968.683930	2639.253246
968.982714	2639.936323
969.281462	2638.313071
969.580172	2639.525469
969.878844	2638.494553
970.177480	2639.623771
970.476078	2637.375417
970.774639	2639.298617
971.073162	2641.476395
971.371649	2641.486477
971.670098	2644.092754
971.968510	2638.020684
972.266885	2638.809625
972.565223	2641.357928
972.863524	2640.654687
973.161788	2639.780047
973.460014	2639.969090
973.758204	2638.670993
974.056356	2637.012453
974.354471	2639.701909
974.652550	2639.533030
974.950591	2641.443628
975.248595	2641.778864
975.546563	2640.135448
975.844493	2638.129069
976.142386	2638.066055
976.440243	2638.746610
976.738062	2637.693009
977.035845	2638.421456
977.333590	2639.066724
977.631299	2640.206024
977.928971	2636.843575
978.226606	2635.293420
978.524204	2632.926598
978.821765	2631.235291
979.119290	2635.996661
979.416777	2636.636887
979.714228	2637.070427
980.011642	2638.865077
980.309020	2636.843575
980.606360	2639.573360
980.903664	2637.274593
981.200931	2636.357103
981.498162	2636.241157
981.795356	2639.301137
982.092513	2640.044707
982.389633	2640.523617
982.686717	2647.934113
982.983764	2649.627941
983.280775	2653.489465
983.577749	2654.941317
983.874686	2654.054074
984.171587	2650.762201
984.468451	2648.546613
984.765279	2645.872281
985.062070	2645.320275
985.358824	2643.644091
985.655543	2643.029071
985.952224	2641.398257
986.248869	2640.750469
986.545478	2639.482619
986.842050	2636.120169
987.138586	2636.687299
987.435086	2635.795015
987.731549	2635.311064
988.027975	2635.026239
988.324366	2633.604633
988.620719	2636.011784
988.917037	2635.179994
989.213318	2633.203862
989.509563	2633.549181
989.805772	2635.056486
990.101944	2632.929119
990.398080	2634.627988
990.694180	2634.819552
990.990244	2631.444499
991.286271	2635.237967
991.582262	2633.133286
991.878217	2631.010960
992.174136	2634.809469
992.470019	2636.034470
992.765865	2630.685805
993.061676	2630.859725
993.357450	2631.129427
993.653188	2628.482821
993.948890	2633.032462
994.244556	2633.203862
994.540186	2634.403656
994.835780	2631.792339
995.131337	2634.819552
995.426859	2634.101187
995.722345	2636.001702
996.017795	2638.290386
996.313208	2639.580921
996.608586	2637.186373
996.903928	2637.007412
997.199234	2638.408853
997.494504	2638.955818
997.789738	2636.800725
998.084936	2638.396250
998.380099	2638.756693
998.675225	2634.476753
998.970316	2635.502628
999.265371	2634.554891
999.560390	2636.042031
999.855373	2633.655045
1000.150320	2632.793008
1000.445232	2632.767802
1000.740108	2632.266207
1001.034948	2632.876187
1001.329752	2633.680251
1001.624521	2631.988944
1001.919254	2632.712349
1002.213951	2633.211423
1002.508613	2632.387195
1002.803239	2631.089098
1003.097829	2629.848974
1003.392384	2634.333080
1003.686903	2630.300157
1003.981386	2634.673358
1004.275834	2629.158336
1004.570246	2633.128244
1004.864623	2631.464664
1005.158964	2630.040538
1005.453270	2630.222019
1005.747540	2630.627832
1006.041775	2630.905096
1006.335974	2631.333594
1006.630138	2631.615898
1006.924266	2631.716721
1007.218359	2632.069602
1007.512416	2630.889972
1007.806438	2627.414097
1008.100425	2628.467698
1008.394376	2626.070629
1008.688292	2630.216978
1008.982172	2632.747637
1009.276017	2633.080353
1009.569827	2633.029942
1009.863602	2630.731176
1010.157341	2631.071454
1010.451045	2627.817389
1010.744714	2633.455919
1011.038347	2630.655558
1011.331945	2631.449540
1011.625508	2630.917698
1011.919036	2631.343676
1012.212528	2631.537760
1012.505986	2630.587503
1012.799408	2632.946763
1013.092795	2631.210085
1013.386147	2631.018522
1013.679464	2631.073974
1013.972745	2630.106073
1014.265992	2628.908799
1014.559204	2631.157153
1014.852380	2632.838378
1015.145521	2629.188583
1015.438628	2630.106073
1015.731699	2631.656227
1016.024736	2629.556587
1016.317737	2629.470887
1016.610703	2630.002729
1016.903635	2630.322842
1017.196531	2628.828140
1017.489393	2629.932153
1017.782219	2629.412914
1018.075011	2631.051289
1018.367768	2630.718573
1018.660490	2629.438120
1018.953177	2629.438120
1019.245829	2629.438120
