Dividing Wavelength (nm)	Counts (n)	Blue Motor Position (mm): 16.000000	Red Motor Position (mm): 0.000000	
326.493990	2101.941864
326.888308	2101.941864
327.282561	2101.941864
327.676750	2080.295149
328.070874	2082.246076
328.464933	2087.093145
328.858929	2098.846595
329.252859	2110.090889
329.646726	2124.929525
330.040528	2141.225055
330.434265	2161.636687
330.827938	2181.226611
331.221547	2198.162367
331.615091	2218.896633
332.008571	2240.634088
332.401986	2260.521440
332.795338	2282.820984
333.188625	2302.841927
333.581847	2321.539566
333.975006	2338.293841
334.368100	2356.603312
334.761129	2374.416229
335.154095	2388.896943
335.546996	2427.358427
335.939833	2483.993270
336.332606	2497.261587
336.725315	2507.580828
337.117960	2515.470234
337.510540	2525.068591
337.903056	2532.058151
338.295508	2538.132741
338.687896	2546.899308
339.080220	2555.950700
339.472480	2558.267110
339.864676	2561.584189
340.256807	2564.709704
340.648875	2563.580486
341.040879	2566.637946
341.432818	2568.334294
341.824694	2568.256156
342.216506	2567.142061
342.608253	2567.489901
342.999937	2567.527709
343.391557	2567.298337
343.783113	2564.752554
344.174605	2563.212482
344.566033	2563.393963
344.957397	2557.508416
345.348697	2555.892726
345.739934	2554.009855
346.131106	2554.271995
346.522215	2554.899619
346.913260	2553.392314
347.304241	2550.871737
347.695159	2548.905687
348.086012	2548.837632
348.476802	2545.858310
348.867528	2545.472661
349.258191	2543.262115
349.648789	2541.994265
350.039324	2540.217258
350.429796	2540.204656
350.820203	2539.869419
351.210548	2538.344470
351.600828	2536.025539
351.991045	2537.414377
352.381198	2537.671476
352.771288	2537.626105
353.161314	2536.670807
353.551276	2538.256250
353.941175	2535.765920
354.331010	2535.218954
354.720782	2540.086188
355.110490	2538.604089
355.500135	2537.643749
355.889717	2537.245498
356.279235	2537.525282
356.668689	2542.437887
357.058080	2539.690458
357.447408	2537.585776
357.836672	2536.874973
358.225873	2538.349511
358.615010	2532.869777
359.004084	2538.339429
359.393095	2541.041487
359.782043	2544.958464
360.170927	2544.900490
360.559748	2543.110881
360.948505	2543.209183
361.337199	2544.519883
361.725830	2544.136756
362.114398	2545.288659
362.502903	2546.271684
362.891344	2548.207487
363.279722	2546.029709
363.668037	2546.715306
364.056289	2545.334030
364.444478	2546.743032
364.832603	2548.716644
365.220665	2549.457693
365.608665	2550.173537
365.996601	2550.385266
366.384474	2548.930893
366.772284	2549.119936
367.160031	2552.076573
367.547715	2549.737477
367.935336	2550.541542
368.322893	2550.934752
368.710388	2552.298384
369.097820	2554.047664
369.485189	2549.175389
369.872495	2551.627910
370.259738	2550.614638
370.646918	2549.490461
371.034035	2551.915256
371.421090	2554.072870
371.808081	2551.373332
372.195010	2554.040102
372.581875	2550.733105
372.968678	2552.696635
373.355418	2553.757798
373.742096	2557.614280
374.128710	2554.521533
374.515262	2555.703683
374.901751	2555.958261
375.288177	2556.737120
375.674540	2554.007335
376.060841	2558.002449
376.447079	2558.022614
376.833254	2557.803324
377.219367	2549.739998
377.605417	2555.373487
377.991404	2555.194527
378.377329	2554.755946
378.763191	2553.097407
379.148991	2558.690567
379.534727	2555.996070
379.920402	2558.506565
380.306013	2559.487069
380.691563	2559.335834
381.077049	2559.436657
381.462474	2560.974209
381.847835	2559.676112
382.233134	2560.013870
382.618371	2556.898437
383.003545	2561.884138
383.388657	2564.135013
383.773706	2561.831206
384.158693	2564.079560
384.543618	2564.135013
384.928480	2562.322718
385.313280	2562.897410
385.698017	2561.082594
386.082692	2562.345403
386.467305	2563.787173
386.851856	2563.945970
387.236344	2566.403532
387.620770	2563.953531
388.005133	2563.986299
388.389435	2565.559139
388.773674	2564.182904
389.157851	2563.101576
389.541965	2567.008471
389.926018	2567.237843
390.310008	2565.536454
390.693936	2567.205076
391.077802	2563.988819
391.461606	2566.637946
391.845348	2568.414952
392.229027	2567.996537
392.612645	2567.522668
392.996200	2566.224571
393.379694	2568.077195
393.763125	2567.981413
394.146494	2566.872359
394.529801	2569.276990
394.913047	2569.438307
395.296230	2570.580128
395.679351	2569.622309
396.062410	2568.205745
396.445408	2571.346383
396.828343	2570.179356
397.211217	2567.583162
397.594028	2566.403532
397.976778	2565.062585
398.359466	2568.815724
398.742092	2566.829510
399.124656	2570.529717
399.507158	2572.402505
399.889598	2570.260015
400.271977	2570.978379
400.654294	2572.430232
401.036549	2575.170099
401.418742	2571.878225
401.800874	2573.791343
402.182944	2575.102043
402.564952	2573.259501
402.946898	2576.533731
403.328783	2573.307392
403.710606	2574.338308
404.092367	2576.435428
404.474067	2575.306210
404.855705	2574.507187
405.237282	2577.070614
405.618797	2575.497774
406.000250	2576.319482
406.381642	2577.567167
406.762972	2578.714030
407.144240	2576.500963
407.525447	2578.542631
407.906593	2576.677404
408.287677	2577.509194
408.668700	2577.370562
409.049661	2579.344174
409.430560	2575.434759
409.811399	2578.401478
410.192176	2580.662436
410.572891	2577.776375
410.953545	2578.192270
411.334138	2579.019020
411.714669	2578.005748
412.095139	2579.190419
412.475547	2579.203022
412.855894	2578.623289
413.236180	2581.113619
413.616405	2581.741243
413.996568	2579.941551
414.376670	2577.907445
414.756711	2580.332240
415.136691	2583.172930
415.516609	2578.620768
415.896466	2579.555902
416.276262	2582.668815
416.655997	2579.734863
417.035670	2578.154462
417.415283	2580.848958
417.794834	2577.579770
418.174324	2581.915162
418.553753	2580.317117
418.933121	2581.839545
419.312428	2583.482961
419.691674	2581.736202
420.070859	2579.833166
420.449983	2582.129412
420.829045	2581.123701
421.208047	2578.915676
421.586988	2583.165369
421.965867	2584.692838
422.344686	2584.193764
422.723444	2583.717375
423.102141	2583.130081
423.480777	2583.183013
423.859352	2583.593867
424.237866	2586.616038
424.616319	2581.660584
424.994712	2583.833322
425.373044	2584.881882
425.751314	2585.133939
426.129524	2583.059504
426.507673	2583.863568
426.885762	2583.805595
427.263789	2586.172417
427.641756	2583.329206
428.019662	2587.193251
428.397508	2586.474886
428.775292	2587.001687
429.153016	2583.876171
429.530679	2586.893302
429.908282	2588.740885
430.285824	2587.387335
430.663305	2584.080338
431.040726	2586.018662
431.418086	2582.976325
431.795385	2589.733992
432.172624	2587.001687
432.549802	2585.302818
432.926920	2588.516553
433.303977	2588.463621
433.680974	2586.530339
434.057910	2585.174268
434.434786	2587.268868
434.811601	2589.807089
435.188355	2586.905905
435.565050	2586.008579
435.941683	2587.296594
436.318257	2588.178796
436.694770	2585.103692
437.071222	2587.243662
437.447614	2585.123857
437.823946	2587.336923
438.200218	2590.326328
438.576429	2588.125864
438.952580	2590.240628
439.328670	2589.797007
439.704700	2589.363467
440.080670	2590.399424
440.456580	2591.969744
440.832429	2591.649631
441.208218	2586.971440
441.583947	2589.469332
441.959616	2589.900350
442.335224	2590.618715
442.710773	2591.979826
443.086261	2590.880855
443.461689	2591.654672
443.837057	2592.378077
444.212365	2592.615012
444.587612	2592.899837
444.962800	2595.188521
445.337927	2592.799014
445.712995	2592.110896
446.088002	2594.570979
446.462949	2596.085846
446.837837	2591.780701
447.212664	2593.945876
447.587431	2595.231370
447.962139	2597.578027
448.336786	2601.837802
448.711374	2598.301433
449.085901	2598.203131
449.460369	2598.084663
449.834776	2598.750096
450.209124	2598.946701
450.583412	2598.455188
450.957640	2597.888058
451.331808	2598.510641
451.705917	2597.421752
452.079965	2597.938470
452.453954	2599.919643
452.827883	2598.629108
453.201752	2600.380909
453.575562	2600.239757
453.949311	2600.673296
454.323001	2599.075250
454.696632	2599.546598
455.070202	2601.928543
455.443713	2600.973245
455.817164	2599.987699
456.190556	2599.551639
456.563888	2604.469285
456.937160	2598.931577
457.310373	2603.513986
457.683526	2604.403750
458.056619	2604.471805
458.429653	2605.059100
458.802628	2605.653956
459.175542	2604.542382
459.548398	2604.988524
459.921194	2607.446086
460.293930	2609.482712
460.666607	2610.649739
461.039224	2611.789040
461.411782	2612.605707
461.784280	2611.894904
462.156719	2611.002620
462.529099	2610.546396
462.901419	2609.777620
463.273680	2610.284256
463.645882	2611.501694
464.018024	2611.405912
464.390106	2612.817436
464.762130	2615.978239
465.134094	2619.265071
465.505999	2623.008128
465.877845	2627.802265
466.249631	2631.537760
466.621358	2628.389560
466.993026	2630.433748
467.364634	2628.916360
467.736184	2624.737244
468.107674	2621.634414
468.479105	2622.796400
468.850477	2624.364198
469.221790	2623.373612
469.593043	2618.191306
469.964238	2620.956378
470.335373	2617.084772
470.706449	2624.003756
471.077467	2625.206071
471.448425	2632.553553
471.819324	2639.732156
472.190164	2634.204531
472.560945	2632.699746
472.931667	2629.188583
473.302330	2629.541463
473.672934	2630.895013
474.043479	2630.068264
474.413965	2631.323511
474.784393	2627.275465
475.154761	2629.435599
475.525070	2628.497945
475.895321	2630.058182
476.265513	2630.935342
476.635645	2638.449182
477.005719	2639.185191
477.375734	2637.955149
477.745691	2641.557054
478.115588	2646.862868
478.485427	2649.391007
478.855207	2657.943324
479.224928	2663.367606
479.594591	2667.468584
479.964194	2662.036741
480.333739	2666.725014
480.703226	2668.529747
481.072653	2673.094512
481.442022	2673.863288
481.811333	2677.019050
482.180584	2676.759431
482.549777	2677.727332
482.918912	2676.610717
483.287988	2678.135666
483.657005	2677.455110
484.025964	2678.743125
484.394864	2683.106244
484.763706	2684.923580
485.132489	2682.839062
485.501213	2687.023220
485.869879	2688.822912
486.238487	2687.570185
486.607036	2693.687626
486.975527	2694.559745
487.343959	2696.593851
487.712333	2697.380271
488.080648	2701.206507
488.448905	2705.451158
488.817104	2707.112218
489.185244	2712.486088
489.553326	2718.996738
489.921350	2734.221023
490.289315	2743.219483
490.657222	2750.945051
491.025070	2756.079466
491.392861	2751.819691
491.760593	2752.520412
492.128267	2751.184506
492.495883	2746.924731
492.863440	2746.912128
493.230939	2746.649988
493.598380	2747.277612
493.965763	2744.285687
494.333088	2746.408012
494.700354	2744.706623
495.067563	2748.316089
495.434713	2751.381111
495.801805	2757.180958
496.168839	2759.615836
496.535815	2760.949221
496.902733	2765.977772
497.269593	2764.893924
497.636395	2768.621857
498.003139	2775.641664
498.369825	2775.863474
498.736453	2782.215328
499.103023	2779.052004
499.469535	2784.113323
499.835989	2788.158849
500.202385	2786.659105
500.568723	2790.147584
500.935003	2797.384160
501.301226	2800.247536
501.667390	2806.637198
502.033497	2812.585760
502.399546	2813.185657
502.765537	2810.045018
503.131470	2817.397541
503.497345	2820.245793
503.863163	2820.462562
504.228923	2827.086639
504.594625	2830.199551
504.960269	2832.256342
505.325856	2838.895542
505.691385	2837.484018
506.056856	2845.534741
506.422270	2848.428363
506.787625	2848.980370
507.152924	2857.278109
507.518164	2861.119468
507.883347	2860.315404
508.248472	2864.237422
508.613540	2873.523227
508.978550	2880.091851
509.343503	2883.043446
509.708398	2888.737430
510.073236	2896.674726
510.438016	2900.178328
510.802738	2900.765623
511.167403	2909.045718
511.532010	2915.473189
511.896561	2924.557348
512.261053	2936.290634
512.625488	2937.351797
512.989866	2941.087292
513.354186	2945.175668
513.718449	2948.989300
514.082655	2961.980354
514.446803	2969.738690
514.810894	2979.576501
515.174927	2987.995228
515.538904	2994.639469
515.902822	3006.738238
516.266684	3006.980214
516.630488	3016.941534
516.994235	3026.350847
517.357925	3040.584545
517.721558	3051.349929
518.085133	3061.681774
518.448651	3072.366500
518.812112	3080.800350
519.175516	3094.088832
519.538863	3109.025770
519.902152	3115.420474
520.265385	3134.682723
520.628560	3149.113026
520.991678	3157.183913
521.354739	3173.807118
521.717743	3191.592309
522.080690	3205.546222
522.443580	3227.646641
522.806413	3242.457551
523.169189	3256.038419
523.531908	3276.339146
523.894569	3290.724078
524.257174	3311.418015
524.619722	3335.282837
524.982213	3354.673636
525.344647	3370.772560
525.707025	3395.910274
526.069345	3423.434974
526.431608	3443.801236
526.793815	3471.867860
527.155964	3488.077690
527.518057	3516.018285
527.880093	3534.264741
528.242072	3570.939136
528.603995	3595.421499
528.965860	3622.313534
529.327669	3653.218328
529.689421	3677.801515
530.051117	3711.360476
530.412755	3744.291813
530.774337	3780.452010
531.135862	3810.220023
531.497331	3850.392978
531.858743	3881.141496
532.220098	3927.726799
532.581396	3958.881130
532.942638	3986.178978
533.303824	4040.343655
533.664953	4079.788164
534.026025	4113.773102
534.387040	4174.813914
534.747999	4216.015264
535.108902	4270.295888
535.469748	4299.048109
535.830537	4351.677755
536.191270	4410.001385
536.551947	4447.885656
536.912567	4514.076006
537.273131	4572.666816
537.633638	4607.052527
537.994089	4680.716387
538.354483	4715.132345
538.714821	4803.682732
539.075103	4881.624012
539.435328	4928.811733
539.795497	4986.641329
540.155609	5045.461512
540.515665	5135.415861
540.875665	5176.322304
541.235609	5258.651908
541.595496	5322.107432
541.955328	5437.002890
542.315102	5466.135718
542.674821	5522.831055
543.034483	5598.781079
543.394090	5671.358571
543.753640	5741.193675
544.113134	5895.795781
544.472571	5904.055712
544.831953	6072.188275
545.191278	6097.741884
545.550548	6155.478219
545.909761	6272.687566
546.268918	6380.318721
546.628019	6495.768706
546.987064	6547.256531
547.346053	6563.597431
547.704986	6733.136476
548.063863	6785.594723
548.422684	6893.346866
548.781449	6969.871581
549.140158	7110.965916
549.498811	7189.993564
549.857408	7229.304482
550.215949	7416.827843
550.574434	7514.404417
550.932864	7594.047086
551.291237	7781.749408
551.649555	7845.119233
552.007817	7986.236252
552.366022	8051.274699
552.724173	8185.631531
553.082267	8346.721602
553.440305	8503.176332
553.798288	8528.404787
554.156215	8693.368985
554.514086	8847.782047
554.871902	8923.999252
555.229661	9051.953819
555.587365	9156.227566
555.945014	9296.989184
556.302606	9418.349922
556.660143	9581.355632
557.017625	9725.923321
557.375050	9828.218415
557.732421	10018.461479
558.089735	10150.418722
558.446994	10271.751733
558.804197	10493.217183
559.161345	10623.659560
559.518437	10627.594180
559.875474	10829.000879
560.232455	11005.695842
560.589381	11187.457165
560.946251	11283.304623
561.303065	11566.672922
561.659825	11674.036896
562.016528	11760.928744
562.373177	11853.035666
562.729770	12124.272428
563.086307	12176.627331
563.442789	12434.613421
563.799216	12614.277623
564.155587	12741.914597
564.511904	12921.301536
564.868164	13113.041823
565.224370	13346.175024
565.580520	13455.401704
565.936615	13675.969829
566.292654	13777.218883
566.648638	14025.069733
567.004567	14191.339589
567.360441	14377.917734
567.716260	14530.286609
568.072023	14802.317353
568.427732	14981.933665
568.783385	15039.652356
569.138982	15335.046327
569.494525	15512.021074
569.850013	15624.224556
570.205445	15812.279759
570.560823	15992.995042
570.916145	16147.415667
571.271412	16363.540014
571.626625	16480.232643
571.981782	16688.681834
572.336884	16778.658869
572.691931	17091.762414
573.046923	17152.921692
573.401860	17299.596584
573.756743	17482.492166
574.111570	17739.134788
574.466342	17881.524699
574.821059	18138.401734
575.175722	18159.405702
575.530330	18376.949134
575.884882	18477.003435
576.239380	18657.819541
576.593823	18846.487244
576.948211	19029.075316
577.302544	19043.130053
577.656823	19251.465818
578.011047	19549.748371
578.365216	19646.709924
578.719330	19760.153529
579.073389	19910.425284
579.427394	20150.303549
579.781344	20352.849549
580.135239	20406.207642
580.489080	20633.495624
580.842866	20625.548245
581.196597	21024.011128
581.550273	21212.152030
581.903895	21355.459431
582.257463	21758.847521
582.610975	21673.019356
582.964434	22025.758973
583.317837	22065.236249
583.671186	22196.913708
584.024481	22502.521057
584.377721	22484.095640
584.730906	22825.497702
585.084037	23054.103946
585.437113	23112.513275
585.790135	23333.436801
586.143103	23326.172499
586.496016	23606.170786
586.848874	23813.107631
587.201679	24021.786194
587.554428	23942.272075
587.907124	24264.772330
588.259765	24326.050076
588.612352	24666.857282
588.964884	24507.277036
589.317362	24872.092737
589.669786	25041.777976
590.022155	25108.059066
590.374470	25541.474789
590.726731	25473.865354
591.078937	25383.543001
591.431090	25626.163653
591.783188	25613.432219
592.135232	25610.432732
592.487222	25958.592461
592.839157	26185.925814
593.191038	26167.664234
593.542866	26211.860030
593.894639	26027.051330
594.246358	26374.744752
594.598022	26548.016772
594.949633	26472.686810
595.301190	26629.534750
595.652692	26691.651848
596.004141	27075.986896
596.355535	26615.447245
596.706876	26761.524760
597.058162	26805.967573
597.409395	27303.640363
597.760573	27508.958997
598.111698	27419.271829
598.462768	27599.611546
598.813785	27785.700699
599.164748	27559.652840
599.515657	28005.326128
599.866511	27805.348596
600.217312	28393.653771
600.568060	27836.026538
600.918753	28529.646458
601.269392	28652.738832
601.619978	28548.021463
601.970510	28866.755977
602.320988	29137.418047
602.671412	29517.445430
603.021783	29487.483332
603.372100	29389.425328
603.722363	29601.831825
604.072572	29800.803647
604.422728	29967.111312
604.772830	29963.353132
605.122878	30183.696925
605.472872	30271.566757
605.822813	30614.350096
606.172701	30630.191922
606.522534	30961.171398
606.872314	31288.642231
607.222041	31236.947719
607.571714	31665.012257
607.921333	31387.043034
608.270899	31718.856821
608.620411	32134.018525
608.969870	32078.686821
609.319276	32221.157390
609.668627	32386.844994
610.017926	32891.005749
610.367171	33145.087464
610.716362	33338.153574
611.065500	33397.780342
611.414585	33672.440047
611.763616	34032.171745
612.112594	34104.454329
612.461518	34394.769338
612.810389	34756.308289
613.159207	34747.302268
613.507971	34931.296821
613.856682	35427.101864
614.205340	35441.811951
614.553945	36143.855638
614.902496	35789.966638
615.250994	36287.762937
615.599439	36437.225586
615.947830	36717.929635
616.296169	36870.331278
616.644454	37071.493481
616.992686	37303.242885
617.340864	37851.022224
617.688990	37689.518778
618.037063	38305.497366
618.385082	38368.910041
618.733048	38705.286072
619.080961	38822.205553
619.428821	38920.003938
619.776628	39089.323693
620.124382	39039.035662
620.472083	39256.563972
620.819731	39446.076068
621.167326	39249.100543
621.514868	39317.771141
621.862357	38996.611832
622.209793	39141.393771
622.557176	38920.709699
622.904506	38764.048282
623.251783	38533.788539
623.599007	38416.286804
623.946179	38303.380082
624.293297	38341.060186
624.640363	37864.403967
624.987376	37916.947913
625.334336	37780.176368
625.681243	37534.624285
626.028097	37558.305105
626.374899	37481.306521
626.721647	37540.030922
627.068343	37485.646955
627.414987	37330.341607
627.761577	37197.998716
628.108115	37560.394663
628.454600	37095.819569
628.801032	37311.565830
629.147412	37337.666404
629.493739	37387.369660
629.840014	37114.434029
630.186236	37462.578635
630.532405	37151.776377
630.878521	37387.571307
631.224585	37329.114087
631.570597	37082.417661
631.916556	37273.363966
632.262462	37271.828935
632.608316	37326.540577
632.954117	37288.588251
633.299866	37308.160531
633.645562	37283.002652
633.991206	36877.971147
634.336797	36512.479931
634.682336	36543.520836
635.027823	36380.159725
635.373257	36238.883909
635.718639	36065.495943
636.063968	35982.896637
636.409245	35470.773380
636.754470	35569.343061
637.099642	35375.898864
637.444762	34953.573680
637.789829	35137.671578
638.134845	34837.796020
638.479808	34822.624668
638.824719	34755.337867
639.169577	34439.280206
639.514383	34517.087895
639.859137	34248.260804
640.203839	34526.429153
640.548489	34223.481013
640.893086	34318.466433
641.237632	34090.704582
641.582125	34228.870006
641.926566	34194.857341
642.270955	34199.318762
642.615292	34226.906477
642.959576	34243.461626
643.303809	34270.003301
643.647990	34440.038900
643.992118	34425.333854
644.336195	34444.891010
644.680219	34552.786826
645.024192	34883.728494
645.368112	35404.888019
645.711981	35418.244557
646.055797	36293.570346
646.399562	36230.689513
646.743274	37165.752976
647.086935	37595.476053
647.430544	37496.729931
647.774101	37635.084399
648.117606	37896.995026
648.461059	38189.076959
648.804460	37829.652773
649.147810	37252.841429
649.491108	37035.678603
649.834354	36701.805505
650.177548	35910.203199
650.520690	35500.090210
650.863781	35536.336106
651.206820	35415.998722
651.549807	35010.750447
651.892742	34543.216195
652.235626	34377.979775
652.578458	34267.825522
652.921238	33697.073646
653.263967	34024.105899
653.606644	33736.447578
653.949269	33690.983932
654.291843	33300.115548
654.634365	33719.665577
654.976836	33338.975282
655.319255	33367.498131
655.661622	33366.517626
656.003938	33169.456402
656.346203	33050.465007
656.688416	33285.221459
657.030577	33089.773404
657.372687	32935.451082
657.714746	33220.666963
658.056753	33346.907538
658.398708	32825.876562
658.740612	32883.058370
659.082465	33172.279448
659.424266	33015.018133
659.766016	33149.720285
660.107715	33023.570451
660.449362	33150.284894
660.790958	33128.002994
661.132503	33155.769669
661.473996	33214.100860
661.815438	33327.289888
662.156829	33532.323697
662.498168	33307.286589
662.839456	33342.168853
663.180693	33503.211033
663.521879	33670.965510
663.863013	33650.382479
664.204097	33636.592402
664.545129	34100.509626
664.886110	34059.981270
665.227040	34144.594517
665.567918	34253.848923
665.908746	34340.627346
666.249522	34508.303684
666.590248	34495.383207
666.930922	34621.880881
667.271545	34585.304789
667.612118	34665.529711
667.952639	34439.683498
668.293109	34519.517731
668.633528	34414.994447
668.973896	34350.013974
669.314213	34400.007097
669.654480	34134.907940
669.994695	34176.547870
670.334859	34057.160744
670.674973	33962.056857
671.015035	34129.594563
671.355047	34075.399639
671.695008	34011.054351
672.034918	33934.075932
672.374777	34031.644944
672.714585	33850.546533
673.054342	34100.383598
673.394049	33847.955380
673.733705	34128.944255
674.073310	33806.353258
674.412864	33873.476222
674.752368	33492.238962
675.091820	33787.186791
675.431223	33381.245357
675.770574	33084.981787
676.109875	32938.440486
676.449125	32684.424305
676.788324	32597.668568
677.127473	32064.062433
677.466571	32000.548936
677.805619	31667.840344
678.144616	31667.348832
678.483562	31586.095514
678.822458	31262.856729
679.161303	31197.067151
679.500098	31103.699941
679.838842	31004.742091
680.177535	31167.480619
680.516179	31467.885497
680.854771	31710.455738
681.193314	32592.435850
681.531805	33720.540217
681.870247	34470.273220
682.208638	35176.165828
682.546978	35368.735385
682.885268	35442.515192
683.223508	34942.765446
683.561697	34599.896409
683.899836	34395.301180
684.237925	33917.820732
684.575963	33749.098353
684.913951	33297.847029
685.251889	33457.097079
685.589776	33445.182312
685.927614	33447.728094
686.265401	33588.328396
686.603137	33683.354146
686.940824	34203.218095
687.278460	34567.668312
687.616046	34695.872416
687.953582	35288.966687
688.291068	35132.191843
688.628504	35424.039363
688.965889	35338.967371
689.303224	34946.001867
689.640510	34606.278509
689.977745	33871.225347
690.314930	33062.538570
690.652065	32563.751685
690.989150	31824.242142
691.326185	30925.527920
691.663170	30225.571270
692.000105	29478.573093
692.336990	28806.383118
692.673825	28340.225102
693.010610	27838.476539
693.347345	27254.355522
693.684030	26614.030681
694.020665	26327.927556
694.357251	25661.698746
694.693786	25613.195285
695.030272	25378.532094
695.366707	24841.782800
695.703093	24558.243102
696.039429	24557.953235
696.375716	24295.399861
696.711952	24252.411421
697.048139	24089.743469
697.384276	23912.068002
697.720363	24042.132291
698.056400	23846.555687
698.392388	23620.364155
698.728326	23585.900307
699.064214	23379.734758
699.400053	23317.040448
699.735842	22962.450728
700.071581	22686.538296
700.407270	22376.817365
700.742910	22199.751877
701.078501	21930.665168
701.414042	21647.241416
701.749533	21353.264009
702.084974	20997.136737
702.420366	21212.116742
702.755709	20773.554002
703.091002	20469.247270
703.426246	20493.278451
703.761440	20392.241125
704.096584	20136.228647
704.431679	20082.689073
704.766725	19991.313118
705.101721	19932.331618
705.436668	20015.087200
705.771565	19700.423418
706.106413	20044.603156
706.441212	20045.906294
706.775961	20179.171716
707.110661	20244.290821
707.445311	20599.689647
707.779913	20425.573234
708.114465	20675.831234
708.448967	20963.237497
708.783421	21649.114205
709.117825	21930.362698
709.452180	22145.569556
709.786485	22540.740565
710.120742	23341.643800
710.454949	23350.599410
710.789107	23825.859230
711.123216	24518.004612
711.457275	24619.120075
711.791286	25153.384081
712.125247	25212.796599
712.459159	24904.542644
712.793023	25566.872122
713.126837	24457.152843
713.460602	24707.017634
713.794318	24333.495860
714.127985	23947.013280
714.461602	23044.896279
714.795171	23004.546883
715.128691	21991.998366
715.462162	21451.977363
715.795584	21036.891276
716.128957	20779.744539
716.462281	20376.933661
716.795556	20140.493463
717.128782	19639.919489
717.461960	19091.898175
717.795088	19018.763636
718.128167	18619.761350
718.461198	18152.355648
718.794180	18018.122324
719.127113	17646.828740
719.459997	17450.654759
719.792833	17095.301304
720.125619	17073.689877
720.458357	16747.907830
720.791046	16578.240236
721.123686	16419.484219
721.456278	16180.072261
721.788821	16151.869526
722.121315	15877.769388
722.453761	15965.964375
722.786158	15882.003958
723.118506	15892.129115
723.450805	15763.095741
723.783056	15911.860191
724.115259	15806.855477
724.447412	15744.375417
724.779518	15993.070659
725.111574	16008.504152
725.443582	16211.735748
725.775542	16199.130343
726.107453	16666.969585
726.439315	16544.698919
726.771129	16953.050024
727.102895	17311.339952
727.434612	17515.141199
727.766281	17633.663767
728.097901	17889.305720
728.429473	17923.081450
728.760996	17905.018996
729.092471	17993.163571
729.423897	17862.806894
729.755276	17740.314418
730.086606	17859.091564
730.417887	18393.932781
730.749120	18897.654956
731.080305	19071.040401
731.411442	19396.043590
731.742530	19457.132292
732.073570	19560.627181
732.404562	19840.985911
732.735506	19638.031577
733.066401	19335.151492
733.397249	18804.930493
733.728048	18168.383997
734.058798	17340.132502
734.389501	16669.285995
734.720156	16213.686675
735.050762	15689.787282
735.381320	15337.733262
735.711831	15104.900010
736.042293	14754.459159
736.372707	14775.168219
736.703073	14568.473350
737.033391	14758.880251
737.363661	14722.888933
737.693883	14824.566486
738.024056	14999.673485
738.354182	15169.860318
738.684260	15453.299193
739.014290	15670.663665
739.344272	15850.668145
739.674207	16119.286028
740.004093	16231.066053
740.333931	16213.459823
740.663722	16266.192813
740.993464	16252.322078
741.323159	16061.728654
741.652806	15798.673685
741.982405	15580.124542
742.311956	15237.167284
742.641460	15127.980933
742.970915	14819.111957
743.300323	14489.629704
743.629683	14276.277991
743.958996	14008.542310
744.288260	13731.684661
744.617477	13434.672479
744.946647	13371.884908
745.275768	13093.623298
745.604842	12909.727047
745.933869	12735.950912
746.262847	12694.500025
746.591778	12624.405301
746.920662	12509.855162
747.249498	12521.134744
747.578286	12637.366108
747.907027	12785.593675
748.235720	13003.724402
748.564365	13025.905479
748.892963	12926.030139
749.221514	12977.689363
749.550017	12833.093947
749.878473	12786.385136
750.206881	12560.846433
750.535242	12466.712968
750.863555	12393.182698
751.191821	12286.408539
751.520039	12302.414202
751.848210	12219.414125
752.176334	12253.562901
752.504411	12160.672079
752.832440	11992.587407
753.160421	12047.674616
753.488356	11932.254878
753.816243	11844.627021
754.144082	11700.795340
754.471875	11639.878037
754.799620	11584.117835
755.127318	11560.033722
755.454969	11520.301868
755.782572	11470.286060
756.110129	11476.993315
756.437638	11400.461038
756.765100	11391.044163
757.092515	11392.306972
757.419882	11405.787017
757.747203	11412.950497
758.074477	11486.720222
758.401703	11441.506113
758.728882	11610.006680
759.056014	11640.709828
759.383099	11751.804256
759.710138	11854.676562
760.037129	11940.809716
760.364073	11948.787342
760.690970	11943.090838
761.017820	11938.941969
761.344623	12132.391206
761.671379	12474.632620
761.998088	13145.002738
762.324751	14769.776705
762.651366	17695.433025
762.977935	21268.817120
763.304456	23338.528367
763.630931	23671.456249
763.957359	22468.145429
764.283740	20566.395346
764.610074	18703.389051
764.936362	16598.364522
765.262602	15111.899652
765.588796	13672.897246
765.914943	12661.586331
766.241044	11832.583705
766.567097	11205.073477
766.893104	10669.125726
767.219064	10320.713940
767.544978	9945.263925
767.870845	9641.320157
768.196665	9459.359709
768.522438	9255.649202
768.848165	9087.735929
769.173846	8927.384387
769.499479	8807.747724
769.825066	8654.068149
770.150607	8475.913772
770.476101	8408.634533
770.801548	8305.111918
771.126949	8159.775453
771.452303	8078.159172
771.777611	7911.818739
772.102872	7886.716314
772.428087	7769.791791
772.753256	7646.724623
773.078378	7563.883342
773.403453	7419.182062
773.728482	7316.345044
774.053465	7252.082935
774.378401	7169.007241
774.703291	7074.261275
775.028135	6972.142621
775.352932	6935.984945
775.677683	6849.420772
776.002388	6762.879284
776.327046	6768.815243
776.651658	6686.354568
776.976224	6606.187619
777.300743	6594.091371
777.625216	6527.316247
777.949643	6484.090873
778.274024	6486.883672
778.598359	6415.838691
778.922647	6420.078302
779.246889	6381.949535
779.571086	6394.073510
779.895236	6404.085241
780.219339	6397.902266
780.543397	6392.377161
780.867409	6446.549401
781.191374	6439.786693
781.515294	6406.663791
781.839167	6454.963086
782.162995	6427.420742
782.486776	6379.146653
782.810511	6341.963102
783.134201	6266.265136
783.457844	6252.971613
783.781441	6204.299273
784.104993	6154.424618
784.428498	6133.231607
784.751958	6117.858608
785.075372	6088.509010
785.398739	6052.845368
785.722061	6076.750519
786.045337	6081.602630
786.368568	6196.699734
786.691752	6215.956941
787.014891	6472.072762
787.337983	6752.411328
787.661030	7186.832761
787.984031	7595.262004
788.306987	7841.446752
788.629897	7914.193123
788.952760	7823.144843
789.275579	7639.999724
789.598351	7346.410486
789.921078	7089.457833
790.243759	6811.995246
790.566395	6614.538291
790.888984	6423.826400
791.211529	6286.815400
791.534027	6128.694568
791.856480	5992.767417
792.178888	5942.670950
792.501249	5872.873655
792.823566	5775.007214
793.145836	5759.241006
793.468062	5748.710035
793.790241	5707.518767
794.112375	5752.735397
794.434464	5846.498338
794.756507	5880.747937
795.078505	6002.738819
795.400457	6214.240428
795.722364	6452.397139
796.044226	6637.795654
796.366042	6787.296113
796.687812	6732.559264
797.009538	6750.314208
797.331218	6666.058883
797.652852	6598.217555
797.974442	6473.590150
798.295986	6404.919552
798.617484	6275.392145
798.938938	6170.523542
799.260346	6107.720848
799.581709	5967.433098
799.903026	5918.780922
800.224299	5843.733265
800.545526	5729.916614
800.866708	5670.201626
801.187845	5621.569615
801.508936	5546.055651
801.829983	5519.942474
802.150984	5412.029014
802.471940	5382.298809
802.792851	5368.206264
803.113717	5343.181976
803.434538	5322.241023
803.755314	5291.008554
804.076045	5281.047234
804.396731	5243.377212
804.717372	5256.204428
805.037967	5262.571405
805.358518	5290.123832
805.679024	5343.023180
805.999485	5353.410477
806.319901	5370.308425
806.640272	5382.485332
806.960598	5428.654739
807.280879	5424.969656
807.601115	5461.245799
807.921306	5423.888328
808.241453	5413.019601
808.561554	5426.247588
808.881611	5393.855654
809.201623	5393.696858
809.521590	5341.752809
809.841513	5324.136497
810.161390	5341.939332
810.481223	5257.129480
810.801011	5241.789249
811.120755	5221.332246
811.440453	5165.377959
811.760107	5139.295029
812.079716	5111.024238
812.399281	5061.434408
812.718801	5054.896032
813.038276	5020.497718
813.357707	4988.010002
813.677093	5007.927601
813.996434	4950.942398
814.315731	4968.949400
814.634983	4966.355726
814.954191	4977.320236
815.273354	5034.038258
815.592473	5073.545780
815.911547	5149.082429
816.230577	5202.112847
816.549562	5287.469664
816.868502	5335.295091
817.187399	5393.480088
817.506250	5472.699301
817.825058	5501.663250
818.143821	5655.113452
818.462539	5823.321633
818.781213	6057.563888
819.099843	6421.066368
819.418429	7052.659930
819.736970	7669.021647
820.055466	8359.722738
820.373919	9281.711968
820.692327	10775.426017
821.010691	13593.156274
821.329011	19935.066444
821.647286	29347.094759
821.965517	39193.970485
822.283704	44015.481258
822.601847	45081.828969
822.919945	40510.777843
823.237999	35545.279113
823.556010	30559.850181
823.873976	26058.432513
824.191897	22047.002395
824.509775	19098.958311
824.827609	16454.855475
825.145398	15007.744373
825.463144	14332.413759
825.780845	14701.816910
826.098502	16015.876839
826.416116	18422.354807
826.733685	20535.782939
827.051210	20868.753672
827.368692	19358.842395
827.686129	16871.481635
828.003522	14494.507020
828.320872	12359.502749
828.638177	10787.910434
828.955439	9595.125543
829.272656	8571.557064
829.589830	7759.865759
829.906960	7047.389404
830.224046	6538.300921
830.541088	6144.649820
830.858086	5900.738633
831.175041	5709.119334
831.491952	5653.830479
831.808819	5700.554413
832.125642	5963.284228
832.442421	6535.671959
832.759157	7667.174064
833.075849	9415.471423
833.392497	11182.572287
833.709101	12184.972962
834.025662	11843.601147
834.342179	10782.062696
834.658653	9522.671560
834.975083	8467.600910
835.291469	7607.443952
835.607811	6891.658079
835.924110	6393.529065
836.240366	5914.868987
836.556578	5479.462008
836.872746	5133.868227
837.188871	4872.217219
837.504952	4657.360722
837.820990	4501.049664
838.136984	4387.656470
838.452935	4346.107280
838.768842	4391.500350
839.084706	4698.279767
839.400526	5452.307833
839.716303	6320.054248
840.032037	6823.826834
840.347727	6624.812162
840.663373	6032.952974
840.978977	5477.710207
841.294537	5060.945416
841.610054	4747.428497
841.925527	4517.120863
842.240957	4316.419925
842.556344	4139.407370
842.871687	3981.110098
843.186987	3832.927901
843.502244	3720.837845
843.817458	3635.622181
844.132629	3570.840833
844.447756	3524.235366
844.762840	3477.365238
845.077881	3439.599434
845.392879	3407.469640
845.707833	3381.157337
846.022745	3354.693800
846.337613	3345.103005
846.652438	3321.732216
846.967221	3310.031698
847.281960	3293.116106
847.596656	3281.849127
847.911309	3272.447375
848.225919	3262.947321
848.540485	3249.497522
848.855009	3242.558374
849.169490	3227.112279
849.483928	3224.687484
849.798323	3219.820250
850.112675	3207.141748
850.426984	3210.879763
850.741251	3201.977086
851.055474	3200.126982
851.369654	3200.913402
851.683792	3197.150181
851.997887	3202.408104
852.311938	3202.576983
852.625947	3202.143444
852.939914	3192.600539
853.253837	3199.436344
853.567718	3199.388453
853.881555	3191.667926
854.195350	3197.036755
854.509103	3193.543235
854.822812	3190.447967
855.136479	3187.927390
855.450103	3192.605581
855.763685	3185.207687
856.077224	3185.986546
856.390720	3193.462577
856.704173	3205.425235
857.017584	3209.322047
857.330953	3217.425702
857.644278	3220.997359
857.957561	3226.240159
858.270802	3225.587330
858.584000	3221.884602
858.897155	3216.319168
859.210268	3205.604196
859.523339	3193.422247
859.836367	3190.992411
860.149352	3188.383614
860.462295	3181.978828
860.775195	3175.644618
861.088054	3170.845440
861.400869	3169.723783
861.713642	3167.987106
862.026373	3174.464988
862.339062	3180.171575
862.651708	3189.318748
862.964312	3205.543702
863.276873	3216.235989
863.589392	3242.644074
863.901869	3267.217178
864.214303	3288.911784
864.526696	3305.363589
864.839045	3322.044767
865.151353	3334.501458
865.463619	3338.075637
865.775842	3337.339628
866.088023	3338.030266
866.400162	3332.510203
866.712258	3335.620595
867.024313	3333.437775
867.336325	3338.005060
867.648296	3331.378464
867.960224	3332.157322
868.272110	3334.693022
868.583954	3336.921212
868.895755	3340.858353
869.207515	3340.129907
869.519233	3357.713451
869.830909	3365.842312
870.142542	3376.348077
870.454134	3380.350753
870.765684	3393.770304
871.077191	3411.074065
871.388657	3422.653595
871.700081	3439.796039
872.011463	3461.425109
872.322803	3481.390599
872.634101	3497.396263
872.945357	3518.443080
873.256571	3542.902758
873.567744	3556.342475
873.878874	3562.835481
874.189963	3576.880135
874.501010	3580.335846
874.812015	3576.522213
875.122979	3590.299687
875.433900	3590.907146
875.744780	3590.874378
876.055618	3596.240687
876.366415	3597.848815
876.677169	3603.976337
876.987882	3621.355715
877.298554	3641.525372
877.609183	3676.609282
877.919771	3725.551324
878.230317	3793.208650
878.540822	3895.491141
878.851285	4046.261970
879.161707	4268.967544
879.472087	4653.620185
879.782425	5286.332884
880.092722	6475.578885
880.402977	8380.318372
880.713191	10657.553758
881.023363	12866.859595
881.333494	14043.467424
881.643583	14412.331171
881.953631	13976.110047
882.263637	13165.416891
882.573602	12193.134590
882.883526	11295.640326
883.193408	10390.639785
883.503248	9521.847331
883.813048	8741.280111
884.122806	7996.101790
884.432522	7272.968436
884.742197	6643.046016
885.051831	6106.763028
885.361424	5647.201362
885.670975	5270.377632
885.980485	4960.818018
886.289954	4702.489131
886.599382	4502.075539
886.908768	4333.171679
887.218113	4172.926002
887.527417	4042.957494
887.836680	3928.591357
888.145901	3830.467818
888.455082	3756.309924
888.764221	3690.346426
889.073319	3635.803662
889.382376	3602.181687
889.691392	3579.287286
890.000366	3574.495670
890.309300	3568.481573
890.618193	3573.726894
890.927044	3566.762540
891.235855	3574.460382
891.544625	3589.830860
891.853353	3620.516363
892.162041	3678.560208
892.470687	3771.047737
892.779293	3893.409144
893.087858	4063.104465
893.396381	4343.846323
893.704864	4751.572325
894.013306	5308.269465
894.321707	5841.351320
894.630068	6156.189021
894.938387	6167.430794
895.246665	5983.786601
895.554903	5679.126989
895.863100	5358.439028
896.171256	5101.078042
896.479371	4877.288620
896.787446	4658.971370
897.095480	4475.143175
897.403473	4333.179241
897.711425	4195.565823
898.019336	4078.056527
898.327207	3955.498516
898.635038	3864.296481
898.942827	3758.064246
899.250576	3680.221269
899.558284	3596.747323
899.865952	3540.417470
900.173579	3484.674911
900.481165	3439.924588
900.788711	3400.076788
901.096216	3372.017725
901.403681	3346.882532
901.711105	3335.502128
902.018489	3334.337621
902.325832	3369.363558
902.633135	3429.358330
902.940397	3605.521451
903.247619	4024.915204
903.554800	4766.191671
903.861941	5682.207134
904.169041	6316.916129
904.476101	6475.273895
904.783121	6192.079516
905.090100	5802.562161
905.397039	5415.157050
905.703938	5079.673303
906.010796	4774.365902
906.317614	4531.180641
906.624391	4307.933143
906.931129	4120.694607
907.237826	3951.480716
907.544483	3786.985345
907.851099	3621.128863
908.157675	3467.756799
908.464211	3333.929288
908.770707	3239.125348
909.077163	3164.995181
909.383578	3106.928650
909.689954	3068.111766
909.996289	3039.725028
910.302584	3017.029754
910.608839	3006.213958
910.915054	2993.543018
911.221229	2990.165445
911.527363	2998.044768
911.833458	3004.578104
912.139513	3017.485978
912.445527	3028.377391
912.751502	3060.663461
913.057436	3105.809514
913.363331	3161.610046
913.669186	3250.536000
913.975000	3366.681664
914.280775	3550.262843
914.586510	3820.587156
914.892205	4188.755225
915.197859	4667.722813
915.503475	5220.210590
915.809050	5676.747564
916.114585	5931.877840
916.420081	5978.059850
916.725536	5904.373304
917.030952	5677.407955
917.336328	5479.318336
917.641665	5282.977996
917.946961	5067.730809
918.252218	4871.708063
918.557435	4661.590250
918.862612	4475.433041
919.167750	4311.668638
919.472848	4125.566882
919.777906	3968.353458
920.082925	3820.377948
920.387904	3673.077954
920.692843	3568.963003
920.997743	3472.291317
921.302603	3385.344016
921.607423	3326.201199
921.912204	3261.729882
922.216946	3214.075855
922.521647	3164.816220
922.826310	3128.908081
923.130932	3093.612443
923.435516	3055.975188
923.740059	3030.734131
924.044564	3000.247753
924.349028	2978.180102
924.653454	2947.411419
924.957840	2924.106165
925.262186	2904.092784
925.566493	2883.965978
925.870761	2859.385311
926.174989	2851.248889
926.479178	2834.615602
926.783328	2819.446770
927.087438	2807.544606
927.391509	2798.344500
927.695541	2785.877727
927.999533	2775.573608
928.303486	2765.193872
928.607400	2760.366967
928.911275	2756.155083
929.215110	2751.852459
929.518906	2746.140831
929.822663	2746.002200
930.126381	2747.678383
930.430060	2750.657705
930.733699	2751.590319
931.037299	2757.949734
931.340861	2755.814806
931.644383	2757.536360
931.947866	2757.100300
932.251309	2753.510998
932.554714	2751.968405
932.858080	2754.166348
933.161407	2747.436408
933.464694	2744.562950
933.767943	2740.131776
934.071153	2737.472567
934.374323	2734.457957
934.677455	2731.937380
934.980548	2727.486042
935.283602	2725.462018
935.586617	2722.480176
935.889593	2725.870352
936.192530	2725.545197
936.495428	2733.837895
936.798287	2743.058166
937.101108	2756.079466
937.403890	2779.382200
937.706632	2802.828606
938.009336	2833.304902
938.312002	2861.260621
938.614628	2885.695093
938.917216	2900.690005
939.219765	2908.612179
939.522275	2920.859662
939.824747	2919.705238
940.127179	2913.272725
940.429573	2909.285173
940.731929	2903.843247
941.034246	2896.160529
941.336524	2892.939231
941.638763	2886.660474
941.940964	2884.112171
942.243126	2868.023328
942.545250	2858.815661
942.847335	2844.821418
943.149381	2832.538647
943.451389	2818.103302
943.753359	2806.586787
944.055290	2800.313071
944.357182	2791.460804
944.659036	2784.405710
944.960851	2781.607869
945.262628	2778.300872
945.564367	2779.243568
945.866067	2776.324740
946.167729	2777.980759
946.469352	2774.434307
946.770937	2774.119235
947.072484	2766.943153
947.373992	2766.925509
947.675462	2764.198244
947.976893	2758.355547
948.278286	2756.213057
948.579641	2750.922366
948.880958	2748.449680
949.182236	2745.717374
949.483476	2745.719895
949.784678	2744.288207
950.085841	2746.047570
950.386967	2752.351533
950.688054	2754.065525
950.989103	2762.602719
951.290114	2772.634615
951.591087	2779.125101
951.892021	2794.263686
952.192917	2803.884728
952.493776	2811.133907
952.794596	2814.594659
953.095378	2817.763025
953.396122	2818.436019
953.696828	2814.962664
953.997496	2808.898156
954.298126	2800.396250
954.598718	2794.233439
954.899272	2780.771038
955.199788	2770.913061
955.500266	2760.979468
955.800706	2746.808784
956.101108	2731.236660
956.401472	2721.590412
956.701798	2707.616334
957.002087	2694.731144
957.302337	2686.226718
957.602550	2676.182219
957.902724	2667.634942
958.202861	2659.178407
958.502960	2652.894609
958.803022	2646.494864
959.103045	2636.929274
959.403031	2633.080353
959.702979	2628.608850
960.002889	2623.933180
960.302762	2620.260699
960.602596	2615.317848
960.902393	2611.350460
961.202153	2608.282918
961.501875	2607.735952
961.801559	2603.914758
962.101205	2602.316712
962.400814	2600.580035
962.700385	2598.460229
962.999918	2597.371340
963.299414	2594.336566
963.598873	2593.454364
963.898293	2591.329517
964.197677	2589.441605
964.497022	2589.076122
964.796331	2588.635021
965.095601	2589.083683
965.394835	2585.287694
965.694030	2588.080494
965.993189	2588.892119
966.292309	2588.138467
966.591393	2586.842890
966.890439	2586.605956
967.189447	2587.132757
967.488419	2585.219639
967.787353	2585.607808
968.086249	2588.808940
968.385108	2587.069742
968.683930	2586.971440
968.982714	2589.219794
969.281462	2590.210381
969.580172	2589.917994
969.878844	2592.773808
970.177480	2600.317895
970.476078	2600.229674
970.774639	2601.729418
971.073162	2602.538523
971.371649	2604.822166
971.670098	2605.989193
971.968510	2607.826693
972.266885	2605.137238
972.565223	2609.780140
972.863524	2613.034205
973.161788	2614.642333
973.460014	2613.966819
973.758204	2616.865482
974.056356	2614.176027
974.354471	2615.597632
974.652550	2614.702827
974.950591	2615.784155
975.248595	2616.043774
975.546563	2614.047477
975.844493	2611.962960
976.142386	2612.227621
976.440243	2609.865840
976.738062	2605.863164
977.035845	2604.817124
977.333590	2604.590272
977.631299	2600.048193
977.928971	2600.010384
978.226606	2599.728080
978.524204	2596.421083
978.821765	2591.311873
979.119290	2595.710280
979.416777	2594.228181
979.714228	2593.923191
980.011642	2596.630291
980.309020	2602.278903
980.606360	2601.792432
980.903664	2612.005810
981.200931	2625.523664
981.498162	2639.472537
981.795356	2669.686692
982.092513	2704.866384
982.389633	2746.657550
982.686717	2784.536780
982.983764	2810.702889
983.280775	2828.026814
983.577749	2823.817450
983.874686	2817.205977
984.171587	2804.517393
984.468451	2789.091462
984.765279	2771.190325
985.062070	2752.598549
985.358824	2735.004922
985.655543	2718.376677
985.952224	2699.381609
986.248869	2673.560819
986.545478	2645.126191
986.842050	2631.134468
987.138586	2614.458331
987.435086	2602.389809
987.731549	2592.458736
988.027975	2588.524115
988.324366	2582.109247
988.620719	2577.708320
988.917037	2571.900910
989.213318	2573.561971
989.509563	2570.759089
989.805772	2568.457802
990.101944	2565.523851
990.398080	2564.974365
990.694180	2564.175342
990.990244	2566.206927
991.286271	2565.846485
991.582262	2567.963769
991.878217	2568.180539
992.174136	2568.218347
992.470019	2568.082236
992.765865	2567.774726
993.061676	2571.071641
993.357450	2574.103895
993.653188	2579.049267
993.948890	2581.592529
994.244556	2590.210381
994.540186	2599.901999
994.835780	2607.461210
995.131337	2622.559465
995.426859	2636.273924
995.722345	2651.498209
996.017795	2672.323216
996.313208	2684.868127
996.608586	2690.088242
996.903928	2696.908923
997.199234	2692.054292
997.494504	2690.128571
997.789738	2682.150945
998.084936	2675.100891
998.380099	2664.872390
998.675225	2652.950061
998.970316	2644.117960
999.265371	2628.762605
999.560390	2615.990842
999.855373	2606.541199
1000.150320	2597.814962
1000.445232	2586.580750
1000.740108	2582.734350
1001.034948	2579.646643
1001.329752	2570.864953
1001.624521	2569.193811
1001.919254	2564.883624
1002.213951	2559.749209
1002.508613	2558.927501
1002.803239	2558.191492
1003.097829	2554.453477
1003.392384	2560.008828
1003.686903	2553.931718
1003.981386	2555.567572
1004.275834	2555.081101
1004.570246	2554.766028
1004.864623	2550.672612
1005.158964	2553.760318
1005.453270	2549.855945
1005.747540	2549.709751
1006.041775	2548.179761
1006.335974	2549.306459
1006.630138	2548.988866
1006.924266	2550.778476
1007.218359	2548.572971
1007.512416	2548.444422
1007.806438	2547.111036
1008.100425	2546.947199
1008.394376	2546.480892
1008.688292	2546.916952
1008.982172	2547.458876
1009.276017	2546.526263
1009.569827	2549.031716
1009.863602	2547.489123
1010.157341	2547.899977
1010.451045	2546.276725
1010.744714	2546.369987
1011.038347	2546.778320
1011.331945	2544.557692
1011.625508	2543.554502
1011.919036	2542.425284
1012.212528	2544.915614
1012.505986	2543.534338
1012.799408	2543.912424
1013.092795	2542.914276
1013.386147	2541.817825
1013.679464	2543.516694
1013.972745	2543.972918
1014.265992	2544.151879
1014.559204	2543.113401
1014.852380	2543.546941
1015.145521	2544.595501
1015.438628	2542.301776
1015.731699	2546.196067
1016.024736	2540.905376
1016.317737	2544.779503
1016.610703	2546.067518
1016.903635	2543.420912
1017.196531	2542.148020
1017.489393	2542.427804
1017.782219	2542.203473
1018.075011	2542.775644
1018.367768	2547.327806
1018.660490	2547.582384
1018.953177	2547.582384
1019.245829	2547.582384
