Dividing Wavelength (nm)	Counts (n)	Blue Motor Position (mm): 29.400000	Red Motor Position (mm): 0.000000	
326.493990	2053.393032
326.888308	2053.393032
327.282561	2053.393032
327.676750	2029.508045
328.070874	2031.660617
328.464933	2036.658921
328.858929	2043.613193
329.252859	2057.451160
329.646726	2067.722511
330.040528	2086.334451
330.434265	2102.861874
330.827938	2126.782149
331.221547	2144.302679
331.615091	2166.511483
332.008571	2186.247600
332.401986	2206.558409
332.795338	2226.846533
333.188625	2246.902763
333.581847	2265.121493
333.975006	2279.818977
334.368100	2300.722122
334.761129	2316.783238
335.154095	2331.579024
335.546996	2384.861500
335.939833	2486.876810
336.332606	2497.785867
336.725315	2514.419154
337.117960	2522.149763
337.510540	2527.700073
337.903056	2538.936805
338.295508	2547.970553
338.687896	2554.022458
339.080220	2558.844322
339.472480	2563.298181
339.864676	2565.503686
340.256807	2569.929819
340.648875	2571.991651
341.040879	2570.759089
341.432818	2574.827300
341.824694	2576.251426
342.216506	2574.870150
342.608253	2575.928792
342.999937	2573.922413
343.391557	2571.321178
343.783113	2571.691703
344.174605	2566.776577
344.566033	2566.501835
344.957397	2568.341856
345.348697	2562.095866
345.739934	2562.065619
346.131106	2563.366237
346.522215	2560.565876
346.913260	2559.827347
347.304241	2555.786862
347.695159	2553.107489
348.086012	2555.403734
348.476802	2552.752088
348.867528	2546.669935
349.258191	2544.776982
349.648789	2544.156920
350.039324	2540.875129
350.429796	2546.236396
350.820203	2545.407126
351.210548	2546.848896
351.600828	2541.275901
351.991045	2539.939995
352.381198	2542.538710
352.771288	2541.837989
353.161314	2543.559543
353.551276	2543.315047
353.941175	2540.285314
354.331010	2539.909748
354.720782	2545.495347
355.110490	2546.813608
355.500135	2542.395037
355.889717	2541.313709
356.279235	2542.291693
356.668689	2543.375541
357.058080	2544.275387
357.447408	2542.027033
357.836672	2544.890408
358.225873	2543.831766
358.615010	2544.313196
359.004084	2546.687579
359.393095	2547.673125
359.782043	2545.873433
360.170927	2545.162630
360.559748	2547.242106
360.948505	2547.103475
361.337199	2550.297046
361.725830	2549.124977
362.114398	2552.825184
362.502903	2551.660678
362.891344	2551.675801
363.279722	2551.219577
363.668037	2551.610266
364.056289	2551.363250
364.444478	2555.065977
364.832603	2551.731254
365.220665	2553.014228
365.608665	2555.076059
365.996601	2554.153528
366.384474	2554.168652
366.772284	2554.619835
367.160031	2555.635628
367.547715	2555.005483
367.935336	2553.258723
368.322893	2555.287788
368.710388	2552.212684
369.097820	2552.747046
369.485189	2551.821995
369.872495	2560.016390
370.259738	2557.697459
370.646918	2558.350289
371.034035	2556.099414
371.421090	2556.439692
371.808081	2560.152501
372.195010	2559.807182
372.581875	2560.921277
372.968678	2562.070660
373.355418	2557.730227
373.742096	2560.727193
374.128710	2557.256358
374.515262	2562.819272
374.901751	2560.891030
375.288177	2562.234498
375.674540	2563.023438
376.060841	2563.593089
376.447079	2565.816238
376.833254	2567.817576
377.219367	2562.277348
377.605417	2566.262380
377.991404	2566.116186
378.377329	2563.199879
378.763191	2563.557801
379.148991	2564.218192
379.534727	2567.348748
379.920402	2565.450754
380.306013	2562.320197
380.691563	2567.401681
381.077049	2568.336815
381.462474	2567.517627
381.847835	2566.174160
382.233134	2568.591393
382.618371	2566.118707
383.003545	2567.749520
383.388657	2569.085426
383.773706	2570.133986
384.158693	2568.989644
384.543618	2570.565005
384.928480	2569.135837
385.313280	2567.938563
385.698017	2571.477453
386.082692	2572.256312
386.467305	2567.961249
386.851856	2572.173133
387.236344	2571.283369
387.620770	2565.400342
388.005133	2568.901424
388.389435	2573.168761
388.773674	2568.248594
389.157851	2573.022567
389.541965	2572.967114
389.926018	2571.734552
390.310008	2574.817218
390.693936	2575.638926
391.077802	2573.672876
391.461606	2576.838721
391.845348	2574.895356
392.229027	2576.516087
392.612645	2575.031467
392.996200	2575.689338
393.379694	2577.299986
393.763125	2577.660429
394.146494	2575.409553
394.529801	2578.227558
394.913047	2578.300655
395.296230	2578.777044
395.679351	2578.262847
396.062410	2577.446180
396.445408	2580.758218
396.828343	2582.930955
397.211217	2578.237641
397.594028	2580.846438
397.976778	2581.216963
398.359466	2577.418453
398.742092	2579.457600
399.124656	2580.213773
399.507158	2581.532035
399.889598	2580.571695
400.271977	2584.092941
400.654294	2581.015317
401.036549	2581.532035
401.418742	2581.481623
401.800874	2582.580595
402.182944	2582.751994
402.564952	2583.619072
402.946898	2584.453383
403.328783	2585.138980
403.710606	2585.874989
404.092367	2585.542273
404.474067	2583.482961
404.855705	2586.666450
405.237282	2586.822726
405.618797	2584.897005
406.000250	2589.113930
406.381642	2587.830957
406.762972	2588.665267
407.144240	2586.860534
407.525447	2590.991760
407.906593	2582.855338
408.287677	2588.970257
408.668700	2588.060329
409.049661	2591.755495
409.430560	2590.328848
409.811399	2587.735175
410.192176	2590.475042
410.572891	2592.887234
410.953545	2590.059147
411.334138	2596.100969
411.714669	2588.292222
412.095139	2596.751278
412.475547	2594.354210
412.855894	2592.965372
413.236180	2594.253387
413.616405	2595.644745
413.996568	2596.383274
414.376670	2593.227512
414.756711	2594.187852
415.136691	2599.791094
415.516609	2597.827565
415.896466	2596.153902
416.276262	2597.719180
416.655997	2599.266814
417.035670	2595.531319
417.415283	2600.471650
417.794834	2598.858481
418.174324	2599.821341
418.553753	2601.976434
418.933121	2602.583893
419.312428	2600.388471
419.691674	2604.991044
420.070859	2600.431321
420.449983	2603.062803
420.829045	2605.850561
421.208047	2605.570777
421.586988	2605.694285
421.965867	2605.767382
422.344686	2605.182608
422.723444	2607.680500
423.102141	2606.810901
423.480777	2608.655963
423.859352	2607.342743
424.237866	2609.785182
424.616319	2612.295676
424.994712	2614.748197
425.373044	2609.026488
425.751314	2609.941457
426.129524	2610.369955
426.507673	2611.403392
426.885762	2611.753752
427.263789	2613.878598
427.641756	2615.877416
428.019662	2620.442181
428.397508	2622.166255
428.775292	2622.254476
429.153016	2625.022069
429.530679	2628.676906
429.908282	2628.316463
430.285824	2634.675879
430.663305	2632.223357
431.040726	2637.077988
431.418086	2640.566467
431.795385	2644.362456
432.172624	2649.998466
432.549802	2650.971408
432.926920	2654.016265
433.303977	2661.099087
433.680974	2664.912719
434.057910	2673.278514
434.434786	2679.910152
434.811601	2687.194619
435.188355	2698.960673
435.565050	2700.495704
435.941683	2713.010368
436.318257	2728.743809
436.694770	2736.660942
437.071222	2752.349012
437.447614	2758.945362
437.823946	2771.376847
438.200218	2787.458128
438.576429	2799.796352
438.952580	2817.347129
439.328670	2837.978052
439.704700	2855.952286
440.080670	2870.332177
440.456580	2901.340314
440.832429	2923.617173
441.208218	2933.316353
441.583947	2962.318111
441.959616	2990.646875
442.335224	3019.389014
442.710773	3048.458828
443.086261	3088.694797
443.461689	3101.169132
443.837057	3147.754435
444.212365	3193.243287
444.587612	3226.469532
444.962800	3249.603387
445.337927	3303.087508
445.712995	3289.509160
446.088002	3401.289185
446.462949	3452.950930
446.837837	3499.384998
447.212664	3555.082186
447.587431	3739.767378
447.962139	3941.968059
448.336786	4116.684369
448.711374	4111.509624
449.085901	3985.085047
449.460369	4045.465468
449.834776	4107.769088
450.209124	4355.806460
450.583412	4392.145618
450.957640	4500.432123
451.331808	4488.661029
451.705917	4462.295794
452.079965	4523.200494
452.453954	4647.616171
452.827883	4716.848857
453.201752	4785.579949
453.575562	4878.896748
453.949311	5064.902722
454.323001	5182.298592
454.696632	5248.975413
455.070202	5532.749525
455.443713	5651.614892
455.817164	5807.328572
456.190556	6023.321850
456.563888	6065.165948
456.937160	6249.420121
457.310373	6173.936403
457.683526	6290.939064
458.056619	6422.450165
458.429653	6564.978707
458.802628	6746.979485
459.175542	6890.211268
459.548398	7264.146417
459.921194	7647.846280
460.293930	7929.278776
460.666607	8459.925753
461.039224	8963.640366
461.411782	9242.695958
461.784280	9173.017129
462.156719	9262.638762
462.529099	9356.391621
462.901419	9178.431328
463.273680	9117.428326
463.645882	9379.021360
464.018024	9494.247014
464.390106	9871.075784
464.762130	10724.565816
465.134094	11904.178172
465.505999	13488.015449
465.877845	14928.767136
466.249631	15698.992429
466.621358	15485.199615
466.993026	15120.429284
467.364634	14819.784951
467.736184	14507.976983
468.107674	14292.389518
468.479105	14336.255118
468.850477	14293.342296
469.221790	14126.520433
469.593043	13805.431701
469.964238	13671.518490
470.335373	13877.764697
470.706449	14661.840560
471.077467	15676.435786
471.448425	17664.233324
471.819324	18995.254215
472.190164	18708.863744
472.560945	17443.249304
472.931667	16407.821510
473.302330	16324.503839
473.672934	16054.061059
474.043479	16517.849733
474.413965	16454.608458
474.784393	16424.664005
475.154761	17052.365796
475.525070	17263.849762
475.895321	17208.709621
476.265513	17754.550636
476.635645	18368.469913
477.005719	18522.734262
477.375734	18937.044012
477.745691	19553.435975
478.115588	20242.816284
478.485427	21464.945731
478.855207	23244.999839
479.224928	24908.986422
479.594591	26054.218108
479.964194	25651.288764
480.333739	26066.044655
480.703226	26414.053149
481.072653	26972.996123
481.442022	27506.486311
481.811333	27844.785543
482.180584	27450.136293
482.549777	27312.943812
482.918912	27201.690588
483.287988	27217.736581
483.657005	27111.133821
484.025964	26830.991860
484.394864	27067.726966
484.763706	27061.445688
485.132489	26645.525290
485.501213	26762.865707
485.869879	26994.882292
486.238487	26999.079053
486.607036	27295.438405
486.975527	27046.463379
487.343959	27417.260409
487.712333	27755.113498
488.080648	27778.723742
488.448905	28200.741416
488.817104	28177.572273
489.185244	29077.201465
489.553326	30258.343811
489.921350	32186.882585
490.289315	34542.656627
490.657222	35230.010392
491.025070	35637.701107
491.392861	35257.630874
491.760593	34478.661700
492.128267	33503.435365
492.495883	32589.607763
492.863440	31803.003761
493.230939	30953.584461
493.598380	30456.985437
493.965763	30372.684742
494.333088	29947.869228
494.700354	29771.265006
495.067563	29769.969429
495.434713	29705.057012
495.801805	30007.652271
496.168839	29877.328362
496.535815	29753.106770
496.902733	29921.783777
497.269593	29740.672764
497.636395	29914.237170
498.003139	30216.293026
498.369825	29983.742079
498.736453	30403.632385
499.103023	30258.399264
499.469535	30348.348572
499.835989	30499.868012
500.202385	30380.112882
500.568723	30465.378958
500.935003	30800.184670
501.301226	30704.347295
501.667390	31397.382440
502.033497	31590.887131
502.399546	31403.530127
502.765537	31020.409997
503.131470	31486.850318
503.497345	31921.871648
503.863163	30924.870049
504.228923	31687.929342
504.594625	32090.772987
504.960269	31601.982710
505.325856	32267.946860
505.691385	31963.859418
506.056856	32271.289145
506.422270	32772.324384
506.787625	32329.393484
507.152924	32787.047074
507.518164	32994.926615
507.883347	32574.862388
508.248472	32738.326843
508.613540	33408.281065
508.978550	33657.399765
509.343503	33524.517470
509.708398	33879.265987
510.073236	34477.537523
510.438016	34602.883292
510.802738	34292.227228
511.167403	34863.200915
511.532010	35114.953618
511.896561	35608.351509
512.261053	36354.328852
512.625488	36148.594323
512.989866	36092.014933
513.354186	36149.259755
513.718449	36112.348427
514.082655	36998.285845
514.446803	36729.136120
514.810894	37319.974475
515.174927	37342.924328
515.538904	37354.329938
515.902822	38001.004112
516.266684	37701.632671
516.630488	38074.978004
516.994235	38077.548992
517.357925	38673.310033
517.721558	38934.232595
518.085133	39323.472686
518.448651	39514.028301
518.812112	39406.261035
519.175516	39573.224050
519.538863	40016.412050
519.902152	40083.277914
520.265385	40619.122321
520.628560	40654.559112
520.991678	40620.604420
521.354739	40845.691940
521.717743	41209.738865
522.080690	41119.242591
522.443580	41806.447643
522.806413	41841.307221
523.169189	41963.814822
523.531908	42202.604197
523.894569	42067.138311
524.257174	42280.661423
524.619722	42616.876138
524.982213	42743.565375
525.344647	42780.592650
525.707025	42925.540947
526.069345	43362.903893
526.431608	43283.977067
526.793815	43677.136656
527.155964	43207.333885
527.518057	43478.336233
527.880093	43342.247765
528.242072	43969.982324
528.603995	43714.176534
528.965860	43639.534689
529.327669	43863.624060
529.689421	43937.439155
530.051117	43876.486564
530.412755	44147.105785
530.774337	44226.524123
531.135862	44166.962890
531.497331	44327.427858
531.858743	44310.650898
532.220098	44736.393984
532.581396	44455.768073
532.942638	44224.510182
533.303824	44471.864477
533.664953	44538.190938
534.026025	44219.153956
534.387040	44788.867355
534.747999	44878.257095
535.108902	45183.231779
535.469748	44510.976269
535.830537	44761.761070
536.191270	45028.995156
536.551947	44759.895843
536.912567	45046.818156
537.273131	45200.018821
537.633638	44818.242158
537.994089	45020.233631
538.354483	44767.727276
538.714821	45411.046562
539.075103	45697.545418
539.435328	45575.448672
539.795497	45317.034084
540.155609	45424.569458
540.515665	46014.797832
540.875665	45341.143403
541.235609	45602.060923
541.595496	45732.752836
541.955328	46312.740107
542.315102	45752.352842
542.674821	45634.883875
543.034483	45525.967226
543.394090	45539.159926
543.753640	45522.173758
544.113134	46576.039572
544.472571	45694.130036
544.831953	46825.054928
545.191278	46073.638180
545.550548	45767.441016
545.909761	46405.220074
546.268918	46548.706436
546.628019	46976.460943
546.987064	46407.508758
547.346053	45699.655141
547.704986	46597.955988
548.063863	46257.872188
548.422684	46456.165975
548.781449	46060.692497
549.140158	46575.636280
549.498811	46352.625716
549.857408	45742.084012
550.215949	46588.957529
550.574434	46425.009123
550.932864	46341.477204
551.291237	47055.150834
551.649555	46816.802559
552.007817	47004.464552
552.366022	46658.147365
552.724173	46728.804178
553.082267	47133.376938
553.440305	47487.298706
553.798288	46727.667397
554.156215	47115.490925
554.514086	47329.014037
554.871902	46954.118549
555.229661	47123.113149
555.587365	46798.901422
555.945014	46917.660924
556.302606	46944.379040
556.660143	47044.781180
557.017625	47244.494052
557.375050	46960.747666
557.732421	47363.336733
558.089735	47421.854447
558.446994	47285.133313
558.804197	47770.573743
559.161345	47637.943506
559.518437	46997.411978
559.875474	47245.981192
560.232455	47455.625136
560.589381	47502.570882
560.946251	47303.692321
561.303065	47974.969847
561.659825	47656.706681
562.016528	47472.485275
562.373177	47050.628919
562.729770	47671.507509
563.086307	47202.309676
563.442789	47721.926609
563.799216	47591.758975
564.155587	47465.215932
564.511904	47435.606714
564.868164	47491.228285
565.224370	47806.895257
565.580520	47532.369142
565.936615	47722.670179
566.292654	47385.885814
566.648638	47753.239736
567.004567	47678.653344
567.360441	47782.357441
567.716260	47501.683638
568.072023	47846.347327
568.427732	47791.393709
568.783385	47341.642127
569.138982	47730.063031
569.494525	47874.398828
569.850013	47473.160790
570.205445	47584.721525
570.560823	47382.092346
570.916145	47245.593023
571.271412	47475.562900
571.626625	47124.325547
571.981782	47204.789924
572.336884	46790.021429
572.691931	47124.282697
573.046923	46793.729198
573.401860	46632.087121
573.756743	46641.478790
574.111570	46798.379663
574.466342	46701.791155
574.821059	46846.154677
575.175722	46335.367326
575.530330	46452.092723
575.884882	46076.468788
576.239380	45982.826834
576.593823	46069.814465
576.948211	46006.976482
577.302544	45558.739767
577.656823	45559.221197
578.011047	45820.826835
578.365216	45630.818185
578.719330	45360.937493
579.073389	45332.109655
579.427394	45382.848868
579.781344	45324.772255
580.135239	45082.625472
580.489080	45145.304658
580.842866	44630.882634
581.196597	45118.402540
581.550273	45111.634791
581.903895	45056.035906
582.257463	45493.489592
582.610975	44921.767293
582.964434	45268.117248
583.317837	44757.551707
583.671186	44714.512856
584.024481	44982.913969
584.377721	44549.914142
584.730906	44756.301501
585.084037	44859.751019
585.437113	44583.415130
585.790135	44701.110948
586.143103	44257.373463
586.496016	44422.214153
586.848874	44520.826684
587.201679	44556.031582
587.554428	44042.756421
587.907124	44329.918188
588.259765	44091.922794
588.612352	44260.433444
588.964884	43703.617837
589.317362	44036.061768
589.669786	44019.337741
590.022155	43864.375192
590.374470	44325.532384
590.726731	43898.755861
591.078937	43245.054318
591.431090	43569.077002
591.783188	43112.562713
592.135232	42888.390163
592.487222	43165.063810
592.839157	43310.042353
593.191038	42949.388125
593.542866	42765.983386
593.894639	42175.825588
594.246358	42470.884322
594.598022	42448.736013
594.949633	42036.599001
595.301190	42020.235415
595.652692	41959.479429
596.004141	42425.216510
596.355535	41339.150325
596.706876	41365.139994
597.058162	41085.101377
597.409395	41577.725451
597.760573	41785.791515
598.111698	41397.151321
598.462768	41304.257979
598.813785	41338.918432
599.164748	40938.832298
599.515657	41219.911913
599.866511	40709.820241
600.217312	41404.236662
600.568060	40350.728770
600.918753	41189.629702
601.269392	41092.080854
601.619978	40806.338172
601.970510	41024.816739
602.320988	41153.265339
602.671412	41404.156004
603.021783	41300.605663
603.372100	40852.782323
603.722363	40982.246715
604.072572	40989.127890
604.422728	40991.182160
604.772830	40774.687288
605.122878	40921.301686
605.472872	40790.836624
605.822813	41033.013655
606.172701	40796.086986
606.522534	41134.000569
606.872314	41336.859121
607.222041	41161.159786
607.571714	41504.905984
607.921333	40984.873156
608.270899	41216.793959
608.620411	41601.232352
608.969870	41344.960255
609.319276	41362.243851
609.668627	41383.641028
610.017926	41773.586881
610.367171	41926.114553
610.716362	41953.931639
611.065500	41844.536080
611.414585	42073.016296
611.763616	42247.838470
612.112594	42149.944304
612.461518	42271.799075
612.810389	42659.189062
613.159207	42468.560350
613.507971	42428.793208
613.856682	42927.156636
614.205340	42764.453396
614.553945	43439.668063
614.902496	42775.301959
615.250994	43197.609499
615.599439	43265.670117
615.947830	43367.514028
616.296169	43376.714133
616.644454	43426.538378
616.992686	43567.534409
617.340864	44024.336045
617.688990	43554.442533
618.037063	44216.199839
618.385082	44052.495930
618.733048	44397.220112
619.080961	44249.985653
619.428821	44271.672696
619.776628	44283.269871
620.124382	44098.320018
620.472083	44210.135331
620.819731	44315.155169
621.167326	43865.290161
621.514868	43843.066235
621.862357	43324.576000
622.209793	43399.991661
622.557176	42953.292498
622.904506	42717.931108
623.251783	42342.327338
623.599007	42046.073849
623.946179	41950.377626
624.293297	41702.733464
624.640363	41158.493015
624.987376	41010.094049
625.334336	40808.795735
625.681243	40395.748794
626.028097	40307.195886
626.374899	40134.836315
626.721647	40102.031007
627.068343	39870.155574
627.414987	39609.727045
627.761577	39344.383392
628.108115	39678.069968
628.454600	38917.264071
628.801032	39146.608844
629.147412	39044.026405
629.493739	38962.788211
629.840014	38524.991725
630.186236	38963.839291
630.532405	38404.500587
630.878521	38635.236719
631.224585	38413.811598
631.570597	38069.848630
631.916556	38243.823890
632.262462	38126.780901
632.608316	38069.924247
632.954117	37928.219933
633.299866	37881.380052
633.645562	37796.308060
633.991206	37255.722448
634.336797	36860.569083
634.682336	36756.693588
635.027823	36508.018510
635.373257	36387.625674
635.718639	36052.081433
636.063968	35948.140402
636.409245	35284.648938
636.754470	35259.682624
637.099642	35026.095719
637.444762	34462.429184
637.789829	34599.886326
638.134845	34242.687809
638.479808	34150.409488
638.824719	34098.634317
639.169577	33604.502938
639.514383	33687.860937
639.859137	33301.879952
640.203839	33476.447548
640.548489	33179.647094
640.893086	33175.573842
641.237632	32907.727256
641.582125	33013.621734
641.926566	32812.313337
642.270955	32842.298120
642.615292	32770.328087
642.959576	32655.901457
643.303809	32671.254291
643.647990	32755.736468
643.992118	32703.459702
644.336195	32553.497978
644.680219	32649.761331
645.024192	32864.015411
645.368112	33388.842376
645.711981	33406.327618
646.055797	34124.520642
646.399562	33956.405723
646.743274	34818.317002
647.086935	35229.133232
647.430544	35168.531001
647.774101	35199.498809
648.117606	35482.736038
648.461059	35607.968382
648.804460	35211.917691
649.147810	34694.561716
649.491108	34339.483004
649.834354	34190.370714
650.177548	33354.660832
650.520690	32874.624519
650.863781	32863.849053
651.206820	32675.592204
651.549807	32272.367952
651.892742	31704.174460
652.235626	31599.111773
652.578458	31477.655253
652.921238	30795.496397
653.263967	31102.734560
653.606644	30822.264924
653.949269	30723.922095
654.291843	30332.690748
654.634365	30695.898321
654.976836	30236.432436
655.319255	30317.710959
655.661622	30190.555415
656.003938	30056.377544
656.346203	29867.946775
656.688416	30110.277561
657.030577	29877.043537
657.372687	29709.084894
657.714746	29882.641738
658.056753	30057.597503
658.398708	29441.087073
658.740612	29521.032211
659.082465	29720.072088
659.424266	29619.473343
659.766016	29617.749268
660.107715	29484.095677
660.449362	29593.100547
660.790958	29560.761545
661.132503	29496.118829
661.473996	29570.435519
661.815438	29643.933021
662.156829	29763.229407
662.498168	29574.957434
662.839456	29547.803259
663.180693	29671.820684
663.521879	29772.444636
663.863013	29733.473996
664.204097	29702.228924
664.545129	30119.689395
664.886110	30043.744412
665.227040	30153.744910
665.567918	30162.766055
665.908746	30236.371942
666.249522	30319.654324
666.590248	30343.864465
666.930922	30445.060588
667.271545	30436.629258
667.612118	30482.904530
667.952639	30295.592897
668.293109	30341.094351
668.633528	30205.893126
668.973896	30164.611117
669.314213	30144.922891
669.654480	29950.336873
669.994695	29932.647464
670.334859	29855.795073
670.674973	29678.656489
671.015035	29882.624094
671.355047	29825.875825
671.695008	29740.110675
672.034918	29656.830813
672.374777	29761.341494
672.714585	29628.449117
673.054342	29759.377965
673.394049	29621.915782
673.733705	29833.004017
674.073310	29551.379957
674.412864	29615.810945
674.752368	29303.042637
675.091820	29521.183446
675.431223	29125.798188
675.770574	28926.463403
676.109875	28759.223124
676.449125	28570.111799
676.788324	28454.747514
677.127473	27988.465989
677.466571	27886.916986
677.805619	27606.656559
678.144616	27544.105922
678.483562	27497.543304
678.822458	27180.822732
679.161303	27130.141491
679.500098	27042.851392
679.838842	26979.395868
680.177535	27057.899236
680.516179	27315.955902
680.854771	27445.672352
681.193314	28222.395692
681.531805	29261.251471
681.870247	30014.999753
682.208638	30732.204711
682.546978	30990.442858
682.885268	31112.915170
683.223508	30663.584525
683.561697	30396.877239
683.899836	30225.568749
684.237925	29823.451030
684.575963	29679.137919
684.913951	29303.640013
685.251889	29495.153448
685.589776	29520.560863
685.927614	29543.001560
686.265401	29727.384282
686.603137	29840.711941
686.940824	30333.484730
687.278460	30688.646621
687.616046	30864.819824
687.953582	31523.161749
688.291068	31419.349268
688.628504	31765.192587
688.965889	31739.850706
689.303224	31469.889356
689.640510	31154.471922
689.977745	30533.991583
690.314930	29779.837488
690.652065	29346.573000
690.989150	28659.826694
691.326185	27820.099012
691.663170	27180.938678
692.000105	26446.825690
692.336990	25857.718972
692.673825	25429.992192
693.010610	24953.703977
693.347345	24445.575834
693.684030	23829.892153
694.020665	23632.624241
694.357251	22948.159057
694.693786	22961.936530
695.030272	22737.975709
695.366707	22255.882605
695.703093	21975.113021
696.039429	22055.842059
696.375716	21816.702323
696.711952	21818.151655
697.048139	21686.075945
697.384276	21527.773632
697.720363	21642.439717
698.056400	21539.040610
698.392388	21382.653936
698.728326	21384.362887
699.064214	21208.971062
699.400053	21214.032381
699.735842	20833.536171
700.071581	20622.137905
700.407270	20378.947602
700.742910	20204.309430
701.078501	19957.779363
701.414042	19755.268651
701.749533	19453.800089
702.084974	19140.605804
702.420366	19361.821717
702.755709	18969.090627
703.091002	18671.806223
703.426246	18733.361232
703.761440	18674.898970
704.096584	18423.133665
704.431679	18366.816415
704.766725	18314.930339
705.101721	18253.813910
705.436668	18370.962764
705.771565	18093.391792
706.106413	18423.047965
706.441212	18494.087905
706.775961	18603.511191
707.110661	18683.947842
707.445311	19056.229491
707.779913	18926.197969
708.114465	19230.111490
708.448967	19545.057577
708.783421	20176.515028
709.117825	20539.387364
709.452180	20777.168509
709.786485	21235.139692
710.120742	22001.901713
710.454949	22118.317078
710.789107	22621.416670
711.123216	23331.523683
711.457275	23549.067116
711.791286	24104.198978
712.125247	24241.945986
712.459159	23967.371980
712.793023	24698.908938
713.126837	23663.851668
713.460602	23907.321755
713.794318	23553.410070
714.127985	23299.290546
714.461602	22397.841497
714.795171	22362.122402
715.128691	21391.266747
715.462162	20873.174763
715.795584	20438.695358
716.128957	20174.717857
716.462281	19795.862542
716.795556	19525.707108
717.128782	19039.306338
717.461960	18449.256924
717.795088	18409.381397
718.128167	18074.905881
718.461198	17622.600955
718.794180	17496.050349
719.127113	17163.674473
719.459997	16969.743805
719.792833	16613.263652
720.125619	16649.580125
720.458357	16317.983107
720.791046	16189.983170
721.123686	16035.922987
721.456278	15822.573795
721.788821	15813.829914
722.121315	15557.734257
722.453761	15652.054246
722.786158	15545.552309
723.118506	15615.004285
723.450805	15504.655948
723.783056	15686.288721
724.115259	15580.522793
724.447412	15582.158648
724.779518	15802.663758
725.111574	15853.402971
725.443582	16116.732684
725.775542	16082.346973
726.107453	16594.374449
726.439315	16515.911410
726.771129	16947.928212
727.102895	17357.811828
727.434612	17623.014329
727.766281	17796.336760
728.097901	18113.894165
728.429473	18182.007715
728.760996	18198.182257
729.092471	18331.997165
729.423897	18206.782465
729.755276	18083.075071
730.086606	18204.193833
730.417887	18794.049162
730.749120	19347.661116
731.080305	19558.056192
731.411442	19956.501430
731.742530	20064.009077
732.073570	20218.016327
732.404562	20536.549195
732.735506	20383.986235
733.066401	20165.860550
733.397249	19665.987296
733.728048	19026.595068
734.058798	18173.979677
734.389501	17413.420797
734.720156	16906.784835
735.050762	16337.555387
735.381320	15949.373938
735.711831	15685.746797
736.042293	15320.802547
736.372707	15365.535226
736.703073	15162.049051
737.033391	15367.990267
737.363661	15361.363671
737.693883	15492.869731
738.024056	15703.368151
738.354182	15925.816626
738.684260	16289.951771
739.014290	16571.850573
739.344272	16789.005837
739.674207	17140.117161
740.004093	17312.834654
740.333931	17362.389196
740.663722	17441.419365
740.993464	17468.722254
741.323159	17308.544632
741.652806	17008.230494
741.982405	16838.507447
742.311956	16467.244111
742.641460	16353.326637
742.970915	16022.803385
743.300323	15681.691189
743.629683	15455.580316
743.958996	15149.839376
744.288260	14832.302136
744.617477	14534.243915
744.946647	14509.872457
745.275768	14194.881000
745.604842	13980.702538
745.933869	13808.390858
746.262847	13784.437816
746.591778	13705.064848
746.920662	13590.149226
747.249498	13608.287297
747.578286	13758.788425
747.907027	13939.075210
748.235720	14199.922154
748.564365	14277.061890
748.892963	14198.780333
749.221514	14300.130210
749.550017	14164.520651
749.878473	14139.723215
750.206881	13911.795006
750.535242	13841.188605
750.863555	13760.925874
751.191821	13659.991892
751.520039	13680.723637
751.848210	13609.950878
752.176334	13661.796625
752.504411	13574.055342
752.832440	13403.135021
753.160421	13524.493238
753.488356	13411.775559
753.816243	13310.765959
754.144082	13159.685099
754.471875	13100.746449
754.799620	13075.603694
755.127318	13041.563303
755.454969	13024.335159
755.782572	13006.194567
756.110129	13013.395855
756.437638	12921.873707
756.765100	12935.411726
757.092515	12955.967031
757.419882	12995.988751
757.747203	13012.032223
758.074477	13100.517076
758.401703	13083.082246
758.728882	13284.236887
759.056014	13328.546109
759.383099	13496.555163
759.710138	13627.224392
760.037129	13741.406526
760.364073	13802.480105
760.690970	13832.079240
761.017820	13850.676057
761.344623	14076.691148
761.671379	14453.436740
761.998088	15171.717984
762.324751	16949.642204
762.651366	20388.026720
762.977935	24874.250351
763.304456	27813.076685
763.630931	28837.214815
763.957359	27601.985930
764.283740	25310.065663
764.610074	23031.650647
764.936362	20391.921012
765.262602	18524.511269
765.588796	16606.153105
765.914943	15331.537684
766.241044	14234.053286
766.567097	13448.918780
766.893104	12739.739339
767.219064	12276.923608
767.544978	11806.500775
767.870845	11419.622464
768.196665	11205.484331
768.522438	10967.894750
768.848165	10766.004100
769.173846	10562.641434
769.499479	10428.758470
769.825066	10267.275189
770.150607	10036.271875
770.476101	9952.079565
770.801548	9827.595833
771.126949	9676.063789
771.452303	9564.220750
771.777611	9361.417651
772.102872	9350.760652
772.428087	9211.095485
772.753256	9054.015651
773.078378	8964.696488
773.403453	8793.055281
773.728482	8668.707660
774.053465	8604.846323
774.378401	8500.406218
774.703291	8377.666725
775.028135	8257.778004
775.352932	8219.558496
775.677683	8117.674257
776.002388	8009.549068
776.327046	8023.717231
776.651658	7922.551356
776.976224	7821.619894
777.300743	7825.345307
777.625216	7738.501349
777.949643	7694.539967
778.274024	7704.735701
778.598359	7619.993905
778.922647	7642.079200
779.246889	7593.023732
779.571086	7596.471881
779.895236	7612.275898
780.219339	7619.338555
780.543397	7622.544729
780.867409	7702.174795
781.191374	7714.056794
781.515294	7678.836773
781.839167	7773.030733
782.162995	7744.482678
782.486776	7693.708177
782.810511	7641.799416
783.134201	7553.218781
783.457844	7546.004890
783.781441	7489.228895
784.104993	7424.722290
784.428498	7399.655153
784.751958	7389.250211
785.075372	7355.267793
785.398739	7303.013713
785.722061	7354.564552
786.045337	7361.579318
786.368568	7508.551637
786.691752	7538.687655
787.014891	7883.467290
787.337983	8251.078311
787.661030	8844.739711
787.984031	9478.085075
788.306987	9877.505776
788.629897	10079.482126
788.952760	10020.470379
789.275579	9792.453949
789.598351	9391.553669
789.921078	9032.321046
790.243759	8620.148746
790.566395	8334.224582
790.888984	8077.879388
791.211529	7873.276597
791.534027	7647.158162
791.856480	7450.464942
792.178888	7377.806792
792.501249	7285.599047
792.823566	7125.688606
793.145836	7124.536702
793.468062	7101.438135
793.790241	7052.110445
794.112375	7126.041486
794.434464	7278.906915
794.756507	7320.839233
795.078505	7492.435068
795.400457	7805.722615
795.722364	8152.581726
796.044226	8443.990666
796.366042	8716.903611
796.687812	8664.526023
797.009538	8736.458247
797.331218	8621.522460
797.652852	8540.634626
797.974442	8388.853045
798.295986	8297.895507
798.617484	8099.221113
798.938938	7961.542160
799.260346	7855.443516
799.581709	7660.116448
799.903026	7581.401352
800.224299	7469.807849
800.545526	7305.919938
800.866708	7208.645833
801.187845	7139.148486
801.508936	7033.609410
801.829983	7001.325861
802.150984	6844.382139
802.471940	6800.088040
802.792851	6790.028418
803.113717	6752.320587
803.434538	6721.519137
803.755314	6664.975035
804.076045	6668.937382
804.396731	6614.893692
804.717372	6651.247973
805.037967	6657.073026
805.358518	6694.364962
805.679024	6778.557272
805.999485	6793.910106
806.319901	6838.990625
806.640272	6854.870259
806.960598	6941.182375
807.280879	6935.954698
807.601115	7010.934300
807.921306	6960.827751
808.241453	6972.187992
808.561554	6997.628174
808.881611	6961.644418
809.201623	6967.958463
809.521590	6907.111737
809.841513	6889.434931
810.161390	6928.350118
810.481223	6793.804242
810.801011	6778.816892
811.120755	6753.812769
811.440453	6669.859913
811.760107	6646.237066
812.079716	6612.171469
812.399281	6543.601694
812.718801	6540.191354
813.038276	6491.065310
813.357707	6427.324960
813.677093	6469.927752
813.996434	6376.288319
814.315731	6417.784577
814.634983	6415.074957
814.954191	6426.099960
815.273354	6530.081320
815.592473	6591.875784
815.911547	6719.469908
816.230577	6803.279091
816.549562	6952.908099
816.868502	7050.265382
817.187399	7140.280225
817.506250	7300.571274
817.825058	7326.505490
818.143821	7594.737724
818.462539	7872.333902
818.781213	8241.991631
819.099843	8796.571486
819.418429	9799.314959
819.736970	10774.674885
820.055466	11959.136831
820.373919	13484.716014
820.692327	15836.099211
821.010691	19982.186109
821.329011	28993.745163
821.647286	42032.762683
821.965517	55465.315357
822.283704	60831.830313
822.601847	62778.187046
822.919945	60022.669668
823.237999	55784.377546
823.556010	49549.949817
823.873976	42826.724249
824.191897	36296.811808
824.509775	31459.184466
824.827609	26957.272764
825.145398	24399.212342
825.463144	23052.929357
825.780845	23389.065934
826.098502	25174.884602
826.416116	28995.466717
826.733685	32658.855573
827.051210	33846.158209
827.368692	32040.605945
827.686129	28058.573316
828.003522	23917.121758
828.320872	20197.932370
828.638177	17345.012339
828.955439	15198.247056
829.272656	13390.345614
829.589830	11917.592682
829.906960	10649.674434
830.224046	9707.611330
830.541088	8964.474677
830.858086	8513.364504
831.175041	8132.452399
831.491952	8022.018362
831.808819	8067.852533
832.125642	8471.676683
832.442421	9364.039051
832.759157	11165.321458
833.075849	14113.370583
833.392497	17345.970158
833.709101	19537.828562
834.025662	19353.327373
834.342179	17637.847925
834.658653	15426.044195
834.975083	13497.512983
835.291469	11874.458049
835.607811	10566.616383
835.924110	9649.017999
836.240366	8787.510012
836.556578	7983.995459
836.872746	7338.982345
837.188871	6841.238979
837.504952	6425.142141
837.820990	6115.559842
838.136984	5898.260905
838.452935	5805.420496
838.768842	5835.735474
839.084706	6264.238592
839.400526	7480.734550
839.716303	9065.287671
840.032037	10161.395834
840.347727	10080.765099
840.663373	9097.329245
840.978977	8043.665077
841.294537	7234.005358
841.610054	6641.838659
841.925527	6207.434871
842.240957	5849.623853
842.556344	5520.202093
842.871687	5236.611984
843.186987	4955.033294
843.502244	4731.095158
843.817458	4565.528543
844.132629	4432.341258
844.447756	4342.901106
844.762840	4263.535701
845.077881	4186.335471
845.392879	4125.279536
845.707833	4078.535437
846.022745	4039.244684
846.337613	4006.474663
846.652438	3959.037406
846.967221	3949.071044
847.281960	3916.800098
847.596656	3898.228487
847.911309	3877.002709
848.225919	3853.296683
848.540485	3836.358406
848.855009	3822.636385
849.169490	3803.928663
849.483928	3791.416520
849.798323	3783.716157
850.112675	3761.308228
850.426984	3767.627315
850.741251	3758.800254
851.055474	3752.045108
851.369654	3756.995521
851.683792	3757.643309
851.997887	3760.340327
852.311938	3762.530708
852.625947	3766.775360
852.939914	3755.155500
853.253837	3763.115482
853.567718	3763.007097
853.881555	3755.415119
854.195350	3768.038169
854.509103	3762.059360
854.822812	3760.978033
855.136479	3753.502002
855.450103	3761.940893
855.763685	3750.842793
856.077224	3754.384203
856.390720	3768.953138
856.704173	3791.106489
857.017584	3800.533446
857.330953	3816.395437
857.644278	3838.029549
857.957561	3844.315867
858.270802	3841.334025
858.584000	3845.046835
858.897155	3839.743541
859.210268	3821.023216
859.523339	3798.869866
859.836367	3795.169659
860.149352	3790.730923
860.462295	3783.070889
860.775195	3769.797531
861.088054	3769.731996
861.400869	3762.747478
861.713642	3761.393928
862.026373	3776.698871
862.339062	3782.370169
862.651708	3803.033859
862.964312	3838.223633
863.276873	3850.433308
863.589392	3904.494642
863.901869	3952.589770
864.214303	3996.571317
864.526696	4031.889640
864.839045	4080.521652
865.151353	4104.719190
865.463619	4111.464254
865.775842	4118.093371
866.088023	4139.956855
866.400162	4127.676605
866.712258	4131.901092
867.024313	4136.165908
867.336325	4133.882265
867.648296	4138.197493
867.960224	4141.849809
868.272110	4150.318947
868.583954	4149.237620
868.895755	4161.522912
869.207515	4161.837984
869.519233	4203.646793
869.830909	4220.295204
870.142542	4242.814038
870.454134	4252.301489
870.765684	4287.403044
871.077191	4323.127180
871.388657	4346.059389
871.700081	4385.241757
872.011463	4426.324641
872.322803	4465.323007
872.634101	4495.222090
872.945357	4532.637534
873.256571	4589.224486
873.567744	4618.498467
873.878874	4635.275427
874.189963	4675.387888
874.501010	4684.814845
874.812015	4680.426521
875.122979	4726.926124
875.433900	4718.716605
875.744780	4738.067074
876.055618	4760.054067
876.366415	4761.828553
876.677169	4779.480153
876.987882	4825.100075
877.298554	4879.849526
877.609183	4957.894149
877.919771	5065.061518
878.230317	5212.923602
878.540822	5425.879584
878.851285	5752.243884
879.161707	6208.453184
879.472087	6967.315716
879.782425	8206.549799
880.092722	10387.357994
880.402977	13703.232389
880.713191	17454.788505
881.023363	21174.731545
881.333494	23397.925762
881.643583	24600.727426
881.953631	24588.926084
882.263637	23724.083375
882.573602	22234.714800
882.883526	20667.392343
883.193408	18985.585282
883.503248	17287.286086
883.813048	15742.096815
884.122806	14309.468947
884.432522	12847.796472
884.742197	11593.627971
885.051831	10506.843422
885.361424	9514.144448
885.670975	8695.206485
885.980485	8010.058225
886.289954	7435.880884
886.599382	6969.465768
886.908768	6595.674293
887.218113	6237.462504
887.527417	5950.083967
887.836680	5683.568245
888.145901	5465.835770
888.455082	5305.832067
888.764221	5155.474613
889.073319	5019.623078
889.382376	4948.903251
889.691392	4892.838059
890.000366	4870.268813
890.309300	4847.996995
890.618193	4854.547975
890.927044	4841.627497
891.235855	4863.516187
891.544625	4891.424015
891.853353	4956.550682
892.162041	5071.594854
892.470687	5256.360704
892.779293	5507.760526
893.087858	5876.687288
893.396381	6450.093332
893.704864	7263.387723
894.013306	8419.871265
894.321707	9597.787273
894.630068	10420.065000
894.938387	10627.142997
895.246665	10394.150949
895.554903	9776.599520
895.863100	9070.946367
896.171256	8510.874174
896.479371	8006.902463
896.787446	7507.311513
897.095480	7077.348981
897.403473	6757.512976
897.711425	6443.726354
898.019336	6176.721641
898.327207	5902.848355
898.635038	5675.235218
898.942827	5424.755407
899.250576	5227.356425
899.558284	5037.035223
899.865952	4917.196914
900.173579	4767.653606
900.481165	4660.491278
900.788711	4571.472063
901.096216	4497.644365
901.403681	4432.583233
901.711105	4407.478287
902.018489	4393.267274
902.325832	4464.468531
902.633135	4591.208180
902.940397	4932.872382
903.247619	5727.295214
903.554800	7174.605442
903.861941	9095.010314
904.169041	10610.267735
904.476101	11231.456356
904.783121	10865.324913
905.090100	10119.140883
905.397039	9280.696175
905.703938	8526.040486
906.010796	7833.476688
906.317614	7281.382122
906.624391	6750.331852
906.931129	6326.446431
907.237826	5930.846924
907.544483	5556.246343
907.851099	5182.906051
908.157675	4830.158872
908.464211	4504.528060
908.770707	4271.556177
909.077163	4078.661466
909.383578	3931.243004
909.689954	3818.966425
909.996289	3747.011516
910.302584	3684.017258
910.608839	3652.704130
910.915054	3623.813278
911.221229	3611.515383
911.527363	3620.130715
911.833458	3630.817961
912.139513	3661.379956
912.445527	3690.474976
912.751502	3771.080505
913.057436	3878.706619
913.363331	4007.911392
913.669186	4210.560736
913.975000	4468.584633
914.280775	4889.352101
914.586510	5466.692766
914.892205	6264.518376
915.197859	7301.009854
915.503475	8527.807410
915.809050	9583.316641
916.114585	10240.408359
916.420081	10501.787145
916.725536	10459.917842
917.030952	10013.755562
917.336328	9601.220298
917.641665	9192.380201
917.946961	8703.915078
918.252218	8285.950493
918.557435	7774.767410
918.862612	7346.213881
919.167750	6973.135728
919.472848	6548.768877
919.777906	6169.941289
920.082925	5812.662113
920.387904	5450.810611
920.692843	5185.439231
920.997743	4940.673568
921.302603	4707.366447
921.607423	4546.639339
921.912204	4382.128845
922.216946	4263.732306
922.521647	4144.130931
922.826310	4038.329714
923.130932	3944.143317
923.435516	3849.893904
923.740059	3780.026033
924.044564	3699.455791
924.349028	3643.186432
924.653454	3578.405084
924.957840	3507.516379
925.262186	3462.077939
925.566493	3405.150709
925.870761	3348.886391
926.174989	3310.540854
926.479178	3272.742283
926.783328	3232.120665
927.087438	3202.700491
927.391509	3169.025583
927.695541	3139.242447
927.999533	3112.025257
928.303486	3091.558172
928.607400	3078.325143
928.911275	3067.060685
929.215110	3048.075700
929.518906	3040.574463
929.822663	3038.031201
930.126381	3036.791077
930.430060	3046.041594
930.733699	3047.019578
931.037299	3056.108778
931.340861	3055.609704
931.644383	3062.543811
931.947866	3062.823595
932.251309	3054.989642
932.554714	3056.512071
932.858080	3051.445711
933.161407	3042.081768
933.464694	3032.559028
933.767943	3025.897143
934.071153	3024.823378
934.374323	3013.253930
934.677455	3007.557426
934.980548	2996.416476
935.283602	2995.463698
935.586617	2993.268275
935.889593	2999.468894
936.192530	3005.462826
936.495428	3020.112419
936.798287	3041.038249
937.101108	3073.755338
937.403890	3130.843884
937.706632	3190.480734
938.009336	3270.100718
938.312002	3341.980010
938.614628	3406.826893
938.917216	3459.582568
939.219765	3489.963081
939.522275	3522.244110
939.824747	3527.444060
940.127179	3525.145294
940.429573	3516.416536
940.731929	3512.265146
941.034246	3501.794669
941.336524	3488.680108
941.638763	3472.397181
941.940964	3456.295735
942.243126	3410.917789
942.545250	3389.376939
942.847335	3355.742360
943.149381	3317.502688
943.451389	3283.701751
943.753359	3253.570775
944.055290	3226.719069
944.357182	3200.106817
944.659036	3187.135929
944.960851	3180.133766
945.262628	3163.001405
945.564367	3165.290088
945.866067	3159.286074
946.167729	3157.314983
946.469352	3154.323058
946.770937	3152.011689
947.072484	3134.357568
947.373992	3140.487612
947.675462	3132.270531
947.976893	3114.061883
948.278286	3107.127776
948.579641	3093.859459
948.880958	3091.359047
949.182236	3094.766867
949.483476	3087.502564
949.784678	3088.238573
950.085841	3087.573140
950.386967	3099.858432
950.688054	3118.984570
950.989103	3134.995274
951.290114	3159.848163
951.591087	3188.665919
951.892021	3213.929661
952.192917	3241.736666
952.493776	3268.883279
952.794596	3275.701440
953.095378	3281.234106
953.396122	3275.519958
953.696828	3268.956376
953.997496	3259.501692
954.298126	3234.873135
954.598718	3213.861606
954.899272	3185.719364
955.199788	3158.940755
955.500266	3125.336424
955.800706	3092.526074
956.101108	3054.178017
956.401472	3021.874303
956.701798	2991.355157
957.002087	2949.468210
957.302337	2922.366967
957.602550	2893.077863
957.902724	2867.090715
958.202861	2836.468226
958.502960	2818.539362
958.803022	2798.667134
959.103045	2779.644340
959.403031	2762.867380
959.702979	2746.465986
960.002889	2735.388050
960.302762	2724.163921
960.602596	2711.228320
960.902393	2702.088708
961.202153	2694.975640
961.501875	2686.198992
961.801559	2681.946778
962.101205	2675.116015
962.400814	2668.350786
962.700385	2661.615805
962.999918	2656.010042
963.299414	2649.701038
963.598873	2648.183650
963.898293	2639.250726
964.197677	2643.666777
964.497022	2638.232413
964.796331	2633.420631
965.095601	2632.692185
965.394835	2633.836527
965.694030	2632.046917
965.993189	2631.358799
966.292309	2628.734879
966.591393	2630.474077
966.890439	2628.757564
967.189447	2625.402676
967.488419	2627.088942
967.787353	2629.561628
968.086249	2629.314612
968.385108	2631.908285
968.683930	2634.938019
968.982714	2636.566311
969.281462	2642.441776
969.580172	2647.452683
969.878844	2651.346974
970.177480	2660.713438
970.476078	2671.012516
970.774639	2675.925120
971.073162	2683.496933
971.371649	2690.471369
971.670098	2694.239632
971.968510	2699.144675
972.266885	2703.583411
972.565223	2708.054914
972.863524	2709.721015
973.161788	2715.271326
973.460014	2716.158569
973.758204	2720.609908
974.056356	2721.474466
974.354471	2725.814899
974.652550	2722.515464
974.950591	2721.224928
975.248595	2718.848024
975.546563	2719.881461
975.844493	2715.984649
976.142386	2708.790922
976.440243	2703.701878
976.738062	2699.142154
977.035845	2693.884231
977.333590	2689.805937
977.631299	2681.069618
977.928971	2674.992507
978.226606	2669.714418
978.524204	2668.479336
978.821765	2661.119251
979.119290	2667.816424
979.416777	2664.516989
979.714228	2667.861794
980.011642	2667.932371
980.309020	2678.763290
980.606360	2694.710980
980.903664	2712.904504
981.200931	2751.381111
981.498162	2798.790642
981.795356	2876.381562
982.092513	2965.909933
982.389633	3068.230233
982.686717	3163.102228
982.983764	3236.398084
983.280775	3284.462965
983.577749	3291.480252
983.874686	3277.382665
984.171587	3246.417377
984.468451	3205.969679
984.765279	3164.284378
985.062070	3120.098665
985.358824	3070.239133
985.655543	3015.182171
985.952224	2962.660910
986.248869	2898.308060
986.545478	2840.417970
986.842050	2783.982253
987.138586	2740.088926
987.435086	2702.179449
987.731549	2672.673576
988.027975	2649.937972
988.324366	2631.434417
988.620719	2616.583177
988.917037	2604.713781
989.213318	2598.921495
989.509563	2589.459249
989.805772	2586.845411
990.101944	2580.874164
990.398080	2577.289904
990.694180	2577.667990
990.990244	2578.330902
991.286271	2578.051118
991.582262	2576.344688
991.878217	2581.053125
992.174136	2583.389700
992.470019	2588.342634
992.765865	2592.229363
993.061676	2594.281113
993.357450	2603.866867
993.653188	2612.298197
993.948890	2627.257821
994.244556	2643.944040
994.540186	2668.645694
994.835780	2699.742051
995.131337	2739.617578
995.426859	2781.234824
995.722345	2829.052689
996.017795	2876.494988
996.313208	2916.940165
996.608586	2944.371603
996.903928	2957.478603
997.199234	2957.218984
997.494504	2953.165896
997.789738	2935.494132
998.084936	2913.431522
998.380099	2880.767365
998.675225	2852.889785
998.970316	2822.370639
999.265371	2787.662295
999.560390	2750.526635
999.855373	2719.009341
1000.150320	2690.927594
1000.445232	2666.465395
1000.740108	2644.977477
1001.034948	2625.536267
1001.329752	2611.511777
1001.624521	2602.019284
1001.919254	2589.786924
1002.213951	2583.314083
1002.508613	2571.416960
1002.803239	2567.900755
1003.097829	2558.493962
1003.392384	2556.785011
1003.686903	2553.364588
1003.981386	2548.522559
1004.275834	2543.988042
1004.570246	2544.719009
1004.864623	2541.656508
1005.158964	2535.327339
1005.453270	2535.103008
1005.747540	2533.683923
1006.041775	2531.266690
1006.335974	2533.041176
1006.630138	2531.349869
1006.924266	2528.718387
1007.218359	2531.831299
1007.512416	2523.251255
1007.806438	2524.619928
1008.100425	2522.696728
1008.394376	2518.704134
1008.688292	2527.294261
1008.982172	2524.072963
1009.276017	2526.633869
1009.569827	2521.985926
1009.863602	2522.243024
1010.157341	2521.910308
1010.451045	2521.166738
1010.744714	2520.801254
1011.038347	2517.527025
1011.331945	2518.807478
1011.625508	2519.674557
1011.919036	2519.893847
1012.212528	2519.682118
1012.505986	2515.548372
1012.799408	2515.868485
1013.092795	2512.455624
1013.386147	2515.876047
1013.679464	2511.109636
1013.972745	2514.257837
1014.265992	2513.418485
1014.559204	2513.741118
1014.852380	2513.761283
1015.145521	2513.007631
1015.438628	2515.329082
1015.731699	2514.204905
1016.024736	2513.322703
1016.317737	2514.714061
1016.610703	2518.706655
1016.903635	2516.717920
1017.196531	2518.565503
1017.489393	2517.106089
1017.782219	2519.750174
1018.075011	2521.693539
1018.367768	2522.570699
1018.660490	2525.086235
1018.953177	2525.086235
1019.245829	2525.086235
