Dividing Wavelength (nm)	Counts (n)	Blue Motor Position (mm): 49.800000	Red Motor Position (mm): 0.000000	
326.493990	2130.164763
326.888308	2130.164763
327.282561	2130.164763
327.676750	2096.976327
328.070874	2093.868456
328.464933	2099.464137
328.858929	2107.945878
329.252859	2117.438371
329.646726	2126.356172
330.040528	2137.650877
330.434265	2157.268527
330.827938	2173.652277
331.221547	2192.556604
331.615091	2210.535879
332.008571	2231.139075
332.401986	2250.398803
332.795338	2268.869591
333.188625	2287.766356
333.581847	2306.771506
333.975006	2327.147850
334.368100	2341.847855
334.761129	2359.698580
335.154095	2378.008051
335.546996	2399.566546
335.939833	2426.783735
336.332606	2440.450303
336.725315	2452.934721
337.117960	2465.628346
337.510540	2470.407360
337.903056	2483.153918
338.295508	2488.225318
338.687896	2495.857625
339.080220	2506.582680
339.472480	2514.194822
339.864676	2517.136336
340.256807	2518.270595
340.648875	2525.252593
341.040879	2527.453057
341.432818	2527.001874
341.824694	2529.015815
342.216506	2529.391381
342.608253	2530.888603
342.999937	2529.081350
343.391557	2530.331556
343.783113	2527.069929
344.174605	2529.744261
344.566033	2521.628004
344.957397	2525.912984
345.348697	2522.419465
345.739934	2522.258148
346.131106	2520.891995
346.522215	2518.759587
346.913260	2515.588701
347.304241	2514.726664
347.695159	2513.022754
348.086012	2513.536952
348.476802	2510.353463
348.867528	2508.581497
349.258191	2506.176867
349.648789	2507.210304
350.039324	2501.954901
350.429796	2503.384068
350.820203	2500.636639
351.210548	2501.470950
351.600828	2502.096053
351.991045	2501.120590
352.381198	2496.185300
352.771288	2498.579848
353.161314	2499.356186
353.551276	2499.779643
353.941175	2498.274858
354.331010	2498.743686
354.720782	2500.407267
355.110490	2499.484735
355.500135	2499.953563
355.889717	2500.876094
356.279235	2498.673110
356.668689	2500.220744
357.058080	2499.310816
357.447408	2496.238232
357.836672	2498.547081
358.225873	2496.850732
358.615010	2496.099601
359.004084	2500.709736
359.393095	2502.126300
359.782043	2503.799963
360.170927	2503.580673
360.559748	2506.859943
360.948505	2503.797443
361.337199	2506.897752
361.725830	2509.562002
362.114398	2507.716940
362.502903	2507.069151
362.891344	2508.616786
363.279722	2507.296003
363.668037	2509.607372
364.056289	2510.272805
364.444478	2511.286077
364.832603	2511.684328
365.220665	2513.519308
365.608665	2512.276663
365.996601	2514.547703
366.384474	2514.527538
366.772284	2514.154493
367.160031	2518.900739
367.547715	2517.532066
367.935336	2520.508868
368.322893	2523.745288
368.710388	2524.713190
369.097820	2532.504293
369.485189	2535.198790
369.872495	2539.299768
370.259738	2548.378887
370.646918	2556.069167
371.034035	2560.790207
371.421090	2571.379151
371.808081	2582.878023
372.195010	2587.848601
372.581875	2605.185129
372.968678	2617.087293
373.355418	2625.735392
373.742096	2644.009575
374.128710	2654.966523
374.515262	2670.924295
374.901751	2688.548169
375.288177	2701.380426
375.674540	2723.374981
376.060841	2741.349215
376.447079	2761.435692
376.833254	2779.677107
377.219367	2793.265537
377.605417	2831.306084
377.991404	2838.870336
378.377329	2862.667102
378.763191	2879.290307
379.148991	2917.038467
379.534727	2940.615944
379.920402	2971.596355
380.306013	2981.298055
380.691563	3035.679503
381.077049	3053.704148
381.462474	3072.164853
381.847835	3112.577263
382.233134	3136.618526
382.618371	3134.357568
383.003545	3204.560677
383.388657	3210.594938
383.773706	3243.075092
384.158693	3261.694594
384.543618	3287.517905
384.928480	3321.384376
385.313280	3368.965307
385.698017	3370.210472
386.082692	3423.069490
386.467305	3425.811878
386.851856	3461.926704
387.236344	3479.462358
387.620770	3515.660363
388.005133	3536.361861
388.389435	3564.007549
388.773674	3580.051021
389.157851	3619.394706
389.541965	3635.450781
389.926018	3600.266048
390.310008	3669.995288
390.693936	3692.234338
391.077802	3731.129361
391.461606	3718.997824
391.845348	3784.668935
392.229027	3782.105508
392.612645	3795.583033
392.996200	3871.737224
393.379694	3908.764499
393.763125	3978.004747
394.146494	3945.441414
394.529801	4006.255373
394.913047	4056.039288
395.296230	4019.259029
395.679351	4076.516455
396.062410	4099.143674
396.445408	4080.070468
396.828343	4116.938947
397.211217	4140.385353
397.594028	4058.824525
397.976778	4123.628558
398.359466	4150.628978
398.742092	4181.795912
399.124656	4102.007049
399.507158	4183.577960
399.889598	4208.493863
400.271977	4269.806896
400.654294	4240.779932
401.036549	4249.682610
401.418742	4217.094071
401.800874	4320.898990
402.182944	4338.041434
402.564952	4403.979726
402.946898	4393.189137
403.328783	4388.402561
403.710606	4299.640445
404.092367	4496.535311
404.474067	4460.324703
404.855705	4468.841732
405.237282	4395.550917
405.618797	4509.735572
406.000250	4539.793452
406.381642	4622.707830
406.762972	4582.928085
407.144240	4592.493674
407.525447	4594.467286
407.906593	4653.065658
408.287677	4698.793965
408.668700	4623.680773
409.049661	4674.465357
409.430560	4717.151327
409.811399	4642.345645
410.192176	4805.293381
410.572891	4741.232919
410.953545	4846.741748
411.334138	4727.089962
411.714669	4796.037823
412.095139	4692.157286
412.475547	4833.975026
412.855894	4813.802849
413.236180	4824.580836
413.616405	4778.217344
413.996568	4859.654664
414.376670	4806.898989
414.756711	4763.313172
415.136691	4790.618582
415.516609	4871.735789
415.896466	4905.491355
416.276262	4942.432930
416.655997	4918.888221
417.035670	5100.457980
417.415283	5195.362742
417.794834	5140.144464
418.174324	5093.972536
418.553753	4996.136342
418.933121	5182.134755
419.312428	5248.922481
419.691674	5190.992062
420.070859	5314.361699
420.449983	5227.915993
420.829045	5343.232387
421.208047	5253.038583
421.586988	5321.338656
421.965867	5328.628165
422.344686	5462.445594
422.723444	5320.426207
423.102141	5142.312160
423.480777	5442.714518
423.859352	5206.788518
424.237866	5465.172858
424.616319	5459.831755
424.994712	5568.491306
425.373044	5444.002532
425.751314	5585.885807
426.129524	5388.333070
426.507673	5582.909006
426.885762	5667.900339
427.263789	5597.276294
427.641756	5477.647193
428.019662	5601.261327
428.397508	5609.123006
428.775292	5554.101332
429.153016	5659.373227
429.530679	5582.672072
429.908282	5665.137787
430.285824	5538.619949
430.663305	5810.532226
431.040726	5551.001023
431.418086	5544.739910
431.795385	5649.943749
432.172624	5666.216594
432.549802	5660.958670
432.926920	5665.856151
433.303977	5676.707235
433.680974	5714.654521
434.057910	5733.027006
434.434786	5740.303911
434.811601	5712.754006
435.188355	5940.278923
435.565050	5815.412063
435.941683	5798.912366
436.318257	6013.219378
436.694770	5997.964846
437.071222	6034.805598
437.447614	5965.567871
437.823946	5877.259458
438.200218	6030.747470
438.576429	5893.670935
438.952580	5999.220093
439.328670	6039.393048
439.704700	5945.239418
440.080670	5931.630823
440.456580	6202.000507
440.832429	6083.235963
441.208218	5933.289363
441.583947	6088.458599
441.959616	6093.199804
442.335224	6017.350603
442.710773	6159.990051
443.086261	6183.877559
443.461689	5975.924922
443.837057	6128.818077
444.212365	6280.970182
444.587612	6169.893398
444.962800	6330.018088
445.337927	6310.967568
445.712995	5919.027939
446.088002	6496.151834
446.462949	6326.426266
446.837837	6258.229537
447.212664	6428.872595
447.587431	6574.566982
447.962139	7117.446319
448.336786	8042.235910
448.711374	7780.703369
449.085901	6858.157092
449.460369	6775.794720
449.834776	6711.610749
450.209124	7102.216993
450.583412	7247.218222
450.957640	7395.244143
451.331808	7163.487177
451.705917	6713.866666
452.079965	6635.083513
452.453954	6845.513878
452.827883	6723.724642
453.201752	6821.344066
453.575562	6627.688141
453.949311	6821.102090
454.323001	6714.274999
454.696632	6789.252080
455.070202	6927.621671
455.443713	7081.949034
455.817164	7183.099786
456.190556	7266.694720
456.563888	7337.654001
456.937160	7387.044706
457.310373	7043.260699
457.683526	7062.190232
458.056619	6950.692512
458.429653	6941.026099
458.802628	6878.679629
459.175542	6984.778273
459.548398	7341.225659
459.921194	7505.116091
460.293930	7504.014599
460.666607	8034.089405
461.039224	8341.685489
461.411782	8466.098646
461.784280	8481.118764
462.156719	8375.501549
462.529099	8254.884382
462.901419	7836.282090
463.273680	7732.298210
463.645882	7751.099193
464.018024	7612.371680
464.390106	7784.706045
464.762130	8172.338008
465.134094	8641.087178
465.505999	9670.047172
465.877845	10885.529858
466.249631	11542.024200
466.621358	11153.119345
466.993026	10525.926710
467.364634	10268.948852
467.736184	9901.892358
468.107674	9567.835257
468.479105	9599.181152
468.850477	9366.063074
469.221790	9133.431468
469.593043	8806.386613
469.964238	8670.910644
470.335373	8680.750977
470.706449	8741.385975
471.077467	8725.261844
471.448425	10036.965034
471.819324	11107.443971
472.190164	11128.057249
472.560945	9874.551660
472.931667	9091.468904
473.302330	8954.528480
473.672934	8600.944470
474.043479	8955.768604
474.413965	8898.589317
474.784393	8777.052138
475.154761	8933.159029
475.525070	9029.913895
475.895321	8848.049229
476.265513	9031.191827
476.635645	9200.907313
477.005719	9199.601654
477.375734	9316.594232
477.745691	9556.351509
478.115588	9684.971508
478.485427	9928.365977
478.855207	10464.059150
479.224928	11280.290013
479.594591	11913.302660
479.964194	11719.666900
480.333739	11660.733291
480.703226	11572.762636
481.072653	11671.473469
481.442022	11908.395097
481.811333	12093.939805
482.180584	11896.369424
482.549777	11609.008532
482.918912	11434.526635
483.287988	11454.792074
483.657005	11461.973198
484.025964	11146.044086
484.394864	11274.744744
484.763706	11247.179714
485.132489	11009.877479
485.501213	10968.015738
485.869879	11046.264528
486.238487	10884.327543
486.607036	11002.446819
486.975527	10777.293764
487.343959	10972.600667
487.712333	11016.219251
488.080648	10948.350197
488.448905	10987.015847
488.817104	10928.364542
489.185244	11196.896725
489.553326	11349.885662
489.921350	11888.278372
490.289315	12957.917957
490.657222	13290.319039
491.025070	13198.814535
491.392861	13079.840784
491.760593	12697.991024
492.128267	12341.412568
492.495883	12022.378106
492.863440	11676.880107
493.230939	11339.359733
493.598380	11280.937801
493.965763	11141.852367
494.333088	11042.597088
494.700354	10959.720519
495.067563	11021.514983
495.434713	10857.241423
495.801805	10986.942750
496.168839	10908.754454
496.535815	10840.963537
496.902733	10837.459936
497.269593	10780.620926
497.636395	10876.044927
498.003139	10865.614780
498.369825	10737.022507
498.736453	10896.658205
499.103023	10816.140896
499.469535	10840.560245
499.835989	10838.770636
500.202385	10796.137598
500.568723	10649.145113
500.935003	10874.338497
501.301226	10680.876656
501.667390	10931.658936
502.033497	11028.597804
502.399546	10893.656198
502.765537	10800.389811
503.131470	10869.332631
503.497345	11044.636235
503.863163	10660.034005
504.228923	10970.559000
504.594625	11029.041426
504.960269	10781.044383
505.325856	11001.826757
505.691385	10787.444128
506.056856	10951.049735
506.422270	10972.235184
506.787625	10857.667401
507.152924	10983.928140
507.518164	10956.773965
507.883347	10879.742613
508.248472	10799.033740
508.613540	11034.402693
508.978550	10917.523541
509.343503	10885.993644
509.708398	11010.976451
510.073236	11129.007507
510.438016	11130.461879
510.802738	11077.650752
511.167403	11136.009669
511.532010	11029.653926
511.896561	11259.790161
512.261053	11337.524753
512.625488	11200.256654
512.989866	11187.684017
513.354186	11171.890082
513.718449	11074.810062
514.082655	11261.602456
514.446803	11162.354739
514.810894	11283.544078
515.174927	11148.718418
515.538904	11174.438385
515.902822	11327.160141
516.266684	11207.679753
516.630488	11153.376444
516.994235	11206.064064
517.357925	11269.121337
517.721558	11365.427540
518.085133	11372.280988
518.448651	11380.195600
518.812112	11265.879875
519.175516	11280.368151
519.538863	11400.609752
519.902152	11322.318112
520.265385	11476.514406
520.628560	11387.497711
520.991678	11369.720082
521.354739	11431.065883
521.717743	11365.374608
522.080690	11337.202119
522.443580	11480.701084
522.806413	11443.046185
523.169189	11466.510236
523.531908	11524.793536
523.894569	11340.070536
524.257174	11350.299037
524.619722	11470.379322
524.982213	11414.309088
525.344647	11471.443005
525.707025	11415.103070
526.069345	11510.133861
526.431608	11428.590677
526.793815	11543.450847
527.155964	11320.150416
527.518057	11378.043027
527.880093	11335.596512
528.242072	11400.912222
528.603995	11300.497478
528.965860	11224.612989
529.327669	11276.131061
529.689421	11219.211393
530.051117	11192.402537
530.412755	11296.091510
530.774337	11185.833913
531.135862	11159.594708
531.497331	11195.321365
531.858743	11038.619618
532.220098	11211.130423
532.581396	11082.679303
532.942638	11062.451673
533.303824	11030.150480
533.664953	11040.142047
534.026025	10954.414705
534.387040	11055.590662
534.747999	11059.424460
535.108902	11118.453851
535.469748	10872.135512
535.830537	10976.389094
536.191270	10962.349481
536.551947	10975.330452
536.912567	10976.358847
537.273131	10903.957796
537.633638	10883.566329
537.994089	10868.533608
538.354483	10820.582153
538.714821	10968.063629
539.075103	10969.495317
539.435328	10940.773343
539.795497	10769.474935
540.155609	10917.591597
540.515665	11013.174394
540.875665	10739.182641
541.235609	10811.124948
541.595496	10810.028497
541.955328	10957.920827
542.315102	10851.736483
542.674821	10796.664398
543.034483	10793.120467
543.394090	10796.359408
543.753640	10721.634385
544.113134	10957.109202
544.472571	10806.880296
544.831953	10948.997985
545.191278	10755.079920
545.550548	10776.560277
545.909761	10926.121229
546.268918	10895.854141
546.628019	10986.350414
546.987064	10838.528660
547.346053	10757.817267
547.704986	10866.502023
548.063863	10846.778508
548.422684	10844.348672
548.781449	10760.539490
549.140158	10864.324244
549.498811	10732.881199
549.857408	10598.494120
550.215949	10824.244551
550.574434	10678.736686
550.932864	10780.497418
551.291237	10832.461632
551.649555	10788.727101
552.007817	10794.526949
552.366022	10761.714078
552.724173	10750.560526
553.082267	10738.242466
553.440305	10874.159536
553.798288	10668.014152
554.156215	10831.922228
554.514086	10802.862497
554.871902	10650.115535
555.229661	10688.743377
555.587365	10668.462815
555.945014	10561.855014
556.302606	10683.540906
556.660143	10577.487632
557.017625	10732.356919
557.375050	10625.928079
557.732421	10766.470407
558.089735	10679.535709
558.446994	10678.119145
558.804197	10714.748169
559.161345	10712.819927
559.518437	10566.296270
559.875474	10655.214662
560.232455	10681.373210
560.589381	10631.460745
560.946251	10627.589139
561.303065	10739.288506
561.659825	10667.048771
562.016528	10602.201888
562.373177	10483.336522
562.729770	10603.263051
563.086307	10515.005050
563.442789	10603.278175
563.799216	10488.533952
564.155587	10528.348985
564.511904	10486.686369
564.868164	10478.194545
565.224370	10493.607873
565.580520	10418.436707
565.936615	10424.289487
566.292654	10297.912801
566.648638	10426.845352
567.004567	10382.440348
567.360441	10370.439882
567.716260	10280.634246
568.072023	10377.195028
568.427732	10318.311830
568.783385	10228.349919
569.138982	10301.479418
569.494525	10320.227469
569.850013	10197.810609
570.205445	10271.429099
570.560823	10166.983953
570.916145	10088.286501
571.271412	10160.417851
571.626625	10098.245300
571.981782	10079.192259
572.336884	10049.429287
572.691931	10056.189474
573.046923	10001.404735
573.401860	9962.033323
573.756743	9886.166478
574.111570	9941.268811
574.466342	9921.096633
574.821059	9954.713568
575.175722	9838.351134
575.530330	9850.790181
575.884882	9841.524541
576.239380	9773.070713
576.593823	9755.754349
576.948211	9765.972768
577.302544	9641.932657
577.656823	9664.759002
578.011047	9664.466615
578.365216	9633.445874
578.719330	9562.201768
579.073389	9574.532430
579.427394	9517.272484
579.781344	9493.395059
580.135239	9442.713819
580.489080	9454.842835
580.842866	9357.220891
581.196597	9358.289615
581.550273	9402.956759
581.903895	9369.412921
582.257463	9433.488507
582.610975	9316.639602
582.964434	9333.940842
583.317837	9259.745140
583.671186	9243.247964
584.024481	9235.224968
584.377721	9155.652875
584.730906	9130.678998
585.084037	9164.144698
585.437113	9100.651366
585.790135	9122.973595
586.143103	9020.865024
586.496016	8991.402000
586.848874	9054.895333
587.201679	9039.509731
587.554428	8923.754757
587.907124	8974.546902
588.259765	8944.650339
588.612352	8942.923744
588.964884	8818.989497
589.317362	8830.253956
589.669786	8832.320829
590.022155	8883.944765
590.374470	8902.670131
590.726731	8835.380809
591.078937	8686.603756
591.431090	8802.699009
591.783188	8675.422477
592.135232	8664.208430
592.487222	8669.453751
592.839157	8718.887305
593.191038	8653.022110
593.542866	8595.290816
593.894639	8495.140733
594.246358	8548.387921
594.598022	8567.090601
594.949633	8463.333573
595.301190	8437.601003
595.652692	8468.838513
596.004141	8575.945388
596.355535	8348.823763
596.706876	8331.310795
597.058162	8269.551619
597.409395	8342.489553
597.760573	8409.340295
598.111698	8316.855286
598.462768	8302.145199
598.813785	8268.016588
599.164748	8236.902586
599.515657	8226.606029
599.866511	8137.856516
600.217312	8265.775795
600.568060	8121.117365
600.918753	8223.684681
601.269392	8200.124848
601.619978	8107.516332
601.970510	8172.365735
602.320988	8164.315012
602.671412	8221.590081
603.021783	8160.355186
603.372100	8135.676217
603.722363	8135.512379
604.072572	8110.099923
604.422728	8122.649875
604.772830	8051.032723
605.122878	8056.552787
605.472872	8046.571302
605.822813	8083.860717
606.172701	8028.234105
606.522534	8101.905527
606.872314	8101.532482
607.222041	8073.717916
607.571714	8122.390256
607.921333	8081.037671
608.270899	8090.071419
608.620411	8179.425871
608.969870	8080.596570
609.319276	8076.372083
609.668627	8095.004188
610.017926	8132.578428
610.367171	8176.587701
610.716362	8149.985532
611.065500	8140.939182
611.414585	8167.576638
611.763616	8162.898448
612.112594	8140.253585
612.461518	8156.163466
612.810389	8221.345585
613.159207	8151.931417
613.507971	8109.462217
613.856682	8228.970331
614.205340	8178.195829
614.553945	8257.614167
614.902496	8155.374526
615.250994	8210.524749
615.599439	8188.162190
615.947830	8205.511321
616.296169	8179.025099
616.644454	8192.033796
616.992686	8192.104372
617.340864	8245.404492
617.688990	8147.681725
618.037063	8241.623627
618.385082	8189.316614
618.733048	8273.166126
619.080961	8213.257054
619.428821	8231.974858
619.776628	8234.225733
620.124382	8185.079525
620.472083	8164.365423
620.819731	8200.008902
621.167326	8091.550997
621.514868	8097.935619
621.862357	7983.987898
622.209793	8005.274170
622.557176	7937.342101
622.904506	7906.293635
623.251783	7837.920465
623.599007	7793.248280
623.946179	7800.699106
624.293297	7759.480111
624.640363	7678.194026
624.987376	7651.057495
625.334336	7607.403623
625.681243	7554.068215
626.028097	7542.488685
626.374899	7516.078080
626.721647	7513.834767
627.068343	7443.389683
627.414987	7416.734582
627.761577	7369.035184
628.108115	7407.347953
628.454600	7300.480533
628.801032	7347.370825
629.147412	7312.090310
629.493739	7297.657487
629.840014	7235.177426
630.186236	7294.078267
630.532405	7176.783220
630.878521	7228.795325
631.224585	7186.328645
631.570597	7114.159487
631.916556	7138.465410
632.262462	7137.265615
632.608316	7100.918896
632.954117	7073.237920
633.299866	7069.817497
633.645562	7058.973976
633.991206	6979.049002
634.336797	6921.105980
634.682336	6879.370267
635.027823	6840.581109
635.373257	6837.626993
635.718639	6765.770386
636.063968	6781.113137
636.409245	6672.015006
636.754470	6670.842938
637.099642	6631.753831
637.444762	6575.018165
637.789829	6587.079126
638.134845	6522.418766
638.479808	6511.129102
638.824719	6516.341655
639.169577	6440.706703
639.514383	6463.669159
639.859137	6386.841974
640.203839	6397.695579
640.548489	6381.410131
640.893086	6362.543613
641.237632	6333.970353
641.582125	6356.718560
641.926566	6321.821172
642.270955	6338.179716
642.615292	6336.884140
642.959576	6348.569534
643.303809	6336.682494
643.647990	6342.389080
643.992118	6336.674932
644.336195	6279.747702
644.680219	6303.625127
645.024192	6299.461134
645.368112	6399.215487
645.711981	6412.718217
646.055797	6492.312995
646.399562	6450.327745
646.743274	6571.239820
647.086935	6630.929602
647.430544	6624.416432
647.774101	6644.850749
648.117606	6649.622201
648.461059	6640.722044
648.804460	6602.106805
649.147810	6517.586820
649.491108	6483.881665
649.834354	6460.178160
650.177548	6373.049378
650.520690	6290.981913
650.863781	6264.278922
651.206820	6284.781294
651.549807	6207.608791
651.892742	6152.516541
652.235626	6155.604247
652.578458	6140.286702
652.921238	6052.406787
653.263967	6090.245688
653.606644	6032.267378
653.949269	6032.844590
654.291843	5975.514068
654.634365	6023.573908
654.976836	5972.232276
655.319255	5973.661443
655.661622	5953.930367
656.003938	5951.724863
656.346203	5909.416979
656.688416	5942.509633
657.030577	5896.304938
657.372687	5862.902252
657.714746	5851.849523
658.056753	5894.832921
658.398708	5832.544424
658.740612	5823.114946
659.082465	5869.962388
659.424266	5865.725298
659.766016	5865.037181
660.107715	5837.361246
660.449362	5853.210634
660.790958	5848.262742
661.132503	5833.620710
661.473996	5870.158993
661.815438	5858.314802
662.156829	5852.207444
662.498168	5849.349110
662.839456	5828.125853
663.180693	5856.177353
663.521879	5864.858220
663.863013	5845.777453
664.204097	5869.014651
664.545129	5910.352113
664.886110	5905.384056
665.227040	5938.827070
665.567918	5903.952368
665.908746	5935.983860
666.249522	5936.921514
666.590248	5923.580101
666.930922	5953.874915
667.271545	5964.960412
667.612118	5966.911338
667.952639	5939.525270
668.293109	5961.136697
668.633528	5921.596407
668.973896	5925.261325
669.314213	5917.855870
669.654480	5894.858127
669.994695	5891.510800
670.334859	5883.835644
670.674973	5875.326176
671.015035	5872.251072
671.355047	5874.000353
671.695008	5861.115163
672.034918	5835.319579
672.374777	5844.562535
672.714585	5829.275236
673.054342	5833.010731
673.394049	5827.543599
673.733705	5859.106263
674.073310	5840.648079
674.412864	5804.369415
674.752368	5798.254495
675.091820	5803.071318
675.431223	5736.507922
675.770574	5737.984981
676.109875	5691.326581
676.449125	5693.143917
676.788324	5658.980017
677.127473	5604.996822
677.466571	5595.438794
677.805619	5585.868163
678.144616	5570.926183
678.483562	5549.768461
678.822458	5517.794942
679.161303	5516.403584
679.500098	5503.044526
679.838842	5488.221013
680.177535	5492.674873
680.516179	5508.892265
680.854771	5523.461199
681.193314	5601.253765
681.531805	5711.949942
681.870247	5863.754207
682.208638	5961.950843
682.546978	5972.254962
682.885268	5954.623526
683.223508	5862.057859
683.561697	5812.760416
683.899836	5784.411487
684.237925	5739.751905
684.575963	5702.270926
684.913951	5659.131252
685.251889	5727.315378
685.589776	5693.486716
685.927614	5664.978991
686.265401	5735.202264
686.603137	5717.648966
686.940824	5799.073683
687.278460	5816.324511
687.616046	5831.324465
687.953582	5896.420884
688.291068	5879.091918
688.628504	5945.100786
688.965889	5906.346916
689.303224	5846.407597
689.640510	5803.358664
689.977745	5725.359411
690.314930	5623.313854
690.652065	5569.222273
690.989150	5472.502696
691.326185	5399.592487
691.663170	5344.512841
692.000105	5270.155821
692.336990	5193.888205
692.673825	5171.634031
693.010610	5100.868834
693.347345	5031.026168
693.684030	5017.578890
694.020665	4976.102797
694.357251	4883.385895
694.693786	4900.238473
695.030272	4859.856310
695.366707	4824.719467
695.703093	4791.127739
696.039429	4814.133044
696.375716	4794.853152
696.711952	4769.770891
697.048139	4761.657153
697.384276	4738.049430
697.720363	4748.930761
698.056400	4759.832256
698.392388	4709.670254
698.728326	4689.084703
699.064214	4667.594264
699.400053	4660.350126
699.735842	4629.987256
700.071581	4603.029686
700.407270	4575.391560
700.742910	4558.823808
701.078501	4503.189634
701.414042	4499.852390
701.749533	4472.662927
702.084974	4408.915016
702.420366	4463.747646
702.755709	4406.812855
703.091002	4348.332950
703.426246	4399.460332
703.761440	4356.865102
704.096584	4317.004699
704.431679	4333.877441
704.766725	4324.952078
705.101721	4310.710818
705.436668	4339.092515
705.771565	4290.150473
706.106413	4318.506963
706.441212	4350.636757
706.775961	4355.226728
707.110661	4337.948173
707.445311	4365.142677
707.779913	4388.586563
708.114465	4400.934869
708.448967	4425.402110
708.783421	4483.634998
709.117825	4528.097975
709.452180	4529.295249
709.786485	4580.442796
710.120742	4665.499664
710.454949	4646.277745
710.789107	4717.927664
711.123216	4789.600269
711.457275	4780.190956
711.791286	4858.051577
712.125247	4871.219071
712.459159	4774.343217
712.793023	4849.295092
713.126837	4806.404956
713.460602	4799.453204
713.794318	4725.123912
714.127985	4727.599118
714.461602	4640.218278
714.795171	4614.654587
715.128691	4545.247981
715.462162	4490.027181
715.795584	4439.343421
716.128957	4421.331378
716.462281	4372.071743
716.795556	4348.393443
717.128782	4307.124038
717.461960	4238.929829
717.795088	4251.071448
718.128167	4208.201476
718.461198	4149.058659
718.794180	4141.786794
719.127113	4124.480513
719.459997	4105.094756
719.792833	4059.379052
720.125619	4049.039646
720.458357	4012.859285
720.791046	4018.409595
721.123686	3994.083507
721.456278	3955.342240
721.788821	3964.766677
722.121315	3939.754992
722.453761	3915.290272
722.786158	3928.268723
723.118506	3953.398875
723.450805	3902.095052
723.783056	3926.879885
724.115259	3943.092236
724.447412	3945.242288
724.779518	3939.631484
725.111574	3944.982669
725.443582	3974.244046
725.775542	3957.686376
726.107453	4007.548429
726.439315	4011.188142
726.771129	4024.277498
727.102895	4061.163621
727.434612	4107.078450
727.766281	4121.816263
728.097901	4118.526910
728.429473	4124.472951
728.760996	4131.596102
729.092471	4129.219198
729.423897	4110.647587
729.755276	4119.005820
730.086606	4116.026498
730.417887	4158.712468
730.749120	4224.751584
731.080305	4285.512611
731.411442	4313.243998
731.742530	4279.299389
732.073570	4287.771048
732.404562	4343.281713
732.735506	4334.368953
733.066401	4295.408396
733.397249	4233.208119
733.728048	4152.305162
734.058798	4066.807192
734.389501	3999.149867
734.720156	3935.152419
735.050762	3892.201788
735.381320	3887.914287
735.711831	3834.294054
736.042293	3805.269610
736.372707	3825.247703
736.703073	3798.890030
737.033391	3787.239924
737.363661	3807.064261
737.693883	3831.879341
738.024056	3840.852595
738.354182	3833.311029
738.684260	3900.315525
739.014290	3921.410233
739.344272	3917.551230
739.674207	3961.739464
740.004093	3965.154846
740.333931	3957.698979
740.663722	3960.587560
740.993464	3955.831232
741.323159	3933.894651
741.652806	3902.873911
741.982405	3876.112945
742.311956	3845.392154
742.641460	3835.382943
742.970915	3813.743790
743.300323	3771.531688
743.629683	3735.192531
743.958996	3726.325141
744.288260	3701.348744
744.617477	3668.301460
744.946647	3653.939213
745.275768	3627.130357
745.604842	3627.410141
745.933869	3576.640681
746.262847	3571.450813
746.591778	3607.462295
746.920662	3577.860640
747.249498	3545.072975
747.578286	3592.336313
747.907027	3610.492029
748.235720	3609.640074
748.564365	3631.329638
748.892963	3634.724855
749.221514	3614.348511
749.550017	3593.203392
749.878473	3590.622321
750.206881	3560.753484
750.535242	3552.150755
750.863555	3560.186354
751.191821	3554.089079
751.520039	3535.199875
751.848210	3514.062317
752.176334	3544.420146
752.504411	3552.110426
752.832440	3512.980990
753.160421	3493.144049
753.488356	3504.872294
753.816243	3518.967360
754.144082	3474.237202
754.471875	3458.975109
754.799620	3477.566884
755.127318	3469.422900
755.454969	3467.406438
755.782572	3474.549753
756.110129	3453.608800
756.437638	3442.472892
756.765100	3456.013431
757.092515	3463.365954
757.419882	3475.041266
757.747203	3444.577573
758.074477	3447.738377
758.401703	3466.393167
758.728882	3483.444869
759.056014	3492.589522
759.383099	3498.868280
759.710138	3490.058863
760.037129	3506.220803
760.364073	3541.786143
760.690970	3523.990870
761.017820	3506.387161
761.344623	3520.905684
761.671379	3566.139957
761.998088	3619.218266
762.324751	3746.540168
762.651366	3997.758508
762.977935	4473.668637
763.304456	4924.098254
763.630931	5015.317933
763.957359	4653.111029
764.283740	4309.190911
764.610074	4112.086836
764.936362	3914.619799
765.262602	3753.285232
765.588796	3641.238026
765.914943	3553.418605
766.241044	3463.302939
766.567097	3434.613733
766.893104	3385.165055
767.219064	3354.348481
767.544978	3327.864779
767.870845	3270.796397
768.196665	3253.842997
768.522438	3257.714603
768.848165	3257.497833
769.173846	3223.258317
769.499479	3204.275852
769.825066	3187.148532
770.150607	3171.894000
770.476101	3185.227852
770.801548	3179.644774
771.126949	3136.729431
771.452303	3115.107922
771.777611	3125.084366
772.102872	3128.482104
772.428087	3104.763475
772.753256	3093.917432
773.078378	3087.784869
773.403453	3053.048798
773.728482	3039.541026
774.053465	3061.129768
774.378401	3050.598797
774.703291	3018.519415
775.028135	3020.356915
775.352932	3013.284177
775.677683	3000.915706
776.002388	2998.009480
776.327046	3001.815552
776.651658	2993.056547
776.976224	2978.943837
777.300743	2979.765545
777.625216	2966.151909
777.949643	2964.957155
778.274024	2963.757361
778.598359	2953.957358
778.922647	2961.748461
779.246889	2961.083028
779.571086	2946.050308
779.895236	2938.617126
780.219339	2950.133642
780.543397	2961.599747
780.867409	2965.597382
781.191374	2955.076494
781.515294	2952.457614
781.839167	2956.072122
782.162995	2947.406378
782.486776	2956.273768
782.810511	2952.245886
783.134201	2938.357507
783.457844	2945.838579
783.781441	2937.792898
784.104993	2915.006882
784.428498	2919.080135
784.751958	2931.062957
785.075372	2926.165476
785.398739	2909.892632
785.722061	2925.179931
786.045337	2936.031014
786.368568	2922.767739
786.691752	2913.849938
787.014891	2962.018163
787.337983	2990.881289
787.661030	3019.825074
787.984031	3087.449632
788.306987	3135.353196
788.629897	3125.709469
788.952760	3110.263374
789.275579	3095.316352
789.598351	3035.964328
789.921078	2990.856083
790.243759	2982.286122
790.566395	2964.148050
790.888984	2940.631067
791.211529	2924.746392
791.534027	2914.084351
791.856480	2904.238978
792.178888	2889.465876
792.501249	2880.679145
792.823566	2878.009854
793.145836	2874.158413
793.468062	2869.767568
793.790241	2867.360417
794.112375	2874.944833
794.434464	2887.010834
794.756507	2892.876217
795.078505	2899.044069
795.400457	2911.707447
795.722364	2949.669856
796.044226	2974.923516
796.366042	2976.090543
796.687812	2967.417238
797.009538	2988.625373
797.331218	2975.301603
797.652852	2957.902060
797.974442	2939.723660
798.295986	2936.930860
798.617484	2928.885179
798.938938	2914.916142
799.260346	2899.064233
799.581709	2896.488204
799.903026	2888.636607
800.224299	2880.341388
800.545526	2872.255377
800.866708	2855.765763
801.187845	2846.603466
801.508936	2848.491378
801.829983	2854.495392
802.150984	2842.517611
802.471940	2828.767863
802.792851	2831.454798
803.113717	2830.844819
803.434538	2835.530571
803.755314	2828.362051
804.076045	2819.764363
804.396731	2821.057419
804.717372	2821.541369
805.037967	2817.427788
805.358518	2821.853921
805.679024	2834.857577
805.999485	2830.880107
806.319901	2834.764316
806.640272	2827.701659
806.960598	2833.657783
807.280879	2841.521983
807.601115	2849.098837
807.921306	2835.011332
808.241453	2832.712566
808.561554	2837.725994
808.881611	2841.159020
809.201623	2834.855057
809.521590	2830.756599
809.841513	2827.847853
810.161390	2831.502689
810.481223	2826.824499
810.801011	2817.468117
811.120755	2810.266829
811.440453	2817.778148
811.760107	2814.788744
812.079716	2813.934268
812.399281	2805.573515
812.718801	2799.808955
813.038276	2792.373253
813.357707	2800.129068
813.677093	2804.507311
813.996434	2799.317443
814.315731	2797.379119
814.634983	2787.553910
814.954191	2794.717390
815.273354	2809.387147
815.592473	2814.955102
815.911547	2816.389310
816.230577	2827.880620
816.549562	2835.328925
816.868502	2833.670386
817.187399	2843.281345
817.506250	2861.989067
817.825058	2851.957171
818.143821	2867.456199
818.462539	2880.885833
818.781213	2911.077303
819.099843	2946.940071
819.418429	3001.583658
819.736970	3068.144533
820.055466	3140.230513
820.373919	3247.652460
820.692327	3391.733678
821.010691	3564.431006
821.329011	4014.853061
821.647286	4925.187143
821.965517	6327.860474
822.283704	7092.227947
822.601847	7078.180772
822.919945	6432.184633
823.237999	5914.546353
823.556010	5318.510569
823.873976	4757.165485
824.191897	4337.907843
824.509775	4038.697719
824.827609	3764.201851
825.145398	3638.515803
825.463144	3622.893267
825.780845	3719.023030
826.098502	3824.158814
826.416116	4109.294037
826.733685	4437.057257
827.051210	4502.826671
827.368692	4387.064135
827.686129	4110.004840
828.003522	3779.254736
828.320872	3517.391999
828.638177	3318.349602
828.955439	3177.540092
829.272656	3096.722834
829.589830	3025.476207
829.906960	2975.286479
830.224046	2930.193358
830.541088	2896.163049
830.858086	2879.315513
831.175041	2865.641383
831.491952	2863.279603
831.808819	2877.800646
832.125642	2899.205386
832.442421	2946.897222
832.759157	3030.272865
833.075849	3213.460834
833.392497	3498.696880
833.709101	3706.092470
834.025662	3655.111281
834.342179	3493.849811
834.658653	3312.121256
834.975083	3159.674243
835.291469	3061.061712
835.607811	2978.598518
835.924110	2914.112078
836.240366	2864.287833
836.556578	2818.723364
836.872746	2794.974489
837.188871	2773.688217
837.504952	2753.984867
837.820990	2748.661408
838.136984	2734.523492
838.452935	2723.241390
838.768842	2724.126112
839.084706	2744.862899
839.400526	2824.785352
839.716303	2959.386680
840.032037	3041.126469
840.347727	3025.050230
840.663373	2965.239460
840.978977	2888.560989
841.294537	2815.179433
841.610054	2764.568769
841.925527	2740.197311
842.240957	2719.818447
842.556344	2698.403625
842.871687	2680.913342
843.186987	2672.923113
843.502244	2669.109480
843.817458	2661.421720
844.132629	2650.084165
844.447756	2642.129225
844.762840	2637.042700
845.077881	2637.682927
845.392879	2636.646970
845.707833	2632.258645
846.022745	2623.355968
846.337613	2628.679426
846.652438	2626.300002
846.967221	2626.214302
847.281960	2622.866976
847.596656	2623.043416
847.911309	2620.018724
848.225919	2619.794392
848.540485	2614.798609
848.855009	2616.043774
849.169490	2615.146449
849.483928	2616.227776
849.798323	2615.960595
850.112675	2611.042949
850.426984	2615.804319
850.741251	2613.906325
851.055474	2610.937085
851.369654	2615.330451
851.683792	2617.306583
851.997887	2612.351129
852.311938	2610.896756
852.625947	2615.244751
852.939914	2616.918414
853.253837	2617.540997
853.567718	2614.029833
853.881555	2610.329626
854.195350	2616.147118
854.509103	2613.954216
854.822812	2615.789196
855.136479	2613.291304
855.450103	2615.978239
855.763685	2615.393465
856.077224	2611.403392
856.390720	2609.066817
856.704173	2612.343567
857.017584	2616.590739
857.330953	2617.881275
857.644278	2621.226080
857.957561	2622.604836
858.270802	2617.014196
858.584000	2616.860441
858.897155	2619.083590
859.210268	2622.899743
859.523339	2616.686521
859.836367	2611.463886
860.149352	2612.935903
860.462295	2615.698455
860.775195	2610.889194
861.088054	2610.236365
861.400869	2610.773248
861.713642	2610.097733
862.026373	2607.463730
862.339062	2611.209307
862.651708	2612.262909
862.964312	2617.576285
863.276873	2615.159052
863.589392	2619.438991
863.901869	2624.086935
864.214303	2629.307050
864.526696	2629.692698
864.839045	2631.598254
865.151353	2633.629839
865.463619	2635.968935
865.775842	2634.559932
866.088023	2631.913326
866.400162	2636.026908
866.712258	2635.220323
867.024313	2632.810652
867.336325	2626.128602
867.648296	2630.645476
867.960224	2638.194604
868.272110	2633.881897
868.583954	2630.287554
868.895755	2631.971300
869.207515	2634.862401
869.519233	2640.584111
869.830909	2638.993627
870.142542	2635.502628
870.454134	2635.300982
870.765684	2641.587301
871.077191	2645.453866
871.388657	2646.429329
871.700081	2642.381282
872.011463	2642.736684
872.322803	2643.792805
872.634101	2646.890594
872.945357	2658.334014
873.256571	2663.808707
873.567744	2658.457522
873.878874	2658.397028
874.189963	2662.301402
874.501010	2663.097904
874.812015	2667.713080
875.122979	2666.316681
875.433900	2658.704538
875.744780	2658.545742
876.055618	2665.552946
876.366415	2671.425890
876.677169	2670.505880
876.987882	2663.372647
877.298554	2664.098573
877.609183	2673.573422
877.919771	2679.080882
878.230317	2686.377952
878.540822	2698.461598
878.851285	2714.142107
879.161707	2736.645818
879.472087	2778.348763
879.782425	2831.137206
880.092722	2943.254988
880.402977	3142.264618
880.713191	3409.087850
881.023363	3713.616392
881.333494	3912.658790
881.643583	4091.118157
881.953631	4083.508535
882.263637	3904.507244
882.573602	3679.510466
882.883526	3542.002913
883.193408	3421.922628
883.503248	3317.777431
883.813048	3199.350644
884.122806	3083.167172
884.432522	2991.277019
884.742197	2925.033737
885.051831	2887.434291
885.361424	2848.030112
885.670975	2813.982159
885.980485	2781.333126
886.289954	2764.160436
886.599382	2749.072262
886.908768	2737.046590
887.218113	2716.541697
887.527417	2703.225489
887.836680	2693.823737
888.145901	2689.848787
888.455082	2681.916531
888.764221	2669.742145
889.073319	2661.240239
889.382376	2661.434323
889.691392	2661.603202
890.000366	2662.379540
890.309300	2659.485917
890.618193	2662.293840
890.927044	2664.854746
891.235855	2662.883655
891.544625	2662.513130
891.853353	2664.728717
892.162041	2672.988648
892.470687	2691.290557
892.779293	2705.829245
893.087858	2716.143445
893.396381	2740.436766
893.704864	2779.672066
894.013306	2855.087728
894.321707	2949.808488
894.630068	3004.139523
894.938387	3025.382946
895.246665	3019.837677
895.554903	2972.813793
895.863100	2927.730755
896.171256	2868.522403
896.479371	2804.083854
896.787446	2761.165990
897.095480	2743.312744
897.403473	2736.192114
897.711425	2719.032027
898.019336	2702.890252
898.327207	2687.476924
898.635038	2684.681604
898.942827	2683.070956
899.250576	2675.594924
899.558284	2660.463901
899.865952	2655.692449
900.173579	2654.086842
900.481165	2651.767911
900.788711	2645.138793
901.096216	2640.125366
901.403681	2632.092287
901.711105	2633.554222
902.018489	2632.155302
902.325832	2637.017495
902.633135	2638.252577
902.940397	2655.342089
903.247619	2695.094107
903.554800	2765.340066
903.861941	2899.270921
904.169041	3029.801517
904.476101	3095.283585
904.783121	3091.495158
905.090100	3030.955941
905.397039	2951.378807
905.703938	2872.618340
906.010796	2809.863537
906.317614	2754.471338
906.624391	2714.903322
906.931129	2689.377439
907.237826	2663.533964
907.544483	2645.847076
907.851099	2629.831330
908.157675	2620.230452
908.464211	2611.302569
908.770707	2603.317381
909.077163	2594.949066
909.383578	2592.529312
909.689954	2592.310022
909.996289	2589.532346
910.302584	2590.790114
910.608839	2586.991604
910.915054	2587.709969
911.221229	2589.978488
911.527363	2595.589292
911.833458	2589.645772
912.139513	2594.475197
912.445527	2593.240115
912.751502	2600.905189
913.057436	2605.142279
913.363331	2613.069493
913.669186	2623.545011
913.975000	2635.515231
914.280775	2654.669095
914.586510	2677.331602
914.892205	2709.902497
915.197859	2781.423867
915.503475	2871.141282
915.809050	2942.249278
916.114585	2959.137143
916.420081	2974.348825
916.725536	2982.848210
917.030952	2954.736216
917.336328	2907.934143
917.641665	2855.730475
917.946961	2801.651497
918.252218	2765.065323
918.557435	2739.816704
918.862612	2714.908363
919.167750	2694.738706
919.472848	2678.866633
919.777906	2661.799807
920.082925	2649.779176
920.387904	2637.662762
920.692843	2632.551032
920.997743	2628.371916
921.302603	2620.086779
921.607423	2614.518825
921.912204	2608.908021
922.216946	2605.694285
922.521647	2602.606578
922.826310	2598.757657
923.130932	2594.974272
923.435516	2585.388517
923.740059	2586.409351
924.044564	2585.716192
924.349028	2584.821388
924.653454	2575.596076
924.957840	2572.820921
925.262186	2569.256825
925.566493	2570.806980
925.870761	2566.075857
926.174989	2568.319171
926.479178	2565.392781
926.783328	2560.903633
927.087438	2561.463201
927.391509	2559.575289
927.695541	2561.795918
927.999533	2559.245094
928.303486	2556.359033
928.607400	2555.698642
928.911275	2554.332489
929.215110	2552.835267
929.518906	2554.380380
929.822663	2558.297357
930.126381	2552.812581
930.430060	2556.023796
930.733699	2556.250648
931.037299	2560.102090
931.340861	2556.374157
931.644383	2556.419527
931.947866	2556.109496
932.251309	2559.666030
932.554714	2556.510268
932.858080	2560.487738
933.161407	2555.103786
933.464694	2555.824671
933.767943	2553.430123
934.071153	2555.865000
934.374323	2553.656975
934.677455	2554.942469
934.980548	2555.325597
935.283602	2553.110009
935.586617	2551.481717
935.889593	2555.486913
936.192530	2553.533466
936.495428	2555.560010
936.798287	2556.079249
937.101108	2555.033210
937.403890	2558.834240
937.706632	2564.031669
938.009336	2562.789025
938.312002	2570.023081
938.614628	2573.483833
938.917216	2574.744121
939.219765	2579.508012
939.522275	2577.584811
939.824747	2575.838052
940.127179	2569.561815
940.429573	2568.326732
940.731929	2571.149778
941.034246	2565.765826
941.336524	2567.651218
941.638763	2568.588872
941.940964	2567.053841
942.243126	2565.501166
942.545250	2564.949159
942.847335	2561.314487
943.149381	2560.286092
943.451389	2559.981102
943.753359	2562.410938
944.055290	2557.274003
944.357182	2555.902809
944.659036	2558.080587
944.960851	2556.865669
945.262628	2556.046482
945.564367	2559.401369
945.866067	2557.203426
946.167729	2557.929353
946.469352	2557.589075
946.770937	2559.877758
947.072484	2555.368446
947.373992	2556.792572
947.675462	2556.495144
947.976893	2554.302242
948.278286	2554.730740
948.579641	2553.261244
948.880958	2553.246121
949.182236	2555.693601
949.483476	2554.289639
949.784678	2552.051367
950.085841	2554.133364
950.386967	2553.210832
950.688054	2554.415668
950.989103	2554.448436
951.290114	2555.587737
951.591087	2559.328273
951.892021	2562.259704
952.192917	2561.546380
952.493776	2561.783315
952.794596	2560.318859
953.095378	2558.776266
953.396122	2563.424210
953.696828	2560.744837
953.997496	2558.849363
954.298126	2557.064795
954.598718	2556.391801
954.899272	2553.525905
955.199788	2553.437684
955.500266	2552.888199
955.800706	2548.580533
956.101108	2545.404606
956.401472	2545.782692
956.701798	2544.575336
957.002087	2542.803370
957.302337	2545.021478
957.602550	2544.131714
957.902724	2542.074924
958.202861	2544.686241
958.502960	2542.931920
958.803022	2541.810263
959.103045	2540.302958
959.403031	2542.420243
959.702979	2542.412681
960.002889	2541.222969
960.302762	2539.428318
960.602596	2539.146013
960.902393	2540.975952
961.202153	2541.515356
961.501875	2539.556867
961.801559	2538.651980
962.101205	2539.869419
962.400814	2535.902031
962.700385	2537.628626
962.999918	2537.038811
963.299414	2537.754655
963.598873	2538.770447
963.898293	2539.133410
964.197677	2538.266332
964.497022	2535.712988
964.796331	2537.653832
965.095601	2535.634850
965.394835	2537.114428
965.694030	2535.733152
965.993189	2538.011754
966.292309	2535.652494
966.591393	2536.307844
966.890439	2535.647452
967.189447	2535.443286
967.488419	2535.498738
967.787353	2533.436907
968.086249	2537.532844
968.385108	2538.513348
968.683930	2536.368337
968.982714	2537.323636
969.281462	2536.360776
969.580172	2537.316074
969.878844	2537.482432
970.177480	2535.314736
970.476078	2538.465458
970.774639	2540.250026
971.073162	2540.008051
971.371649	2533.590662
971.670098	2537.061496
971.968510	2536.159130
972.266885	2531.848943
972.565223	2537.905889
972.863524	2537.217772
973.161788	2537.459747
973.460014	2536.385982
973.758204	2537.442103
974.056356	2537.895807
974.354471	2538.425128
974.652550	2537.487474
974.950591	2538.714995
975.248595	2538.858668
975.546563	2535.264325
975.844493	2537.656352
976.142386	2537.394212
976.440243	2537.689120
976.738062	2537.532844
977.035845	2537.142155
977.333590	2537.878163
977.631299	2535.281969
977.928971	2535.947401
978.226606	2537.406815
978.524204	2533.978831
978.821765	2535.279448
979.119290	2536.015457
979.416777	2535.866743
979.714228	2539.975283
980.011642	2536.645601
980.309020	2538.127700
980.606360	2537.210210
980.903664	2537.779861
981.200931	2539.617361
981.498162	2537.437062
981.795356	2538.412525
982.092513	2545.570964
982.389633	2544.789585
982.686717	2550.342416
982.983764	2552.547921
983.280775	2556.003632
983.577749	2555.486913
983.874686	2552.328631
984.171587	2549.661860
984.468451	2546.463248
984.765279	2542.508463
985.062070	2543.698175
985.358824	2542.140459
985.655543	2540.025695
985.952224	2539.629964
986.248869	2539.009902
986.545478	2534.631660
986.842050	2534.291382
987.138586	2529.497245
987.435086	2532.796680
987.731549	2529.910619
988.027975	2533.885569
988.324366	2535.793646
988.620719	2534.364479
988.917037	2533.409180
989.213318	2534.321629
989.509563	2533.210055
989.805772	2533.076464
990.101944	2535.380271
990.398080	2532.078316
990.694180	2533.119314
990.990244	2535.483615
991.286271	2531.400280
991.582262	2533.855322
991.878217	2531.488501
992.174136	2531.916999
992.470019	2533.255425
992.765865	2532.070754
993.061676	2532.680733
993.357450	2532.494211
993.653188	2532.968079
993.948890	2532.242153
994.244556	2536.451517
994.540186	2535.571835
994.835780	2533.328522
995.131337	2534.911444
995.426859	2536.020498
995.722345	2533.840199
996.017795	2535.786084
996.313208	2536.779192
996.608586	2537.288348
996.903928	2536.620395
997.199234	2536.932947
997.494504	2535.743234
997.789738	2536.328008
998.084936	2537.137113
998.380099	2533.872966
998.675225	2532.471526
998.970316	2535.347504
999.265371	2533.550332
999.560390	2534.427493
999.855373	2533.462112
1000.150320	2533.018491
1000.445232	2533.446989
1000.740108	2533.542771
1001.034948	2533.212575
1001.329752	2530.964221
1001.624521	2531.861546
1001.919254	2523.132788
1002.213951	2531.191073
1002.508613	2527.889117
1002.803239	2530.369364
1003.097829	2527.563962
1003.392384	2528.514220
1003.686903	2530.092101
1003.981386	2533.237781
1004.275834	2530.830630
1004.570246	2532.058151
1004.864623	2531.390198
1005.158964	2531.158305
1005.453270	2531.556556
1005.747540	2530.134951
1006.041775	2532.675692
1006.335974	2530.054292
1006.630138	2530.908768
1006.924266	2530.399611
1007.218359	2530.492873
1007.512416	2530.505476
1007.806438	2529.996319
1008.100425	2532.773995
1008.394376	2529.466998
1008.688292	2532.247194
1008.982172	2527.120341
1009.276017	2531.533871
1009.569827	2528.857018
1009.863602	2533.522606
1010.157341	2529.041020
1010.451045	2528.171421
1010.744714	2532.148892
1011.038347	2530.079498
1011.331945	2528.645290
1011.625508	2529.479601
1011.919036	2530.928932
1012.212528	2530.124868
1012.505986	2527.992460
1012.799408	2530.573531
1013.092795	2529.971113
1013.386147	2529.749302
1013.679464	2531.753161
1013.972745	2530.800383
1014.265992	2529.328366
1014.559204	2529.330887
1014.852380	2531.738038
1015.145521	2528.347862
1015.438628	2529.930784
1015.731699	2532.156453
1016.024736	2530.591175
1016.317737	2529.635877
1016.610703	2528.262162
1016.903635	2528.874662
1017.196531	2527.657224
1017.489393	2528.844415
1017.782219	2527.795855
1018.075011	2528.690660
1018.367768	2527.425331
1018.660490	2530.530681
1018.953177	2530.530681
1019.245829	2530.530681
