Dividing Wavelength (nm)	Counts (n)	Blue Motor Position (mm): 38.200000	Red Motor Position (mm): 0.000000	
326.493990	2051.134595
326.888308	2051.134595
327.282561	2051.134595
327.676750	2026.624505
328.070874	2030.367561
328.464933	2036.469878
328.858929	2045.710313
329.252859	2055.749771
329.646726	2068.443396
330.040528	2084.030644
330.434265	2101.591503
330.827938	2123.273506
331.221547	2140.426032
331.615091	2162.281955
332.008571	2183.434636
332.401986	2203.183356
332.795338	2226.382746
333.188625	2244.815725
333.581847	2262.558066
333.975006	2282.702517
334.368100	2297.095011
334.761129	2315.659060
335.154095	2329.239929
335.546996	2383.349154
335.939833	2489.974599
336.332606	2498.768892
336.725315	2515.087107
337.117960	2525.378622
337.510540	2534.031763
337.903056	2542.460572
338.295508	2549.762683
338.687896	2552.978939
339.080220	2557.223591
339.472480	2565.339849
339.864676	2567.631053
340.256807	2571.255643
340.648875	2574.376117
341.040879	2571.437124
341.432818	2576.773186
341.824694	2577.431056
342.216506	2575.086920
342.608253	2576.755542
342.999937	2576.541292
343.391557	2573.627506
343.783113	2575.084399
344.174605	2570.096177
344.566033	2569.468554
344.957397	2568.084757
345.348697	2567.376475
345.739934	2565.140723
346.131106	2565.886814
346.522215	2564.303892
346.913260	2559.373643
347.304241	2560.056719
347.695159	2558.927501
348.086012	2558.637635
348.476802	2551.900133
348.867528	2550.614638
349.258191	2547.715975
349.648789	2547.204298
350.039324	2542.715150
350.429796	2549.820657
350.820203	2546.261602
351.210548	2545.109698
351.600828	2544.403937
351.991045	2545.825542
352.381198	2544.020809
352.771288	2545.754966
353.161314	2540.015612
353.551276	2546.117929
353.941175	2541.076775
354.331010	2541.212886
354.720782	2546.054915
355.110490	2547.529452
355.500135	2546.634647
355.889717	2542.911755
356.279235	2543.753628
356.668689	2546.216232
357.058080	2546.352343
357.447408	2545.722198
357.836672	2548.078938
358.225873	2547.675646
358.615010	2551.161603
359.004084	2548.260419
359.393095	2547.158927
359.782043	2552.437015
360.170927	2547.736139
360.559748	2548.981304
360.948505	2552.986501
361.337199	2554.584547
361.725830	2554.214022
362.114398	2553.001625
362.502903	2552.497509
362.891344	2555.121430
363.279722	2554.657644
363.668037	2556.112017
364.056289	2550.518856
364.444478	2553.593960
364.832603	2558.975392
365.220665	2556.948848
365.608665	2557.934394
365.996601	2558.766184
366.384474	2556.699311
366.772284	2557.974723
367.160031	2555.688560
367.547715	2559.363561
367.935336	2559.401369
368.322893	2557.634445
368.710388	2556.676626
369.097820	2557.475649
369.485189	2557.216029
369.872495	2561.594271
370.259738	2560.139898
370.646918	2560.891030
371.034035	2563.310784
371.421090	2562.332800
371.808081	2560.878427
372.195010	2564.792883
372.581875	2563.013356
372.968678	2564.273645
373.355418	2562.050496
373.742096	2563.509910
374.128710	2566.436300
374.515262	2565.748182
374.901751	2566.519479
375.288177	2567.454613
375.674540	2566.554767
376.060841	2566.474108
376.447079	2567.530230
376.833254	2567.641135
377.219367	2566.209448
377.605417	2570.116342
377.991404	2569.491239
378.377329	2569.997875
378.763191	2568.283883
379.148991	2569.864284
379.534727	2571.989131
379.920402	2569.869325
380.306013	2572.044583
380.691563	2570.408729
381.077049	2572.475602
381.462474	2572.120201
381.847835	2574.169430
382.233134	2572.498287
382.618371	2574.270253
383.003545	2572.372258
383.388657	2572.561302
383.773706	2571.411918
384.158693	2573.962742
384.543618	2576.745459
384.928480	2575.122208
385.313280	2574.988617
385.698017	2576.047259
386.082692	2577.506673
386.467305	2580.249061
386.851856	2579.686972
387.236344	2580.952302
387.620770	2577.481468
388.005133	2578.822415
388.389435	2578.562795
388.773674	2577.781416
389.157851	2586.739547
389.541965	2584.387848
389.926018	2585.426326
390.310008	2584.740729
390.693936	2586.361460
391.077802	2586.437077
391.461606	2586.169896
391.845348	2585.126377
392.229027	2584.090420
392.612645	2584.934814
392.996200	2589.222315
393.379694	2589.610484
393.763125	2589.905391
394.146494	2587.757860
394.529801	2590.845567
394.913047	2594.291195
395.296230	2594.424786
395.679351	2593.020824
396.062410	2593.184662
396.445408	2598.682040
396.828343	2597.827565
397.211217	2602.992227
397.594028	2602.029366
397.976778	2603.818976
398.359466	2607.781323
398.742092	2608.658484
399.124656	2611.037908
399.507158	2616.936058
399.889598	2623.545011
400.271977	2628.810496
400.654294	2634.353245
401.036549	2637.325005
401.418742	2646.225162
401.800874	2656.194044
402.182944	2664.053203
402.564952	2680.197498
402.946898	2686.935000
403.328783	2699.084181
403.710606	2712.017261
404.092367	2728.143912
404.474067	2744.482292
404.855705	2760.886206
405.237282	2772.082609
405.618797	2799.204017
406.000250	2822.350475
406.381642	2853.406503
406.762972	2870.357383
407.144240	2881.095040
407.525447	2914.901018
407.906593	2933.250818
408.287677	2973.847230
408.668700	3003.108607
409.049661	3034.073895
409.430560	3068.789801
409.811399	3092.100096
410.192176	3125.522946
410.572891	3170.527847
410.953545	3230.139492
411.334138	3229.126220
411.714669	3292.211219
412.095139	3297.620377
412.475547	3360.864173
412.855894	3393.616549
413.236180	3458.120633
413.616405	3469.100266
413.996568	3536.616440
414.376670	3574.518355
414.756711	3602.640432
415.136691	3668.742561
415.516609	3743.787698
415.896466	3795.588074
416.276262	3869.624980
416.655997	3958.198053
417.035670	4040.366341
417.415283	4150.850789
417.794834	4220.728743
418.174324	4236.913367
418.553753	4281.731746
418.933121	4416.350718
419.312428	4463.646823
419.691674	4470.870797
420.070859	4640.225840
420.449983	4614.647025
420.829045	4770.345582
421.208047	4772.961941
421.586988	4914.535185
421.965867	5010.072612
422.344686	5098.408751
422.723444	5258.052011
423.102141	5043.992016
423.480777	5344.376729
423.859352	5264.045943
424.237866	5566.706737
424.616319	5597.281336
424.994712	5763.042036
425.373044	5743.971351
425.751314	6014.888000
426.129524	5843.768553
426.507673	6093.174598
426.885762	6161.920813
427.263789	6231.602162
427.641756	6342.615932
428.019662	6426.800680
428.397508	6499.204252
428.775292	6526.471854
429.153016	6688.345824
429.530679	6674.459966
429.908282	6743.959833
430.285824	6733.000365
430.663305	6980.979764
431.040726	6926.119407
431.418086	6947.332582
431.795385	7095.817248
432.172624	7285.525950
432.549802	7192.680499
432.926920	7336.063517
433.303977	7319.561300
433.680974	7385.308029
434.057910	7575.717451
434.434786	7641.444014
434.811601	7619.101621
435.188355	7956.158208
435.565050	7872.676700
435.941683	7900.309785
436.318257	8215.938948
436.694770	8173.603338
437.071222	8399.615909
437.447614	8185.820574
437.823946	8175.536620
438.200218	8328.134868
438.576429	8233.267914
438.952580	8395.620794
439.328670	8405.945078
439.704700	8500.738934
440.080670	8403.507680
440.456580	8660.014190
440.832429	8641.540882
441.208218	8404.460458
441.583947	8523.640896
441.959616	8628.978327
442.335224	8669.788988
442.710773	8759.811392
443.086261	8933.625336
443.461689	8674.348711
443.837057	8828.083739
444.212365	9028.638483
444.587612	9030.929687
444.962800	8924.994880
445.337927	9068.844205
445.712995	8624.418603
446.088002	9261.867466
446.462949	9337.585596
446.837837	9337.704063
447.212664	9392.554338
447.587431	10297.322986
447.962139	11261.466344
448.336786	12014.574400
448.711374	11614.531116
449.085901	10487.745011
449.460369	10465.203492
449.834776	10386.959743
450.209124	11303.552417
450.583412	11064.780686
450.957640	11282.089705
451.331808	10870.129133
451.705917	10390.859075
452.079965	10311.251694
452.453954	10516.353559
452.827883	10471.091559
453.201752	10431.271485
453.575562	10457.120001
453.949311	10813.756430
454.323001	10888.728470
454.696632	10804.672271
455.070202	11386.355890
455.443713	11445.733120
455.817164	11595.175606
456.190556	11918.459761
456.563888	11744.708832
456.937160	11971.061680
457.310373	11466.684156
457.683526	11505.710248
458.056619	11548.849922
458.429653	11625.054524
458.802628	11799.029785
459.175542	11857.305523
459.548398	12399.474058
459.921194	12990.841733
460.293930	13306.430567
460.666607	14134.369510
461.039224	14854.977246
461.411782	15123.844666
461.784280	14729.182814
462.156719	14650.492923
462.529099	14561.859356
462.901419	13980.637003
463.273680	13628.784629
463.645882	13862.263149
464.018024	13816.491992
464.390106	14225.657244
464.762130	15390.188988
465.134094	17050.918985
465.505999	19328.199741
465.877845	21327.102941
466.249631	22232.451322
466.621358	21608.101897
466.993026	20780.720002
467.364634	20074.416539
467.736184	19369.421256
468.107674	18828.374379
468.479105	18685.913892
468.850477	18423.166433
469.221790	17995.747162
469.593043	17362.169906
469.964238	17015.772061
470.335373	17126.120398
470.706449	18002.391403
471.077467	19138.478437
471.448425	21479.542392
471.819324	22966.075318
472.190164	22444.462088
472.560945	20774.368148
472.931667	19368.483602
473.302330	19122.939080
473.672934	18680.663530
474.043479	19112.357698
474.413965	18917.108769
474.784393	18764.117311
475.154761	19399.769002
475.525070	19530.133241
475.895321	19375.967195
476.265513	19891.780577
476.635645	20461.829212
477.005719	20541.865092
477.375734	20918.807288
477.745691	21507.767812
478.115588	22182.967356
478.485427	23450.265542
478.855207	25326.822458
479.224928	27039.829220
479.594591	28204.844915
479.964194	27685.293517
480.333739	28074.417662
480.703226	28372.483445
481.072653	28874.194199
481.442022	29370.465549
481.811333	29668.851445
482.180584	29158.225410
482.549777	28954.371231
482.918912	28765.491799
483.287988	28721.716940
483.657005	28536.368836
484.025964	28195.415437
484.394864	28394.082269
484.763706	28339.703342
485.132489	27846.169340
485.501213	27928.967771
485.869879	28109.967879
486.238487	28071.191324
486.607036	28343.910185
486.975527	28052.097954
487.343959	28379.793118
487.712333	28721.303565
488.080648	28698.414206
488.448905	29125.142838
488.817104	29057.956860
489.185244	29957.076895
489.553326	31114.024224
489.921350	33046.744635
490.289315	35426.832162
490.657222	36107.488754
491.025070	36504.708992
491.392861	36130.967928
491.760593	35320.486501
492.128267	34326.257537
492.495883	33393.046698
492.863440	32551.410940
493.230939	31668.316733
493.598380	31160.256646
493.965763	31050.775387
494.333088	30581.953120
494.700354	30411.965413
495.067563	30396.854554
495.434713	30305.135801
495.801805	30605.699476
496.168839	30478.327162
496.535815	30331.604379
496.902733	30495.401550
497.269593	30315.515537
497.636395	30474.536214
498.003139	30771.525711
498.369825	30549.314170
498.736453	30958.335749
499.103023	30806.944858
499.469535	30906.807595
499.835989	31052.260007
500.202385	30910.149880
500.568723	30980.859624
500.935003	31332.238130
501.301226	31219.767467
501.667390	31918.531884
502.033497	32114.947840
502.399546	31925.012287
502.765537	31527.867666
503.131470	32015.362367
503.497345	32447.111988
503.863163	31432.010126
504.228923	32203.291541
504.594625	32615.441156
504.960269	32109.732767
505.325856	32792.844401
505.691385	32472.335401
506.056856	32786.111940
506.422270	33303.551094
506.787625	32845.723584
507.152924	33309.988648
507.518164	33503.634490
507.883347	33071.973089
508.248472	33245.358535
508.613540	33937.584575
508.978550	34176.162222
509.343503	34028.912639
509.708398	34402.051285
510.073236	35007.844222
510.438016	35110.484635
510.802738	34809.005991
511.167403	35376.526488
511.532010	35616.429958
511.896561	36123.340663
512.261053	36872.713223
512.625488	36652.223236
512.989866	36618.452547
513.354186	36671.198139
513.718449	36629.086861
514.082655	37511.510594
514.446803	37230.098263
514.810894	37844.531738
515.174927	37875.660863
515.538904	37879.986173
515.902822	38533.050010
516.266684	38243.929754
516.630488	38592.661654
516.994235	38619.664595
517.357925	39214.044359
517.721558	39483.425977
518.085133	39848.851657
518.448651	40052.927647
518.812112	39953.803439
519.175516	40086.910066
519.538863	40550.658411
519.902152	40624.138269
520.265385	41154.288693
520.628560	41183.250122
520.991678	41140.826292
521.354739	41381.153219
521.717743	41734.520459
522.080690	41664.518997
522.443580	42336.625792
522.806413	42363.994217
523.169189	42508.559386
523.531908	42749.738268
523.894569	42605.576391
524.257174	42803.618120
524.619722	43161.943336
524.982213	43301.966425
525.344647	43327.865353
525.707025	43451.285402
526.069345	43913.171041
526.431608	43805.242457
526.793815	44211.824118
527.155964	43744.052932
527.518057	44025.961817
527.880093	43868.440882
528.242072	44506.673645
528.603995	44243.527934
528.965860	44170.993292
529.327669	44391.072425
529.689421	44436.919199
530.051117	44399.032407
530.412755	44690.849680
530.774337	44758.373415
531.135862	44696.674733
531.497331	44840.892062
531.858743	44855.113157
532.220098	45258.057625
532.581396	44985.820194
532.942638	44741.490591
533.303824	44983.468496
533.664953	45045.749431
534.026025	44735.743675
534.387040	45314.856306
534.747999	45381.737294
535.108902	45687.616865
535.469748	45020.021902
535.830537	45285.506708
536.191270	45528.228183
536.551947	45251.892294
536.912567	45556.955199
537.273131	45698.122630
537.633638	45298.454912
537.994089	45532.283792
538.354483	45269.032217
538.714821	45926.907835
539.075103	46201.829681
539.435328	46052.258646
539.795497	45817.051011
540.155609	45922.431291
540.515665	46509.377874
540.875665	45830.092476
541.235609	46127.654143
541.595496	46233.329331
541.955328	46811.494224
542.315102	46244.689571
542.674821	46144.489077
543.034483	46010.598551
543.394090	46039.806996
543.753640	46018.873605
544.113134	47086.476564
544.472571	46192.190995
544.831953	47330.816249
545.191278	46581.080726
545.550548	46275.763243
545.909761	46925.545289
546.268918	47069.684480
546.628019	47492.717946
546.987064	46913.769153
547.346053	46196.738116
547.704986	47113.202241
548.063863	46771.525436
548.422684	46964.536093
548.781449	46563.494661
549.140158	47099.654140
549.498811	46868.207205
549.857408	46228.933445
550.215949	47082.284844
550.574434	46911.218330
550.932864	46845.867332
551.291237	47591.527082
551.649555	47327.587390
552.007817	47519.902368
552.366022	47184.675720
552.724173	47239.974657
553.082267	47669.780913
553.440305	48010.537708
553.798288	47258.359745
554.156215	47656.094181
554.514086	47852.195065
554.871902	47469.193402
555.229661	47652.888007
555.587365	47330.528904
555.945014	47459.058162
556.302606	47470.604925
556.660143	47585.306298
557.017625	47790.637536
557.375050	47493.942947
557.732421	47902.737674
558.089735	47973.255854
558.446994	47834.440122
558.804197	48315.081373
559.161345	48193.975214
559.518437	47516.429013
559.875474	47786.465981
560.232455	48016.259417
560.589381	48074.552800
560.946251	47868.891367
561.303065	48532.115649
561.659825	48232.862675
562.016528	48030.944298
562.373177	47600.036550
562.729770	48240.356350
563.086307	47749.259745
563.442789	48318.055654
563.799216	48164.592849
564.155587	48050.307370
564.511904	48028.985810
564.868164	48077.285105
565.224370	48384.477897
565.580520	48108.704097
565.936615	48299.726019
566.292654	47962.402250
566.648638	48319.573041
567.004567	48256.911499
567.360441	48356.365903
567.716260	48079.152853
568.072023	48436.248027
568.427732	48362.276656
568.783385	47900.476716
569.138982	48313.914346
569.494525	48448.087176
569.850013	48024.098412
570.205445	48169.036626
570.560823	47956.458730
570.916145	47808.609249
571.271412	48044.608346
571.626625	47703.970019
571.981782	47780.661092
572.336884	47365.300262
572.691931	47703.002117
573.046923	47357.983027
573.401860	47192.229889
573.756743	47214.831902
574.111570	47350.282665
574.466342	47266.808719
574.821059	47416.594003
575.175722	46912.103052
575.530330	47025.034981
575.884882	46674.589089
576.239380	46559.686069
576.593823	46633.271792
576.948211	46584.601972
577.302544	46130.706562
577.656823	46113.765764
578.011047	46389.907569
578.365216	46201.948148
578.719330	45915.091371
579.073389	45900.484627
579.427394	45958.311703
579.781344	45883.538789
580.135239	45637.648948
580.489080	45691.929572
580.842866	45181.646336
581.196597	45664.719944
581.550273	45659.746846
581.903895	45596.941631
582.257463	46041.079888
582.610975	45460.096989
582.964434	45808.186142
583.317837	45311.947560
583.671186	45262.188851
584.024481	45525.032092
584.377721	45076.490387
584.730906	45299.861394
585.084037	45401.324697
585.437113	45117.036388
585.790135	45255.310197
586.143103	44796.736596
586.496016	44960.768180
586.848874	45069.389922
587.201679	45090.764414
587.554428	44598.236122
587.907124	44861.606163
588.259765	44628.883817
588.612352	44799.854549
588.964884	44238.711112
589.317362	44555.512343
589.669786	44552.709462
590.022155	44414.775931
590.374470	44868.250404
590.726731	44437.408191
591.078937	43774.733394
591.431090	44121.612670
591.783188	43644.638858
592.135232	43426.833285
592.487222	43713.170823
592.839157	43853.241804
593.191038	43481.736492
593.542866	43301.890807
593.894639	42705.159344
594.246358	42998.146165
594.598022	42985.235770
594.949633	42553.546643
595.301190	42555.457240
595.652692	42494.091274
596.004141	42962.043942
596.355535	41870.757642
596.706876	41899.353587
597.058162	41598.127001
597.409395	42103.558127
597.760573	42332.366018
598.111698	41916.508634
598.462768	41840.619104
598.813785	41861.875129
599.164748	41471.215953
599.515657	41756.182298
599.866511	41254.065730
600.217312	41933.620831
600.568060	40853.450275
600.918753	41690.675024
601.269392	41623.307564
601.619978	41333.005158
601.970510	41526.683769
602.320988	41675.980060
602.671412	41947.249590
603.021783	41815.549446
603.372100	41380.951573
603.722363	41502.894564
604.072572	41533.496888
604.422728	41512.603826
604.772830	41300.673718
605.122878	41463.071969
605.472872	41315.958497
605.822813	41573.546335
606.172701	41322.648108
606.522534	41648.868735
606.872314	41856.097967
607.222041	41678.719928
607.571714	42018.171063
607.921333	41504.192661
608.270899	41723.510579
608.620411	42116.299643
608.969870	41849.123530
609.319276	41868.037940
609.668627	41907.754670
610.017926	42308.672594
610.367171	42430.424022
610.716362	42479.068636
611.065500	42373.887481
611.414585	42605.505815
611.763616	42758.179680
612.112594	42659.310050
612.461518	42791.789053
612.810389	43172.557485
613.159207	42961.131493
613.507971	42946.587764
613.856682	43427.516361
614.205340	43256.711987
614.553945	43946.243530
614.902496	43282.958754
615.250994	43707.572622
615.599439	43755.226649
615.947830	43874.417170
616.296169	43859.235736
616.644454	43901.573866
616.992686	44067.309361
617.340864	44520.085634
617.688990	44047.336309
618.037063	44724.285133
618.385082	44525.683836
618.733048	44880.608793
619.080961	44746.110808
619.428821	44754.469041
619.776628	44791.415658
620.124382	44598.233601
620.472083	44698.817223
620.819731	44810.229244
621.167326	44386.174944
621.514868	44361.889186
621.862357	43822.838605
622.209793	43921.163790
622.557176	43494.009181
622.904506	43238.309255
623.251783	42869.828635
623.599007	42556.684761
623.946179	42476.268275
624.293297	42202.571429
624.640363	41677.323528
624.987376	41511.497293
625.334336	41317.738024
625.681243	40901.868037
626.028097	40802.607718
626.374899	40615.064192
626.721647	40586.453124
627.068343	40390.810984
627.414987	40102.091500
627.761577	39832.006642
628.108115	40145.306792
628.454600	39427.585116
628.801032	39631.502309
629.147412	39521.826966
629.493739	39451.107140
629.840014	38998.925722
630.186236	39427.111247
630.532405	38881.691169
630.878521	39103.073440
631.224585	38866.829847
631.570597	38541.587204
631.916556	38705.923778
632.262462	38580.341074
632.608316	38523.791931
632.954117	38389.394769
633.299866	38339.225206
633.645562	38252.756815
633.991206	37710.968887
634.336797	37313.481468
634.682336	37213.953968
635.027823	36964.734445
635.373257	36840.538059
635.718639	36517.770622
636.063968	36421.187155
636.409245	35758.756855
636.754470	35721.903500
637.099642	35488.971945
637.444762	34919.918937
637.789829	35072.383594
638.134845	34679.980179
638.479808	34602.346409
638.824719	34543.914395
639.169577	34030.054460
639.514383	34135.162518
639.859137	33742.035697
640.203839	33914.483488
640.548489	33606.297588
640.893086	33616.705051
641.237632	33335.106197
641.582125	33439.377423
641.926566	33232.773294
642.270955	33267.378295
642.615292	33191.594629
642.959576	33082.131014
643.303809	33079.179419
643.647990	33165.403314
643.992118	33118.318937
644.336195	32970.456854
644.680219	33047.999882
645.024192	33253.764659
645.368112	33785.820639
645.711981	33795.469407
646.055797	34533.380904
646.399562	34328.342054
646.743274	35206.914346
647.086935	35603.890088
647.430544	35546.126027
647.774101	35593.412050
648.117606	35893.884984
648.461059	36032.728443
648.804460	35625.630064
649.147810	35116.070233
649.491108	34767.141729
649.834354	34625.608814
650.177548	33796.797751
650.520690	33305.680982
650.863781	33289.680359
651.206820	33118.835656
651.549807	32711.767524
651.892742	32123.895888
652.235626	32039.219627
652.578458	31900.361045
652.921238	31209.060056
653.263967	31520.109331
653.606644	31214.769163
653.949269	31118.697373
654.291843	30724.141385
654.634365	31087.747209
654.976836	30611.890012
655.319255	30692.281293
655.661622	30574.666133
656.003938	30445.398345
656.346203	30253.153943
656.688416	30498.819452
657.030577	30270.263619
657.372687	30098.539234
657.714746	30260.466137
658.056753	30450.852873
658.398708	29827.425980
658.740612	29900.759645
659.082465	30108.457704
659.424266	29999.304121
659.766016	29995.054428
660.107715	29865.935354
660.449362	29971.804626
660.790958	29948.479208
661.132503	29876.080677
661.473996	29941.167014
661.815438	30015.997902
662.156829	30149.119651
662.498168	29945.940987
662.839456	29927.197977
663.180693	30060.387782
663.521879	30139.135646
663.863013	30095.559912
664.204097	30073.272971
664.545129	30495.451962
664.886110	30419.877504
665.227040	30511.974343
665.567918	30515.903923
665.908746	30603.751070
666.249522	30679.610353
666.590248	30707.835773
666.930922	30807.232203
667.271545	30808.558027
667.612118	30863.373013
667.952639	30671.035350
668.293109	30704.029702
668.633528	30573.970453
668.973896	30538.223631
669.314213	30500.132673
669.654480	30335.173516
669.994695	30308.722582
670.334859	30230.488915
670.674973	30071.619473
671.015035	30249.088253
671.355047	30187.666834
671.695008	30121.408428
672.034918	30020.224909
672.374777	30131.611724
672.714585	29983.860546
673.054342	30121.116042
673.394049	29968.048967
673.733705	30196.816528
674.073310	29907.114020
674.412864	29970.607352
674.752368	29666.454376
675.091820	29908.044113
675.431223	29505.838173
675.770574	29281.965572
676.109875	29112.164387
676.449125	28934.914898
676.788324	28835.639455
677.127473	28347.318005
677.466571	28244.281862
677.805619	27966.398338
678.144616	27907.023628
678.483562	27850.109001
678.822458	27526.058591
679.161303	27482.906314
679.500098	27392.566317
679.838842	27318.816756
680.177535	27402.729283
680.516179	27645.750707
680.854771	27761.208253
681.193314	28528.592856
681.531805	29546.298474
681.870247	30288.636104
682.208638	31020.425120
682.546978	31284.284154
682.885268	31427.883942
683.223508	30986.712404
683.561697	30721.767002
683.899836	30554.173842
684.237925	30152.993778
684.575963	29995.876136
684.913951	29623.841503
685.251889	29802.404213
685.589776	29825.326340
685.927614	29829.984366
686.265401	30002.598515
686.603137	30106.295049
686.940824	30609.767687
687.278460	30935.695927
687.616046	31107.359818
687.953582	31770.372372
688.291068	31683.833405
688.628504	32030.374923
688.965889	32017.121729
689.303224	31767.405653
689.640510	31479.838073
689.977745	30855.907064
690.314930	30127.510745
690.652065	29680.889720
690.989150	29016.180818
691.326185	28178.525051
691.663170	27550.770327
692.000105	26796.404504
692.336990	26191.604674
692.673825	25762.113490
693.010610	25268.150989
693.347345	24775.471462
693.684030	24142.176510
694.020665	23938.302166
694.357251	23255.717332
694.693786	23259.233537
695.030272	23022.039687
695.366707	22538.489690
695.703093	22248.895566
696.039429	22308.749185
696.375716	22082.633271
696.711952	22072.868556
697.048139	21933.568872
697.384276	21771.518461
697.720363	21884.911655
698.056400	21773.774378
698.392388	21633.085856
698.728326	21616.860902
699.064214	21462.934311
699.400053	21457.026078
699.735842	21072.370917
700.071581	20869.565297
700.407270	20626.710231
700.742910	20452.205650
701.078501	20205.688186
701.414042	19999.363841
701.749533	19693.632984
702.084974	19377.882833
702.420366	19609.561661
702.755709	19198.107725
703.091002	18892.046672
703.426246	18969.577098
703.761440	18889.516013
704.096584	18656.695364
704.431679	18578.958251
704.766725	18523.215692
705.101721	18458.908213
705.436668	18581.219208
705.771565	18297.591290
706.106413	18618.082646
706.441212	18687.852215
706.775961	18785.161608
707.110661	18872.154279
707.445311	19231.901100
707.779913	19107.871071
708.114465	19401.578777
708.448967	19722.296984
708.783421	20336.135603
709.117825	20697.399811
709.452180	20932.481418
709.786485	21386.918752
710.120742	22148.354793
710.454949	22250.538982
710.789107	22754.714860
711.123216	23477.250838
711.457275	23683.547457
711.791286	24250.823458
712.125247	24397.853751
712.459159	24138.004955
712.793023	24903.060545
713.126837	23866.866496
713.460602	24133.157886
713.794318	23800.902997
714.127985	23532.983315
714.461602	22634.148104
714.795171	22621.419191
715.128691	21636.531485
715.462162	21123.662136
715.795584	20695.350582
716.128957	20431.894841
716.462281	20050.854186
716.795556	19770.119890
717.128782	19283.870355
717.461960	18682.475825
717.795088	18647.528026
718.128167	18300.623544
718.461198	17833.386721
718.794180	17706.715127
719.127113	17376.403604
719.459997	17176.463881
719.792833	16799.173844
720.125619	16847.478181
720.458357	16512.065009
720.791046	16367.162083
721.123686	16221.016513
721.456278	15996.022255
721.788821	15984.593959
722.121315	15720.853393
722.453761	15826.662171
722.786158	15700.517378
723.118506	15781.180881
723.450805	15664.228632
723.783056	15844.074316
724.115259	15734.477111
724.447412	15727.106944
724.779518	15942.661641
725.111574	15990.779455
725.443582	16256.657470
725.775542	16209.837754
726.107453	16726.248513
726.439315	16657.550189
726.771129	17066.644865
727.102895	17492.251840
727.434612	17759.135566
727.766281	17921.559022
728.097901	18255.787522
728.429473	18347.675154
728.760996	18353.001133
729.092471	18485.044075
729.423897	18364.933544
729.755276	18241.906705
730.086606	18361.034211
730.417887	18939.025185
730.749120	19497.688375
731.080305	19702.931392
731.411442	20103.680438
731.742530	20234.248843
732.073570	20392.548635
732.404562	20722.545087
732.735506	20570.929864
733.066401	20368.540140
733.397249	19878.076200
733.728048	19254.248535
734.058798	18385.473725
734.389501	17624.408208
734.720156	17101.144001
735.050762	16517.708581
735.381320	16135.702546
735.711831	15864.279261
736.042293	15480.612165
736.372707	15523.139339
736.703073	15307.531709
737.033391	15502.563869
737.363661	15496.590102
737.693883	15608.622185
738.024056	15806.492514
738.354182	16015.218969
738.684260	16378.817231
739.014290	16662.452711
739.344272	16887.938481
739.674207	17240.481493
740.004093	17419.916323
740.333931	17471.789796
740.663722	17553.282569
740.993464	17601.836442
741.323159	17453.621478
741.652806	17148.891290
741.982405	16983.317112
742.311956	16624.528111
742.641460	16525.721495
742.970915	16185.161306
743.300323	15847.381313
743.629683	15644.598379
743.958996	15313.702082
744.288260	14993.659389
744.617477	14693.156208
744.946647	14658.140353
745.275768	14345.704761
745.604842	14133.913285
745.933869	13950.785810
746.262847	13927.712449
746.591778	13845.241693
746.920662	13722.091345
747.249498	13735.833531
747.578286	13883.952713
747.907027	14060.894692
748.235720	14328.567359
748.564365	14399.677875
748.892963	14327.705322
749.221514	14426.839612
749.550017	14289.160659
749.878473	14260.715949
750.206881	14036.180436
750.535242	13959.123879
750.863555	13878.165468
751.191821	13771.847534
751.520039	13796.098004
751.848210	13721.733423
752.176334	13769.820990
752.504411	13694.783415
752.832440	13516.263554
753.160421	13635.564981
753.488356	13519.073998
753.816243	13430.808435
754.144082	13268.586625
754.471875	13216.788769
754.799620	13185.672247
755.127318	13156.783915
755.454969	13139.248261
755.782572	13112.736833
756.110129	13125.080098
756.437638	13035.435780
756.765100	13031.564174
757.092515	13063.028536
757.419882	13094.412239
757.747203	13112.401596
758.074477	13200.717571
758.401703	13179.491792
758.728882	13370.491029
759.056014	13411.641968
759.383099	13586.927928
759.710138	13709.783368
760.037129	13831.224764
760.364073	13897.614240
760.690970	13919.936469
761.017820	13940.814408
761.344623	14161.501000
761.671379	14542.057704
761.998088	15241.474950
762.324751	17010.960279
762.651366	20409.416336
762.977935	24888.040427
763.304456	27881.754845
763.630931	28965.078642
763.957359	27798.903481
764.283740	25533.101432
764.610074	23282.795890
764.936362	20637.795729
765.262602	18765.241488
765.588796	16810.836554
765.914943	15520.999369
766.241044	14405.417229
766.567097	13604.713119
766.893104	12889.421279
767.219064	12400.963719
767.544978	11922.868250
767.870845	11534.964064
768.196665	11313.256638
768.522438	11077.297871
768.848165	10866.799451
769.173846	10664.840746
769.499479	10528.860662
769.825066	10362.585764
770.150607	10133.873655
770.476101	10053.457169
770.801548	9927.239279
771.126949	9772.740517
771.452303	9659.808588
771.777611	9456.030027
772.102872	9451.757649
772.428087	9303.288106
772.753256	9143.649887
773.078378	9056.417761
773.403453	8874.187611
773.728482	8758.541022
774.053465	8685.650978
774.378401	8585.624403
774.703291	8458.597409
775.028135	8338.391095
775.352932	8296.355434
775.677683	8194.806431
776.002388	8087.180317
776.327046	8092.839012
776.651658	8001.566401
776.976224	7894.182262
777.300743	7898.053869
777.625216	7803.290259
777.949643	7757.980368
778.274024	7780.244624
778.598359	7691.086777
778.922647	7711.939510
779.246889	7653.754512
779.571086	7665.427304
779.895236	7672.893253
780.219339	7682.907505
780.543397	7681.470776
780.867409	7757.171263
781.191374	7774.825383
781.515294	7737.523366
781.839167	7835.435176
782.162995	7810.572205
782.486776	7748.699604
782.810511	7699.316461
783.134201	7615.403934
783.457844	7615.892926
783.781441	7562.156747
784.104993	7492.815676
784.428498	7474.302038
784.751958	7454.271013
785.075372	7427.419307
785.398739	7366.338167
785.722061	7415.635610
786.045337	7416.550580
786.368568	7574.643685
786.691752	7598.868950
787.014891	7936.275897
787.337983	8296.121020
787.661030	8883.599446
787.984031	9515.833235
788.306987	9921.905739
788.629897	10133.535898
788.952760	10085.332385
789.275579	9870.735507
789.598351	9467.014701
789.921078	9113.476061
790.243759	8706.007157
790.566395	8410.986231
790.888984	8161.824682
791.211529	7947.074049
791.534027	7723.829071
791.856480	7526.810697
792.178888	7447.344468
792.501249	7347.025506
792.823566	7188.287133
793.145836	7190.626229
793.468062	7161.226220
793.790241	7110.973477
794.112375	7178.948396
794.434464	7333.863054
794.756507	7371.202880
795.078505	7528.658279
795.400457	7838.522883
795.722364	8193.984723
796.044226	8477.663053
796.366042	8757.852904
796.687812	8709.304072
797.009538	8788.069580
797.331218	8689.003345
797.652852	8604.551416
797.974442	8452.555586
798.295986	8365.923357
798.617484	8173.729367
798.938938	8034.918675
799.260346	7923.912467
799.581709	7728.524906
799.903026	7644.012482
800.224299	7539.592542
800.545526	7367.603496
800.866708	7269.805112
801.187845	7205.243054
801.508936	7089.513286
801.829983	7056.939870
802.150984	6901.742908
802.471940	6856.911927
802.792851	6849.541760
803.113717	6806.160110
803.434538	6771.464369
803.755314	6717.239198
804.076045	6718.015535
804.396731	6663.465209
804.717372	6697.225817
805.037967	6695.252205
805.358518	6736.299800
805.679024	6817.359033
805.999485	6827.458985
806.319901	6870.601180
806.640272	6889.140023
806.960598	6971.789740
807.280879	6969.236396
807.601115	7051.197996
807.921306	6995.158009
808.241453	7007.919690
808.561554	7034.844493
808.881611	7000.486509
809.201623	7010.347006
809.521590	6954.818696
809.841513	6940.489216
810.161390	6975.099258
810.481223	6846.733837
810.801011	6830.216496
811.120755	6811.435678
811.440453	6732.070272
811.760107	6698.533996
812.079716	6671.188257
812.399281	6600.831393
812.718801	6586.759013
813.038276	6548.789042
813.357707	6486.755123
813.677093	6529.282297
813.996434	6428.340753
814.315731	6476.158618
814.634983	6468.390200
814.954191	6484.337890
815.273354	6590.620536
815.592473	6651.797459
815.911547	6777.428054
816.230577	6861.733790
816.549562	7009.101841
816.868502	7111.936338
817.187399	7213.250927
817.506250	7367.437138
817.825058	7396.065851
818.143821	7668.308323
818.462539	7948.122609
818.781213	8312.416550
819.099843	8861.826702
819.418429	9864.048416
819.736970	10834.964564
820.055466	12028.384641
820.373919	13572.192636
820.692327	15930.658654
821.010691	20093.661144
821.329011	29110.278996
821.647286	42144.388952
821.965517	55600.579597
822.283704	60990.820744
822.601847	63012.411657
822.919945	60387.545863
823.237999	56297.594733
823.556010	50223.616849
823.873976	43498.062268
824.191897	36924.614423
824.509775	32041.962015
824.827609	27466.484755
825.145398	24815.510826
825.463144	23433.869189
825.780845	23710.825140
826.098502	25467.969725
826.416116	29232.007738
826.733685	32874.453120
827.051210	34046.402922
827.368692	32267.188166
827.686129	28320.950250
828.003522	24186.175701
828.320872	20460.747885
828.638177	17590.503928
828.955439	15419.205870
829.272656	13586.098659
829.589830	12090.773961
829.906960	10809.557149
830.224046	9855.564154
830.541088	9098.347558
830.858086	8631.594685
831.175041	8248.721571
831.491952	8125.031821
831.808819	8166.132348
832.125642	8566.306702
832.442421	9451.775293
832.759157	11251.527710
833.075849	14172.475592
833.392497	17408.717400
833.709101	19621.002560
834.025662	19477.498554
834.342179	17794.968087
834.658653	15589.979998
834.975083	13654.290347
835.291469	12017.931808
835.607811	10684.919661
835.924110	9772.125496
836.240366	8894.538749
836.556578	8083.054132
836.872746	7432.609175
837.188871	6925.673265
837.504952	6505.293966
837.820990	6183.340676
838.136984	5960.181398
838.452935	5867.247727
838.768842	5895.329474
839.084706	6317.011911
839.400526	7525.416818
839.716303	9118.481927
840.032037	10223.487726
840.347727	10159.805350
840.663373	9190.159573
840.978977	8137.450703
841.294537	7319.747823
841.610054	6714.665688
841.925527	6276.473473
842.240957	5907.985291
842.556344	5582.656948
842.871687	5290.169202
843.186987	5003.022558
843.502244	4779.381850
843.817458	4614.750369
844.132629	4474.707115
844.447756	4380.419894
844.762840	4298.022234
845.077881	4224.925503
845.392879	4158.092406
845.707833	4111.454172
846.022745	4062.038261
846.337613	4033.853170
846.652438	3988.182837
846.967221	3976.633553
847.281960	3939.417235
847.596656	3921.884102
847.911309	3900.781832
848.225919	3879.724932
848.540485	3865.526522
848.855009	3846.627237
849.169490	3827.513702
849.483928	3810.983758
849.798323	3809.925116
850.112675	3784.772279
850.426984	3792.830563
850.741251	3775.153757
851.055474	3774.808438
851.369654	3777.749952
851.683792	3774.173253
851.997887	3779.506794
852.311938	3781.256074
852.625947	3785.881333
852.939914	3772.050927
853.253837	3783.990900
853.567718	3785.064666
853.881555	3773.331380
854.195350	3785.251188
854.509103	3781.704737
854.822812	3786.403092
855.136479	3771.478756
855.450103	3782.344963
855.763685	3767.735699
856.077224	3773.429683
856.390720	3790.541879
856.704173	3810.862771
857.017584	3821.615552
857.330953	3833.943693
857.644278	3850.753421
857.957561	3864.016697
858.270802	3861.077704
858.584000	3863.885627
858.897155	3856.155017
859.210268	3841.412163
859.523339	3821.474399
859.836367	3817.106240
860.149352	3809.869663
860.462295	3801.030000
860.775195	3790.670429
861.088054	3786.284625
861.400869	3780.404119
861.713642	3782.982669
862.026373	3797.677633
862.339062	3800.868683
862.651708	3819.843586
862.964312	3851.547403
863.276873	3868.742778
863.589392	3922.027775
863.901869	3972.557780
864.214303	4013.214686
864.526696	4048.555695
864.839045	4094.047067
865.151353	4125.536635
865.463619	4132.168273
865.775842	4140.639932
866.088023	4161.079290
866.400162	4147.599245
866.712258	4157.026202
867.024313	4159.939989
867.336325	4155.420595
867.648296	4162.445443
867.960224	4163.194054
868.272110	4173.956918
868.583954	4177.876415
868.895755	4194.577757
869.207515	4190.280174
869.519233	4229.492789
869.830909	4243.154316
870.142542	4268.965023
870.454134	4283.922127
870.765684	4308.253256
871.077191	4347.508721
871.388657	4372.318760
871.700081	4409.494749
872.011463	4453.259526
872.322803	4493.548427
872.634101	4521.327706
872.945357	4563.093665
873.256571	4613.023773
873.567744	4642.723731
873.878874	4661.751567
874.189963	4702.789079
874.501010	4713.226788
874.812015	4710.537333
875.122979	4756.495012
875.433900	4754.806225
875.744780	4769.070170
876.055618	4795.553872
876.366415	4798.639058
876.677169	4817.210669
876.987882	4864.428636
877.298554	4917.635495
877.609183	5001.134646
877.919771	5108.244042
878.230317	5254.414818
878.540822	5476.195341
878.851285	5803.434281
879.161707	6260.578715
879.472087	7029.551281
879.782425	8272.924151
880.092722	10463.035795
880.402977	13795.762768
880.713191	17593.800843
881.023363	21339.277327
881.333494	23584.768567
881.643583	24819.337062
881.953631	24832.217210
882.263637	23996.618234
882.573602	22528.130118
882.883526	20974.864919
883.193408	19285.397825
883.503248	17571.428202
883.813048	16003.246228
884.122806	14561.655189
884.432522	13077.521853
884.742197	11786.207610
885.051831	10685.995948
885.361424	9675.398357
885.670975	8832.409049
885.980485	8129.788149
886.289954	7546.753501
886.599382	7070.465286
886.908768	6681.414238
887.218113	6307.647968
887.527417	6021.597775
887.836680	5752.337146
888.145901	5526.170819
888.455082	5359.059090
888.764221	5207.254824
889.073319	5066.064708
889.382376	4994.717258
889.691392	4932.030509
890.000366	4907.855656
890.309300	4889.215990
890.618193	4892.260847
890.927044	4879.040421
891.235855	4897.259151
891.544625	4931.995221
891.853353	4997.114326
892.162041	5111.694712
892.470687	5301.312673
892.779293	5555.154933
893.087858	5927.996151
893.396381	6511.340830
893.704864	7319.079870
894.013306	8472.208524
894.321707	9660.337910
894.630068	10489.544703
894.938387	10694.971722
895.246665	10463.670981
895.554903	9861.185041
895.863100	9159.947938
896.171256	8599.152340
896.479371	8085.368022
896.787446	7583.879079
897.095480	7148.169631
897.403473	6829.528379
897.711425	6501.566033
898.019336	6237.185240
898.327207	5960.307427
898.635038	5729.402416
898.942827	5480.818079
899.250576	5279.189569
899.558284	5091.358697
899.865952	4968.321776
900.173579	4816.015915
900.481165	4701.410324
900.788711	4613.182570
901.096216	4538.137433
901.403681	4473.653514
901.711105	4447.263073
902.018489	4434.682874
902.325832	4502.133512
902.633135	4625.281339
902.940397	4971.346468
903.247619	5763.031953
903.554800	7211.559620
903.861941	9145.401688
904.169041	10690.969046
904.476101	11335.662047
904.783121	10988.271094
905.090100	10256.328323
905.397039	9411.879601
905.703938	8651.030854
906.010796	7943.661187
906.317614	7378.575568
906.624391	6844.795513
906.931129	6409.577578
907.237826	6003.137070
907.544483	5624.208659
907.851099	5246.293520
908.157675	4884.618457
908.464211	4557.813057
908.770707	4321.463600
909.077163	4114.355356
909.383578	3966.566369
909.689954	3850.390458
909.996289	3777.281124
910.302584	3713.253429
910.608839	3680.198583
910.915054	3647.332781
911.221229	3633.073877
911.527363	3646.478305
911.833458	3658.398114
912.139513	3685.065818
912.445527	3714.453224
912.751502	3800.573776
913.057436	3903.899785
913.363331	4041.805590
913.669186	4248.170264
913.975000	4505.737937
914.280775	4937.863124
914.586510	5516.673286
914.892205	6323.358724
915.197859	7371.185236
915.503475	8597.214016
915.809050	9659.808588
916.114585	10315.975255
916.420081	10581.293703
916.725536	10549.589886
917.030952	10112.171488
917.336328	9705.423469
917.641665	9285.767576
917.946961	8809.184453
918.252218	8376.083803
918.557435	7872.790126
918.862612	7428.465347
919.167750	7052.251597
919.472848	6621.485001
919.777906	6246.798721
920.082925	5885.375716
920.387904	5517.157236
920.692843	5238.802365
920.997743	4994.666846
921.302603	4754.612141
921.607423	4589.579887
921.912204	4419.778703
922.216946	4302.476094
922.521647	4179.381199
922.826310	4074.532761
923.130932	3980.180005
923.435516	3875.248387
923.740059	3808.944612
924.044564	3730.453846
924.349028	3669.985206
924.653454	3604.525823
924.957840	3533.397663
925.262186	3487.482834
925.566493	3425.627876
925.870761	3367.092518
926.174989	3329.924091
926.479178	3290.703914
926.783328	3250.122625
927.087438	3220.427709
927.391509	3182.281297
927.695541	3156.712565
927.999533	3127.859521
928.303486	3106.921089
928.607400	3090.882658
928.911275	3077.321954
929.215110	3061.245714
929.518906	3052.511915
929.822663	3049.767007
930.126381	3046.323899
930.430060	3057.167421
930.733699	3054.170455
931.037299	3065.719738
931.340861	3065.117320
931.644383	3073.331881
931.947866	3073.019329
932.251309	3066.102866
932.554714	3064.973648
932.858080	3059.806465
933.161407	3052.159034
933.464694	3043.904145
933.767943	3035.296375
934.071153	3032.846374
934.374323	3019.179806
934.677455	3019.114271
934.980548	3008.555574
935.283602	3001.198010
935.586617	2997.565859
935.889593	3011.572705
936.192530	3011.502129
936.495428	3026.779345
936.798287	3049.772048
937.101108	3081.685072
937.403890	3131.965541
937.706632	3192.308152
938.009336	3273.185904
938.312002	3349.181298
938.614628	3408.918972
938.917216	3464.152374
939.219765	3495.324348
939.522275	3530.496479
939.824747	3536.192983
940.127179	3533.937066
940.429573	3532.502858
940.731929	3526.831560
941.034246	3513.878315
941.336524	3501.711490
941.638763	3485.703306
941.940964	3468.071871
942.243126	3428.592074
942.545250	3406.300092
942.847335	3368.141078
943.149381	3332.358968
943.451389	3302.316212
943.753359	3265.538474
944.055290	3241.913106
944.357182	3212.634085
944.659036	3200.368957
944.960851	3192.650951
945.262628	3176.831810
945.564367	3174.286027
945.866067	3170.401818
946.167729	3166.147085
946.469352	3164.687671
946.770937	3158.431599
947.072484	3146.042963
947.373992	3148.860968
947.675462	3139.812097
947.976893	3125.333903
948.278286	3114.709671
948.579641	3107.939402
948.880958	3100.392794
949.182236	3105.895214
949.483476	3095.954058
949.784678	3096.828699
950.085841	3098.202413
950.386967	3110.936368
950.688054	3124.681074
950.989103	3143.870226
951.290114	3167.026766
951.591087	3195.214378
951.892021	3221.635065
952.192917	3251.745877
952.493776	3275.673714
952.794596	3285.478758
953.095378	3292.271713
953.396122	3281.481123
953.696828	3276.230761
953.997496	3266.917229
954.298126	3242.886049
954.598718	3223.238152
954.899272	3198.070191
955.199788	3170.878207
955.500266	3140.137251
955.800706	3102.091663
956.101108	3064.943401
956.401472	3033.025335
956.701798	2999.819255
957.002087	2959.232925
957.302337	2929.364088
957.602550	2901.879718
957.902724	2872.527599
958.202861	2846.444669
958.502960	2824.876093
958.803022	2806.927064
959.103045	2783.808333
959.403031	2767.848040
959.702979	2754.980495
960.002889	2741.833165
960.302762	2728.184241
960.602596	2716.846686
960.902393	2704.765561
961.202153	2697.294571
961.501875	2691.809796
961.801559	2682.150945
962.101205	2676.114163
962.400814	2671.130983
962.700385	2664.204437
962.999918	2657.502223
963.299414	2652.607263
963.598873	2650.792447
963.898293	2643.444966
964.197677	2643.223155
964.497022	2641.335243
964.796331	2637.725777
965.095601	2635.243008
965.394835	2633.544140
965.694030	2631.225209
965.993189	2628.455095
966.292309	2628.197996
966.591393	2628.107255
966.890439	2628.659262
967.189447	2624.820423
967.488419	2629.995167
967.787353	2629.191103
968.086249	2628.656741
968.385108	2634.310395
968.683930	2633.854171
968.982714	2638.776857
969.281462	2641.907414
969.580172	2647.800523
969.878844	2653.539876
970.177480	2663.269303
970.476078	2671.314985
970.774639	2678.488547
971.073162	2684.701769
971.371649	2689.337110
971.670098	2694.784077
971.968510	2700.412525
972.266885	2705.287321
972.565223	2710.746890
972.863524	2715.067159
973.161788	2715.309134
973.460014	2720.123436
973.758204	2722.147460
974.056356	2722.417161
974.354471	2727.528891
974.652550	2727.481000
974.950591	2724.516802
975.248595	2722.218036
975.546563	2719.422716
975.844493	2716.405585
976.142386	2712.602035
976.440243	2706.502239
976.738062	2703.144830
977.035845	2695.240301
977.333590	2691.381298
977.631299	2684.230421
977.928971	2679.065759
978.226606	2670.750376
978.524204	2668.355827
978.821765	2664.138902
979.119290	2666.198214
979.416777	2665.555467
979.714228	2670.994872
980.011642	2672.517300
980.309020	2680.600790
980.606360	2694.058150
980.903664	2717.192005
981.200931	2756.185330
981.498162	2802.863894
981.795356	2879.368445
982.092513	2969.842033
982.389633	3073.314237
982.686717	3174.790143
982.983764	3247.551637
983.280775	3299.503248
983.577749	3306.719660
983.874686	3292.617032
984.171587	3259.710900
984.468451	3220.906618
984.765279	3175.889114
985.062070	3129.487814
985.358824	3083.966195
985.655543	3025.458563
985.952224	2973.391006
986.248869	2911.518404
986.545478	2851.052284
986.842050	2794.480456
987.138586	2746.304669
987.435086	2708.732949
987.731549	2678.211283
988.027975	2654.013745
988.324366	2634.267545
988.620719	2619.864969
988.917037	2608.724019
989.213318	2597.772112
989.509563	2593.988726
989.805772	2589.774321
990.101944	2581.279977
990.398080	2577.539441
990.694180	2578.058680
990.990244	2581.078331
991.286271	2577.950295
991.582262	2579.518094
991.878217	2582.142014
992.174136	2584.970102
992.470019	2588.040164
992.765865	2588.904722
993.061676	2595.329673
993.357450	2607.315016
993.653188	2610.798453
993.948890	2629.307050
994.244556	2649.756490
994.540186	2674.243895
994.835780	2705.090716
995.131337	2744.197467
995.426859	2781.406223
995.722345	2832.304233
996.017795	2883.035885
996.313208	2921.762028
996.608586	2949.233796
996.903928	2959.888275
997.199234	2962.504634
997.494504	2962.610498
997.789738	2942.040070
998.084936	2918.835639
998.380099	2889.816237
998.675225	2856.950434
998.970316	2828.881289
999.265371	2789.706483
999.560390	2757.138108
999.855373	2724.352964
1000.150320	2697.324818
1000.445232	2669.492608
1000.740108	2650.653816
1001.034948	2627.593057
1001.329752	2612.870368
1001.624521	2603.559357
1001.919254	2587.233580
1002.213951	2582.789803
1002.508613	2573.841755
1002.803239	2562.237018
1003.097829	2562.846998
1003.392384	2558.839281
1003.686903	2553.793086
1003.981386	2549.051881
1004.275834	2545.291180
1004.570246	2544.247661
1004.864623	2540.746580
1005.158964	2535.680220
1005.453270	2535.881866
1005.747540	2532.214427
1006.041775	2531.155784
1006.335974	2529.696370
1006.630138	2528.332738
1006.924266	2526.565814
1007.218359	2525.938190
1007.512416	2525.701256
1007.806438	2524.070443
1008.100425	2523.460463
1008.394376	2517.990811
1008.688292	2522.714372
1008.982172	2521.590195
1009.276017	2524.158663
1009.569827	2523.238652
1009.863602	2521.393590
1010.157341	2521.731347
1010.451045	2523.049609
1010.744714	2516.380163
1011.038347	2518.341171
1011.331945	2518.815040
1011.625508	2515.865965
1011.919036	2514.338495
1012.212528	2514.585512
1012.505986	2514.585512
1012.799408	2515.525687
1013.092795	2514.910666
1013.386147	2513.839421
1013.679464	2509.267094
1013.972745	2508.921775
1014.265992	2510.902949
1014.559204	2512.246416
1014.852380	2511.197856
1015.145521	2511.659122
1015.438628	2509.067969
1015.731699	2511.651560
1016.024736	2512.027126
1016.317737	2514.280522
1016.610703	2513.809174
1016.903635	2513.163906
1017.196531	2517.020389
1017.489393	2519.969464
1017.782219	2521.020545
1018.075011	2522.573220
1018.367768	2521.958199
1018.660490	2521.302849
1018.953177	2521.302849
1019.245829	2521.302849
