Dividing Wavelength (nm)	Counts (n)	Blue Motor Position (mm): 37.500000	Red Motor Position (mm): 0.000000	
326.493990	2155.736016
326.888308	2155.736016
327.282561	2155.736016
327.676750	2129.345576
328.070874	2133.252470
328.464933	2137.502163
328.858929	2145.694038
329.252859	2156.729124
329.646726	2170.942657
330.040528	2183.938752
330.434265	2205.623275
330.827938	2224.119268
331.221547	2241.342370
331.615091	2263.029414
332.008571	2283.120933
332.401986	2304.702113
332.795338	2323.669454
333.188625	2344.355829
333.581847	2364.293592
333.975006	2382.489637
334.368100	2401.837585
334.761129	2418.571696
335.154095	2433.856474
335.546996	2458.661472
335.939833	2490.246821
336.332606	2504.072185
336.725315	2517.791686
337.117960	2523.916688
337.510540	2531.435568
337.903056	2539.168698
338.295508	2551.189330
338.687896	2556.089331
339.080220	2564.611402
339.472480	2570.073492
339.864676	2571.371589
340.256807	2573.970304
340.648875	2576.049780
341.040879	2580.155800
341.432818	2580.818712
341.824694	2582.552868
342.216506	2583.414906
342.608253	2581.705955
342.999937	2579.666808
343.391557	2577.743608
343.783113	2577.887281
344.174605	2573.821590
344.566033	2573.665314
344.957397	2571.298492
345.348697	2571.071641
345.739934	2571.427042
346.131106	2565.191135
346.522215	2569.161043
346.913260	2562.080743
347.304241	2562.698284
347.695159	2562.620146
348.086012	2563.033521
348.476802	2560.011349
348.867528	2558.191492
349.258191	2554.894578
349.648789	2558.428427
350.039324	2554.047664
350.429796	2555.370967
350.820203	2553.271326
351.210548	2552.179917
351.600828	2551.370811
351.991045	2549.533311
352.381198	2550.765873
352.771288	2549.273691
353.161314	2551.882488
353.551276	2551.262427
353.941175	2550.428116
354.331010	2552.699155
354.720782	2548.729247
355.110490	2549.407282
355.500135	2547.864689
355.889717	2550.690256
356.279235	2549.177909
356.668689	2553.067160
357.058080	2549.124977
357.447408	2548.804864
357.836672	2549.273691
358.225873	2547.496685
358.615010	2548.651109
359.004084	2554.576985
359.393095	2556.197716
359.782043	2553.568754
360.170927	2555.212171
360.559748	2556.175031
360.948505	2556.951369
361.337199	2556.268292
361.725830	2558.405742
362.114398	2558.090669
362.502903	2556.681667
362.891344	2561.112841
363.279722	2556.023796
363.668037	2558.423386
364.056289	2559.892882
364.444478	2559.892882
364.832603	2559.532439
365.220665	2562.075702
365.608665	2561.528736
365.996601	2561.949673
366.384474	2563.157029
366.772284	2562.473953
367.160031	2561.291802
367.547715	2562.937739
367.935336	2562.085784
368.322893	2565.581824
368.710388	2562.015208
369.097820	2566.433779
369.485189	2562.776422
369.872495	2568.374623
370.259738	2564.316494
370.646918	2562.937739
371.034035	2565.881773
371.421090	2566.285065
371.808081	2564.248439
372.195010	2567.245405
372.581875	2564.934036
372.968678	2566.821948
373.355418	2565.372616
373.742096	2565.538974
374.128710	2566.403532
374.515262	2568.631722
374.901751	2567.033676
375.288177	2568.419994
375.674540	2565.349931
376.060841	2570.723801
376.447079	2570.171795
376.833254	2566.249777
377.219367	2567.484860
377.605417	2568.934191
377.991404	2566.025446
378.377329	2567.068964
378.763191	2565.634756
379.148991	2567.525189
379.534727	2572.972156
379.920402	2573.889646
380.306013	2573.050293
380.691563	2570.678431
381.077049	2572.062227
381.462474	2574.726477
381.847835	2570.149109
382.233134	2573.161199
382.618371	2572.344532
383.003545	2572.432752
383.388657	2575.775037
383.773706	2574.713874
384.158693	2574.295458
384.543618	2574.870150
384.928480	2572.967114
385.313280	2576.097671
385.698017	2576.556416
386.082692	2577.594894
386.467305	2575.996848
386.851856	2576.813515
387.236344	2577.131108
387.620770	2578.850141
388.005133	2578.192270
388.389435	2580.705286
388.773674	2577.925089
389.157851	2574.829821
389.541965	2580.034812
389.926018	2578.230079
390.310008	2577.567167
390.693936	2578.877867
391.077802	2582.847776
391.461606	2580.299473
391.845348	2579.439956
392.229027	2579.785275
392.612645	2580.775862
392.996200	2580.468351
393.379694	2580.947261
393.763125	2582.187385
394.146494	2581.849627
394.529801	2583.102354
394.913047	2583.500605
395.296230	2585.063363
395.679351	2583.682087
396.062410	2584.846593
396.445408	2583.094792
396.828343	2585.476738
397.211217	2584.546645
397.594028	2582.547827
397.976778	2585.708631
398.359466	2586.225349
398.742092	2585.169227
399.124656	2591.372367
399.507158	2590.275916
399.889598	2593.673654
400.271977	2594.145002
400.654294	2596.438727
401.036549	2595.425455
401.418742	2598.740013
401.800874	2601.379057
402.182944	2602.500714
402.564952	2607.683020
402.946898	2609.782661
403.328783	2610.856427
403.710606	2616.815071
404.092367	2619.030658
404.474067	2622.993005
404.855705	2629.922071
405.237282	2631.633542
405.618797	2640.206024
406.000250	2648.075266
406.381642	2656.531801
406.762972	2663.291988
407.144240	2667.955056
407.525447	2677.944102
407.906593	2683.887622
408.287677	2691.114117
408.668700	2704.160623
409.049661	2715.838456
409.430560	2723.969837
409.811399	2736.668503
410.192176	2747.610328
410.572891	2760.382091
410.953545	2778.164761
411.334138	2784.410751
411.714669	2807.597538
412.095139	2803.988072
412.475547	2827.540342
412.855894	2839.134996
413.236180	2859.559231
413.616405	2865.079295
413.996568	2885.528735
414.376670	2899.792680
414.756711	2913.701223
415.136691	2936.076385
415.516609	2958.998511
415.896466	2976.002323
416.276262	3001.475274
416.655997	3029.592309
417.035670	3049.446894
417.415283	3097.365582
417.794834	3122.543624
418.174324	3131.733648
418.553753	3148.460196
418.933121	3188.086186
419.312428	3200.736962
419.691674	3212.470247
420.070859	3251.307297
420.449983	3256.779469
420.829045	3303.526089
421.208047	3314.745177
421.586988	3357.753781
421.965867	3398.587127
422.344686	3419.646547
422.723444	3462.153556
423.102141	3413.103129
423.480777	3499.684947
423.859352	3493.950634
424.237866	3585.709716
424.616319	3586.231476
424.994712	3650.100374
425.373044	3655.038185
425.751314	3721.563771
426.129524	3687.031867
426.507673	3786.854275
426.885762	3777.565949
427.263789	3814.820076
427.641756	3830.651820
428.019662	3874.068757
428.397508	3884.002351
428.775292	3935.326338
429.153016	3949.529789
429.530679	3970.574086
429.908282	3990.088393
430.285824	3985.027074
430.663305	4060.679670
431.040726	4031.801420
431.418086	4036.005742
431.795385	4113.147999
432.172624	4150.686951
432.549802	4130.305566
432.926920	4157.116943
433.303977	4157.343795
433.680974	4205.101166
434.057910	4228.971029
434.434786	4242.554418
434.811601	4241.379830
435.188355	4350.445193
435.565050	4327.099610
435.941683	4331.046833
436.318257	4417.915996
436.694770	4431.469138
437.071222	4487.594825
437.447614	4428.084003
437.823946	4434.501392
438.200218	4454.847489
438.576429	4431.716155
438.952580	4467.072287
439.328670	4476.148885
439.704700	4520.657232
440.080670	4482.841017
440.456580	4547.090522
440.832429	4582.111418
441.208218	4483.788753
441.583947	4539.536353
441.959616	4554.143097
442.335224	4584.261470
442.710773	4604.610088
443.086261	4657.700999
443.461689	4614.805821
443.837057	4622.995176
444.212365	4699.973595
444.587612	4702.811765
444.962800	4667.173327
445.337927	4713.529258
445.712995	4603.924491
446.088002	4791.881391
446.462949	4815.320236
446.837837	4836.863607
447.212664	4826.446063
447.587431	5049.534764
447.962139	5350.640363
448.336786	5688.311971
448.711374	5666.319937
449.085901	5308.050175
449.460369	5253.754427
449.834776	5189.875446
450.209124	5427.729688
450.583412	5433.216984
450.957640	5556.059821
451.331808	5418.048152
451.705917	5268.494761
452.079965	5262.470582
452.453954	5301.083300
452.827883	5262.810860
453.201752	5273.437612
453.575562	5302.588085
453.949311	5437.706131
454.323001	5442.717038
454.696632	5430.593063
455.070202	5591.715902
455.443713	5620.863853
455.817164	5713.278286
456.190556	5783.642711
456.563888	5759.971973
456.937160	5836.194219
457.310373	5679.139592
457.683526	5731.892746
458.056619	5730.335030
458.429653	5711.196289
458.802628	5754.893011
459.175542	5785.207989
459.548398	5933.002017
459.921194	6121.273990
460.293930	6181.314132
460.666607	6433.318892
461.039224	6641.949565
461.411782	6768.633761
461.784280	6681.235277
462.156719	6690.919333
462.529099	6648.039279
462.901419	6507.247413
463.273680	6381.261417
463.645882	6366.354725
464.018024	6370.881681
464.390106	6438.435663
464.762130	6699.151538
465.134094	7085.167811
465.505999	7730.367448
465.877845	8435.186290
466.249631	8782.259650
466.621358	8704.842651
466.993026	8508.209924
467.364634	8284.697766
467.736184	8007.227617
468.107674	7853.537960
468.479105	7772.085516
468.850477	7704.135804
469.221790	7537.099692
469.593043	7312.233983
469.964238	7211.615073
470.335373	7188.181269
470.706449	7342.359918
471.077467	7537.752521
471.448425	8202.476547
471.819324	8785.012120
472.190164	8811.183271
472.560945	8325.679826
472.931667	7853.190120
473.302330	7665.402098
473.672934	7545.397431
474.043479	7616.671784
474.413965	7524.519492
474.784393	7474.720454
475.154761	7631.921275
475.525070	7646.064232
475.895321	7589.512568
476.265513	7689.138371
476.635645	7856.827312
477.005719	7846.377001
477.375734	7937.458048
477.745691	8045.250520
478.115588	8248.376252
478.485427	8486.797623
478.855207	8962.551477
479.224928	9398.268486
479.594591	9779.929202
479.964194	9781.113873
480.333739	9868.482111
480.703226	9872.210044
481.072653	9969.073295
481.442022	10083.762065
481.811333	10233.595240
482.180584	10076.769985
482.549777	10018.443835
482.918912	9951.323392
483.287988	9943.474315
483.657005	9850.074337
484.025964	9765.365309
484.394864	9832.780659
484.763706	9796.985946
485.132489	9700.377274
485.501213	9689.201036
485.869879	9748.079192
486.238487	9688.782620
486.607036	9773.229509
486.975527	9718.490140
487.343959	9774.565415
487.712333	9812.268204
488.080648	9855.208753
488.448905	9955.174833
488.817104	9963.344023
489.185244	10131.448860
489.553326	10346.194452
489.921350	10819.248767
490.289315	11451.285951
490.657222	11736.733726
491.025070	11917.411201
491.392861	11826.771254
491.760593	11663.551296
492.128267	11410.934035
492.495883	11183.250322
492.863440	10940.624628
493.230939	10722.400640
493.598380	10534.214367
493.965763	10516.736687
494.333088	10384.449248
494.700354	10319.420884
495.067563	10284.883939
495.434713	10287.404516
495.801805	10332.429582
496.168839	10289.058014
496.535815	10263.567420
496.902733	10309.731786
497.269593	10269.208471
497.636395	10279.797415
498.003139	10393.092306
498.369825	10314.208331
498.736453	10401.768132
499.103023	10347.237971
499.469535	10356.969918
499.835989	10404.770139
500.202385	10378.109997
500.568723	10389.891174
500.935003	10458.448345
501.301226	10428.249313
501.667390	10592.207801
502.033497	10687.858654
502.399546	10614.772006
502.765537	10531.257730
503.131470	10624.055290
503.497345	10715.534589
503.863163	10495.745322
504.228923	10630.548297
504.594625	10735.865562
504.960269	10647.443724
505.325856	10804.153032
505.691385	10685.655670
506.056856	10756.027657
506.422270	10856.626403
506.787625	10784.888263
507.152924	10841.651655
507.518164	10906.458208
507.883347	10769.716910
508.248472	10841.530667
508.613540	10957.651126
508.978550	11027.897084
509.343503	11011.130206
509.708398	11065.302445
510.073236	11187.482371
510.438016	11207.730165
510.802738	11118.176587
511.167403	11246.363047
511.532010	11304.701800
511.896561	11393.216900
512.261053	11596.236768
512.625488	11515.149809
512.989866	11503.661019
513.354186	11482.893986
513.718449	11487.670479
514.082655	11637.390228
514.446803	11589.779050
514.810894	11692.545492
515.174927	11696.470030
515.538904	11682.500993
515.902822	11838.386073
516.266684	11712.672299
516.630488	11809.674181
516.994235	11798.928962
517.357925	11916.329873
517.721558	11971.608646
518.085133	12035.585929
518.448651	12081.876324
518.812112	12033.317410
519.175516	12048.483721
519.538863	12135.025209
519.902152	12136.401444
520.265385	12235.084551
520.628560	12269.931527
520.991678	12213.654606
521.354739	12270.760797
521.717743	12339.030623
522.080690	12318.828199
522.443580	12449.928446
522.806413	12463.463944
523.169189	12448.436264
523.531908	12513.988908
523.894569	12471.239924
524.257174	12485.990340
524.619722	12593.543357
524.982213	12579.246645
525.344647	12561.385837
525.707025	12577.066346
526.069345	12676.913960
526.431608	12662.113132
526.793815	12742.675812
527.155964	12633.829738
527.518057	12663.010457
527.880093	12624.463274
528.242072	12744.775452
528.603995	12664.432063
528.965860	12678.106193
529.327669	12708.038043
529.689421	12655.846978
530.051117	12667.618072
530.412755	12713.815206
530.774337	12710.530894
531.135862	12666.080520
531.497331	12731.481929
531.858743	12683.938807
532.220098	12783.446143
532.581396	12713.295967
532.942638	12621.239457
533.303824	12697.113863
533.664953	12679.558045
534.026025	12625.741207
534.387040	12729.215931
534.747999	12705.323382
535.108902	12756.077719
535.469748	12621.763737
535.830537	12654.049806
536.191270	12695.152854
536.551947	12627.208183
536.912567	12692.586907
537.273131	12719.867111
537.633638	12596.502515
537.994089	12649.633756
538.354483	12567.299110
538.714821	12699.838607
539.075103	12779.289712
539.435328	12704.461345
539.795497	12689.985672
540.155609	12680.949403
540.515665	12782.861369
540.875665	12649.976554
541.235609	12743.051378
541.595496	12708.206922
541.955328	12883.611350
542.315102	12737.075090
542.674821	12667.698730
543.034483	12682.350844
543.394090	12690.136906
543.753640	12657.177842
544.113134	12903.410481
544.472571	12658.876711
544.831953	12935.189915
545.191278	12757.373296
545.550548	12686.819827
545.909761	12797.763020
546.268918	12846.495854
546.628019	12908.960792
546.987064	12797.939461
547.346053	12644.138898
547.704986	12844.318076
548.063863	12720.759395
548.422684	12787.854632
548.781449	12736.780182
549.140158	12834.782733
549.498811	12777.616049
549.857408	12652.638283
550.215949	12851.552132
550.574434	12827.173112
550.932864	12764.138524
551.291237	12971.266933
551.649555	12848.983664
552.007817	12906.987180
552.366022	12830.286024
552.724173	12871.142056
553.082267	12966.366931
553.440305	13049.969427
553.798288	12871.603321
554.156215	12950.825054
554.514086	12998.552178
554.871902	12939.084207
555.229661	12961.038432
555.587365	12918.158377
555.945014	12926.990478
556.302606	12919.315322
556.660143	12972.456645
557.017625	13007.253209
557.375050	12961.799646
557.732421	13070.370976
558.089735	13057.911764
558.446994	13036.980894
558.804197	13155.495900
559.161345	13148.027431
559.518437	12964.347949
559.875474	13048.560424
560.232455	13087.944438
560.589381	13121.001805
560.946251	13072.982294
561.303065	13234.712592
561.659825	13196.367055
562.016528	13110.155762
562.373177	13051.459088
562.729770	13178.468438
563.086307	13056.951425
563.442789	13161.835151
563.799216	13203.790154
564.155587	13142.109116
564.511904	13160.884893
564.868164	13182.181248
565.224370	13241.742481
565.580520	13191.671220
565.936615	13258.093463
566.292654	13200.445348
566.648638	13264.742745
567.004567	13259.933484
567.360441	13262.368362
567.716260	13235.088158
568.072023	13314.778717
568.427732	13295.357672
568.783385	13196.714894
569.138982	13312.961382
569.494525	13308.353767
569.850013	13254.458791
570.205445	13253.402669
570.560823	13255.227567
570.916145	13213.479252
571.271412	13216.468656
571.626625	13185.430272
571.981782	13182.680322
572.336884	13135.656439
572.691931	13218.180127
573.046923	13112.625928
573.401860	13087.183224
573.756743	13081.872369
574.111570	13101.444648
574.466342	13075.442377
574.821059	13132.402374
575.175722	12999.056293
575.530330	13022.144778
575.884882	12954.563069
576.239380	12956.345117
576.593823	12942.043364
576.948211	12942.812140
577.302544	12815.520485
577.656823	12837.376407
578.011047	12895.047207
578.365216	12827.687309
578.719330	12764.519131
579.073389	12741.992735
579.427394	12758.104263
579.781344	12747.164959
580.135239	12676.709793
580.489080	12692.665045
580.842866	12569.066035
581.196597	12670.221828
581.550273	12660.787308
581.903895	12624.803552
582.257463	12727.017988
582.610975	12576.113568
582.964434	12632.241775
583.317837	12560.793501
583.671186	12513.260462
584.024481	12561.902555
584.377721	12446.999536
584.730906	12520.940660
585.084037	12542.904967
585.437113	12460.978655
585.790135	12484.704846
586.143103	12389.525341
586.496016	12410.163824
586.848874	12418.595154
587.201679	12421.433324
587.554428	12295.885908
587.907124	12342.675377
588.259765	12283.724124
588.612352	12348.301305
588.964884	12210.823998
589.317362	12265.129828
589.669786	12260.179415
590.022155	12219.038559
590.374470	12317.149495
590.726731	12201.817977
591.078937	12084.918661
591.431090	12114.623660
591.783188	12038.779500
592.135232	11958.368055
592.487222	12036.054756
592.839157	12032.127698
593.191038	11965.309724
593.542866	11917.857343
593.894639	11775.593461
594.246358	11827.877788
594.598022	11838.832215
594.949633	11736.282543
595.301190	11729.106460
595.652692	11680.272803
596.004141	11774.290322
596.355535	11552.340921
596.706876	11527.258660
597.058162	11494.211376
597.409395	11590.648649
597.760573	11619.015222
598.111698	11517.161229
598.462768	11506.564724
598.813785	11522.071313
599.164748	11387.359079
599.515657	11467.629372
599.866511	11342.664209
600.217312	11476.279992
600.568060	11238.271996
600.918753	11402.006152
601.269392	11407.493448
601.619978	11309.269086
601.970510	11343.347286
602.320988	11384.931764
602.671412	11457.317692
603.021783	11382.441434
603.372100	11306.536780
603.722363	11325.862044
604.072572	11323.991776
604.422728	11336.072901
604.772830	11281.837647
605.122878	11291.519183
605.472872	11270.444639
605.822813	11326.905563
606.172701	11282.760178
606.522534	11325.050418
606.872314	11370.370391
607.222041	11309.523664
607.571714	11390.545089
607.921333	11254.330591
608.270899	11304.041409
608.620411	11363.700944
608.969870	11308.603653
609.319276	11305.228601
609.668627	11310.156329
610.017926	11392.611962
610.367171	11428.265522
610.716362	11425.351735
611.065500	11388.349666
611.414585	11404.524208
611.763616	11459.371962
612.112594	11424.474575
612.461518	11446.776639
612.810389	11497.573826
613.159207	11442.095928
613.507971	11438.892275
613.856682	11548.010570
614.205340	11489.329019
614.553945	11630.335133
614.902496	11504.155052
615.250994	11569.831205
615.599439	11567.671070
615.947830	11605.782193
616.296169	11561.815770
616.644454	11581.940056
616.992686	11591.510687
617.340864	11685.437465
617.688990	11574.945455
618.037063	11703.015969
618.385082	11673.910867
618.733048	11708.747761
619.080961	11698.751152
619.428821	11687.862260
619.776628	11698.879702
620.124382	11644.740230
620.472083	11661.504587
620.819731	11689.409894
621.167326	11613.870725
621.514868	11590.615882
621.862357	11489.820531
622.209793	11479.781073
622.557176	11399.583878
622.904506	11339.969713
623.251783	11267.011614
623.599007	11206.462315
623.946179	11153.189922
624.293297	11131.470110
624.640363	10989.730508
624.987376	10977.866153
625.334336	10914.377861
625.681243	10824.108440
626.028097	10799.978957
626.374899	10764.975705
626.721647	10738.277754
627.068343	10697.003307
627.414987	10642.427776
627.761577	10565.547659
628.108115	10616.128076
628.454600	10488.899435
628.801032	10509.457261
629.147412	10483.976748
629.493739	10469.765736
629.840014	10379.241736
630.186236	10426.147152
630.532405	10332.275826
630.878521	10363.425116
631.224585	10318.984824
631.570597	10245.147044
631.916556	10243.886755
632.262462	10225.428571
632.608316	10211.721673
632.954117	10184.567498
633.299866	10166.404221
633.645562	10146.597527
633.991206	10036.289519
634.336797	9940.182442
634.682336	9926.314228
635.027823	9873.979489
635.373257	9840.483542
635.718639	9781.885170
636.063968	9738.490918
636.409245	9621.125294
636.754470	9613.825704
637.099642	9554.521570
637.444762	9460.388104
637.789829	9459.944482
638.134845	9391.601560
638.479808	9369.304536
638.824719	9341.618519
639.169577	9256.750694
639.514383	9259.291436
639.859137	9192.138226
640.203839	9217.611176
640.548489	9138.976738
640.893086	9153.336464
641.237632	9082.286442
641.582125	9086.359694
641.926566	9068.168691
642.270955	9053.897184
642.615292	9051.366525
642.959576	9031.963124
643.303809	9013.441925
643.647990	9032.051344
643.992118	9016.443932
644.336195	8992.185899
644.680219	8985.546700
645.024192	9018.664560
645.368112	9093.213143
645.711981	9075.241430
646.055797	9209.023570
646.399562	9169.455554
646.743274	9327.218463
647.086935	9397.839988
647.430544	9376.329384
647.774101	9396.650275
648.117606	9426.723279
648.461059	9493.642075
648.804460	9425.541128
649.147810	9306.733735
649.491108	9275.574363
649.834354	9201.650883
650.177548	9059.702073
650.520690	8973.873908
650.863781	8964.608267
651.206820	8940.493908
651.549807	8844.782561
651.892742	8753.809899
652.235626	8712.696768
652.578458	8680.889608
652.921238	8567.887104
653.263967	8603.104604
653.606644	8537.486425
653.949269	8516.222838
654.291843	8440.973535
654.634365	8511.801747
654.976836	8432.821989
655.319255	8423.672295
655.661622	8413.174092
656.003938	8368.854788
656.346203	8342.035850
656.688416	8366.762709
657.030577	8329.289292
657.372687	8290.548025
657.714746	8324.003642
658.056753	8336.634253
658.398708	8244.063545
658.740612	8235.702792
659.082465	8273.498842
659.424266	8236.249757
659.766016	8248.277950
660.107715	8225.363385
660.449362	8242.084892
660.790958	8236.285045
661.132503	8227.720124
661.473996	8228.990495
661.815438	8247.723423
662.156829	8271.424408
662.498168	8224.627377
662.839456	8220.221408
663.180693	8234.223213
663.521879	8260.933767
663.863013	8237.194973
664.204097	8243.831652
664.545129	8313.898649
664.886110	8303.574366
665.227040	8302.982031
665.567918	8322.118251
665.908746	8331.898089
666.249522	8356.584620
666.590248	8344.410233
666.930922	8364.136268
667.271545	8350.845266
667.612118	8370.687248
667.952639	8325.765526
668.293109	8333.677617
668.633528	8311.383114
668.973896	8295.276627
669.314213	8300.900034
669.654480	8255.839681
669.994695	8255.451512
670.334859	8231.475784
670.674973	8207.237916
671.015035	8230.122234
671.355047	8231.155671
671.695008	8214.555151
672.034918	8187.990791
672.374777	8196.505300
672.714585	8166.454982
673.054342	8195.456740
673.394049	8163.460536
673.733705	8209.655150
674.073310	8161.421390
674.412864	8168.060589
674.752368	8105.184798
675.091820	8157.890061
675.431223	8083.911129
675.770574	8041.015951
676.109875	8015.091817
676.449125	7974.666804
676.788324	7959.321532
677.127473	7864.633539
677.466571	7861.119855
677.805619	7792.759288
678.144616	7796.557798
678.483562	7772.972759
678.822458	7729.563384
679.161303	7711.813481
679.500098	7689.733227
679.838842	7671.781678
680.177535	7687.242897
680.516179	7720.819502
680.854771	7734.959939
681.193314	7856.827312
681.531805	8013.839090
681.870247	8135.628326
682.208638	8280.264071
682.546978	8353.396090
682.885268	8386.405565
683.223508	8317.087179
683.561697	8260.679188
683.899836	8232.403356
684.237925	8149.299935
684.575963	8118.748022
684.913951	8039.929582
685.251889	8058.115544
685.589776	8051.206643
685.927614	8033.701236
686.265401	8054.473311
686.603137	8055.887354
686.940824	8125.271275
687.278460	8176.645674
687.616046	8193.417593
687.953582	8304.199469
688.291068	8279.684338
688.628504	8337.287083
688.965889	8339.401847
689.303224	8304.779202
689.640510	8262.269672
689.977745	8155.387128
690.314930	8030.457254
690.652065	7956.964792
690.989150	7846.792896
691.326185	7689.534102
691.663170	7582.507885
692.000105	7469.258364
692.336990	7347.257399
692.673825	7279.884899
693.010610	7191.609254
693.347345	7086.291988
693.684030	6981.844322
694.020665	6927.838441
694.357251	6816.983468
694.693786	6802.669111
695.030272	6764.676455
695.366707	6667.306569
695.703093	6613.824968
696.039429	6612.143743
696.375716	6557.598458
696.711952	6553.676440
697.048139	6522.471698
697.384276	6490.770402
697.720363	6507.960737
698.056400	6484.020297
698.392388	6449.057375
698.728326	6452.087108
699.064214	6420.721049
699.400053	6420.526964
699.735842	6359.292069
700.071581	6311.980840
700.407270	6268.400065
700.742910	6238.125415
701.078501	6194.053128
701.414042	6154.243136
701.749533	6099.034940
702.084974	6040.544952
702.420366	6082.298309
702.755709	6006.287791
703.091002	5957.209638
703.426246	5959.871367
703.761440	5943.986691
704.096584	5899.523714
704.431679	5890.885697
704.766725	5876.294078
705.101721	5861.614238
705.436668	5874.378439
705.771565	5823.780378
706.106413	5876.677205
706.441212	5870.416092
706.775961	5892.829062
707.110661	5902.886164
707.445311	5964.549558
707.779913	5924.767292
708.114465	5967.080217
708.448967	6010.935735
708.783421	6126.448734
709.117825	6165.184960
709.452180	6206.068718
709.786485	6261.801194
710.120742	6395.091823
710.454949	6395.933695
710.789107	6473.726261
711.123216	6601.322906
711.457275	6629.812987
711.791286	6727.956691
712.125247	6758.427945
712.459159	6725.267235
712.793023	6857.378233
713.126837	6682.558580
713.460602	6740.567137
713.794318	6693.336567
714.127985	6643.832436
714.461602	6501.419840
714.795171	6504.560478
715.128691	6335.074366
715.462162	6247.345686
715.795584	6179.630387
716.128957	6131.273118
716.462281	6066.693417
716.795556	6029.265370
717.128782	5944.959634
717.461960	5845.162432
717.795088	5836.970557
718.128167	5765.607983
718.461198	5680.984654
718.794180	5663.262478
719.127113	5600.298466
719.459997	5568.879475
719.792833	5498.809957
720.125619	5500.549155
720.458357	5437.544814
720.791046	5407.151698
721.123686	5378.429724
721.456278	5334.523794
721.788821	5325.318647
722.121315	5283.693840
722.453761	5292.084841
722.786158	5274.317294
723.118506	5277.067243
723.450805	5259.045118
723.783056	5282.335249
724.115259	5262.488226
724.447412	5249.174539
724.779518	5291.842865
725.111574	5301.221932
725.443582	5335.584957
725.775542	5326.173123
726.107453	5408.593468
726.439315	5380.443665
726.771129	5453.968893
727.102895	5521.071692
727.434612	5564.375204
727.766281	5593.248412
728.097901	5644.892513
728.429473	5663.088558
728.760996	5673.092728
729.092471	5697.804464
729.423897	5681.569428
729.755276	5656.434235
730.086606	5669.387480
730.417887	5753.032825
730.749120	5852.346076
731.080305	5888.413011
731.411442	5966.195495
731.742530	5990.045193
732.073570	6003.661350
732.404562	6068.331792
732.735506	6062.950360
733.066401	6043.693153
733.397249	5976.166897
733.728048	5882.529985
734.058798	5736.422223
734.389501	5615.245487
734.720156	5527.403382
735.050762	5419.252987
735.381320	5347.867728
735.711831	5289.826404
736.042293	5211.078539
736.372707	5206.266758
736.703073	5164.384852
737.033391	5192.043143
737.363661	5175.818189
737.693883	5186.853275
738.024056	5209.707346
738.354182	5239.999639
738.684260	5289.619716
739.014290	5329.220500
739.344272	5360.160582
739.674207	5414.983130
740.004093	5450.954283
740.333931	5456.373524
740.663722	5472.810206
740.993464	5487.253112
741.323159	5470.768539
741.652806	5423.485036
741.982405	5392.227362
742.311956	5337.306511
742.641460	5329.810315
742.970915	5278.176297
743.300323	5215.240012
743.629683	5181.116442
743.958996	5134.442919
744.288260	5082.072892
744.617477	5019.396226
744.946647	5008.749309
745.275768	4953.054642
745.604842	4919.714971
745.933869	4886.892018
746.262847	4879.047982
746.591778	4867.193709
746.920662	4842.890307
747.249498	4835.343699
747.578286	4856.887070
747.907027	4877.512951
748.235720	4919.326802
748.564365	4933.290798
748.892963	4919.326802
749.221514	4937.169966
749.550017	4914.623405
749.878473	4906.373557
750.206881	4866.472824
750.535242	4857.171895
750.863555	4836.014173
751.191821	4815.723528
751.520039	4819.287624
751.848210	4802.571158
752.176334	4809.207837
752.504411	4789.585146
752.832440	4761.710086
753.160421	4775.946304
753.488356	4751.537037
753.816243	4730.475096
754.144082	4702.829409
754.471875	4688.124363
754.799620	4679.317467
755.127318	4670.578627
755.454969	4667.435467
755.782572	4658.212677
756.110129	4659.707379
756.437638	4643.555522
756.765100	4638.244666
757.092515	4644.694822
757.419882	4649.975431
757.747203	4646.076099
758.074477	4659.825846
758.401703	4651.331502
758.728882	4679.970297
759.056014	4690.183674
759.383099	4710.532292
759.710138	4738.694698
760.037129	4763.005662
760.364073	4774.708701
760.690970	4770.239718
761.017820	4773.322383
761.344623	4804.496879
761.671379	4866.372001
761.998088	4956.699396
762.324751	5190.303944
762.651366	5651.163708
762.977935	6347.647003
763.304456	6905.153248
763.630931	7216.366360
763.957359	7143.567058
764.283740	6852.435382
764.610074	6537.980808
764.936362	6131.855372
765.262602	5815.568338
765.588796	5466.027333
765.914943	5210.468560
766.241044	4987.021936
766.567097	4815.630267
766.893104	4661.181916
767.219064	4562.176175
767.544978	4466.812668
767.870845	4381.425604
768.196665	4335.798121
768.522438	4285.726860
768.848165	4243.902927
769.173846	4203.677040
769.499479	4175.756609
769.825066	4137.466525
770.150607	4096.686111
770.476101	4083.208587
770.801548	4061.022468
771.126949	4030.238662
771.452303	4012.750900
771.777611	3973.127431
772.102872	3966.316832
772.428087	3947.200776
772.753256	3916.938730
773.078378	3902.165628
773.403453	3869.677912
773.728482	3844.663707
774.053465	3830.442612
774.378401	3810.514931
774.703291	3783.995941
775.028135	3762.654216
775.352932	3749.877412
775.677683	3733.793611
776.002388	3713.258470
776.327046	3715.443811
776.651658	3697.804813
776.976224	3676.430321
777.300743	3676.531144
777.625216	3660.061694
777.949643	3652.275632
778.274024	3653.369563
778.598359	3632.738641
778.922647	3636.005308
779.246889	3628.430975
779.571086	3625.950727
779.895236	3623.893936
780.219339	3624.052732
780.543397	3624.140953
780.867409	3638.367089
781.191374	3637.996564
781.515294	3630.941469
781.839167	3648.456958
782.162995	3644.648367
782.486776	3638.122593
782.810511	3631.342241
783.134201	3616.420426
783.457844	3612.972276
783.781441	3607.984055
784.104993	3602.758899
784.428498	3594.362857
784.751958	3592.548042
785.075372	3584.499839
785.398739	3573.978951
785.722061	3581.573450
786.045337	3582.387596
786.368568	3606.920371
786.691752	3604.316615
787.014891	3651.350581
787.337983	3691.795758
787.661030	3778.662400
787.984031	3879.062020
788.306987	3954.397023
788.629897	4001.975433
788.952760	4011.707381
789.275579	3997.985360
789.598351	3945.915282
789.921078	3892.612642
790.243759	3831.531501
790.566395	3782.508801
790.888984	3735.341245
791.211529	3700.574927
791.534027	3651.532062
791.856480	3614.300620
792.178888	3595.900409
792.501249	3578.566401
792.823566	3544.899055
793.145836	3541.274466
793.468062	3533.145605
793.790241	3516.817308
794.112375	3526.660161
794.434464	3542.859909
794.756507	3541.851678
795.078505	3560.282136
795.400457	3600.041717
795.722364	3652.028616
796.044226	3698.061912
796.366042	3744.012029
796.687812	3739.424579
797.009538	3765.744444
797.331218	3751.712392
797.652852	3749.522011
797.974442	3721.276426
798.295986	3714.919531
798.617484	3682.686393
798.938938	3661.432888
799.260346	3646.634581
799.581709	3610.030763
799.903026	3600.482818
800.224299	3581.114705
800.545526	3546.305537
800.866708	3528.991694
801.187845	3515.342770
801.508936	3494.240500
801.829983	3487.868482
802.150984	3456.888071
802.471940	3449.555713
802.792851	3441.749486
803.113717	3437.018363
803.434538	3426.315993
803.755314	3420.188471
804.076045	3411.545413
804.396731	3401.188362
804.717372	3400.575862
805.037967	3399.451685
805.358518	3399.343300
805.679024	3412.170516
805.999485	3411.676483
806.319901	3418.676125
806.640272	3418.212339
806.960598	3432.166253
807.280879	3431.750357
807.601115	3440.940381
807.921306	3435.841254
808.241453	3437.154474
808.561554	3444.131431
808.881611	3438.724794
809.201623	3441.431893
809.521590	3428.347578
809.841513	3431.415121
810.161390	3438.966769
810.481223	3419.056732
810.801011	3414.247471
811.120755	3414.791916
811.440453	3398.884555
811.760107	3392.971281
812.079716	3385.734705
812.399281	3373.615771
812.718801	3374.825648
813.038276	3367.687374
813.357707	3362.373998
813.677093	3369.413969
813.996434	3352.914273
814.315731	3358.232690
814.634983	3360.803679
814.954191	3356.864017
815.273354	3377.310937
815.592473	3385.215466
815.911547	3405.354876
816.230577	3421.695776
816.549562	3446.198304
816.868502	3464.568269
817.187399	3485.206753
817.506250	3511.965197
817.825058	3522.216384
818.143821	3568.554670
818.462539	3613.345322
818.781213	3671.792459
819.099843	3751.455293
819.418429	3909.256011
819.736970	4057.390317
820.055466	4246.607506
820.373919	4482.694823
820.692327	4822.410619
821.010691	5331.879709
821.329011	6414.906078
821.647286	8161.532295
821.965517	10339.721611
822.283704	11969.592184
822.601847	13061.969893
822.919945	12648.738951
823.237999	11970.368522
823.556010	11071.054402
823.873976	10109.802145
824.191897	9133.363413
824.509775	8366.717339
824.827609	7563.709422
825.145398	7016.945876
825.463144	6628.202338
825.780845	6502.165930
826.098502	6562.183388
826.416116	6943.135822
826.733685	7449.761701
827.051210	7734.032367
827.368692	7641.418809
827.686129	7197.295675
828.003522	6641.899153
828.320872	6069.244241
828.638177	5607.998829
828.955439	5247.049693
829.272656	4901.841560
829.589830	4619.978045
829.906960	4355.312427
830.224046	4147.342146
830.541088	3978.037514
830.858086	3859.830018
831.175041	3760.957868
831.491952	3718.087896
831.808819	3700.244732
832.125642	3736.760330
832.442421	3841.417204
832.759157	4053.876633
833.075849	4437.168163
833.392497	4903.033793
833.709101	5288.805570
834.025662	5399.592487
834.342179	5274.188744
834.658653	5001.913505
834.975083	4730.802771
835.291469	4479.387826
835.607811	4257.952623
835.924110	4099.357923
836.240366	3939.623922
836.556578	3780.487298
836.872746	3641.691730
837.188871	3526.791231
837.504952	3429.265068
837.820990	3354.285467
838.136984	3299.425110
838.452935	3269.881428
838.768842	3255.050353
839.084706	3287.936320
839.400526	3424.191147
839.716303	3652.507525
840.032037	3861.609546
840.347727	3931.182510
840.663373	3838.372347
840.978977	3690.601004
841.294537	3560.304822
841.610054	3451.037812
841.925527	3376.035525
842.240957	3308.884835
842.556344	3243.238930
842.871687	3184.723737
843.186987	3124.650827
843.502244	3073.417580
843.817458	3029.662885
844.132629	2999.519306
844.447756	2978.318733
844.762840	2955.683953
845.077881	2939.436314
845.392879	2924.244797
845.707833	2913.363466
846.022745	2899.323853
846.337613	2901.567166
846.652438	2889.460835
846.967221	2887.275495
847.281960	2879.237375
847.596656	2875.643032
847.911309	2867.113400
848.225919	2863.541743
848.540485	2859.077801
848.855009	2855.881709
849.169490	2852.231914
849.483928	2850.976667
849.798323	2846.210256
850.112675	2843.664473
850.426984	2843.755214
850.741251	2841.859740
851.055474	2838.759430
851.369654	2836.211127
851.683792	2835.265911
851.997887	2836.105263
852.311938	2837.935202
852.625947	2838.134327
852.939914	2835.800273
853.253837	2840.405367
853.567718	2835.303719
853.881555	2833.420848
854.195350	2838.141889
854.509103	2835.845643
854.822812	2837.068123
855.136479	2831.477484
855.450103	2837.408401
855.763685	2831.323728
856.077224	2834.250118
856.390720	2835.764985
856.704173	2838.862774
857.017584	2837.375634
857.330953	2839.261025
857.644278	2845.963239
857.957561	2846.300997
858.270802	2844.776047
858.584000	2845.998527
858.897155	2846.197653
859.210268	2843.719926
859.523339	2839.818073
859.836367	2841.615244
860.149352	2838.804801
860.462295	2836.957218
860.775195	2832.165601
861.088054	2832.216013
861.400869	2828.926660
861.713642	2831.356496
862.026373	2835.291117
862.339062	2832.463029
862.651708	2838.630881
862.964312	2843.276304
863.276873	2846.396778
863.589392	2849.550020
863.901869	2857.341123
864.214303	2866.478215
864.526696	2874.922148
864.839045	2880.825339
865.151353	2885.279198
865.463619	2888.984446
865.775842	2889.783469
866.088023	2895.898389
866.400162	2891.918398
866.712258	2894.680950
867.024313	2900.780746
867.336325	2899.200344
867.648296	2902.154461
867.960224	2901.657907
868.272110	2905.373237
868.583954	2905.627816
868.895755	2905.660583
869.207515	2906.429359
869.519233	2912.970256
869.830909	2917.073755
870.142542	2919.024682
870.454134	2920.436205
870.765684	2925.880651
871.077191	2930.969696
871.388657	2934.934563
871.700081	2942.176181
872.011463	2952.434929
872.322803	2953.493571
872.634101	2957.584468
872.945357	2966.338431
873.256571	2978.056593
873.567744	2983.821153
873.878874	2988.322903
874.189963	2995.743482
874.501010	2997.553256
874.812015	2998.921929
875.122979	3008.280831
875.433900	3007.139010
875.744780	3011.797036
876.055618	3016.255937
876.366415	3017.894312
876.677169	3021.229035
876.987882	3029.020138
877.298554	3038.051365
877.609183	3053.547872
877.919771	3070.836509
878.230317	3098.787187
878.540822	3131.426137
878.851285	3182.550999
879.161707	3248.567429
879.472087	3356.710262
879.782425	3518.760673
880.092722	3799.177376
880.402977	4219.302096
880.713191	4768.215695
881.023363	5368.750708
881.333494	5811.023738
881.643583	6094.329023
881.953631	6178.347413
882.263637	6126.567201
882.573602	5979.771322
882.883526	5806.592564
883.193408	5611.754488
883.503248	5393.671652
883.813048	5171.417262
884.122806	4955.033294
884.432522	4710.711253
884.742197	4482.906552
885.051831	4275.644552
885.361424	4077.887649
885.670975	3909.140065
885.980485	3759.276643
886.289954	3637.031183
886.599382	3530.456150
886.908768	3443.985238
887.218113	3365.373485
887.527417	3304.723363
887.836680	3240.322622
888.145901	3195.171528
888.455082	3160.836229
888.764221	3124.897843
889.073319	3092.619335
889.382376	3076.028898
889.691392	3061.149932
890.000366	3050.629044
890.309300	3040.844165
890.618193	3041.791902
890.927044	3033.917619
891.235855	3036.433155
891.544625	3038.807538
891.853353	3044.244423
892.162041	3058.798234
892.470687	3083.731781
892.779293	3121.056484
893.087858	3165.705984
893.396381	3242.386975
893.704864	3352.042153
894.013306	3511.244312
894.321707	3699.218857
894.630068	3852.555633
894.938387	3930.307870
895.246665	3938.313222
895.554903	3876.276783
895.863100	3792.086993
896.171256	3715.617730
896.479371	3644.393788
896.787446	3567.959814
897.095480	3492.881909
897.403473	3437.961059
897.711425	3376.680793
898.019336	3330.937363
898.327207	3273.962242
898.635038	3229.476580
898.942827	3178.444979
899.250576	3134.294554
899.558284	3095.001280
899.865952	3066.604461
900.173579	3039.205790
900.481165	3019.847759
900.788711	2996.429079
901.096216	2981.159424
901.403681	2964.816003
901.711105	2964.780715
902.018489	2954.400979
902.325832	2961.992957
902.633135	2969.847074
902.940397	3012.510359
903.247619	3102.668875
903.554800	3277.629681
903.861941	3554.590674
904.169041	3820.113288
904.476101	3985.412722
904.783121	4006.182276
905.090100	3942.993933
905.397039	3839.269672
905.703938	3731.494844
906.010796	3628.867034
906.317614	3542.330587
906.624391	3459.781693
906.931129	3389.739902
907.237826	3318.183243
907.544483	3250.059611
907.851099	3179.024712
908.157675	3107.389916
908.464211	3034.850233
908.770707	2975.672128
909.077163	2926.510795
909.383578	2888.671895
909.689954	2862.226002
909.996289	2840.859071
910.302584	2831.293482
910.608839	2820.671770
910.915054	2813.717499
911.221229	2806.354893
911.527363	2807.494194
911.833458	2806.231385
912.139513	2809.082158
912.445527	2814.148517
912.751502	2826.098572
913.057436	2840.312106
913.363331	2859.816330
913.669186	2888.954199
913.975000	2927.576999
914.280775	2989.293325
914.586510	3069.639235
914.892205	3179.972449
915.197859	3323.967968
915.503475	3502.979341
915.809050	3683.482895
916.114585	3816.350067
916.420081	3893.353692
916.725536	3921.702620
917.030952	3886.038977
917.336328	3852.525387
917.641665	3800.157880
917.946961	3739.714446
918.252218	3682.083975
918.557435	3608.573870
918.862612	3541.592058
919.167750	3480.553768
919.472848	3404.588620
919.777906	3335.444154
920.082925	3267.701129
920.387904	3195.605067
920.692843	3141.614309
920.997743	3090.076073
921.302603	3038.353835
921.607423	3007.325533
921.912204	2967.437403
922.216946	2939.801798
922.521647	2919.599373
922.826310	2895.253121
923.130932	2877.447766
923.435516	2856.736185
923.740059	2845.459124
924.044564	2825.894406
924.349028	2817.402582
924.653454	2800.179480
924.957840	2786.926287
925.262186	2780.695420
925.566493	2766.837288
925.870761	2753.437902
926.174989	2750.710637
926.479178	2743.970615
926.783328	2735.017525
927.087438	2728.416134
927.391509	2719.639486
927.695541	2713.370811
927.999533	2711.467775
928.303486	2704.546271
928.607400	2699.323636
928.911275	2700.714994
929.215110	2696.109900
929.518906	2694.718542
929.822663	2689.556400
930.126381	2692.530681
930.430060	2691.454394
930.733699	2687.577747
931.037299	2690.229394
931.340861	2687.882737
931.644383	2692.853315
931.947866	2694.095959
932.251309	2692.061853
932.554714	2692.732327
932.858080	2692.525640
933.161407	2692.142512
933.464694	2690.252079
933.767943	2687.300484
934.071153	2684.769824
934.374323	2682.115657
934.677455	2685.820905
934.980548	2682.599608
935.283602	2680.389062
935.586617	2679.610203
935.889593	2682.153466
936.192530	2681.533404
936.495428	2684.870647
936.798287	2684.268230
937.101108	2689.155628
937.403890	2695.648634
937.706632	2706.724049
938.009336	2721.565206
938.312002	2730.966958
938.614628	2742.165882
938.917216	2749.047057
939.219765	2759.512492
939.522275	2763.991557
939.824747	2768.021960
940.127179	2764.029366
940.429573	2768.906682
940.731929	2767.263266
941.034246	2765.713111
941.336524	2768.765530
941.638763	2766.880138
941.940964	2765.604726
942.243126	2758.650455
942.545250	2754.191554
942.847335	2751.144177
943.149381	2742.112949
943.451389	2738.473236
943.753359	2731.806310
944.055290	2728.317832
944.357182	2724.136195
944.659036	2718.346430
944.960851	2713.406099
945.262628	2712.808722
945.564367	2712.057590
945.866067	2710.283104
946.167729	2711.316541
946.469352	2710.643547
946.770937	2709.559698
947.072484	2706.393854
947.373992	2705.171374
947.675462	2705.672969
947.976893	2699.779860
948.278286	2702.023173
948.579641	2700.352031
948.880958	2697.982689
949.182236	2699.689119
949.483476	2694.423634
949.784678	2694.721062
950.085841	2694.249714
950.386967	2694.557225
950.688054	2698.214582
950.989103	2701.841692
951.290114	2703.933771
951.591087	2711.233362
951.892021	2711.288814
952.192917	2718.086810
952.493776	2721.489589
952.794596	2725.570403
953.095378	2726.979406
953.396122	2728.532081
953.696828	2726.354302
953.997496	2724.670557
954.298126	2723.090155
954.598718	2717.469269
954.899272	2714.628579
955.199788	2713.020451
955.500266	2707.762527
955.800706	2697.440765
956.101108	2689.778211
956.401472	2684.782427
956.701798	2679.796726
957.002087	2671.375479
957.302337	2669.790036
957.602550	2663.690240
957.902724	2659.652275
958.202861	2652.698004
958.502960	2647.568630
958.803022	2644.002013
959.103045	2640.034625
959.403031	2635.243008
959.702979	2633.352576
960.002889	2633.342493
960.302762	2627.683798
960.602596	2624.883437
960.902393	2624.432254
961.202153	2624.039044
961.501875	2619.161728
961.801559	2619.300359
962.101205	2616.996552
962.400814	2615.479165
962.700385	2614.400358
962.999918	2615.685852
963.299414	2613.419853
963.598873	2612.535131
963.898293	2610.561519
964.197677	2610.022116
964.497022	2608.119080
964.796331	2607.801487
965.095601	2608.207300
965.394835	2609.530603
965.694030	2606.674790
965.993189	2608.645881
966.292309	2606.606734
966.591393	2607.312496
966.890439	2607.796446
967.189447	2602.586414
967.488419	2605.543051
967.787353	2608.897938
968.086249	2607.536827
968.385108	2608.217383
968.683930	2606.705037
968.982714	2606.405088
969.281462	2609.603700
969.580172	2611.191663
969.878844	2609.409616
970.177480	2609.190325
970.476078	2613.225769
970.774639	2614.468413
971.073162	2616.409258
971.371649	2613.135028
971.670098	2611.796602
971.968510	2614.513784
972.266885	2616.144597
972.565223	2621.057202
972.863524	2619.837242
973.161788	2620.974022
973.460014	2622.032665
973.758204	2623.192130
974.056356	2624.888478
974.354471	2625.576596
974.652550	2626.426030
974.950591	2625.127933
975.248595	2624.737244
975.546563	2623.560134
975.844493	2622.599795
976.142386	2621.405041
976.440243	2621.732716
976.738062	2623.587861
977.035845	2621.130298
977.333590	2622.884620
977.631299	2614.786006
977.928971	2617.684670
978.226606	2614.604525
978.524204	2615.915225
978.821765	2613.888681
979.119290	2614.145780
979.416777	2614.367590
979.714228	2612.865327
980.011642	2612.595625
980.309020	2618.639968
980.606360	2619.945627
980.903664	2622.897223
981.200931	2629.201186
981.498162	2633.723101
981.795356	2647.616521
982.092513	2658.833088
982.389633	2680.404185
982.686717	2697.491176
982.983764	2710.968701
983.280775	2726.896227
983.577749	2730.160374
983.874686	2734.218502
984.171587	2730.873697
984.468451	2724.242059
984.765279	2718.560679
985.062070	2708.642208
985.358824	2702.854964
985.655543	2693.206195
985.952224	2684.968950
986.248869	2670.823472
986.545478	2656.690597
986.842050	2646.315903
987.138586	2632.956845
987.435086	2625.652213
987.731549	2617.372118
988.027975	2615.128805
988.324366	2611.733587
988.620719	2606.442897
988.917037	2602.591455
989.213318	2604.625561
989.509563	2598.810590
989.805772	2597.421752
990.101944	2599.246649
990.398080	2596.557194
990.694180	2596.617688
990.990244	2595.619539
991.286271	2596.501741
991.582262	2596.416042
991.878217	2593.535022
992.174136	2598.041814
992.470019	2592.826740
992.765865	2599.844026
993.061676	2600.088522
993.357450	2601.041300
993.653188	2601.852926
993.948890	2604.386106
994.244556	2608.477002
994.540186	2612.404061
994.835780	2617.538476
995.131337	2624.868314
995.426859	2631.900723
995.722345	2638.156795
996.017795	2649.499392
996.313208	2656.035247
996.608586	2663.604540
996.903928	2667.702998
997.199234	2668.421362
997.494504	2669.827844
997.789738	2669.664007
998.084936	2664.002791
998.380099	2660.854591
998.675225	2654.714465
998.970316	2649.585091
999.265371	2645.514359
999.560390	2635.001033
999.855373	2629.922071
1000.150320	2626.942749
1000.445232	2617.011676
1000.740108	2611.690738
1001.034948	2608.897938
1001.329752	2603.362752
1001.624521	2604.640684
1001.919254	2594.996957
1002.213951	2595.801021
1002.508613	2594.757502
1002.803239	2589.945721
1003.097829	2589.111410
1003.392384	2592.433530
1003.686903	2590.855649
1003.981386	2588.292222
1004.275834	2588.355237
1004.570246	2591.805906
1004.864623	2587.094948
1005.158964	2588.549321
1005.453270	2585.844742
1005.747540	2586.454722
1006.041775	2583.457756
1006.335974	2586.089238
1006.630138	2585.658219
1006.924266	2585.423806
1007.218359	2583.044381
1007.512416	2584.097982
1007.806438	2585.655699
1008.100425	2583.790472
1008.394376	2582.116809
1008.688292	2586.469845
1008.982172	2582.888105
1009.276017	2583.319124
1009.569827	2583.581264
1009.863602	2583.949268
1010.157341	2582.217632
1010.451045	2585.685946
1010.744714	2585.053281
1011.038347	2584.007241
1011.331945	2582.021027
1011.625508	2582.883064
1011.919036	2581.713516
1012.212528	2581.070769
1012.505986	2580.365008
1012.799408	2581.723599
1013.092795	2580.672518
1013.386147	2582.890626
1013.679464	2582.694021
1013.972745	2579.273598
1014.265992	2583.606470
1014.559204	2585.310380
1014.852380	2581.499267
1015.145521	2580.901891
1015.438628	2581.453897
1015.731699	2581.900039
1016.024736	2579.160172
1016.317737	2582.822570
1016.610703	2583.881212
1016.903635	2577.746128
1017.196531	2580.380131
1017.489393	2577.698237
1017.782219	2578.867785
1018.075011	2580.362487
1018.367768	2581.277457
1018.660490	2582.520101
1018.953177	2582.520101
1019.245829	2582.520101
