Dividing Wavelength (nm)	Counts (n)	Blue Motor Position (mm): 9.800000	Red Motor Position (mm): 0.000000	
326.493990	2139.165744
326.888308	2139.165744
327.282561	2139.165744
327.676750	2106.632657
328.070874	2105.493357
328.464933	2106.965373
328.858929	2115.419388
329.252859	2124.289299
329.646726	2141.204890
330.040528	2150.997332
330.434265	2165.041986
330.827938	2181.902125
331.221547	2202.086905
331.615091	2219.811602
332.008571	2238.698285
332.401986	2261.275093
332.795338	2279.473658
333.188625	2300.553243
333.581847	2317.680563
333.975006	2336.168995
334.368100	2353.445029
334.761129	2371.527648
335.154095	2387.442571
335.546996	2406.684655
335.939833	2426.261976
336.332606	2436.487956
336.725315	2452.803651
337.117960	2460.635083
337.510540	2466.944087
337.903056	2478.863896
338.295508	2486.836480
338.687896	2495.600526
339.080220	2504.334325
339.472480	2511.749863
339.864676	2515.770183
340.256807	2519.495596
340.648875	2523.155473
341.040879	2523.132788
341.432818	2527.654703
341.824694	2527.584127
342.216506	2527.715197
342.608253	2528.287368
342.999937	2524.443488
343.391557	2526.966586
343.783113	2527.029600
344.174605	2522.976512
344.566033	2523.533560
344.957397	2521.449043
345.348697	2520.231604
345.739934	2519.414937
346.131106	2515.790348
346.522215	2517.000224
346.913260	2512.811026
347.304241	2510.930675
347.695159	2510.613083
348.086012	2508.629388
348.476802	2505.312309
348.867528	2506.781806
349.258191	2500.908861
349.648789	2501.498676
350.039324	2500.596310
350.429796	2502.879952
350.820203	2500.225785
351.210548	2496.996926
351.600828	2498.874756
351.991045	2495.736638
352.381198	2495.585403
352.771288	2495.396360
353.161314	2492.427120
353.551276	2490.496358
353.941175	2493.992398
354.331010	2495.356030
354.720782	2493.054744
355.110490	2493.788232
355.500135	2494.836792
355.889717	2494.937615
356.279235	2493.818478
356.668689	2495.792090
357.058080	2491.940649
357.447408	2492.291009
357.836672	2493.175731
358.225873	2493.211019
358.615010	2490.597181
359.004084	2496.898623
359.393095	2495.666061
359.782043	2498.582369
360.170927	2497.259066
360.559748	2498.544560
360.948505	2497.034735
361.337199	2501.380209
361.725830	2499.431803
362.114398	2500.576145
362.502903	2499.280569
362.891344	2502.282576
363.279722	2500.813079
363.668037	2501.498676
364.056289	2503.094202
364.444478	2504.336846
364.832603	2504.541013
365.220665	2504.609068
365.608665	2507.210304
365.996601	2504.656959
366.384474	2506.048318
366.772284	2506.134017
367.160031	2502.625374
367.547715	2504.104953
367.935336	2508.790705
368.322893	2507.691734
368.710388	2507.971518
369.097820	2510.746673
369.485189	2508.271467
369.872495	2509.902280
370.259738	2506.285252
370.646918	2508.747856
371.034035	2507.109481
371.421090	2507.442197
371.808081	2509.829183
372.195010	2507.449758
372.581875	2510.595438
372.968678	2508.659635
373.355418	2508.334481
373.742096	2509.846827
374.128710	2508.649553
374.515262	2511.487723
374.901751	2511.147445
375.288177	2509.241889
375.674540	2507.963956
376.060841	2511.081910
376.447079	2508.997393
376.833254	2512.642147
377.219367	2511.175171
377.605417	2510.756755
377.991404	2508.720129
378.377329	2510.413957
378.763191	2507.989162
379.148991	2511.807836
379.534727	2512.899246
379.920402	2515.069463
380.306013	2514.278001
380.691563	2512.402692
381.077049	2516.617097
381.462474	2517.274967
381.847835	2514.545183
382.233134	2514.903104
382.618371	2513.443690
383.003545	2517.630369
383.388657	2513.020233
383.773706	2516.158352
384.158693	2515.369411
384.543618	2518.691532
384.928480	2516.607014
385.313280	2517.910153
385.698017	2518.507529
386.082692	2518.489885
386.467305	2518.676408
386.851856	2517.148938
387.236344	2517.723630
387.620770	2518.986439
388.005133	2518.414268
388.389435	2520.408044
388.773674	2518.308404
389.157851	2519.808147
389.541965	2518.641120
389.926018	2519.672036
390.310008	2516.876716
390.693936	2517.945441
391.077802	2520.536594
391.461606	2523.475587
391.845348	2520.564320
392.229027	2519.288908
392.612645	2519.687159
392.996200	2521.771677
393.379694	2520.380318
393.763125	2521.438960
394.146494	2519.162879
394.529801	2520.690349
394.913047	2522.361492
395.296230	2520.019876
395.679351	2520.960051
396.062410	2522.726975
396.445408	2519.760256
396.828343	2521.103724
397.211217	2517.514422
397.594028	2518.295801
397.976778	2520.050122
398.359466	2522.812675
398.742092	2520.670184
399.124656	2526.575896
399.507158	2524.793848
399.889598	2525.713859
400.271977	2524.229239
400.654294	2524.824095
401.036549	2523.447860
401.418742	2526.134795
401.800874	2523.810823
402.182944	2526.230577
402.564952	2526.956503
402.946898	2525.423992
403.328783	2525.613036
403.710606	2525.764270
404.092367	2527.107738
404.474067	2526.769981
404.855705	2525.655886
405.237282	2526.018849
405.618797	2524.539270
406.000250	2524.551873
406.381642	2528.022707
406.762972	2530.941535
407.144240	2528.884745
407.525447	2529.058664
407.906593	2528.027748
408.287677	2526.860721
408.668700	2526.714528
409.049661	2528.884745
409.430560	2527.601771
409.811399	2529.217461
410.192176	2528.889786
410.572891	2528.355423
410.953545	2530.099663
411.334138	2529.403983
411.714669	2530.218130
412.095139	2529.920702
412.475547	2531.203675
412.855894	2530.893644
413.236180	2526.790145
413.616405	2530.392050
413.996568	2529.315763
414.376670	2528.909950
414.756711	2532.295085
415.136691	2529.237625
415.516609	2529.073788
415.896466	2531.483459
416.276262	2529.046062
416.655997	2528.000022
417.035670	2527.841226
417.415283	2528.224353
417.794834	2526.903571
418.174324	2529.663603
418.553753	2528.844415
418.933121	2530.878521
419.312428	2534.041845
419.691674	2533.598223
420.070859	2531.115455
420.449983	2531.201155
420.829045	2532.176618
421.208047	2533.210055
421.586988	2534.097298
421.965867	2534.757689
422.344686	2533.129396
422.723444	2533.242822
423.102141	2532.295085
423.480777	2531.937163
423.859352	2532.083357
424.237866	2535.070240
424.616319	2533.996475
424.994712	2533.527647
425.373044	2534.840868
425.751314	2534.495549
426.129524	2532.955476
426.507673	2536.539737
426.885762	2535.221475
427.263789	2534.886238
427.641756	2535.763399
428.019662	2534.097298
428.397508	2533.694005
428.775292	2535.844057
429.153016	2535.256763
429.530679	2535.148378
429.908282	2532.194262
430.285824	2535.090405
430.663305	2535.463450
431.040726	2533.731814
431.418086	2537.784902
431.795385	2535.506300
432.172624	2535.196269
432.549802	2534.593851
432.926920	2535.934798
433.303977	2536.252391
433.680974	2536.494366
434.057910	2536.476722
434.434786	2537.966383
434.811601	2537.016126
435.188355	2536.446475
435.565050	2535.191228
435.941683	2537.439583
436.318257	2532.857174
436.694770	2533.943543
437.071222	2534.505631
437.447614	2531.289375
437.823946	2535.178625
438.200218	2537.590817
438.576429	2537.535365
438.952580	2537.810107
439.328670	2540.449152
439.704700	2538.460416
440.080670	2535.022349
440.456580	2539.181301
440.832429	2541.099460
441.208218	2538.341949
441.583947	2540.537372
441.959616	2538.069727
442.335224	2540.885211
442.710773	2537.081661
443.086261	2538.712474
443.461689	2536.653163
443.837057	2539.327495
444.212365	2537.984027
444.587612	2539.698020
444.962800	2536.766589
445.337927	2540.050900
445.712995	2539.395550
446.088002	2541.250695
446.462949	2539.844213
446.837837	2538.563760
447.212664	2538.437731
447.587431	2537.883204
447.962139	2539.236754
448.336786	2542.848741
448.711374	2540.013092
449.085901	2541.737166
449.460369	2537.981507
449.834776	2540.368493
450.209124	2541.003678
450.583412	2540.386137
450.957640	2541.268339
451.331808	2542.518545
451.705917	2543.279759
452.079965	2542.407640
452.453954	2543.965356
452.827883	2543.499050
453.201752	2540.489481
453.575562	2540.368493
453.949311	2541.205325
454.323001	2543.839327
454.696632	2541.195242
455.070202	2544.043494
455.443713	2542.183308
455.817164	2538.226003
456.190556	2539.297248
456.563888	2539.687937
456.937160	2537.280786
457.310373	2541.452341
457.683526	2542.216076
458.056619	2543.032743
458.429653	2540.975952
458.802628	2543.136087
459.175542	2543.879657
459.548398	2543.511652
459.921194	2541.331353
460.293930	2541.366642
460.666607	2541.764893
461.039224	2541.222969
461.411782	2542.034594
461.784280	2543.017619
462.156719	2540.650798
462.529099	2543.597352
462.901419	2543.665408
463.273680	2542.657177
463.645882	2541.490150
464.018024	2542.132897
464.390106	2542.291693
464.762130	2543.932589
465.134094	2542.100129
465.505999	2545.548279
465.877845	2542.659698
466.249631	2543.302445
466.621358	2542.730274
466.993026	2546.788403
467.364634	2547.506767
467.736184	2545.263453
468.107674	2543.151210
468.479105	2546.163299
468.850477	2545.760007
469.221790	2544.711447
469.593043	2543.183977
469.964238	2544.182126
470.335373	2542.417722
470.706449	2547.506767
471.077467	2543.935109
471.448425	2544.905532
471.819324	2543.730943
472.190164	2542.359749
472.560945	2543.955274
472.931667	2542.493339
473.302330	2543.652805
473.672934	2545.218083
474.043479	2545.029040
474.413965	2543.304965
474.784393	2542.662218
475.154761	2543.367980
475.525070	2543.262115
475.895321	2541.969059
476.265513	2539.115766
476.635645	2544.948381
477.005719	2544.731612
477.375734	2544.938299
477.745691	2545.762528
478.115588	2545.444935
478.485427	2544.850079
478.855207	2545.820501
479.224928	2544.073741
479.594591	2547.368135
479.964194	2544.925696
480.333739	2547.968033
480.703226	2544.686241
481.072653	2548.376366
481.442022	2545.916283
481.811333	2547.771427
482.180584	2547.254709
482.549777	2546.266643
482.918912	2545.495347
483.287988	2548.174720
483.657005	2545.734801
484.025964	2546.606921
484.394864	2545.366797
484.763706	2547.806716
485.132489	2547.471479
485.501213	2547.753783
485.869879	2548.699000
486.238487	2546.531304
486.607036	2547.262271
486.975527	2547.085831
487.343959	2545.364277
487.712333	2546.909390
488.080648	2547.368135
488.448905	2546.642209
488.817104	2547.017775
489.185244	2546.475851
489.553326	2546.801005
489.921350	2545.727240
490.289315	2548.764535
490.657222	2549.394679
491.025070	2545.089534
491.392861	2550.907025
491.760593	2548.346119
492.128267	2548.013403
492.495883	2548.635985
492.863440	2550.007179
493.230939	2548.315872
493.598380	2548.966181
493.965763	2545.258412
494.333088	2548.557848
494.700354	2545.190357
495.067563	2547.738660
495.434713	2545.160110
495.801805	2548.736808
496.168839	2547.809236
496.535815	2549.676984
496.902733	2546.737991
497.269593	2551.312838
497.636395	2551.123795
498.003139	2549.508105
498.369825	2548.898125
498.736453	2550.271840
499.103023	2548.905687
499.469535	2551.317879
499.835989	2548.111705
500.202385	2550.889381
500.568723	2550.115564
500.935003	2548.860317
501.301226	2549.689587
501.667390	2545.447456
502.033497	2551.872406
502.399546	2548.595656
502.765537	2549.150183
503.131470	2552.774773
503.497345	2551.892571
503.863163	2549.510626
504.228923	2550.511295
504.594625	2547.320244
504.960269	2551.940462
505.325856	2548.363763
505.691385	2549.371994
506.056856	2550.276881
506.422270	2549.074566
506.787625	2550.168496
507.152924	2550.720502
507.518164	2549.472817
507.883347	2548.996428
508.248472	2551.693445
508.613540	2548.023485
508.978550	2547.912580
509.343503	2549.860986
509.708398	2550.964998
510.073236	2549.934082
510.438016	2552.658826
510.802738	2548.603218
511.167403	2549.921480
511.532010	2549.981973
511.896561	2550.720503
512.261053	2552.598332
512.625488	2545.253371
512.989866	2547.385779
513.354186	2547.305121
513.718449	2544.446787
514.082655	2547.642878
514.446803	2548.691438
514.810894	2552.396686
515.174927	2550.218908
515.538904	2551.126315
515.902822	2550.917107
516.266684	2548.787220
516.630488	2549.717313
516.994235	2553.178065
517.357925	2550.347457
517.721558	2548.789741
518.085133	2552.966337
518.448651	2550.697817
518.812112	2552.621018
519.175516	2547.650440
519.538863	2552.316028
519.902152	2552.447098
520.265385	2550.692776
520.628560	2552.724361
520.991678	2550.544062
521.354739	2550.758311
521.717743	2551.514484
522.080690	2550.884340
522.443580	2551.030533
522.806413	2552.179917
523.169189	2549.931562
523.531908	2552.663867
523.894569	2552.439536
524.257174	2552.678991
524.619722	2554.390462
524.982213	2554.677808
525.344647	2550.881819
525.707025	2553.077242
526.069345	2551.136398
526.431608	2550.836449
526.793815	2553.278888
527.155964	2554.682849
527.518057	2552.487427
527.880093	2553.619166
528.242072	2552.494989
528.603995	2556.606050
528.965860	2554.541697
529.327669	2556.227963
529.689421	2553.384752
530.051117	2554.390463
530.412755	2552.008517
530.774337	2554.675288
531.135862	2555.073539
531.497331	2552.704197
531.858743	2553.044474
532.220098	2554.473642
532.581396	2551.627910
532.942638	2553.062118
533.303824	2556.190154
533.664953	2556.059084
534.026025	2556.099414
534.387040	2558.315001
534.747999	2556.666543
535.108902	2557.798282
535.469748	2554.219063
535.830537	2556.734599
536.191270	2556.207798
536.551947	2558.950186
536.912567	2559.897923
537.273131	2556.447253
537.633638	2557.649568
537.994089	2556.883313
538.354483	2557.851215
538.714821	2560.109652
539.075103	2556.880792
539.435328	2560.064281
539.795497	2558.816596
540.155609	2559.323232
540.515665	2561.458160
540.875665	2558.579661
541.235609	2563.540157
541.595496	2557.553787
541.955328	2559.305587
542.315102	2561.790876
542.674821	2560.999415
543.034483	2563.784653
543.394090	2560.263407
543.753640	2564.886145
544.113134	2560.117213
544.472571	2564.699622
544.831953	2561.947152
545.191278	2561.281720
545.550548	2561.909343
545.909761	2563.920764
546.268918	2561.185938
546.628019	2563.436813
546.987064	2560.878427
547.346053	2561.516133
547.704986	2563.857749
548.063863	2564.165260
548.422684	2561.463201
548.781449	2561.208623
549.140158	2565.465877
549.498811	2568.656928
549.857408	2562.509241
550.215949	2559.812223
550.574434	2560.107131
550.932864	2561.826164
551.291237	2560.281051
551.649555	2564.147616
552.007817	2562.783984
552.366022	2564.853377
552.724173	2566.774057
553.082267	2563.436813
553.440305	2564.971844
553.798288	2564.180383
554.156215	2563.366237
554.514086	2564.046793
554.871902	2564.266083
555.229661	2565.380178
555.587365	2563.111659
555.945014	2564.172822
556.302606	2564.160219
556.660143	2564.679457
557.017625	2564.132492
557.375050	2564.475291
557.732421	2563.260373
558.089735	2568.036866
558.446994	2566.552246
558.804197	2567.058882
559.161345	2563.966134
559.518437	2565.702812
559.875474	2565.055023
560.232455	2568.235992
560.589381	2563.305743
560.946251	2565.949828
561.303065	2561.266596
561.659825	2563.015877
562.016528	2564.359344
562.373177	2564.457647
562.729770	2564.233315
563.086307	2564.588717
563.442789	2564.064437
563.799216	2564.669375
564.155587	2562.166442
564.511904	2563.290620
564.868164	2562.378171
565.224370	2565.158367
565.580520	2567.502504
565.936615	2562.214333
566.292654	2564.913871
566.648638	2562.562173
567.004567	2560.812892
567.360441	2563.822461
567.716260	2562.859601
568.072023	2562.680640
568.427732	2557.526060
568.783385	2559.305587
569.138982	2559.431616
569.494525	2561.044786
569.850013	2558.917419
570.205445	2560.810372
570.560823	2561.261555
570.916145	2564.487894
571.271412	2560.270968
571.626625	2562.657955
571.981782	2562.058057
572.336884	2560.943962
572.691931	2563.061247
573.046923	2563.449416
573.401860	2560.913716
573.756743	2562.819272
574.111570	2560.651576
574.466342	2563.789694
574.821059	2562.252142
575.175722	2562.103428
575.530330	2562.191648
575.884882	2563.726679
576.239380	2558.183931
576.593823	2560.986812
576.948211	2558.146122
577.302544	2558.441030
577.656823	2563.406566
578.011047	2559.547563
578.365216	2561.072512
578.719330	2560.644014
579.073389	2559.590413
579.427394	2558.345248
579.781344	2560.089487
580.135239	2557.994888
580.489080	2559.666030
580.842866	2561.581668
581.196597	2563.169632
581.550273	2561.319528
581.903895	2558.703170
582.257463	2562.526885
582.610975	2561.059909
582.964434	2559.222408
583.317837	2561.793397
583.671186	2561.342214
584.024481	2562.027811
584.377721	2561.586710
584.730906	2559.766853
585.084037	2558.325083
585.437113	2560.941442
585.790135	2559.509754
586.143103	2559.605536
586.496016	2559.746688
586.848874	2554.647561
587.201679	2558.032696
587.554428	2555.769218
587.907124	2557.596636
588.259765	2556.837943
588.612352	2562.670558
588.964884	2560.379353
589.317362	2562.146278
589.669786	2559.998746
590.022155	2560.938921
590.374470	2560.268448
590.726731	2562.191648
591.078937	2556.921122
591.431090	2561.133006
591.783188	2560.419682
592.135232	2558.057902
592.487222	2562.516802
592.839157	2559.739127
593.191038	2561.894220
593.542866	2558.768705
593.894639	2560.502862
594.246358	2561.112841
594.598022	2560.323901
594.949633	2559.182079
595.301190	2557.896585
595.652692	2560.563355
596.004141	2560.785166
596.355535	2560.583520
596.706876	2557.735268
597.058162	2558.491441
597.409395	2561.253993
597.760573	2560.820454
598.111698	2560.102090
598.462768	2561.828685
598.813785	2563.507389
599.164748	2560.681822
599.515657	2560.389436
599.866511	2561.725341
600.217312	2559.860114
600.568060	2560.709549
600.918753	2560.139898
601.269392	2559.779456
601.619978	2559.633262
601.970510	2559.701318
602.320988	2561.075032
602.671412	2562.615105
603.021783	2559.897923
603.372100	2563.605692
603.722363	2561.062430
604.072572	2562.090825
604.422728	2562.045455
604.772830	2558.844322
605.122878	2557.180741
605.472872	2560.946483
605.822813	2557.016904
606.172701	2562.312636
606.522534	2560.981771
606.872314	2562.973027
607.222041	2567.623491
607.571714	2561.755588
607.921333	2562.484035
608.270899	2563.036041
608.620411	2565.707853
608.969870	2566.169118
609.319276	2564.629046
609.668627	2568.044428
610.017926	2568.634243
610.367171	2574.020716
610.716362	2569.889490
611.065500	2568.694737
611.414585	2571.709347
611.763616	2565.266752
612.112594	2567.668862
612.461518	2568.462843
612.810389	2569.516445
613.159207	2569.778585
613.507971	2567.462174
613.856682	2571.487536
614.205340	2567.691547
614.553945	2565.874211
614.902496	2568.087278
615.250994	2571.243040
615.599439	2567.303378
615.947830	2567.147102
616.296169	2570.222206
616.644454	2570.998544
616.992686	2573.201528
617.340864	2572.226065
617.688990	2570.993503
618.037063	2573.040211
618.385082	2572.319326
618.733048	2576.291755
619.080961	2574.560119
619.428821	2575.520459
619.776628	2576.022054
620.124382	2576.049780
620.472083	2577.582291
620.819731	2575.659091
621.167326	2577.378124
621.514868	2578.348546
621.862357	2575.923751
622.209793	2578.212435
622.557176	2576.188412
622.904506	2577.201684
623.251783	2574.202197
623.599007	2579.636561
623.946179	2574.429049
624.293297	2576.619430
624.640363	2581.317786
624.987376	2579.540779
625.334336	2579.709658
625.681243	2582.678897
626.028097	2581.930286
626.374899	2582.809967
626.721647	2584.254258
627.068343	2586.555545
627.414987	2584.960019
627.761577	2585.086048
628.108115	2584.942375
628.454600	2586.091758
628.801032	2589.315576
629.147412	2586.142170
629.493739	2587.979671
629.840014	2587.294074
630.186236	2589.723910
630.532405	2592.194075
630.878521	2593.489652
631.224585	2596.284972
631.570597	2593.613160
631.916556	2597.154571
632.262462	2597.008377
632.608316	2600.509458
632.954117	2598.326639
633.299866	2602.697319
633.645562	2604.597834
633.991206	2605.646394
634.336797	2603.012391
634.682336	2606.324429
635.027823	2602.916609
635.373257	2603.796291
635.718639	2604.471805
636.063968	2605.931219
636.409245	2601.673965
636.754470	2608.005654
637.099642	2608.103957
637.444762	2612.008330
637.789829	2610.725357
638.134845	2611.811725
638.479808	2612.104112
638.824719	2613.608897
639.169577	2616.855400
639.514383	2615.804319
639.859137	2616.563013
640.203839	2619.237345
640.548489	2620.238014
640.893086	2617.586367
641.237632	2620.548045
641.582125	2621.682305
641.926566	2619.890174
642.270955	2626.821761
642.615292	2631.268059
642.959576	2633.899541
643.303809	2635.961373
643.647990	2637.325005
643.992118	2639.417084
644.336195	2639.018833
644.680219	2643.938999
645.024192	2643.888587
645.368112	2647.394710
645.711981	2653.686070
646.055797	2656.158756
646.399562	2659.748057
646.743274	2671.037721
647.086935	2673.127280
647.430544	2676.751869
647.774101	2685.677232
648.117606	2686.241841
648.461059	2686.718230
648.804460	2688.734692
649.147810	2686.191430
649.491108	2688.296112
649.834354	2693.022193
650.177548	2689.821061
650.520690	2690.504137
650.863781	2692.969261
651.206820	2697.029911
651.549807	2692.724765
651.892742	2695.678881
652.235626	2699.810107
652.578458	2698.464119
652.921238	2700.553677
653.263967	2705.191539
653.606644	2704.463092
653.949269	2711.155224
654.291843	2707.240768
654.634365	2713.078424
654.976836	2720.766183
655.319255	2718.356512
655.661622	2724.947821
656.003938	2728.605178
656.346203	2726.359344
656.688416	2733.091805
657.030577	2730.152812
657.372687	2734.420149
657.714746	2734.987278
658.056753	2742.614544
658.398708	2740.051117
658.740612	2739.998185
659.082465	2752.880854
659.424266	2752.583426
659.766016	2753.001842
660.107715	2764.525919
660.449362	2766.081115
660.790958	2770.938267
661.132503	2774.257867
661.473996	2787.178344
661.815438	2784.206584
662.156829	2785.998714
662.498168	2792.378294
662.839456	2786.764970
663.180693	2799.304840
663.521879	2800.320632
663.863013	2804.023360
664.204097	2815.486944
664.545129	2823.126812
664.886110	2826.569920
665.227040	2834.575273
665.567918	2835.699450
665.908746	2846.951305
666.249522	2848.181347
666.590248	2846.177488
666.930922	2859.397914
667.271545	2863.887062
667.612118	2866.768081
667.952639	2865.686754
668.293109	2879.673435
668.633528	2877.992210
668.973896	2877.737632
669.314213	2883.358518
669.654480	2894.403687
669.994695	2888.069477
670.334859	2890.141391
670.674973	2904.569173
671.015035	2902.890469
671.355047	2910.910945
671.695008	2914.285997
672.034918	2910.016140
672.374777	2922.505599
672.714585	2923.871751
673.054342	2930.357196
673.394049	2932.923143
673.733705	2946.262036
674.073310	2954.491720
674.412864	2942.138372
674.752368	2953.165896
675.091820	2956.881227
675.431223	2948.361677
675.770574	2960.646969
676.109875	2951.310752
676.449125	2961.453553
676.788324	2956.616566
677.127473	2956.150259
677.466571	2955.263016
677.805619	2968.163329
678.144616	2971.989565
678.483562	2972.728094
678.822458	2969.511838
679.161303	2975.094916
679.500098	2979.430308
679.838842	2979.972232
680.177535	2993.318687
680.516179	2994.793224
680.854771	3003.143896
681.193314	3021.241638
681.531805	3040.140924
681.870247	3081.647264
682.208638	3103.714915
682.546978	3109.882767
682.885268	3108.297324
683.223508	3106.863115
683.561697	3097.143771
683.899836	3097.305088
684.237925	3100.322218
684.575963	3095.021445
684.913951	3093.040272
685.251889	3123.748460
685.589776	3111.062397
685.927614	3110.374279
686.265401	3136.971407
686.603137	3135.391005
686.940824	3163.629028
687.278460	3170.971469
687.616046	3183.155938
687.953582	3201.120089
688.291068	3203.675954
688.628504	3233.829616
688.965889	3225.312587
689.303224	3217.811350
689.640510	3218.428891
689.977745	3205.420194
690.314930	3189.525436
690.652065	3180.017819
690.989150	3158.701300
691.326185	3153.844149
691.663170	3153.677791
692.000105	3137.246150
692.336990	3116.960547
692.673825	3127.672998
693.010610	3111.067438
693.347345	3088.052050
693.684030	3107.064762
694.020665	3097.108483
694.357251	3072.321129
694.693786	3085.753284
695.030272	3082.715988
695.366707	3079.035946
695.703093	3069.359451
696.039429	3083.552820
696.375716	3092.682350
696.711952	3083.643561
697.048139	3082.826894
697.384276	3079.832448
697.720363	3095.419696
698.056400	3102.338680
698.392388	3088.904005
698.728326	3084.808067
699.064214	3082.226997
699.400053	3086.401072
699.735842	3089.231680
700.071581	3084.140114
700.407270	3078.531831
700.742910	3078.897314
701.078501	3063.715880
701.414042	3076.212900
701.749533	3070.397929
702.084974	3044.405740
702.420366	3073.727611
702.755709	3059.365364
703.091002	3042.532951
703.426246	3070.380285
703.761440	3047.705175
704.096584	3038.331149
704.431679	3059.390570
704.766725	3059.027607
705.101721	3058.382339
705.436668	3072.686613
705.771565	3050.808005
706.106413	3063.650345
706.441212	3090.577668
706.775961	3097.539501
707.110661	3079.905545
707.445311	3090.204623
707.779913	3114.666822
708.114465	3117.187398
708.448967	3121.837863
708.783421	3146.451297
709.117825	3167.437620
709.452180	3168.221519
709.786485	3179.259126
710.120742	3215.129456
710.454949	3207.910524
710.789107	3230.593195
711.123216	3261.954213
711.457275	3253.941299
711.791286	3286.902884
712.125247	3303.387457
712.459159	3255.277205
712.793023	3283.709313
713.126837	3301.681026
713.460602	3299.828402
713.794318	3257.820467
714.127985	3272.616254
714.461602	3257.565889
714.795171	3240.156264
715.128691	3226.356106
715.462162	3215.840259
715.795584	3206.612427
716.128957	3203.733928
716.462281	3178.039167
716.795556	3177.025895
717.128782	3173.618075
717.461960	3152.397337
717.795088	3163.016528
718.128167	3148.281235
718.461198	3122.528501
718.794180	3127.224336
719.127113	3129.981847
719.459997	3124.875158
719.792833	3108.738425
720.125619	3105.307919
720.458357	3095.215529
720.791046	3108.130966
721.123686	3096.828699
721.456278	3079.139290
721.788821	3092.100096
722.121315	3084.495516
722.453761	3070.786098
722.786158	3084.213211
723.118506	3096.387598
723.450805	3073.987231
723.783056	3079.991245
724.115259	3103.354472
724.447412	3109.902931
724.779518	3100.176025
725.111574	3105.532251
725.443582	3119.148407
725.775542	3118.059518
726.107453	3141.647077
726.439315	3142.988024
726.771129	3145.007006
727.102895	3158.035868
727.434612	3186.984694
727.766281	3191.622556
728.097901	3186.566278
728.429473	3194.735468
728.760996	3203.174360
729.092471	3198.844008
729.423897	3198.740665
729.755276	3214.960577
730.086606	3212.891184
730.417887	3222.184551
730.749120	3255.814088
731.080305	3295.661889
731.411442	3307.218734
731.742530	3288.024541
732.073570	3292.538894
732.404562	3331.012980
732.735506	3325.946620
733.066401	3310.094712
733.397249	3283.711833
733.728048	3254.145466
734.058798	3229.093452
734.389501	3204.414483
734.720156	3171.619257
735.050762	3157.572082
735.381320	3163.442506
735.711831	3137.198259
736.042293	3127.831795
736.372707	3145.299393
736.703073	3131.118627
737.033391	3119.481123
737.363661	3134.314719
737.693883	3152.815753
738.024056	3154.189468
738.354182	3144.495329
738.684260	3182.964374
739.014290	3190.019469
739.344272	3187.403110
739.674207	3210.912531
740.004093	3210.990669
740.333931	3210.562171
740.663722	3217.455948
740.993464	3214.673232
741.323159	3205.962118
741.652806	3198.455840
741.982405	3187.529139
742.311956	3177.013292
742.641460	3176.115966
742.970915	3167.195645
743.300323	3148.334167
743.629683	3135.128865
743.958996	3133.838330
744.288260	3127.272227
744.617477	3114.611369
744.946647	3102.074019
745.275768	3097.486569
745.604842	3100.433124
745.933869	3069.203176
746.262847	3069.974472
746.591778	3104.178701
746.920662	3086.138932
747.249498	3062.702608
747.578286	3096.402721
747.907027	3105.839761
748.235720	3090.441557
748.564365	3115.914507
748.892963	3122.188223
749.221514	3110.732201
749.550017	3096.158225
749.878473	3097.670571
750.206881	3085.012234
750.535242	3085.292018
750.863555	3094.056064
751.191821	3092.037082
751.520039	3079.408992
751.848210	3065.036662
752.176334	3090.998604
752.504411	3099.828185
752.832440	3074.390523
753.160421	3060.028276
753.488356	3068.835171
753.816243	3083.240268
754.144082	3056.459139
754.471875	3046.507901
754.799620	3060.955848
755.127318	3058.347051
755.454969	3059.478790
755.782572	3067.867270
756.110129	3049.121739
756.437638	3046.949002
756.765100	3054.520815
757.092515	3064.802248
757.419882	3072.885738
757.747203	3051.861606
758.074477	3053.124415
758.401703	3063.093297
758.728882	3075.718867
759.056014	3082.189188
759.383099	3086.622883
759.710138	3080.278591
760.037129	3091.011207
760.364073	3119.382821
760.690970	3107.584000
761.017820	3089.534149
761.344623	3106.353959
761.671379	3135.829585
761.998088	3168.403001
762.324751	3244.529465
762.651366	3373.177191
762.977935	3621.832104
763.304456	3874.177142
763.630931	3955.458186
763.957359	3749.627875
764.283740	3567.289340
764.610074	3472.795432
764.936362	3363.016745
765.262602	3263.867331
765.588796	3202.743341
765.914943	3152.140239
766.241044	3094.761826
766.567097	3082.441246
766.893104	3055.808830
767.219064	3038.026160
767.544978	3027.739685
767.870845	2986.019096
768.196665	2976.221613
768.522438	2989.678974
768.848165	2991.455980
769.173846	2963.643935
769.499479	2956.477934
769.825066	2943.655760
770.150607	2936.041097
770.476101	2951.824949
770.801548	2948.412088
771.126949	2919.052408
771.452303	2908.702919
771.777611	2916.617531
772.102872	2921.600712
772.428087	2907.041859
772.753256	2898.403842
773.078378	2895.527864
773.403453	2873.739997
773.728482	2863.400590
774.053465	2883.933210
774.378401	2875.259905
774.703291	2851.639578
775.028135	2852.451204
775.352932	2853.373735
775.677683	2844.924762
776.002388	2846.631192
776.327046	2847.515915
776.651658	2839.888649
776.976224	2834.746672
777.300743	2833.972855
777.625216	2828.853563
777.949643	2825.317194
778.274024	2828.067143
778.598359	2819.330823
778.922647	2821.639672
779.246889	2823.139415
779.571086	2812.084165
779.895236	2808.063845
780.219339	2817.158086
780.543397	2828.268789
780.867409	2829.587051
781.191374	2824.699652
781.515294	2822.796617
781.839167	2825.234015
782.162995	2818.236893
782.486776	2824.440033
782.810511	2826.574962
783.134201	2818.486430
783.457844	2820.540700
783.781441	2816.371666
784.104993	2801.628812
784.428498	2804.587969
784.751958	2817.692448
785.075372	2808.847744
785.398739	2800.499593
785.722061	2815.333188
786.045337	2822.534477
786.368568	2810.476037
786.691752	2804.532516
787.014891	2840.760768
787.337983	2858.976978
787.661030	2868.277907
787.984031	2916.168868
788.306987	2951.832511
788.629897	2945.831018
788.952760	2941.036880
789.275579	2933.825510
789.598351	2892.004097
789.921078	2859.972606
790.243759	2861.043851
790.566395	2850.986749
790.888984	2828.238542
791.211529	2819.683704
791.534027	2814.135914
791.856480	2807.685758
792.178888	2794.054478
792.501249	2790.949127
792.823566	2793.313428
793.145836	2787.798406
793.468062	2784.839249
793.790241	2782.074176
794.112375	2788.350412
794.434464	2800.219809
794.756507	2801.091929
795.078505	2804.502269
795.400457	2810.773465
795.722364	2837.322702
796.044226	2854.397090
796.366042	2854.986905
796.687812	2845.562467
797.009538	2867.723380
797.331218	2860.116279
797.652852	2849.035822
797.974442	2836.531240
798.295986	2834.224912
798.617484	2832.967145
798.938938	2820.903663
799.260346	2807.216931
799.581709	2804.441776
799.903026	2802.584110
800.224299	2798.364665
800.545526	2790.853345
800.866708	2781.529731
801.187845	2771.855757
801.508936	2776.183588
801.829983	2781.368414
802.150984	2768.818462
802.471940	2758.738675
802.792851	2758.857142
803.113717	2761.279416
803.434538	2765.382916
803.755314	2763.063985
804.076045	2755.910587
804.396731	2756.218098
804.717372	2758.156422
805.037967	2750.229207
805.358518	2755.751791
805.679024	2767.011208
805.999485	2763.994078
806.319901	2766.476846
806.640272	2758.249683
806.960598	2760.248500
807.280879	2772.100253
807.601115	2778.051335
807.921306	2765.609767
808.241453	2759.207502
808.561554	2767.815272
808.881611	2768.919285
809.201623	2766.169336
809.521590	2765.791249
809.841513	2765.781167
810.161390	2769.214192
810.481223	2764.583893
810.801011	2755.819847
811.120755	2755.293046
811.440453	2756.044178
811.760107	2757.367481
812.079716	2755.928232
812.399281	2750.672829
812.718801	2743.368197
813.038276	2740.852661
813.357707	2745.072107
813.677093	2751.723909
813.996434	2748.119484
814.315731	2745.046901
814.634983	2740.381313
814.954191	2740.061200
815.273354	2755.240114
815.592473	2761.536515
815.911547	2762.685898
816.230577	2768.314347
816.549562	2773.292486
816.868502	2776.186108
817.187399	2783.347067
817.506250	2798.775519
817.825058	2792.789148
818.143821	2802.390026
818.462539	2815.257571
818.781213	2836.995027
819.099843	2867.050386
819.418429	2909.938002
819.736970	2958.123871
820.055466	3017.662419
820.373919	3103.324225
820.692327	3221.864437
821.010691	3347.000999
821.329011	3674.280269
821.647286	4285.600831
821.965517	5210.932346
822.283704	5705.320824
822.601847	5722.493515
822.919945	5348.780177
823.237999	5059.092792
823.556010	4651.921317
823.873976	4241.006784
824.191897	3937.473870
824.509775	3718.798698
824.827609	3503.110411
825.145398	3406.940319
825.463144	3402.776326
825.780845	3476.092347
826.098502	3553.743760
826.416116	3764.993312
826.733685	3995.921008
827.051210	4045.755334
827.368692	3972.557780
827.686129	3778.755662
828.003522	3525.420037
828.320872	3317.537976
828.638177	3162.676250
828.955439	3054.601473
829.272656	2987.544045
829.589830	2935.380706
829.906960	2894.290261
830.224046	2861.553008
830.541088	2833.216682
830.858086	2818.383087
831.175041	2803.816672
831.491952	2806.843885
831.808819	2820.084476
832.125642	2840.561643
832.442421	2878.103116
832.759157	2940.966304
833.075849	3084.954261
833.392497	3308.015236
833.709101	3472.019094
834.025662	3430.515275
834.342179	3304.904844
834.658653	3166.048782
834.975083	3047.364897
835.291469	2971.505614
835.607811	2899.757392
835.924110	2848.932479
836.240366	2806.642239
836.556578	2773.652928
836.872746	2753.390011
837.188871	2735.544326
837.504952	2722.868345
837.820990	2717.265102
838.136984	2705.118442
838.452935	2699.726928
838.768842	2694.746268
839.084706	2714.283260
839.400526	2777.143927
839.716303	2881.649567
840.032037	2945.241203
840.347727	2933.238215
840.663373	2887.550238
840.978977	2828.601505
841.294537	2765.844181
841.610054	2731.274469
841.925527	2710.000799
842.240957	2692.971782
842.556344	2673.885973
842.871687	2663.450785
843.186987	2654.356543
843.502244	2650.089207
843.817458	2645.171561
844.132629	2638.300468
844.447756	2631.341155
844.762840	2620.452263
845.077881	2624.946452
845.392879	2623.252624
845.707833	2621.354630
846.022745	2612.456993
846.337613	2616.615945
846.652438	2616.114350
846.967221	2613.775255
847.281960	2615.370780
847.596656	2613.205604
847.911309	2612.348608
848.225919	2609.167640
848.540485	2605.848040
848.855009	2605.724532
849.169490	2607.579677
849.483928	2605.757300
849.798323	2605.827876
850.112675	2605.238061
850.426984	2605.900973
850.741251	2605.782505
851.055474	2604.481888
851.369654	2607.879625
851.683792	2607.589759
851.997887	2605.238061
852.311938	2605.159923
852.625947	2606.165633
852.939914	2608.416508
853.253837	2610.942126
853.567718	2605.084306
853.881555	2604.388626
854.195350	2604.829727
854.509103	2604.401229
854.822812	2602.949377
855.136479	2605.023812
855.450103	2604.272680
855.763685	2608.479523
856.077224	2604.910386
856.390720	2602.788060
856.704173	2607.660335
857.017584	2608.784513
857.330953	2611.264760
857.644278	2612.905656
857.957561	2610.778289
858.270802	2607.902311
858.584000	2607.408277
858.897155	2613.298866
859.210268	2613.175357
859.523339	2606.551281
859.836367	2604.040787
860.149352	2601.547936
860.462295	2605.774944
860.775195	2603.947525
861.088054	2604.439038
861.400869	2600.814448
861.713642	2599.594489
862.026373	2599.458378
862.339062	2602.049531
862.651708	2607.254522
862.964312	2609.268463
863.276873	2605.618668
863.589392	2607.680500
863.901869	2611.511777
864.214303	2618.781121
864.526696	2621.609208
864.839045	2618.745832
865.151353	2622.231790
865.463619	2625.546349
865.775842	2623.723972
866.088023	2621.757922
866.400162	2623.794548
866.712258	2623.227418
867.024313	2620.495113
867.336325	2618.334978
867.648296	2619.496964
867.960224	2625.889147
868.272110	2624.021400
868.583954	2613.926489
868.895755	2618.118209
869.207515	2622.720782
869.519233	2630.925260
869.830909	2627.202368
870.142542	2619.978395
870.454134	2623.373612
870.765684	2628.140023
871.077191	2630.111114
871.388657	2632.626650
871.700081	2630.917698
872.011463	2632.084726
872.322803	2629.843933
872.634101	2638.426497
872.945357	2640.238792
873.256571	2649.204484
873.567744	2643.996972
873.878874	2642.787095
874.189963	2640.682413
874.501010	2648.375214
874.812015	2654.192706
875.122979	2654.590957
875.433900	2643.334060
875.744780	2641.909934
876.055618	2647.558547
876.366415	2653.023158
876.677169	2652.967705
876.987882	2647.160296
877.298554	2645.259781
877.609183	2657.792090
877.919771	2660.751247
878.230317	2668.824655
878.540822	2675.138700
878.851285	2689.513550
879.161707	2711.228320
879.472087	2745.188053
879.782425	2786.636420
880.092722	2883.683673
880.402977	3045.744166
880.713191	3252.000455
881.023363	3467.797128
881.333494	3609.574539
881.643583	3758.848145
881.953631	3769.926081
882.263637	3629.610605
882.573602	3449.901032
882.883526	3354.192205
883.193408	3263.320366
883.503248	3180.587470
883.813048	3085.312183
884.122806	2987.584374
884.432522	2912.859351
884.742197	2858.379601
885.051831	2828.830878
885.361424	2800.411373
885.670975	2769.199069
885.980485	2741.407188
886.289954	2728.401011
886.599382	2716.198898
886.908768	2707.097095
887.218113	2690.783921
887.527417	2678.596932
887.836680	2670.238698
888.145901	2667.387926
888.455082	2661.245280
888.764221	2652.037612
889.073319	2642.691313
889.382376	2644.014616
889.691392	2646.278094
890.000366	2645.678197
890.309300	2645.532003
890.618193	2642.950933
890.927044	2648.763383
891.235855	2645.337919
891.544625	2646.348670
891.853353	2647.732467
892.162041	2652.634989
892.470687	2670.563853
892.779293	2681.193126
893.087858	2687.895340
893.396381	2708.584235
893.704864	2745.417426
894.013306	2804.383802
894.321707	2884.286091
894.630068	2925.510126
894.938387	2941.906479
895.246665	2937.213165
895.554903	2900.405180
895.863100	2864.660879
896.171256	2815.262612
896.479371	2760.230856
896.787446	2723.969837
897.095480	2711.011551
897.403473	2707.563402
897.711425	2694.476566
898.019336	2679.098526
898.327207	2664.093532
898.635038	2665.840292
898.942827	2663.349962
899.250576	2653.313024
899.558284	2643.976807
899.865952	2639.399440
900.173579	2638.444141
900.481165	2636.583955
900.788711	2628.349231
901.096216	2625.606843
901.403681	2619.194495
901.711105	2620.386728
902.018489	2617.175513
902.325832	2624.722120
902.633135	2623.799589
902.940397	2637.718215
903.247619	2670.389933
903.554800	2726.445043
903.861941	2836.929492
904.169041	2943.668363
904.476101	2992.370950
904.783121	2988.958089
905.090100	2939.365738
905.397039	2875.698485
905.703938	2816.719506
906.010796	2763.542894
906.317614	2718.563199
906.624391	2686.405679
906.931129	2663.702842
907.237826	2644.173413
907.544483	2631.048768
907.851099	2617.833384
908.157675	2609.853237
908.464211	2604.857454
908.770707	2589.607963
909.077163	2590.233066
909.383578	2586.182499
909.689954	2582.870461
909.996289	2585.748960
910.302584	2584.526480
910.608839	2580.854000
910.915054	2582.167220
911.221229	2586.111923
911.527363	2584.844073
911.833458	2581.612693
912.139513	2587.674681
912.445527	2590.253231
912.751502	2592.254569
913.057436	2596.615167
913.363331	2601.104315
913.669186	2609.820470
913.975000	2624.386884
914.280775	2637.148565
914.586510	2650.865544
914.892205	2683.950637
915.197859	2741.568505
915.503475	2814.743373
915.809050	2869.545757
916.114585	2882.408261
916.420081	2887.646020
916.725536	2899.875859
917.030952	2878.844165
917.336328	2840.760768
917.641665	2801.487659
917.946961	2752.684249
918.252218	2722.628890
918.557435	2704.518545
918.862612	2684.631193
919.167750	2669.633760
919.472848	2654.298570
919.777906	2640.165695
920.082925	2631.429376
920.387904	2621.095010
920.692843	2618.657612
920.997743	2614.347426
921.302603	2606.916765
921.607423	2600.189345
921.912204	2597.663727
922.216946	2597.036103
922.521647	2593.855135
922.826310	2591.873962
923.130932	2587.546131
923.435516	2580.675039
923.740059	2580.949782
924.044564	2579.565985
924.349028	2578.146900
924.653454	2571.472412
924.957840	2569.846640
925.262186	2569.201372
925.566493	2566.196845
925.870761	2561.911864
926.174989	2564.676937
926.479178	2563.313305
926.783328	2557.631924
927.087438	2561.644683
927.391509	2564.336659
927.695541	2558.423386
927.999533	2558.695608
928.303486	2554.208981
928.607400	2558.977912
928.911275	2555.234856
929.215110	2556.795093
929.518906	2553.145297
929.822663	2558.786349
930.126381	2555.237376
930.430060	2556.404403
930.733699	2557.725186
931.037299	2557.410114
931.340861	2556.656461
931.644383	2556.258210
931.947866	2556.573282
932.251309	2556.875751
932.554714	2558.546894
932.858080	2557.001780
933.161407	2556.364074
933.464694	2557.745350
933.767943	2556.411965
934.071153	2553.465411
934.374323	2552.855431
934.677455	2552.265616
934.980548	2553.460370
935.283602	2552.799978
935.586617	2554.350133
935.889593	2554.861810
936.192530	2553.057077
936.495428	2554.939948
936.798287	2554.725699
937.101108	2556.033879
937.403890	2556.986657
937.706632	2561.092677
938.009336	2564.560990
938.312002	2566.103583
938.614628	2567.131979
938.917216	2570.819583
939.219765	2573.473750
939.522275	2571.991651
939.824747	2572.936867
940.127179	2568.120045
940.429573	2565.342369
940.731929	2567.943605
941.034246	2563.310784
941.336524	2566.711043
941.638763	2565.574262
941.940964	2564.727348
942.243126	2563.751885
942.545250	2560.830537
942.847335	2561.067471
943.149381	2560.265927
943.451389	2559.892882
943.753359	2557.556307
944.055290	2559.630742
944.357182	2557.090000
944.659036	2557.238714
944.960851	2555.948179
945.262628	2556.873231
945.564367	2555.670916
945.866067	2556.535473
946.167729	2558.456153
946.469352	2557.276523
946.770937	2553.914073
947.072484	2555.759136
947.373992	2556.512788
947.675462	2556.182593
947.976893	2554.098076
948.278286	2553.828374
948.579641	2554.277037
948.880958	2552.699155
949.182236	2553.314176
949.483476	2552.794937
949.784678	2555.575134
950.085841	2554.277037
950.386967	2553.750236
950.688054	2551.796789
950.989103	2556.162428
951.290114	2554.367777
951.591087	2558.050340
951.892021	2557.977243
952.192917	2559.862635
952.493776	2558.942624
952.794596	2561.445557
953.095378	2560.505382
953.396122	2561.294323
953.696828	2560.381874
953.997496	2560.560835
954.298126	2557.594116
954.598718	2555.368446
954.899272	2558.468756
955.199788	2554.478683
955.500266	2553.130174
955.800706	2549.271171
956.101108	2544.648433
956.401472	2548.376366
956.701798	2543.746066
957.002087	2545.109698
957.302337	2545.880995
957.602550	2548.414175
957.902724	2545.276056
958.202861	2544.499719
958.502960	2544.885367
958.803022	2542.853782
959.103045	2545.969215
959.403031	2546.468289
959.702979	2544.524924
960.002889	2545.371838
960.302762	2544.960984
960.602596	2546.206149
960.902393	2542.717671
961.202153	2542.135417
961.501875	2542.848741
961.801559	2543.494008
962.101205	2542.395037
962.400814	2542.427804
962.700385	2540.610468
962.999918	2543.287321
963.299414	2544.330840
963.598873	2541.091899
963.898293	2542.838658
964.197677	2540.514687
964.497022	2543.574667
964.796331	2542.722712
965.095601	2543.907383
965.394835	2542.165664
965.694030	2542.624409
965.993189	2542.223638
966.292309	2542.427804
966.591393	2541.671631
966.890439	2541.659028
967.189447	2544.449307
967.488419	2541.086857
967.787353	2541.490150
968.086249	2540.892773
968.385108	2542.919317
968.683930	2541.036446
968.982714	2542.538710
969.281462	2540.469316
969.580172	2541.149872
969.878844	2541.495191
970.177480	2543.642723
970.476078	2540.635674
970.774639	2542.828576
971.073162	2542.221117
971.371649	2539.330015
971.670098	2539.435880
971.968510	2539.302289
972.266885	2537.074099
972.565223	2543.519214
972.863524	2541.936292
973.161788	2544.023330
973.460014	2542.768082
973.758204	2546.548948
974.056356	2546.619524
974.354471	2544.257743
974.652550	2545.785213
974.950591	2544.298072
975.248595	2543.609955
975.546563	2544.913093
975.844493	2542.349667
976.142386	2544.177085
976.440243	2540.852444
976.738062	2541.399409
977.035845	2544.446787
977.333590	2543.758669
977.631299	2542.274049
977.928971	2541.588452
978.226606	2542.838658
978.524204	2542.808412
978.821765	2543.027702
979.119290	2543.241951
979.416777	2543.249512
979.714228	2539.680376
980.011642	2540.847403
980.309020	2545.288659
980.606360	2543.872095
980.903664	2541.762372
981.200931	2542.715150
981.498162	2544.429143
981.795356	2545.553320
982.092513	2549.019113
982.389633	2550.160934
982.686717	2549.666901
982.983764	2554.082952
983.280775	2556.361554
983.577749	2556.190154
983.874686	2553.563713
984.171587	2551.683363
984.468451	2550.052550
984.765279	2547.998279
985.062070	2545.747404
985.358824	2544.212373
985.655543	2545.586087
985.952224	2543.874616
986.248869	2540.318082
986.545478	2536.360776
986.842050	2541.616179
987.138586	2537.452186
987.435086	2540.184491
987.731549	2537.058976
988.027975	2540.053421
988.324366	2540.474357
988.620719	2540.562578
988.917037	2541.744728
989.213318	2539.864378
989.509563	2540.129038
989.805772	2542.853782
990.101944	2537.157278
990.398080	2538.266332
990.694180	2539.582073
990.990244	2539.524100
991.286271	2540.413863
991.582262	2539.398071
991.878217	2540.204656
992.174136	2541.757331
992.470019	2539.166178
992.765865	2542.558874
993.061676	2538.735159
993.357450	2541.921168
993.653188	2541.691796
993.948890	2538.813297
994.244556	2539.420756
994.540186	2541.573329
994.835780	2541.444779
995.131337	2542.304296
995.426859	2542.573998
995.722345	2541.628782
996.017795	2543.882177
996.313208	2544.043494
996.608586	2541.623740
996.903928	2544.277908
997.199234	2542.616848
997.494504	2543.022661
997.789738	2542.006868
998.084936	2542.725233
998.380099	2541.185160
998.675225	2539.367824
998.970316	2542.873947
999.265371	2537.822710
999.560390	2542.730274
999.855373	2541.364121
1000.150320	2539.793802
1000.445232	2538.783050
1000.740108	2538.493184
1001.034948	2539.453524
1001.329752	2537.106867
1001.624521	2541.800181
1001.919254	2534.921526
1002.213951	2540.391178
1002.508613	2534.661907
1002.803239	2536.862371
1003.097829	2534.898841
1003.392384	2540.996117
1003.686903	2540.630633
1003.981386	2540.930582
1004.275834	2538.354552
1004.570246	2540.456713
1004.864623	2541.207845
1005.158964	2539.014943
1005.453270	2538.031918
1005.747540	2537.958822
1006.041775	2538.553678
1006.335974	2540.179450
1006.630138	2537.641229
1006.924266	2539.203987
1007.218359	2539.549306
1007.512416	2538.788091
1007.806438	2537.926054
1008.100425	2536.648122
1008.394376	2541.291024
1008.688292	2540.285314
1008.982172	2538.770447
1009.276017	2540.101312
1009.569827	2539.972763
1009.863602	2540.517207
1010.157341	2539.337577
1010.451045	2537.714326
1010.744714	2540.565098
1011.038347	2538.883873
1011.331945	2541.099460
1011.625508	2539.521579
1011.919036	2536.285158
1012.212528	2538.868750
1012.505986	2540.567619
1012.799408	2536.199459
1013.092795	2540.655839
1013.386147	2537.283307
1013.679464	2540.771785
1013.972745	2536.842206
1014.265992	2539.055273
1014.559204	2538.062165
1014.852380	2537.986548
1015.145521	2539.380427
1015.438628	2536.164171
1015.731699	2538.256250
1016.024736	2539.536703
1016.317737	2541.399409
1016.610703	2540.612989
1016.903635	2536.345652
1017.196531	2535.017308
1017.489393	2535.680220
1017.782219	2534.876156
1018.075011	2535.115611
1018.367768	2538.964532
1018.660490	2537.613502
1018.953177	2537.613502
1019.245829	2537.613502
