Dividing Wavelength (nm)	Counts (n)	Blue Motor Position (mm): 44.500000	Red Motor Position (mm): 0.000000	
326.493990	2265.600403
326.888308	2265.600403
327.282561	2265.600403
327.676750	2226.879300
328.070874	2221.049206
328.464933	2225.268651
328.858929	2225.283775
329.252859	2231.192007
329.646726	2241.448235
330.040528	2251.888464
330.434265	2266.318767
330.827938	2286.765687
331.221547	2300.051648
331.615091	2317.075625
332.008571	2339.302072
332.401986	2356.139526
332.795338	2373.841538
333.188625	2393.668396
333.581847	2414.027095
333.975006	2433.163315
334.368100	2451.949175
334.761129	2471.828965
335.154095	2488.343785
335.546996	2514.550224
335.939833	2554.519012
336.332606	2572.732701
336.725315	2583.306521
337.117960	2595.294385
337.510540	2607.725870
337.903056	2619.635596
338.295508	2623.696246
338.687896	2633.763430
339.080220	2641.579739
339.472480	2649.068373
339.864676	2653.557520
340.256807	2657.456853
340.648875	2663.329797
341.040879	2662.440033
341.432818	2669.560663
341.824694	2670.810869
342.216506	2670.636950
342.608253	2670.548729
342.999937	2673.913700
343.391557	2671.186435
343.783113	2673.323885
344.174605	2670.692402
344.566033	2670.107628
344.957397	2670.712567
345.348697	2668.590241
345.739934	2664.544715
346.131106	2663.602019
346.522215	2665.431958
346.913260	2665.066475
347.304241	2659.843839
347.695159	2658.931390
348.086012	2655.805875
348.476802	2655.899136
348.867528	2648.100471
349.258191	2650.608445
349.648789	2647.871099
350.039324	2644.659884
350.429796	2651.294042
350.820203	2646.494864
351.210548	2647.649288
351.600828	2645.176602
351.991045	2644.760707
352.381198	2644.218783
352.771288	2643.424801
353.161314	2642.169554
353.551276	2643.283649
353.941175	2642.703916
354.331010	2639.238123
354.720782	2640.427835
355.110490	2642.822383
355.500135	2641.390696
355.889717	2641.617547
356.279235	2641.904893
356.668689	2641.282311
357.058080	2639.591004
357.447408	2642.514873
357.836672	2641.287352
358.225873	2641.557054
358.615010	2642.928247
359.004084	2645.295069
359.393095	2643.671818
359.782043	2646.308341
360.170927	2646.986376
360.559748	2647.548465
360.948505	2647.480409
361.337199	2650.242962
361.725830	2648.995276
362.114398	2647.712302
362.502903	2649.489309
362.891344	2650.474855
363.279722	2648.816315
363.668037	2653.802016
364.056289	2654.923673
364.444478	2652.987870
364.832603	2652.554331
365.220665	2654.220432
365.608665	2654.152377
365.996601	2654.631286
366.384474	2653.779331
366.772284	2655.452994
367.160031	2656.451143
367.547715	2658.210505
367.935336	2660.436175
368.322893	2654.941317
368.710388	2652.067859
369.097820	2658.003818
369.485189	2654.043992
369.872495	2661.043634
370.259738	2658.215547
370.646918	2661.018428
371.034035	2660.370640
371.421090	2660.748726
371.808081	2661.915753
372.195010	2662.649241
372.581875	2659.927018
372.968678	2666.092349
373.355418	2663.924653
373.742096	2664.983296
374.128710	2669.653925
374.515262	2667.309788
374.901751	2667.876918
375.288177	2671.312464
375.674540	2671.322547
376.060841	2674.503515
376.447079	2677.026612
376.833254	2686.433405
377.219367	2691.560259
377.605417	2699.908409
377.991404	2710.260419
378.377329	2727.886813
378.763191	2740.250243
379.148991	2760.124992
379.534727	2785.345885
379.920402	2812.870585
380.306013	2834.666013
380.691563	2873.316540
381.077049	2900.448030
381.462474	2935.733586
381.847835	2982.155052
382.233134	3021.042512
382.618371	3059.463666
383.003545	3115.566668
383.388657	3153.196360
383.773706	3212.913869
384.158693	3256.388780
384.543618	3298.520223
384.928480	3359.185468
385.313280	3423.767690
385.698017	3464.283444
386.082692	3553.332906
386.467305	3579.090681
386.851856	3630.976757
387.236344	3723.882702
387.620770	3762.069443
388.005133	3825.928259
388.389435	3885.406312
388.773674	3914.433276
389.157851	4005.229498
389.541965	4080.060386
389.926018	4063.575813
390.310008	4170.370137
390.693936	4238.208944
391.077802	4284.879946
391.461606	4295.292449
391.845348	4372.974110
392.229027	4439.842495
392.612645	4448.755255
392.996200	4556.454466
393.379694	4624.837717
393.763125	4731.967278
394.146494	4761.435343
394.529801	4827.164427
394.913047	4913.375720
395.296230	4865.653637
395.679351	4973.373012
396.062410	5033.163617
396.445408	5006.097662
396.828343	5067.776180
397.211217	5127.927227
397.594028	5010.007077
397.976778	5130.669615
398.359466	5175.520761
398.742092	5200.255182
399.124656	5115.886431
399.507158	5237.443774
399.889598	5305.146470
400.271977	5424.704995
400.654294	5420.145272
401.036549	5466.234021
401.418742	5385.215117
401.800874	5587.529223
402.182944	5648.360827
402.564952	5756.072641
402.946898	5809.329910
403.328783	5649.679089
403.710606	5666.894629
404.092367	5989.722560
404.474067	6010.698801
404.855705	5912.182052
405.237282	5848.668554
405.618797	6100.431339
406.000250	6079.986940
406.381642	6287.347242
406.762972	6305.717206
407.144240	6361.936154
407.525447	6345.489389
407.906593	6367.201639
408.287677	6528.314395
408.668700	6440.782321
409.049661	6559.660290
409.430560	6582.978147
409.811399	6445.626869
410.192176	6709.410286
410.572891	6723.568366
410.953545	6918.555156
411.334138	6648.737478
411.714669	6820.834909
412.095139	6618.067098
412.475547	6862.618513
412.855894	6934.049142
413.236180	7112.327027
413.616405	6782.083559
413.996568	7006.291397
414.376670	7042.164248
414.756711	6940.844618
415.136691	7034.925151
415.516609	7242.834939
415.896466	7223.789459
416.276262	7430.481808
416.655997	7413.969509
417.035670	7598.168229
417.415283	7934.829086
417.794834	7995.353179
418.174324	7855.740944
418.553753	7773.033253
418.933121	8077.811332
419.312428	8179.783793
419.691674	7952.629400
420.070859	8438.183256
420.449983	8117.548228
420.829045	8484.040112
421.208047	8251.990760
421.586988	8562.646824
421.965867	8581.825894
422.344686	8677.627982
422.723444	8735.593689
423.102141	8085.330213
423.480777	8842.642591
423.859352	8367.818831
424.237866	8992.470725
424.616319	8856.992236
424.994712	9279.622409
425.373044	8831.655396
425.751314	9303.625863
426.129524	9188.427936
426.507673	9278.510835
426.885762	9432.699567
427.263789	9347.821659
427.641756	9284.366135
428.019662	9373.203869
428.397508	9639.517944
428.775292	9302.599989
429.153016	9686.015027
429.530679	9518.421867
429.908282	9539.440958
430.285824	9262.880738
430.663305	9954.234658
431.040726	9403.818796
431.418086	9377.743428
431.795385	9709.647956
432.172624	9802.546339
432.549802	9713.295231
432.926920	9787.831211
433.303977	9665.676492
433.680974	9871.141319
434.057910	9967.553387
434.434786	10036.534015
434.811601	9857.600780
435.188355	10427.556155
435.565050	10168.196351
435.941683	10089.932438
436.318257	10578.241284
436.694770	10727.333409
437.071222	10786.405650
437.447614	10618.925916
437.823946	10537.874245
438.200218	10644.555143
438.576429	10476.883845
438.952580	10724.717050
439.328670	10757.766855
439.704700	10550.872860
440.080670	10538.421210
440.456580	11075.488097
440.832429	10852.754796
441.208218	10455.499270
441.583947	10755.047152
441.959616	10930.549883
442.335224	10739.840512
442.710773	10853.054745
443.086261	11085.215003
443.461689	10347.560605
443.837057	11030.203412
444.212365	11270.174938
444.587612	10908.204968
444.962800	11130.330809
445.337927	10878.580628
445.712995	10529.636999
446.088002	11586.232599
446.462949	11272.718200
446.837837	11241.458005
447.212664	11183.197390
447.587431	11750.695202
447.962139	12498.552895
448.336786	14787.372853
448.711374	15285.239727
449.085901	13107.904887
449.460369	12750.272830
449.834776	12196.592821
450.209124	13116.618522
450.583412	13537.736349
450.957640	14467.609944
451.331808	13533.272407
451.705917	12575.690111
452.079965	11840.195847
452.453954	12757.093512
452.827883	12413.853949
453.201752	12696.811394
453.575562	12234.257802
453.949311	12649.492603
454.323001	12624.218778
454.696632	12865.498484
455.070202	13142.212460
455.443713	13345.078573
455.817164	13845.186240
456.190556	13805.761896
456.563888	14175.873329
456.937160	14324.373119
457.310373	13678.281198
457.683526	13774.519345
458.056619	13303.778920
458.429653	13503.509435
458.802628	12877.577088
459.175542	13284.592288
459.548398	14239.099481
459.921194	14596.240025
460.293930	14676.154917
460.666607	15515.484347
461.039224	16568.629276
461.411782	17298.283363
461.784280	17089.806446
462.156719	17189.961570
462.529099	16858.893873
462.901419	15811.626929
463.273680	15583.413895
463.645882	15471.648993
464.018024	15201.675040
464.390106	15434.583910
464.762130	16136.388142
465.134094	16933.230728
465.505999	18992.874790
465.877845	22262.292432
466.249631	25067.997017
466.621358	24701.376583
466.993026	23256.914607
467.364634	22694.775541
467.736184	21204.418900
468.107674	20412.380534
468.479105	20544.655370
468.850477	20005.032618
469.221790	19598.037583
469.593043	18912.097862
469.964238	18343.312035
470.335373	17982.017580
470.706449	18479.667685
471.077467	18052.059372
471.448425	19931.630898
471.819324	24053.351379
472.190164	25915.052015
472.560945	22257.001741
472.931667	19944.264029
473.302330	19332.729218
473.672934	18956.066806
474.043479	19188.552218
474.413965	19004.809722
474.784393	18600.960367
475.154761	19363.160143
475.525070	19285.380181
475.895321	19005.880967
476.265513	19608.316496
476.635645	20199.129644
477.005719	19956.209043
477.375734	20133.909717
477.745691	20631.300202
478.115588	21182.343688
478.485427	21720.065924
478.855207	22814.593686
479.224928	24600.936633
479.594591	26828.065471
479.964194	26749.332730
480.333739	26995.598136
480.703226	26565.315491
481.072653	26269.561077
481.442022	26883.230817
481.811333	27816.595411
482.180584	27702.372947
482.549777	26739.245381
482.918912	26411.701451
483.287988	26561.832054
483.657005	26196.270262
484.025964	25973.748690
484.394864	25841.453690
484.763706	25493.629198
485.132489	24975.454035
485.501213	25153.747044
485.869879	25061.161212
486.238487	24912.590847
486.607036	25029.094432
486.975527	24771.267140
487.343959	25070.857872
487.712333	24974.828932
488.080648	24633.852847
488.448905	25144.667926
488.817104	24905.261009
489.185244	25599.064930
489.553326	25556.371398
489.921350	26602.773785
490.289315	28948.059706
490.657222	30667.224238
491.025070	31186.100121
491.392861	30931.637798
491.760593	30076.423692
492.128267	29163.783282
492.495883	28089.684797
492.863440	27228.038178
493.230939	26360.042227
493.598380	26202.302003
493.965763	25812.928321
494.333088	25328.546533
494.700354	25292.391377
495.067563	25135.397244
495.434713	24888.166456
495.801805	25059.411932
496.168839	24833.467416
496.535815	24693.983731
496.902733	24921.705253
497.269593	24612.846359
497.636395	24772.182109
498.003139	24713.989550
498.369825	24455.766526
498.736453	24675.601163
499.103023	24544.914291
499.469535	24537.639906
499.835989	24769.011223
500.202385	24794.605161
500.568723	24321.628984
500.935003	24506.760318
501.301226	24196.673904
501.667390	25045.722678
502.033497	25241.730302
502.399546	24968.346008
502.765537	24506.034392
503.131470	24897.099381
503.497345	25043.181937
503.863163	24274.418578
504.228923	24830.077240
504.594625	25069.801750
504.960269	24619.530929
505.325856	25106.302224
505.691385	24492.662731
506.056856	25108.217863
506.422270	25090.047024
506.787625	24614.963644
507.152924	25043.489447
507.518164	25096.053558
507.883347	24905.752521
508.248472	24584.313429
508.613540	25357.812951
508.978550	25154.475490
509.343503	25172.875702
509.708398	25373.954726
510.073236	25541.101743
510.438016	25748.325934
510.802738	25400.345166
511.167403	25666.311402
511.532010	25408.892443
511.896561	26164.435375
512.261053	26128.244932
512.625488	25949.669619
512.989866	25852.796286
513.354186	25689.331831
513.718449	25814.168444
514.082655	26188.751381
514.446803	25903.840489
514.810894	26405.001757
515.174927	25887.973457
515.538904	25919.906646
515.902822	26416.326710
516.266684	26163.197772
516.630488	26081.626862
516.994235	26022.373139
517.357925	26358.865117
517.721558	26511.654929
518.085133	26633.262683
518.448651	26517.847986
518.812112	26286.310311
519.175516	26500.748393
519.538863	26640.428683
519.902152	26442.729753
520.265385	26685.985591
520.628560	26490.121640
520.991678	26484.457904
521.354739	26535.066047
521.717743	26640.022870
522.080690	26409.906800
522.443580	26754.711641
522.806413	26724.043782
523.169189	26843.541813
523.531908	26876.483233
523.894569	26494.749419
524.257174	26596.812620
524.619722	26732.512920
524.982213	26445.698993
525.344647	26479.406668
525.707025	26652.915621
526.069345	26600.638856
526.431608	26571.821100
526.793815	26739.217655
527.155964	26236.234009
527.518057	26408.008806
527.880093	26330.115417
528.242072	26548.752780
528.603995	26277.316892
528.965860	26068.166981
529.327669	26098.176970
529.689421	26085.125423
530.051117	25933.542967
530.412755	26094.093635
530.774337	25881.016665
531.135862	25774.723936
531.497331	25958.446268
531.858743	25555.264865
532.220098	26014.284608
532.581396	25700.971855
532.942638	25588.483548
533.303824	25728.247018
533.664953	25709.105757
534.026025	25377.213832
534.387040	25618.191068
534.747999	25662.863253
535.108902	25828.447513
535.469748	25342.656722
535.830537	25485.727189
536.191270	25633.130528
536.551947	25462.162315
536.912567	25087.478556
537.273131	25521.710945
537.633638	25184.714852
537.994089	25409.724233
538.354483	24912.590847
538.714821	25417.132209
539.075103	25456.589320
539.435328	25232.205042
539.795497	24833.911038
540.155609	25186.108731
540.515665	25491.579969
540.875665	24704.050915
541.235609	25046.188985
541.595496	24977.089889
541.955328	25333.718757
542.315102	25258.083805
542.674821	24766.921665
543.034483	24651.822040
543.394090	24821.971065
543.753640	24633.951150
544.113134	25268.932368
544.472571	24850.332597
544.831953	25162.145606
545.191278	24803.389372
545.550548	24678.986298
545.909761	24874.121802
546.268918	25113.584171
546.628019	25099.859630
546.987064	24778.009683
547.346053	24530.536920
547.704986	24616.624704
548.063863	24788.505365
548.422684	24812.309694
548.781449	24305.484689
549.140158	24730.370779
549.498811	24296.647546
549.857408	24058.959663
550.215949	24455.358193
550.574434	24157.751155
550.932864	24353.526885
551.291237	24542.900350
551.649555	24379.750967
552.007817	24450.198572
552.366022	24291.193018
552.724173	24319.446164
553.082267	24294.542864
553.440305	24773.457521
553.798288	24011.935780
554.156215	24490.305992
554.514086	24635.178671
554.871902	24010.569627
555.229661	24290.066320
555.587365	24136.147290
555.945014	24056.517224
556.302606	24245.391614
556.660143	24238.795265
557.017625	24459.285252
557.375050	23979.410255
557.732421	24367.301838
558.089735	24205.828639
558.446994	24242.921449
558.804197	24294.739469
559.161345	24187.322563
559.518437	23983.725483
559.875474	24161.103522
560.232455	24334.942671
560.589381	24152.397449
560.946251	24165.330530
561.303065	24464.379338
561.659825	24549.068202
562.016528	24151.376616
562.373177	23888.354414
562.729770	24263.133955
563.086307	24104.498926
563.442789	24266.982876
563.799216	24111.952272
564.155587	24098.252937
564.511904	24083.789866
564.868164	24030.197360
565.224370	23995.710826
565.580520	23940.321148
565.936615	24053.570669
566.292654	23763.192646
566.648638	23999.562268
567.004567	23843.306663
567.360441	23792.496873
567.716260	23516.967569
568.072023	23819.830010
568.427732	23612.648669
568.783385	23363.829918
569.138982	23617.034473
569.494525	23647.268793
569.850013	23411.209202
570.205445	23495.565350
570.560823	23325.933044
570.916145	23076.728645
571.271412	23267.932048
571.626625	23016.509541
571.981782	23123.303865
572.336884	22936.975257
572.691931	23071.493406
573.046923	22809.492038
573.401860	22679.311802
573.756743	22715.144323
574.111570	22605.834464
574.466342	22513.931709
574.821059	22596.389862
575.175722	22315.453920
575.530330	22279.076954
575.884882	22291.558851
576.239380	22218.946071
576.593823	22105.341148
576.948211	22075.288310
577.302544	21934.476280
577.656823	21784.002879
578.011047	21893.118654
578.365216	21762.003283
578.719330	21636.743213
579.073389	21525.096779
579.427394	21681.803567
579.781344	21436.700146
580.135239	21317.582722
580.489080	21270.059765
580.842866	21050.361239
581.196597	21271.209148
581.550273	21225.198537
581.903895	21103.056420
582.257463	21413.228534
582.610975	20939.092891
582.964434	21291.116664
583.317837	20953.150149
583.671186	21042.076103
584.024481	21035.671317
584.377721	20783.595980
584.730906	20873.356245
585.084037	20863.352075
585.437113	20781.980290
585.790135	20984.964871
586.143103	20436.283165
586.496016	20474.255657
586.848874	20705.619413
587.201679	20607.107705
587.554428	20321.551545
587.907124	20643.136831
588.259765	20402.600696
588.612352	20484.234621
588.964884	20051.058353
589.317362	20211.639268
589.669786	20279.281470
590.022155	20282.744743
590.374470	20526.050992
590.726731	20278.036305
591.078937	20075.656663
591.431090	20162.828296
591.783188	19914.100285
592.135232	19892.025073
592.487222	19976.552620
592.839157	19988.434619
593.191038	19866.690754
593.542866	19766.487739
593.894639	19464.890628
594.246358	19683.953968
594.598022	19564.077850
594.949633	19325.651438
595.301190	19310.928748
595.652692	19476.616352
596.004141	19697.030721
596.355535	19032.301655
596.706876	19052.128513
597.058162	18944.900650
597.409395	19185.053657
597.760573	19224.359534
598.111698	18998.777982
598.462768	18952.192679
598.813785	18919.221012
599.164748	18718.709118
599.515657	18771.618548
599.866511	18584.377491
600.217312	18926.578576
600.568060	18437.579091
600.918753	18743.279702
601.269392	18647.127254
601.619978	18448.238611
601.970510	18623.519530
602.320988	18590.517617
602.671412	18786.210168
603.021783	18725.542402
603.372100	18418.599147
603.722363	18570.564730
604.072572	18521.463891
604.422728	18673.121964
604.772830	18414.619156
605.122878	18387.316267
605.472872	18357.825517
605.822813	18344.771449
606.172701	18334.873143
606.522534	18511.386625
606.872314	18534.752373
607.222041	18384.921719
607.571714	18586.567873
607.921333	18412.862314
608.270899	18492.416763
608.620411	18644.591553
608.969870	18445.970092
609.319276	18432.149769
609.668627	18461.519531
610.017926	18600.650336
610.367171	18711.706955
610.716362	18762.751158
611.065500	18575.915915
611.414585	18727.730263
611.763616	18709.206543
612.112594	18641.445873
612.461518	18611.745916
612.810389	18800.244740
613.159207	18661.602927
613.507971	18579.905988
613.856682	18826.632660
614.205340	18754.581969
614.553945	18913.239683
614.902496	18667.206170
615.250994	18863.092805
615.599439	18825.785746
615.947830	18806.762952
616.296169	18881.213233
616.644454	18820.721907
616.992686	18803.705492
617.340864	19020.396970
617.688990	18774.827242
618.037063	18944.762018
618.385082	18803.466037
618.733048	19071.862109
619.080961	18966.723805
619.428821	18987.463112
619.776628	18863.115490
620.124382	18797.870357
620.472083	18861.134317
620.819731	18857.018215
621.167326	18558.947391
621.514868	18592.932329
621.862357	18375.963588
622.209793	18383.593375
622.557176	18216.093477
622.904506	18046.887148
623.251783	17972.691445
623.599007	17714.687712
623.946179	17648.139440
624.293297	17585.125017
624.640363	17322.818659
624.987376	17355.858381
625.334336	17154.305489
625.681243	16999.738671
626.028097	17016.762647
626.374899	16928.497085
626.721647	16791.173533
627.068343	16637.652755
627.414987	16566.897640
627.761577	16539.451078
628.108115	16564.321610
628.454600	16303.144471
628.801032	16393.723923
629.147412	16336.002711
629.493739	16341.537898
629.840014	16153.059238
630.186236	16249.002478
630.532405	16005.608009
630.878521	16216.401336
631.224585	16114.459123
631.570597	15924.573981
631.916556	15957.306193
632.262462	15935.495641
632.608316	15851.010944
632.954117	15797.229394
633.299866	15780.880932
633.645562	15700.030907
633.991206	15461.244052
634.336797	15335.736965
634.682336	15307.292255
635.027823	15175.135886
635.373257	15040.950453
635.718639	14966.709380
636.063968	14906.858281
636.409245	14643.289114
636.754470	14687.260578
637.099642	14532.628225
637.444762	14303.376713
637.789829	14348.283312
638.134845	14175.747301
638.479808	14218.377818
638.824719	14132.194252
639.169577	13999.937060
639.514383	14042.532290
639.859137	13873.530128
640.203839	13970.416063
640.548489	13816.774297
640.893086	13790.613229
641.237632	13669.943129
641.582125	13821.132374
641.926566	13642.073110
642.270955	13661.771419
642.615292	13610.891053
642.959576	13621.283392
643.303809	13646.804233
643.647990	13585.881889
643.992118	13648.646775
644.336195	13419.977516
644.680219	13645.173420
645.024192	13553.583216
645.368112	13800.314930
645.711981	13835.781968
646.055797	14029.838664
646.399562	14012.834852
646.743274	14275.731025
647.086935	14541.858578
647.430544	14507.203166
647.774101	14548.820412
648.117606	14686.267471
648.461059	14667.494214
648.804460	14639.828362
649.147810	14361.992729
649.491108	14276.373772
649.834354	14284.074135
650.177548	13956.404176
650.520690	13776.384572
650.863781	13695.050596
651.206820	13749.106889
651.549807	13580.364346
651.892742	13366.861398
652.235626	13303.511739
652.578458	13312.182523
652.921238	13007.661543
653.263967	13206.288046
653.606644	13035.826469
653.949269	13013.340403
654.291843	12816.697594
654.634365	12983.466525
654.976836	12826.774861
655.319255	12828.098163
655.661622	12793.394860
656.003938	12712.285216
656.346203	12630.721867
656.688416	12713.732027
657.030577	12666.985407
657.372687	12574.008886
657.714746	12562.381465
658.056753	12757.862288
658.398708	12554.827296
658.740612	12561.708471
659.082465	12675.210050
659.424266	12639.085141
659.766016	12671.562775
660.107715	12583.690422
660.449362	12658.617092
660.790958	12606.403341
661.132503	12544.961758
661.473996	12626.187349
661.815438	12641.767035
662.156829	12664.621106
662.498168	12635.513484
662.839456	12635.679842
663.180693	12658.009633
663.521879	12750.479518
663.863013	12718.301833
664.204097	12688.314529
664.545129	12831.742918
664.886110	12803.840131
665.227040	12899.435532
665.567918	12901.426787
665.908746	12909.699321
666.249522	12907.282087
666.590248	12966.752579
666.930922	13073.335175
667.271545	13044.542624
667.612118	13134.708702
667.952639	13033.174822
668.293109	13055.018142
668.633528	12998.824400
668.973896	12975.904794
669.314213	13042.563972
669.654480	12788.895631
669.994695	12871.205070
670.334859	12896.287331
670.674973	12841.081655
671.015035	12868.389586
671.355047	12811.661481
671.695008	12790.534006
672.034918	12795.300417
672.374777	12837.051253
672.714585	12754.232657
673.054342	12790.188687
673.394049	12739.020975
673.733705	12832.945233
674.073310	12737.934606
674.412864	12754.633428
674.752368	12609.599432
675.091820	12654.077533
675.431223	12620.596709
675.770574	12492.135507
676.109875	12406.335068
676.449125	12367.016589
676.788324	12316.731079
677.127473	12144.139615
677.466571	12145.964513
677.805619	12030.398582
678.144616	11964.861061
678.483562	11941.437340
678.822458	11806.241155
679.161303	11781.942794
679.500098	11772.800661
679.838842	11722.333670
680.177535	11753.571180
680.516179	11830.615134
680.854771	11763.845052
681.193314	11982.379071
681.531805	12156.780309
681.870247	12585.835433
682.208638	13001.123166
682.546978	13297.916058
682.885268	13322.431189
683.223508	13027.248946
683.561697	12874.643137
683.899836	12787.627780
684.237925	12569.308010
684.575963	12494.575425
684.913951	12403.328020
685.251889	12368.697813
685.589776	12463.834469
685.927614	12376.902291
686.265401	12351.303312
686.603137	12410.630131
686.940824	12557.186556
687.278460	12698.926158
687.616046	12735.255233
687.953582	12884.733006
688.291068	12834.860871
688.628504	13061.730438
688.965889	13063.628433
689.303224	13018.830219
689.640510	12898.444945
689.977745	12583.632449
690.314930	12369.164120
690.652065	12270.871703
690.989150	11975.984367
691.326185	11746.904254
691.663170	11540.922708
692.000105	11310.388222
692.336990	11188.868688
692.673825	10922.947822
693.010610	10813.133848
693.347345	10603.099214
693.684030	10415.994268
694.020665	10352.180822
694.357251	10152.367128
694.693786	10083.794833
695.030272	9931.819168
695.366707	9811.872474
695.703093	9740.512420
696.039429	9736.298016
696.375716	9646.580601
696.711952	9521.607876
697.048139	9574.519827
697.384276	9527.954689
697.720363	9544.479591
698.056400	9478.785795
698.392388	9423.391076
698.728326	9384.617041
699.064214	9333.187190
699.400053	9371.900731
699.735842	9177.934775
700.071581	9143.211307
700.407270	9075.059948
700.742910	8992.921908
701.078501	8895.075632
701.414042	8764.398842
701.749533	8712.548054
702.084974	8568.204696
702.420366	8690.233387
702.755709	8562.127585
703.091002	8430.835775
703.426246	8463.421793
703.761440	8413.844566
704.096584	8376.328299
704.431679	8303.927247
704.766725	8284.155842
705.101721	8239.196311
705.436668	8294.389384
705.771565	8184.015841
706.106413	8264.989375
706.441212	8301.086557
706.775961	8268.440045
707.110661	8316.361253
707.445311	8437.106970
707.779913	8341.841765
708.114465	8470.839851
708.448967	8500.842278
708.783421	8670.648504
709.117825	8841.019340
709.452180	8876.325061
709.786485	8966.261766
710.120742	9252.405220
710.454949	9251.427236
710.789107	9361.856232
711.123216	9586.180016
711.457275	9757.115461
711.791286	9894.935566
712.125247	9906.810003
712.459159	9892.036902
712.793023	10119.546696
713.126837	9695.003404
713.460602	9859.702941
713.794318	9679.905148
714.127985	9707.099653
714.461602	9365.564000
714.795171	9324.395417
715.128691	9066.663906
715.462162	8825.989139
715.795584	8768.588041
716.128957	8602.015715
716.462281	8441.112167
716.795556	8490.661668
717.128782	8279.948999
717.461960	8031.024384
717.795088	8097.338242
718.128167	8004.848192
718.461198	7835.283942
718.794180	7777.270343
719.127113	7767.074609
719.459997	7602.228879
719.792833	7380.612194
720.125619	7448.594674
720.458357	7298.932899
720.791046	7290.486445
721.123686	7283.769108
721.456278	7120.471011
721.788821	7135.102960
722.121315	7038.869854
722.453761	7109.264526
722.786158	7045.829167
723.118506	7056.264355
723.450805	7021.374530
723.783056	7078.863848
724.115259	7000.688155
724.447412	7004.156469
724.779518	7054.021042
725.111574	7046.270268
725.443582	7122.449664
725.775542	7113.322655
726.107453	7303.734598
726.439315	7211.055505
726.771129	7284.928573
727.102895	7464.078578
727.434612	7565.829227
727.766281	7607.015454
728.097901	7676.200250
728.429473	7684.734923
728.760996	7668.830083
729.092471	7639.137687
729.423897	7571.293838
729.755276	7578.981598
730.086606	7501.226841
730.417887	7607.915300
730.749120	7832.564239
731.080305	8012.369594
731.411442	8124.673899
731.742530	8114.894060
732.073570	8225.756595
732.404562	8313.649112
732.735506	8165.623191
733.066401	8305.500087
733.397249	8224.488745
733.728048	7978.243503
734.058798	7642.081720
734.389501	7400.378558
734.720156	7233.070224
735.050762	7006.389700
735.381320	6927.699809
735.711831	6859.719849
736.042293	6751.002325
736.372707	6761.961794
736.703073	6628.809797
737.033391	6671.896539
737.363661	6686.379774
737.693883	6725.647842
738.024056	6807.178423
738.354182	6836.792682
738.684260	6871.909359
739.014290	7004.789133
739.344272	7111.530525
739.674207	7145.984291
740.004093	7213.825619
740.333931	7226.642752
740.663722	7228.588638
740.993464	7311.724827
741.323159	7281.374560
741.652806	7039.197529
741.982405	7077.215391
742.311956	7110.802078
742.641460	6928.314830
742.970915	6743.664926
743.300323	6734.757207
743.629683	6694.415373
743.958996	6555.229116
744.288260	6465.078162
744.617477	6414.107055
744.946647	6404.612042
745.275768	6243.814357
745.604842	6196.873653
745.933869	6184.545512
746.262847	6140.657226
746.591778	6127.083920
746.920662	6083.581283
747.249498	6086.517755
747.578286	6131.230269
747.907027	6207.505447
748.235720	6271.739829
748.564365	6240.741774
748.892963	6283.848681
749.221514	6421.557880
749.550017	6234.647019
749.878473	6123.955884
750.206881	6188.326377
750.535242	6134.691021
750.863555	6062.078241
751.191821	6071.094344
751.520039	6068.089817
751.848210	5980.628318
752.176334	6010.580334
752.504411	6053.873763
752.832440	5980.008256
753.160421	5909.729530
753.488356	5959.122756
753.816243	5979.670499
754.144082	5837.464590
754.471875	5809.942411
754.799620	5853.800449
755.127318	5865.737901
755.454969	5818.424152
755.782572	5788.613289
756.110129	5830.341440
756.437638	5805.775897
756.765100	5747.434623
757.092515	5756.924596
757.419882	5812.014325
757.747203	5786.306961
758.074477	5847.221743
758.401703	5825.885060
758.728882	5781.711949
759.056014	5857.820769
759.383099	5971.942410
759.710138	5986.743238
760.037129	5970.283870
760.364073	5979.032793
760.690970	6058.728394
761.017820	6034.886257
761.344623	5997.647253
761.671379	6104.118943
761.998088	6231.604683
762.324751	6495.609910
762.651366	7134.893752
762.977935	8508.036005
763.304456	10165.811885
763.630931	11026.369614
763.957359	10566.235776
764.283740	9599.937325
764.610074	8728.568841
764.936362	7725.754792
765.262602	7132.229503
765.588796	6595.828048
765.914943	6271.006341
766.241044	6096.970587
766.567097	5884.513679
766.893104	5626.903156
767.219064	5448.746258
767.544978	5389.222834
767.870845	5303.896264
768.196665	5202.279205
768.522438	5130.611642
768.848165	5090.950364
769.173846	5026.274881
769.499479	4977.673116
769.825066	4928.978091
770.150607	4865.194892
770.476101	4845.904917
770.801548	4839.595912
771.126949	4754.970063
771.452303	4701.218760
771.777611	4666.003780
772.102872	4683.143703
772.428087	4643.469822
772.753256	4597.612966
773.078378	4553.303744
773.403453	4480.852281
773.728482	4470.830467
774.053465	4424.106533
774.378401	4415.886932
774.703291	4412.106066
775.028135	4332.836443
775.352932	4284.350625
775.677683	4275.437865
776.002388	4293.321358
776.327046	4305.888955
776.651658	4226.568920
776.976224	4166.997605
777.300743	4174.549253
777.625216	4195.649003
777.949643	4184.724822
778.274024	4143.773009
778.598359	4101.946555
778.922647	4128.387407
779.246889	4117.987507
779.571086	4109.586424
779.895236	4095.355247
780.219339	4080.320005
780.543397	4080.078030
780.867409	4133.279847
781.191374	4140.730673
781.515294	4079.730190
781.839167	4070.681319
782.162995	4092.474227
782.486776	4084.436108
782.810511	4095.350206
783.134201	4081.391251
783.457844	4035.269734
783.781441	3981.407526
784.104993	3990.579905
784.428498	4010.477339
784.751958	4002.053571
785.075372	3979.917865
785.398739	3944.954942
785.722061	3959.153352
786.045337	4003.591123
786.368568	4030.795710
786.691752	3941.781536
787.014891	4005.537009
787.337983	4135.631545
787.661030	4300.530208
787.984031	4460.841421
788.306987	4630.115806
788.629897	4715.979258
788.952760	4666.659130
789.275579	4596.587091
789.598351	4527.735012
789.921078	4373.324470
790.243759	4175.242412
790.566395	4166.785876
790.888984	4159.246831
791.211529	4052.613824
791.534027	3990.295080
791.856480	3971.932677
792.178888	3913.881270
792.501249	3869.415772
792.823566	3880.579408
793.145836	3901.772418
793.468062	3849.273842
793.790241	3807.820434
794.112375	3840.174560
794.434464	3910.170981
794.756507	3929.997839
795.078505	3902.677306
795.400457	3952.821663
795.722364	4094.437757
796.044226	4197.499106
796.366042	4269.373357
796.687812	4240.444696
797.009538	4247.066251
797.331218	4211.374882
797.652852	4183.489739
797.974442	4161.880833
798.295986	4154.235924
798.617484	4073.060744
798.938938	3989.609483
799.260346	4035.534395
799.581709	4021.043598
799.903026	3944.226496
800.224299	3910.987648
800.545526	3908.262904
800.866708	3866.055843
801.187845	3808.748007
801.508936	3843.123635
801.829983	3830.490503
802.150984	3758.984256
802.471940	3752.667691
802.792851	3757.718927
803.113717	3758.785131
803.434538	3758.449894
803.755314	3695.014535
804.076045	3677.791432
804.396731	3700.897561
804.717372	3724.590984
805.037967	3704.219682
805.358518	3696.761294
805.679024	3727.875296
805.999485	3740.405084
806.319901	3747.818101
806.640272	3757.003083
806.960598	3770.246194
807.280879	3744.533789
807.601115	3761.517436
807.921306	3778.433028
808.241453	3820.115808
808.561554	3783.988379
808.881611	3721.112588
809.201623	3765.658744
809.521590	3772.660907
809.841513	3743.129827
810.161390	3774.758027
810.481223	3748.849017
810.801011	3697.840101
811.120755	3695.758105
811.440453	3729.644741
811.760107	3723.270202
812.079716	3677.867050
812.399281	3653.210766
812.718801	3674.555012
813.038276	3653.208246
813.357707	3648.862771
813.677093	3662.262158
813.996434	3610.885239
814.315731	3623.160448
814.634983	3626.124647
814.954191	3644.960918
815.273354	3666.879855
815.592473	3661.387518
815.911547	3676.258922
816.230577	3715.524469
816.549562	3768.882562
816.868502	3807.107111
817.187399	3830.883713
817.506250	3831.163497
817.825058	3808.732883
818.143821	3907.746186
818.462539	4006.101618
818.781213	4050.630130
819.099843	4118.970532
819.418429	4380.782857
819.736970	4624.560454
820.055466	4885.677100
820.373919	5253.711577
820.692327	5670.146173
821.010691	6168.812071
821.329011	7663.141141
821.647286	10568.095962
821.965517	15321.722558
822.283704	19350.451394
822.601847	21349.568843
822.919945	19414.171579
823.237999	16736.184627
823.556010	14208.172002
823.873976	12039.686908
824.191897	9922.898846
824.509775	8581.795647
824.827609	7449.834798
825.145398	6913.755977
825.463144	6803.168185
825.780845	6908.248517
826.098502	7133.993907
826.416116	8089.305163
826.733685	9473.265732
827.051210	10565.277957
827.368692	10505.288226
827.686129	9162.886930
828.003522	7653.575551
828.320872	6625.769982
828.638177	5903.831380
828.955439	5331.584802
829.272656	4827.666022
829.589830	4556.222572
829.906960	4373.740365
830.224046	4186.451417
830.541088	4063.207809
830.858086	4012.100591
831.175041	3938.593006
831.491952	3921.599277
831.808819	3937.466308
832.125642	4016.728370
832.442421	4174.808873
832.759157	4468.418275
833.075849	5053.817225
833.392497	5951.104801
833.709101	6745.298260
834.025662	7053.216978
834.342179	6628.507328
834.658653	5947.573472
834.975083	5282.642759
835.291469	4696.432184
835.607811	4303.990960
835.924110	4155.730626
836.240366	3947.047021
836.556578	3744.183429
836.872746	3637.111842
837.188871	3589.911518
837.504952	3522.234028
837.820990	3435.916871
838.136984	3400.661562
838.452935	3420.248965
838.768842	3418.381217
839.084706	3440.811831
839.400526	3615.407154
839.716303	3976.852843
840.032037	4532.750960
840.347727	4766.320221
840.663373	4453.095688
840.978977	4063.469949
841.294537	3748.009664
841.610054	3523.960623
841.925527	3422.197371
842.240957	3350.938141
842.556344	3292.745581
842.871687	3231.104872
843.186987	3180.637881
843.502244	3143.363590
843.817458	3107.679782
844.132629	3080.155082
844.447756	3087.265630
844.762840	3069.107394
845.077881	3036.745707
845.392879	3020.687111
845.707833	3015.565299
846.022745	3016.689476
846.337613	3018.148890
846.652438	3003.774040
846.967221	3001.523165
847.281960	2987.380208
847.596656	2983.667398
847.911309	2986.248468
848.225919	2977.116418
848.540485	2974.643732
848.855009	2972.019812
849.169490	2959.868110
849.483928	2955.772173
849.798323	2955.000876
850.112675	2950.148766
850.426984	2961.740899
850.741251	2955.197481
851.055474	2943.078548
851.369654	2938.418001
851.683792	2943.587704
851.997887	2956.213274
852.311938	2957.161011
852.625947	2943.958229
852.939914	2947.822273
853.253837	2953.906946
853.567718	2938.145778
853.881555	2939.655604
854.195350	2954.889971
854.509103	2945.256326
854.822812	2941.054524
855.136479	2936.865325
855.450103	2938.791046
855.763685	2930.959614
856.077224	2930.425251
856.390720	2942.347580
856.704173	2950.163889
857.017584	2941.977055
857.330953	2942.829010
857.644278	2953.541462
857.957561	2962.718883
858.270802	2961.826599
858.584000	2962.292905
858.897155	2948.533076
859.210268	2946.161213
859.523339	2946.032664
859.836367	2944.631223
860.149352	2940.638629
860.462295	2936.451951
860.775195	2945.314299
861.088054	2941.866150
861.400869	2925.928542
861.713642	2924.829571
862.026373	2939.554781
862.339062	2942.115687
862.651708	2945.694906
862.964312	2948.265895
863.276873	2942.655091
863.589392	2957.269396
863.901869	2968.793473
864.214303	2989.361381
864.526696	3003.756396
864.839045	3000.290603
865.151353	2998.470746
865.463619	2997.465036
865.775842	2999.395798
866.088023	3020.142666
866.400162	3024.624252
866.712258	2993.971516
867.024313	2983.301914
867.336325	2995.153667
867.648296	3016.462624
867.960224	3010.045235
868.272110	2997.054182
868.583954	2999.973010
868.895755	3012.318796
869.207515	2998.281703
869.519233	3007.401150
869.830909	3017.659898
870.142542	3027.298584
870.454134	3025.282123
870.765684	3030.388812
871.077191	3027.999305
871.388657	3039.299051
871.700081	3052.015362
872.011463	3061.291085
872.322803	3062.102710
872.634101	3063.093297
872.945357	3082.468972
873.256571	3105.902776
873.567744	3097.209306
873.878874	3091.885847
874.189963	3115.407871
874.501010	3114.649177
874.812015	3106.288424
875.122979	3105.315481
875.433900	3104.236674
875.744780	3111.747993
876.055618	3115.869137
876.366415	3113.262860
876.677169	3122.291567
876.987882	3119.718058
877.298554	3117.252933
877.609183	3143.527427
877.919771	3163.611384
878.230317	3196.058771
878.540822	3250.893922
878.851285	3282.728808
879.161707	3334.539267
879.472087	3447.067903
879.782425	3695.785831
880.092722	4159.377901
880.402977	4704.311508
880.713191	5376.824116
881.023363	6602.915911
881.333494	7914.069614
881.643583	8433.316022
881.953631	8107.667566
882.263637	7420.883451
882.573602	6804.695655
882.883526	6212.604574
883.193408	5633.476820
883.503248	5178.159805
883.813048	4864.317731
884.122806	4530.492523
884.432522	4204.410528
884.742197	3967.105772
885.051831	3771.521606
885.361424	3639.375320
885.670975	3564.851942
885.980485	3471.963642
886.289954	3391.756363
886.599382	3346.504446
886.908768	3309.956080
887.218113	3263.401025
887.527417	3201.692260
887.836680	3154.663336
888.145901	3150.811895
888.455082	3135.784215
888.764221	3082.814291
889.073319	3053.517625
889.382376	3054.137687
889.691392	3056.222204
890.000366	3057.313614
890.309300	3042.681665
890.618193	3055.725651
890.927044	3072.316088
891.235855	3069.639235
891.544625	3056.176834
891.853353	3071.660738
892.162041	3089.806371
892.470687	3133.540902
892.779293	3184.756504
893.087858	3232.778536
893.396381	3310.092192
893.704864	3444.973304
894.013306	3701.056358
894.321707	4012.103112
894.630068	4212.226837
894.938387	4202.628480
895.246665	4155.433198
895.554903	4030.405021
895.863100	3818.477433
896.171256	3649.366887
896.479371	3498.152436
896.787446	3373.726677
897.095480	3267.078546
897.403473	3204.714432
897.711425	3168.849143
898.019336	3159.253307
898.327207	3124.166876
898.635038	3089.743357
898.942827	3074.602251
899.250576	3059.882082
899.558284	3030.562731
899.865952	3008.847961
900.173579	2989.202585
900.481165	2982.848210
900.788711	2968.473360
901.096216	2945.203394
901.403681	2932.792073
901.711105	2943.093671
902.018489	2937.858433
902.325832	2937.331632
902.633135	2948.525514
902.940397	2987.070177
903.247619	3078.483940
903.554800	3284.170578
903.861941	3659.421468
904.169041	4103.809262
904.476101	4398.789858
904.783121	4327.996935
905.090100	4065.206626
905.397039	3781.671969
905.703938	3523.937938
906.010796	3337.112776
906.317614	3225.322669
906.624391	3122.730147
906.931129	3048.121070
907.237826	2986.792913
907.544483	2937.929009
907.851099	2908.307189
908.157675	2883.396327
908.464211	2866.115252
908.770707	2851.710155
909.077163	2838.419152
909.383578	2821.501040
909.689954	2809.213228
909.996289	2811.053249
910.302584	2812.984011
910.608839	2811.136428
910.915054	2805.936478
911.221229	2798.142854
911.527363	2800.328194
911.833458	2808.136941
912.139513	2812.484937
912.445527	2816.346460
912.751502	2825.849035
913.057436	2835.369254
913.363331	2849.600432
913.669186	2876.318547
913.975000	2912.922365
914.280775	2976.481233
914.586510	3049.668704
914.892205	3134.344966
915.197859	3273.556429
915.503475	3481.713233
915.809050	3708.040876
916.114585	3853.387424
916.420081	3863.656254
916.725536	3795.945996
917.030952	3669.992768
917.336328	3536.860936
917.641665	3401.412693
917.946961	3296.793628
918.252218	3221.730847
918.557435	3141.261429
918.862612	3078.562078
919.167750	3029.700694
919.472848	2986.160248
919.777906	2960.525981
920.082925	2931.428441
920.387904	2901.841909
920.692843	2884.533107
920.997743	2870.952239
921.302603	2854.165197
921.607423	2847.606655
921.912204	2832.604182
922.216946	2822.221925
922.521647	2811.640543
922.826310	2802.974800
923.130932	2800.497073
923.435516	2787.800927
923.740059	2781.186933
924.044564	2771.644029
924.349028	2767.525406
924.653454	2760.069539
924.957840	2754.347830
925.262186	2749.251223
925.566493	2745.387179
925.870761	2738.705129
926.174989	2735.531723
926.479178	2732.181876
926.783328	2724.965465
927.087438	2723.513612
927.391509	2722.482696
927.695541	2720.133519
927.999533	2715.581357
928.303486	2713.572457
928.607400	2713.446428
928.911275	2712.849051
929.215110	2710.721684
929.518906	2709.582384
929.822663	2711.124977
930.126381	2710.119267
930.430060	2710.099102
930.733699	2711.543392
931.037299	2713.869885
931.340861	2714.898280
931.644383	2713.814432
931.947866	2711.984493
932.251309	2711.402240
932.554714	2708.480892
932.858080	2708.992569
933.161407	2705.761189
933.464694	2704.289172
933.767943	2701.458564
934.071153	2705.103318
934.374323	2704.289172
934.677455	2704.440407
934.980548	2701.067875
935.283602	2700.150385
935.586617	2703.858153
935.889593	2700.341949
936.192530	2701.324974
936.495428	2700.440251
936.798287	2703.593493
937.101108	2707.429811
937.403890	2710.527600
937.706632	2715.770400
938.009336	2725.333469
938.312002	2735.115828
938.614628	2740.290572
938.917216	2748.701737
939.219765	2747.721233
939.522275	2750.597211
939.824747	2743.557240
940.127179	2742.244019
940.429573	2739.214286
940.731929	2737.147413
941.034246	2733.520303
941.336524	2729.288254
941.638763	2729.258007
941.940964	2726.150136
942.243126	2724.317676
942.545250	2722.298694
942.847335	2719.475648
943.149381	2714.449618
943.451389	2708.808567
943.753359	2709.070707
944.055290	2709.095912
944.357182	2707.097095
944.659036	2706.083823
944.960851	2703.921168
945.262628	2701.846733
945.564367	2706.219934
945.866067	2704.833617
946.167729	2705.902341
946.469352	2703.038966
946.770937	2704.284131
947.072484	2702.507124
947.373992	2702.187011
947.675462	2700.518389
947.976893	2695.832637
948.278286	2696.745085
948.579641	2695.751978
948.880958	2692.298788
949.182236	2697.241639
949.483476	2695.121834
949.784678	2696.430013
950.085841	2693.952286
950.386967	2696.034283
950.688054	2695.782225
950.989103	2699.394212
951.290114	2697.624767
951.591087	2699.767257
951.892021	2703.870756
952.192917	2704.175746
952.493776	2707.129862
952.794596	2707.878474
953.095378	2705.990562
953.396122	2705.279759
953.696828	2703.603575
953.997496	2702.255067
954.298126	2701.070395
954.598718	2700.052082
954.899272	2695.099149
955.199788	2694.141329
955.500266	2689.400124
955.800706	2689.271575
956.101108	2688.916173
956.401472	2685.102541
956.701798	2683.907787
957.002087	2680.280677
957.302337	2678.649864
957.602550	2682.400482
957.902724	2674.410253
958.202861	2673.482681
958.502960	2674.589214
958.803022	2673.538134
959.103045	2674.067455
959.403031	2671.851868
959.702979	2670.067299
960.002889	2671.110818
960.302762	2673.112156
960.602596	2668.660817
960.902393	2669.724501
961.202153	2669.343894
961.501875	2667.287103
961.801559	2668.300375
962.101205	2668.746517
962.400814	2669.175015
962.700385	2670.856240
962.999918	2665.956238
963.299414	2664.602688
963.598873	2666.906496
963.898293	2662.727379
964.197677	2663.372647
964.497022	2667.670231
964.796331	2666.846002
965.095601	2667.256856
965.394835	2667.380364
965.694030	2665.252997
965.993189	2665.918430
966.292309	2670.599141
966.591393	2666.394819
966.890439	2665.278203
967.189447	2667.647545
967.488419	2665.938594
967.787353	2666.329284
968.086249	2665.195024
968.385108	2665.361382
968.683930	2666.465395
968.982714	2667.009839
969.281462	2666.770385
969.580172	2669.182577
969.878844	2666.014212
970.177480	2666.213337
970.476078	2666.006650
970.774639	2664.582524
971.073162	2665.391629
971.371649	2667.324912
971.670098	2664.907678
971.968510	2667.055210
972.266885	2666.467915
972.565223	2666.283913
972.863524	2667.735766
973.161788	2666.571259
973.460014	2665.933553
973.758204	2665.608399
974.056356	2664.277534
974.354471	2664.791732
974.652550	2666.707370
974.950591	2668.426404
975.248595	2667.093018
975.546563	2667.410611
975.844493	2663.042451
976.142386	2665.041269
976.440243	2666.011691
976.738062	2668.496980
977.035845	2665.646207
977.333590	2666.286434
977.631299	2664.824499
977.928971	2661.454488
978.226606	2661.691422
978.524204	2661.825013
978.821765	2659.990033
979.119290	2664.915240
979.416777	2662.646721
979.714228	2666.208296
980.011642	2664.640497
980.309020	2663.090342
980.606360	2664.915240
980.903664	2665.250477
981.200931	2666.730055
981.498162	2665.621002
981.795356	2666.742658
982.092513	2669.172494
982.389633	2670.440345
982.686717	2676.182219
982.983764	2674.818587
983.280775	2682.100533
983.577749	2682.443332
983.874686	2679.683300
984.171587	2676.804801
984.468451	2673.407064
984.765279	2677.999555
985.062070	2671.307423
985.358824	2669.278359
985.655543	2668.955725
985.952224	2669.296003
986.248869	2667.085457
986.545478	2664.121258
986.842050	2662.707215
987.138586	2663.869201
987.435086	2662.445075
987.731549	2660.635300
988.027975	2663.105466
988.324366	2658.260917
988.620719	2661.247801
988.917037	2659.884168
989.213318	2658.172697
989.509563	2660.307625
989.805772	2660.418531
990.101944	2660.136226
990.398080	2662.011535
990.694180	2660.985661
990.990244	2661.479694
991.286271	2663.554128
991.582262	2659.639672
991.878217	2659.914415
992.174136	2661.199910
992.470019	2662.424910
992.765865	2658.155053
993.061676	2655.059784
993.357450	2656.930052
993.653188	2657.812254
993.948890	2659.317039
994.244556	2660.085815
994.540186	2663.234015
994.835780	2661.734272
995.131337	2662.760147
995.426859	2663.594458
995.722345	2661.187307
996.017795	2660.899961
996.313208	2666.089829
996.608586	2665.563028
996.903928	2666.820796
997.199234	2666.535971
997.494504	2664.448933
997.789738	2663.221412
998.084936	2665.449602
998.380099	2664.569921
998.675225	2662.167811
998.970316	2661.469611
999.265371	2664.239725
999.560390	2662.445075
999.855373	2658.139929
1000.150320	2662.314005
1000.445232	2661.005825
1000.740108	2660.100938
1001.034948	2660.305105
1001.329752	2660.526916
1001.624521	2656.327634
1001.919254	2657.718993
1002.213951	2658.691936
1002.508613	2658.936432
1002.803239	2658.507933
1003.097829	2657.776966
1003.392384	2658.949034
1003.686903	2658.293684
1003.981386	2659.788387
1004.275834	2657.671102
1004.570246	2656.877120
1004.864623	2658.013900
1005.158964	2657.121616
1005.453270	2655.763025
1005.747540	2658.142450
1006.041775	2657.126657
1006.335974	2658.086997
1006.630138	2657.116575
1006.924266	2657.845022
1007.218359	2657.640855
1007.512416	2655.163128
1007.806438	2655.594147
1008.100425	2656.927532
1008.394376	2654.752274
1008.688292	2656.995587
1008.982172	2657.471976
1009.276017	2658.444919
1009.569827	2658.460042
1009.863602	2656.776297
1010.157341	2659.327121
1010.451045	2657.998777
1010.744714	2658.908705
1011.038347	2657.550114
1011.331945	2660.393325
1011.625508	2658.739827
1011.919036	2658.946514
1012.212528	2659.175886
1012.505986	2658.502892
1012.799408	2659.294353
1013.092795	2656.216729
1013.386147	2658.071874
1013.679464	2656.660351
1013.972745	2657.915598
1014.265992	2657.724034
1014.559204	2658.490289
1014.852380	2655.672284
1015.145521	2654.999290
1015.438628	2657.666061
1015.731699	2656.559527
1016.024736	2657.275371
1016.317737	2655.906698
1016.610703	2658.795279
1016.903635	2654.543066
1017.196531	2657.716472
1017.489393	2657.945845
1017.782219	2656.637665
1018.075011	2657.981133
1018.367768	2656.375525
1018.660490	2657.371153
1018.953177	2657.371153
1019.245829	2657.371153
