Dividing Wavelength (nm)	Counts (n)	Blue Motor Position (mm): 41.000000	Red Motor Position (mm): 0.000000	
326.493990	2046.048070
326.888308	2046.048070
327.282561	2046.048070
327.676750	2024.489576
328.070874	2023.572086
328.464933	2030.367561
328.858929	2040.134797
329.252859	2050.428833
329.646726	2063.929043
330.040528	2082.533421
330.434265	2097.419949
330.827938	2119.248145
331.221547	2140.680610
331.615091	2161.233395
332.008571	2180.694769
332.401986	2202.515403
332.795338	2220.436705
333.188625	2241.856568
333.581847	2258.285688
333.975006	2279.324944
334.368100	2296.280865
334.761129	2310.252423
335.154095	2325.615339
335.546996	2378.761704
335.939833	2487.736326
336.332606	2496.321411
336.725315	2511.296159
337.117960	2521.068436
337.510540	2530.460105
337.903056	2540.315561
338.295508	2547.201777
338.687896	2553.513302
339.080220	2558.539332
339.472480	2562.789025
339.864676	2566.005281
340.256807	2569.226578
340.648875	2569.178687
341.040879	2571.386713
341.432818	2576.266550
341.824694	2572.362176
342.216506	2571.875705
342.608253	2573.148596
342.999937	2574.769327
343.391557	2574.282856
343.783113	2571.777402
344.174605	2566.464026
344.566033	2567.106773
344.957397	2566.998388
345.348697	2564.971844
345.739934	2561.460681
346.131106	2560.754919
346.522215	2559.023283
346.913260	2556.832902
347.304241	2556.474980
347.695159	2552.013558
348.086012	2553.783003
348.476802	2549.538352
348.867528	2547.325285
349.258191	2544.580377
349.648789	2548.653629
350.039324	2541.611138
350.429796	2546.717826
350.820203	2544.794626
351.210548	2544.509801
351.600828	2545.810419
351.991045	2544.615665
352.381198	2543.962836
352.771288	2542.553833
353.161314	2540.456713
353.551276	2540.892773
353.941175	2539.854295
354.331010	2541.512835
354.720782	2545.810419
355.110490	2545.681869
355.500135	2543.529297
355.889717	2543.040305
356.279235	2541.843031
356.668689	2544.371169
357.058080	2545.581046
357.447408	2543.670449
357.836672	2545.008875
358.225873	2543.869574
358.615010	2545.941489
359.004084	2544.199770
359.393095	2546.188505
359.782043	2546.503577
360.170927	2546.296890
360.559748	2546.788402
360.948505	2549.440049
361.337199	2549.765204
361.725830	2555.265103
362.114398	2549.598846
362.502903	2550.412992
362.891344	2553.357026
363.279722	2552.293343
363.668037	2553.621687
364.056289	2552.885678
364.444478	2552.565565
364.832603	2556.774928
365.220665	2555.421378
365.608665	2556.485062
365.996601	2557.268961
366.384474	2554.395504
366.772284	2556.452294
367.160031	2557.561348
367.547715	2554.466080
367.935336	2556.384239
368.322893	2556.890875
368.710388	2553.762839
369.097820	2555.577654
369.485189	2554.622356
369.872495	2557.846173
370.259738	2559.567727
370.646918	2563.222564
371.034035	2559.471946
371.421090	2561.327090
371.808081	2562.531926
372.195010	2560.449929
372.581875	2561.821123
372.968678	2563.976217
373.355418	2563.081412
373.742096	2562.786504
374.128710	2565.188614
374.515262	2564.137533
374.901751	2566.761454
375.288177	2566.277503
375.674540	2565.115517
376.060841	2564.177863
376.447079	2565.813717
376.833254	2568.644325
377.219367	2567.436969
377.605417	2568.029304
377.991404	2565.881773
378.377329	2567.898234
378.763191	2566.499314
379.148991	2568.578790
379.534727	2571.232958
379.920402	2569.581980
380.306013	2570.565005
380.691563	2572.107598
381.077049	2570.287741
381.462474	2569.927299
381.847835	2573.040211
382.233134	2572.962073
382.618371	2572.488205
383.003545	2574.066086
383.388657	2575.991807
383.773706	2574.814697
384.158693	2577.133628
384.543618	2576.531210
384.928480	2578.323340
385.313280	2578.151941
385.698017	2576.233782
386.082692	2578.507343
386.467305	2580.818712
386.851856	2579.510532
387.236344	2580.569174
387.620770	2576.790830
388.005133	2582.257961
388.389435	2579.490367
388.773674	2580.017168
389.157851	2586.507654
389.541965	2587.684763
389.926018	2590.253231
390.310008	2590.724579
390.693936	2591.301791
391.077802	2596.799169
391.461606	2602.175560
391.845348	2602.334356
392.229027	2608.063627
392.612645	2611.511777
392.996200	2617.629217
393.379694	2623.421503
393.763125	2630.065743
394.146494	2637.819038
394.529801	2645.348001
394.913047	2659.692605
395.296230	2666.966990
395.679351	2674.805984
396.062410	2688.961544
396.445408	2697.153419
396.828343	2713.269988
397.211217	2726.422358
397.594028	2736.363513
397.976778	2754.352871
398.359466	2772.102774
398.742092	2786.107099
399.124656	2799.773667
399.507158	2827.459684
399.889598	2845.093640
400.271977	2874.362579
400.654294	2889.047461
401.036549	2920.249682
401.418742	2939.219544
401.800874	2976.032570
402.182944	3000.346055
402.564952	3048.068138
402.946898	3067.262331
403.328783	3088.402410
403.710606	3130.128040
404.092367	3176.060514
404.474067	3224.019531
404.855705	3243.932088
405.237282	3257.457504
405.618797	3321.994356
406.000250	3378.419991
406.381642	3441.230247
406.762972	3472.591265
407.144240	3481.317503
407.525447	3541.697923
407.906593	3577.343922
408.287677	3651.761435
408.668700	3697.903116
409.049661	3746.867843
409.430560	3795.593116
409.811399	3821.368535
410.192176	3876.511197
410.572891	3953.179585
410.953545	4050.723391
411.334138	4013.993544
411.714669	4118.181591
412.095139	4095.866924
412.475547	4195.238148
412.855894	4228.721492
413.236180	4325.768745
413.616405	4307.860046
413.996568	4403.689860
414.376670	4439.063637
414.756711	4457.325216
415.136691	4540.615160
415.516609	4629.984736
415.896466	4686.546482
416.276262	4780.634577
416.655997	4895.653543
417.035670	4987.137883
417.415283	5123.818687
417.794834	5194.155386
418.174324	5186.220610
418.553753	5206.251635
418.933121	5364.130491
419.312428	5393.038987
419.691674	5360.349625
420.070859	5568.332510
420.449983	5488.662114
420.829045	5670.788920
421.208047	5624.997599
421.586988	5780.791938
421.965867	5862.667839
422.344686	5952.090346
422.723444	6120.192662
423.102141	5788.762003
423.480777	6145.254759
423.859352	5995.860164
424.237866	6340.042423
424.616319	6342.018555
424.994712	6507.307907
425.373044	6439.854748
425.751314	6733.033133
426.129524	6486.427448
426.507673	6740.741057
426.885762	6785.635052
427.263789	6830.050138
427.641756	6923.843326
428.019662	6990.310940
428.397508	7028.316198
428.775292	7035.250306
429.153016	7179.495361
429.530679	7137.021119
429.908282	7184.244128
430.285824	7137.908362
430.663305	7387.430354
431.040726	7296.429966
431.418086	7298.131355
431.795385	7434.121521
432.172624	7610.813964
432.549802	7498.560070
432.926920	7626.749051
433.303977	7578.802637
433.680974	7634.275494
434.057910	7821.393042
434.434786	7861.649176
434.811601	7827.969227
435.188355	8161.953231
435.565050	8058.750730
435.941683	8064.664003
436.318257	8386.639979
436.694770	8324.172521
437.071222	8536.541209
437.447614	8318.473497
437.823946	8292.861914
438.200218	8434.528420
438.576429	8332.218203
438.952580	8484.781162
439.328670	8500.741455
439.704700	8581.651974
440.080670	8472.067372
440.456580	8724.747647
440.832429	8710.113177
441.208218	8454.312428
441.583947	8571.579749
441.959616	8674.905759
442.335224	8706.360038
442.710773	8795.293554
443.086261	8965.830747
443.461689	8703.668062
443.837057	8860.173204
444.212365	9054.101351
444.587612	9059.369357
444.962800	8951.450856
445.337927	9086.261392
445.712995	8636.348493
446.088002	9281.328840
446.462949	9347.574643
446.837837	9355.204429
447.212664	9410.344570
447.587431	10305.966044
447.962139	11279.256576
448.336786	12029.796164
448.711374	11632.177675
449.085901	10496.793882
449.460369	10466.977978
449.834776	10384.628209
450.209124	11311.860239
450.583412	11071.326624
450.957640	11289.303596
451.331808	10878.583148
451.705917	10398.831660
452.079965	10316.469288
452.453954	10521.291369
452.827883	10477.143464
453.201752	10435.064953
453.575562	10459.191916
453.949311	10815.677110
454.323001	10893.076465
454.696632	10810.008332
455.070202	11398.414330
455.443713	11448.649428
455.817164	11601.088879
456.190556	11917.005388
456.563888	11748.406518
456.937160	11968.601597
457.310373	11462.424381
457.683526	11505.097748
458.056619	11548.214737
458.429653	11630.020061
458.802628	11802.782924
459.175542	11860.095802
459.548398	12406.370356
459.921194	12981.228253
460.293930	13298.400009
460.666607	14131.720383
461.039224	14860.865314
461.411782	15116.230003
461.784280	14729.139964
462.156719	14655.002235
462.529099	14562.716352
462.901419	13981.728413
463.273680	13629.772695
463.645882	13862.379095
464.018024	13820.219926
464.390106	14220.054002
464.762130	15381.336722
465.134094	17041.149229
465.505999	19306.222831
465.877845	21321.895429
466.249631	22222.903377
466.621358	21605.314139
466.993026	20774.670617
467.364634	20077.746222
467.736184	19378.308811
468.107674	18820.578234
468.479105	18681.848201
468.850477	18415.239218
469.221790	17992.672059
469.593043	17358.482302
469.964238	17019.986465
470.335373	17131.673229
470.706449	17990.491760
471.077467	19123.642321
471.448425	21452.136159
471.819324	22937.360905
472.190164	22444.366306
472.560945	20757.225704
472.931667	19357.322487
473.302330	19112.758470
473.672934	18666.760028
474.043479	19097.017467
474.413965	18899.963804
474.784393	18747.035361
475.154761	19372.163644
475.525070	19511.019706
475.895321	19355.459781
476.265513	19866.763851
476.635645	20453.632296
477.005719	20512.765031
477.375734	20890.493648
477.745691	21494.847335
478.115588	22158.273264
478.485427	23420.172374
478.855207	25278.109788
479.224928	26995.804824
479.594591	28186.197687
479.964194	27659.676894
480.333739	28041.801397
480.703226	28337.149998
481.072653	28845.837709
481.442022	29336.520939
481.811333	29641.450253
482.180584	29141.846701
482.549777	28928.331151
482.918912	28729.384535
483.287988	28685.758389
483.657005	28522.165385
484.025964	28181.600155
484.394864	28369.988074
484.763706	28314.268201
485.132489	27817.013826
485.501213	27877.300985
485.869879	28095.802237
486.238487	28042.113948
486.607036	28311.752665
486.975527	28028.565848
487.343959	28360.911477
487.712333	28695.903711
488.080648	28676.437296
488.448905	29103.536452
488.817104	29035.811071
489.185244	29919.416956
489.553326	31086.633114
489.921350	33005.787781
490.289315	35393.807563
490.657222	36063.978556
491.025070	36463.704247
491.392861	36089.847237
491.760593	35293.531452
492.128267	34303.562262
492.495883	33377.356107
492.863440	32531.205996
493.230939	31648.510040
493.598380	31148.619142
493.965763	31026.797139
494.333088	30582.051423
494.700354	30402.150286
495.067563	30374.663395
495.434713	30295.671035
495.801805	30601.089340
496.168839	30457.202207
496.535815	30331.848875
496.902733	30467.904576
497.269593	30296.333946
497.636395	30463.246550
498.003139	30748.565776
498.369825	30526.601251
498.736453	30937.074683
499.103023	30784.483997
499.469535	30898.620761
499.835989	31023.505265
500.202385	30897.173950
500.568723	30962.295575
500.935003	31298.331329
501.301226	31212.079707
501.667390	31905.354308
502.033497	32108.190174
502.399546	31915.003076
502.765537	31524.951359
503.131470	31992.548625
503.497345	32433.304267
503.863163	31436.574891
504.228923	32188.967102
504.594625	32603.584362
504.960269	32098.380088
505.325856	32771.084260
505.691385	32466.432210
506.056856	32783.500622
506.422270	33279.507311
506.787625	32811.650425
507.152924	33284.404792
507.518164	33488.311903
507.883347	33051.170768
508.248472	33235.883686
508.613540	33918.072789
508.978550	34164.678474
509.343503	34022.459962
509.708398	34372.558014
510.073236	34994.049104
510.438016	35101.307214
510.802738	34796.264474
511.167403	35359.860433
511.532010	35602.619717
511.896561	36099.526252
512.261053	36852.447785
512.625488	36641.999776
512.989866	36584.361744
513.354186	36638.249158
513.718449	36617.638400
514.082655	37502.088678
514.446803	37204.806794
514.810894	37831.792742
515.174927	37863.773822
515.538904	37849.835032
515.902822	38512.414047
516.266684	38200.956438
516.630488	38571.902183
516.994235	38603.777398
517.357925	39175.134213
517.721558	39441.140778
518.085133	39820.608593
518.448651	40021.191063
518.812112	39901.451057
519.175516	40060.834697
519.538863	40507.990085
519.902152	40587.703330
520.265385	41124.797943
520.628560	41153.958497
520.991678	41106.322114
521.354739	41337.809378
521.717743	41716.745351
522.080690	41625.276135
522.443580	42297.203969
522.806413	42328.988444
523.169189	42464.434166
523.531908	42705.411402
523.894569	42553.776015
524.257174	42764.581945
524.619722	43102.956794
524.982213	43249.432561
525.344647	43281.486737
525.707025	43400.314295
526.069345	43871.697468
526.431608	43780.596256
526.793815	44164.769988
527.155964	43709.102612
527.518057	43969.140451
527.880093	43813.716637
528.242072	44458.568434
528.603995	44198.175194
528.965860	44118.182165
529.327669	44345.974263
529.689421	44399.627263
530.051117	44349.331671
530.412755	44627.568076
530.774337	44706.842740
531.135862	44639.077030
531.497331	44778.669100
531.858743	44792.539835
532.220098	45202.214244
532.581396	44928.335917
532.942638	44679.456672
533.303824	44933.976968
533.664953	44984.852293
534.026025	44673.803018
534.387040	45235.795890
534.747999	45307.445810
535.108902	45640.955945
535.469748	44962.751874
535.830537	45216.652108
536.191270	45467.988916
536.551947	45198.138471
536.912567	45493.509757
537.273131	45633.991591
537.633638	45268.591116
537.994089	45454.851669
538.354483	45196.852977
538.714821	45856.172885
539.075103	46132.218908
539.435328	46000.435585
539.795497	45750.016268
540.155609	45882.001237
540.515665	46456.879298
540.875665	45776.782274
541.235609	46055.399285
541.595496	46174.988057
541.955328	46747.600120
542.315102	46182.932916
542.674821	46070.857983
543.034483	45951.334746
543.394090	45981.916906
543.753640	45976.590927
544.113134	47030.749128
544.472571	46138.288457
544.831953	47285.909651
545.191278	46527.437808
545.550548	46202.167438
545.909761	46866.147894
546.268918	47001.565889
546.628019	47421.453675
546.987064	46855.949639
547.346053	46149.588204
547.704986	47050.409628
548.063863	46703.311063
548.422684	46907.016528
548.781449	46499.121647
549.140158	47032.616876
549.498811	46805.681774
549.857408	46186.176898
550.215949	47025.871812
550.574434	46862.319137
550.932864	46792.463868
551.291237	47527.539717
551.649555	47283.862942
552.007817	47456.280486
552.366022	47115.989999
552.724173	47198.211218
553.082267	47607.147097
553.440305	47948.987740
553.798288	47197.777679
554.156215	47588.419211
554.514086	47794.819173
554.871902	47427.240920
555.229661	47596.827856
555.587365	47276.661654
555.945014	47396.346208
556.302606	47423.944005
556.660143	47523.035446
557.017625	47732.671828
557.375050	47440.179041
557.732421	47862.484060
558.089735	47909.512985
558.446994	47781.941545
558.804197	48271.354405
559.161345	48132.057242
559.518437	47474.549628
559.875474	47734.466479
560.232455	47959.198597
560.589381	48020.567083
560.946251	47833.482302
561.303065	48485.316098
561.659825	48161.348866
562.016528	47974.211153
562.373177	47547.532933
562.729770	48189.523875
563.086307	47714.964775
563.442789	48246.899768
563.799216	48108.862893
564.155587	47980.026124
564.511904	47977.631576
564.868164	48009.232049
565.224370	48341.043316
565.580520	48070.393848
565.936615	48256.437631
566.292654	47921.765509
566.648638	48258.116335
567.004567	48228.252539
567.360441	48313.311928
567.716260	48013.517030
568.072023	48378.771311
568.427732	48321.778546
568.783385	47852.076598
569.138982	48273.698541
569.494525	48404.516484
569.850013	47998.443980
570.205445	48120.603740
570.560823	47905.974095
570.916145	47773.921070
571.271412	48018.192700
571.626625	47667.519956
571.981782	47741.619876
572.336884	47331.065787
572.691931	47655.038059
573.046923	47326.659818
573.401860	47159.555650
573.756743	47175.624328
574.111570	47328.993872
574.466342	47240.723268
574.821059	47379.944814
575.175722	46883.350831
575.530330	46991.526431
575.884882	46631.015875
576.239380	46526.565688
576.593823	46608.524767
576.948211	46538.031793
577.302544	46096.439319
577.656823	46095.123577
578.011047	46347.783688
578.365216	46167.736357
578.719330	45888.811836
579.073389	45875.669548
579.427394	45922.322906
579.781344	45849.493356
580.135239	45605.531757
580.489080	45665.004770
580.842866	45154.671122
581.196597	45648.353838
581.550273	45631.954965
581.903895	45568.759060
582.257463	46004.965062
582.610975	45434.586230
582.964434	45778.254291
583.317837	45287.500484
583.671186	45211.663887
584.024481	45515.547161
584.377721	45061.286267
584.730906	45268.397032
585.084037	45386.697789
585.437113	45093.988232
585.790135	45204.449995
586.143103	44761.730823
586.496016	44947.676304
586.848874	45034.079160
587.201679	45071.671044
587.554428	44560.319083
587.907124	44848.960429
588.259765	44605.961690
588.612352	44785.247806
588.964884	44224.583278
589.317362	44535.821596
589.669786	44534.740269
590.022155	44391.639555
590.374470	44843.319378
590.726731	44419.587712
591.078937	43754.682205
591.431090	44094.178711
591.783188	43624.237308
592.135232	43420.045371
592.487222	43680.378118
592.839157	43830.521323
593.191038	43478.696676
593.542866	43269.705561
593.894639	42675.151876
594.246358	42978.984739
594.598022	42974.268740
594.949633	42550.700911
595.301190	42517.661189
595.652692	42461.273362
596.004141	42951.112199
596.355535	41841.836542
596.706876	41870.447611
597.058162	41581.097983
597.409395	42088.883328
597.760573	42295.731952
598.111698	41898.363001
598.462768	41804.274905
598.813785	41835.262878
599.164748	41423.564446
599.515657	41705.095244
599.866511	41213.242467
600.217312	41911.162490
600.568060	40846.110355
600.918753	41662.789881
601.269392	41589.655342
601.619978	41297.669191
601.970510	41516.540967
602.320988	41646.287664
602.671412	41918.938470
603.021783	41781.504013
603.372100	41351.876718
603.722363	41456.924282
604.072572	41482.372026
604.422728	41475.354740
604.772830	41262.489498
605.122878	41423.004878
605.472872	41279.324432
605.822813	41539.208515
606.172701	41299.128605
606.522534	41618.505865
606.872314	41835.151973
607.222041	41663.840962
607.571714	41975.553148
607.921333	41472.330048
608.270899	41703.608104
608.620411	42082.324787
608.969870	41813.379229
609.319276	41832.061745
609.668627	41853.499252
610.017926	42272.177161
610.367171	42396.837334
610.716362	42426.870008
611.065500	42317.892865
611.414585	42544.623800
611.763616	42724.504772
612.112594	42625.022642
612.461518	42740.270981
612.810389	43141.274605
613.159207	42911.395469
613.507971	42895.052048
613.856682	43397.307247
614.205340	43212.788413
614.553945	43907.071244
614.902496	43232.975714
615.250994	43663.926312
615.599439	43719.235332
615.947830	43829.931508
616.296169	43825.049151
616.644454	43866.351324
616.992686	44022.249007
617.340864	44463.947345
617.688990	43992.765819
618.037063	44679.116394
618.385082	44501.042676
618.733048	44835.480384
619.080961	44704.140682
619.428821	44739.645528
619.776628	44764.314415
620.124382	44557.513681
620.472083	44669.681875
620.819731	44778.961487
621.167326	44331.349876
621.514868	44322.558103
621.862357	43794.870283
622.209793	43886.029468
622.557176	43453.954693
622.904506	43224.083118
623.251783	42831.450331
623.599007	42544.966599
623.946179	42453.998978
624.293297	42191.357383
624.640363	41644.571151
624.987376	41478.031593
625.334336	41293.646350
625.681243	40878.267876
626.028097	40783.300099
626.374899	40597.717582
626.721647	40557.705944
627.068343	40347.933450
627.414987	40058.747660
627.761577	39804.290378
628.108115	40127.924893
628.454600	39368.081856
628.801032	39614.952201
629.147412	39495.595322
629.493739	39407.523844
629.840014	38945.176940
630.186236	39395.883820
630.532405	38838.221299
630.878521	39066.305784
631.224585	38839.098460
631.570597	38496.153805
631.916556	38674.479581
632.262462	38550.580622
632.608316	38472.543561
632.954117	38358.384111
633.299866	38326.367743
633.645562	38244.789271
633.991206	37690.234622
634.336797	37295.166957
634.682336	37184.198557
635.027823	36952.660882
635.373257	36814.961765
635.718639	36495.476119
636.063968	36395.842754
636.409245	35732.310962
636.754470	35702.668977
637.099642	35463.120908
637.444762	34893.558744
637.789829	35033.707862
638.134845	34664.224052
638.479808	34565.891305
638.824719	34527.175244
639.169577	34010.956049
639.514383	34102.248824
639.859137	33724.263109
640.203839	33892.168820
640.548489	33605.465798
640.893086	33581.795060
641.237632	33308.078050
641.582125	33416.694751
641.926566	33211.517269
642.270955	33245.323247
642.615292	33159.139681
642.959576	33059.876841
643.303809	33055.339802
643.647990	33145.594100
643.992118	33095.263220
644.336195	32934.972172
644.680219	33023.290667
645.024192	33220.563620
645.368112	33744.848661
645.711981	33753.489198
646.055797	34492.469420
646.399562	34294.392403
646.743274	35175.568452
647.086935	35562.202266
647.430544	35526.057193
647.774101	35566.189819
648.117606	35865.185695
648.461059	36001.657291
648.804460	35609.019462
649.147810	35095.146924
649.491108	34761.674597
649.834354	34616.638081
650.177548	33786.773417
650.520690	33301.602688
650.863781	33283.066366
651.206820	33091.021089
651.549807	32695.459391
651.892742	32106.196397
652.235626	32023.496268
652.578458	31873.433721
652.921238	31194.029856
653.263967	31487.588847
653.606644	31194.491121
653.949269	31102.822780
654.291843	30707.326617
654.634365	31072.598542
654.976836	30606.669898
655.319255	30671.612562
655.661622	30557.962269
656.003938	30430.327816
656.346203	30240.863610
656.688416	30484.278244
657.030577	30255.256104
657.372687	30082.092470
657.714746	30232.694420
658.056753	30424.999316
658.398708	29810.006273
658.740612	29878.195441
659.082465	30074.863455
659.424266	29972.540635
659.766016	29984.969600
660.107715	29841.372332
660.449362	29942.195409
660.790958	29934.580746
661.132503	29842.879637
661.473996	29927.220662
661.815438	29995.271197
662.156829	30125.559819
662.498168	29919.119528
662.839456	29897.719829
663.180693	30023.846978
663.521879	30116.142943
663.863013	30062.106815
664.204097	30047.003518
664.545129	30467.097992
664.886110	30386.719314
665.227040	30500.699803
665.567918	30494.123618
665.908746	30559.157023
666.249522	30667.955205
666.590248	30675.383345
666.930922	30789.036159
667.271545	30774.910846
667.612118	30832.402685
667.952639	30654.160088
668.293109	30692.417404
668.633528	30548.071525
668.973896	30513.758912
669.314213	30489.034573
669.654480	30294.141044
669.994695	30294.945108
670.334859	30207.274402
670.674973	30041.422961
671.015035	30223.557329
671.355047	30164.626240
671.695008	30089.011453
672.034918	29994.215076
672.374777	30099.723905
672.714585	29953.853077
673.054342	30101.692476
673.394049	29940.163824
673.733705	30166.188998
674.073310	29875.001870
674.412864	29947.244125
674.752368	29622.336718
675.091820	29866.081548
675.431223	29468.639499
675.770574	29263.167110
676.109875	29107.657596
676.449125	28909.046217
676.788324	28804.243149
677.127473	28314.631164
677.466571	28220.018788
677.805619	27944.421428
678.144616	27864.050312
678.483562	27820.338467
678.822458	27509.737855
679.161303	27434.594416
679.500098	27361.785031
679.838842	27293.696687
680.177535	27385.428043
680.516179	27602.182535
680.854771	27732.786228
681.193314	28492.160438
681.531805	29491.269239
681.870247	30245.882079
682.208638	30978.956589
682.546978	31230.096791
682.885268	31391.822048
683.223508	30957.884566
683.561697	30688.273576
683.899836	30516.181186
684.237925	30126.195004
684.575963	29966.672732
684.913951	29590.733725
685.251889	29757.127090
685.589776	29794.068665
685.927614	29795.908686
686.265401	29970.314965
686.603137	30064.035057
686.940824	30559.671220
687.278460	30892.001726
687.616046	31065.183005
687.953582	31721.899157
688.291068	31648.283188
688.628504	31983.547645
688.965889	31995.361589
689.303224	31744.785996
689.640510	31460.212861
689.977745	30836.438128
690.314930	30102.020151
690.652065	29663.525466
690.989150	29008.709828
691.326185	28161.279264
691.663170	27512.238268
692.000105	26782.632072
692.336990	26172.660018
692.673825	25745.767548
693.010610	25259.391984
693.347345	24746.605815
693.684030	24126.571618
694.020665	23924.471761
694.357251	23235.502306
694.693786	23234.494075
695.030272	23005.300536
695.366707	22517.538654
695.703093	22234.908884
696.039429	22290.079272
696.375716	22045.227909
696.711952	22051.720915
697.048139	21909.794791
697.384276	21730.289384
697.720363	21861.901308
698.056400	21749.579360
698.392388	21596.597984
698.728326	21597.666709
699.064214	21421.581726
699.400053	21444.524017
699.735842	21050.875437
700.071581	20855.651713
700.407270	20603.694843
700.742910	20436.058834
701.078501	20180.714309
701.414042	19979.234514
701.749533	19680.999852
702.084974	19357.909782
702.420366	19590.299412
702.755709	19173.385907
703.091002	18870.732674
703.426246	18941.003838
703.761440	18871.866933
704.096584	18616.706411
704.431679	18556.492349
704.766725	18504.752466
705.101721	18430.705478
705.436668	18551.383139
705.771565	18274.096993
706.106413	18587.069467
706.441212	18658.227875
706.775961	18764.830634
707.110661	18837.297221
707.445311	19201.155103
707.779913	19067.493950
708.114465	19358.633187
708.448967	19676.235962
708.783421	20304.015891
709.117825	20663.049389
709.452180	20882.296731
709.786485	21340.000733
710.120742	22095.473090
710.454949	22202.209440
710.789107	22701.026572
711.123216	23431.522532
711.457275	23633.874447
711.791286	24201.528535
712.125247	24363.873853
712.459159	24106.311221
712.793023	24864.006726
713.126837	23844.322456
713.460602	24103.468010
713.794318	23775.641776
714.127985	23525.313199
714.461602	22619.027163
714.795171	22594.466662
715.128691	21620.392231
715.462162	21103.782346
715.795584	20679.072696
716.128957	20395.578369
716.462281	20031.410456
716.795556	19742.146528
717.128782	19257.815151
717.461960	18655.848450
717.795088	18607.733157
718.128167	18266.479809
718.461198	17807.762536
718.794180	17683.886262
719.127113	17337.957244
719.459997	17147.389026
719.792833	16773.189217
720.125619	16827.794995
720.458357	16482.329763
720.791046	16343.995461
721.123686	16188.420412
721.456278	15963.847090
721.788821	15965.729961
722.121315	15688.234607
722.453761	15797.998170
722.786158	15679.480643
723.118506	15749.338433
723.450805	15633.162522
723.783056	15816.531972
724.115259	15707.461568
724.447412	15695.083014
724.779518	15908.795170
725.111574	15967.423789
725.443582	16225.273767
725.775542	16172.165211
726.107453	16698.927980
726.439315	16606.127899
726.771129	17031.918876
727.102895	17452.512424
727.434612	17716.855408
727.766281	17876.329790
728.097901	18206.565696
728.429473	18305.044636
728.760996	18306.788875
729.092471	18449.400597
729.423897	18340.809102
729.755276	18215.720431
730.086606	18316.087284
730.417887	18898.474143
730.749120	19448.126271
731.080305	19663.970834
731.411442	20069.453523
731.742530	20194.247287
732.073570	20356.380877
732.404562	20678.324085
732.735506	20531.881086
733.066401	20337.103505
733.397249	19832.259673
733.728048	19216.641527
734.058798	18360.235188
734.389501	17597.128004
734.720156	17073.601657
735.050762	16491.517266
735.381320	16103.444202
735.711831	15823.675287
736.042293	15441.704540
736.372707	15480.685262
736.703073	15272.374703
737.033391	15477.673172
737.363661	15455.340861
737.693883	15575.070785
738.024056	15769.651762
738.354182	15982.519524
738.684260	16339.856673
739.014290	16611.055627
739.344272	16829.294739
739.674207	17191.559616
740.004093	17374.198099
740.333931	17429.955781
740.663722	17516.262856
740.993464	17563.382521
741.323159	17413.451043
741.652806	17115.276876
741.982405	16951.273018
742.311956	16603.430882
742.641460	16500.503123
742.970915	16165.626835
743.300323	15814.712116
743.629683	15603.500372
743.958996	15288.045129
744.288260	14975.443179
744.617477	14665.016487
744.946647	14636.723011
745.275768	14315.263754
745.604842	14097.753089
745.933869	13927.092387
746.262847	13904.349222
746.591778	13813.600891
746.920662	13684.887630
747.249498	13706.768758
747.578286	13856.501110
747.907027	14024.300957
748.235720	14290.305001
748.564365	14368.906672
748.892963	14285.407520
749.221514	14389.693870
749.550017	14251.939300
749.878473	14220.323703
750.206881	14002.286238
750.535242	13928.032562
750.863555	13848.649513
751.191821	13745.036157
751.520039	13757.613836
751.848210	13690.667313
752.176334	13737.582811
752.504411	13660.654803
752.832440	13484.181651
753.160421	13592.143002
753.488356	13480.494047
753.816243	13396.284093
754.144082	13231.846696
754.471875	13184.338862
754.799620	13151.558759
755.127318	13117.200775
755.454969	13114.382770
755.782572	13074.950864
756.110129	13093.898041
756.437638	13004.893949
756.765100	12999.646108
757.092515	13030.593752
757.419882	13061.463257
757.747203	13075.253334
758.074477	13163.168536
758.401703	13135.860606
758.728882	13343.795599
759.056014	13382.652813
759.383099	13547.211198
759.710138	13665.764013
760.037129	13795.934167
760.364073	13853.042878
760.690970	13884.149318
761.017820	13900.452410
761.344623	14129.169560
761.671379	14500.684954
761.998088	15192.885789
762.324751	16945.964683
762.651366	20327.938687
762.977935	24788.843122
763.304456	27779.129555
763.630931	28872.316370
763.957359	27717.856851
764.283740	25485.994370
764.610074	23240.588830
764.936362	20600.402970
765.262602	18727.485767
765.588796	16788.156403
765.914943	15481.333050
766.241044	14377.998393
766.567097	13580.155138
766.893104	12860.734593
767.219064	12387.554249
767.544978	11896.513097
767.870845	11509.783501
768.196665	11286.583893
768.522438	11057.768441
768.848165	10850.269507
769.173846	10645.911213
769.499479	10510.982210
769.825066	10346.663279
770.150607	10113.018402
770.476101	10027.926245
770.801548	9907.828317
771.126949	9751.308051
771.452303	9637.183890
771.777611	9437.430689
772.102872	9423.625490
772.428087	9291.174213
772.753256	9129.305284
773.078378	9036.424545
773.403453	8856.798151
773.728482	8742.169874
774.053465	8668.450561
774.378401	8562.535919
774.703291	8440.502187
775.028135	8322.307294
775.352932	8285.486706
775.677683	8180.550048
776.002388	8071.950991
776.327046	8084.556396
776.651658	7982.805747
776.976224	7875.814818
777.300743	7878.816826
777.625216	7787.576982
777.949643	7749.455777
778.274024	7764.034794
778.598359	7672.129518
778.922647	7691.361520
779.246889	7639.790516
779.571086	7644.788820
779.895236	7656.035634
780.219339	7664.535020
780.543397	7664.010740
780.867409	7743.756752
781.191374	7751.636076
781.515294	7715.480920
781.839167	7809.014489
782.162995	7789.996736
782.486776	7732.139413
782.810511	7684.689553
783.134201	7597.515400
783.457844	7597.270904
783.781441	7543.910290
784.104993	7476.036195
784.428498	7452.413348
784.751958	7438.177130
785.075372	7408.567913
785.398739	7356.943977
785.722061	7401.573312
786.045337	7399.899648
786.368568	7550.262144
786.691752	7584.151301
787.014891	7916.680932
787.337983	8273.866847
787.661030	8862.378708
787.984031	9480.474582
788.306987	9894.262572
788.629897	10103.031876
788.952760	10061.654085
789.275579	9846.485036
789.598351	9443.868243
789.921078	9090.168286
790.243759	8681.421450
790.566395	8389.158035
790.888984	8139.421794
791.211529	7926.259124
791.534027	7703.795526
791.856480	7505.693303
792.178888	7428.828310
792.501249	7331.707960
792.823566	7170.123856
793.145836	7170.312899
793.468062	7144.338354
793.790241	7091.348266
794.112375	7155.108779
794.434464	7311.429919
794.756507	7345.976946
795.078505	7507.006524
795.400457	7814.698390
795.722364	8165.479518
796.044226	8453.339485
796.366042	8733.191579
796.687812	8682.790123
797.009538	8768.779605
797.331218	8665.569542
797.652852	8583.623065
797.974442	8430.921474
798.295986	8345.037857
798.617484	8151.185327
798.938938	8013.816405
799.260346	7914.314110
799.581709	7706.240485
799.903026	7627.336345
800.224299	7518.850715
800.545526	7347.632965
800.866708	7254.842967
801.187845	7186.174890
801.508936	7073.709268
801.829983	7037.929679
802.150984	6883.927470
802.471940	6843.053795
802.792851	6828.527710
803.113717	6791.651669
803.434538	6762.294510
803.755314	6700.179933
804.076045	6703.393668
804.396731	6648.808055
804.717372	6680.852149
805.037967	6677.845101
805.358518	6719.061575
805.679024	6801.441590
805.999485	6806.560882
806.319901	6850.996133
806.640272	6871.044801
806.960598	6953.843233
807.280879	6950.561442
807.601115	7031.824842
807.921306	6977.382901
808.241453	6996.289748
808.561554	7019.073243
808.881611	6980.372305
809.201623	7000.579770
809.521590	6939.508712
809.841513	6919.838129
810.161390	6961.387319
810.481223	6830.894532
810.801011	6819.446071
811.120755	6792.856505
811.440453	6715.583178
811.760107	6681.928435
812.079716	6648.545915
812.399281	6588.813283
812.718801	6579.169555
813.038276	6532.574170
813.357707	6470.822556
813.677093	6514.758733
813.996434	6422.107366
814.315731	6464.480785
814.634983	6453.390246
814.954191	6470.046219
815.273354	6574.229225
815.592473	6634.886908
815.911547	6764.880622
816.230577	6844.298960
816.549562	6991.883780
816.868502	7096.275993
817.187399	7194.641508
817.506250	7350.266968
817.825058	7384.153604
818.143821	7651.649830
818.462539	7923.589833
818.781213	8286.845297
819.099843	8831.993154
819.418429	9830.456687
819.736970	10805.804010
820.055466	11982.399235
820.373919	13523.427034
820.692327	15870.237905
821.010691	20027.732934
821.329011	28994.564350
821.647286	42006.480627
821.965517	55508.414702
822.283704	60935.468875
822.601847	62973.100739
822.919945	60348.406345
823.237999	56260.643076
823.556010	50192.149967
823.873976	43467.112104
824.191897	36908.613800
824.509775	32009.333147
824.827609	27429.964116
825.145398	24785.258862
825.463144	23383.021591
825.780845	23657.794722
826.098502	25395.228395
826.416116	29151.762651
826.733685	32773.267080
827.051210	33943.502890
827.368692	32194.676209
827.686129	28252.849303
828.003522	24134.266940
828.320872	20410.227962
828.638177	17556.592086
828.955439	15392.248300
829.272656	13561.689392
829.589830	12068.807133
829.906960	10793.291866
830.224046	9844.156023
830.541088	9085.790044
830.858086	8618.308724
831.175041	8231.924447
831.491952	8113.606045
831.808819	8145.549317
832.125642	8549.282725
832.442421	9423.383514
832.759157	11207.689836
833.075849	14126.795176
833.392497	17341.934714
833.709101	19548.780469
834.025662	19419.507640
834.342179	17745.534532
834.658653	15553.744184
834.975083	13621.094349
835.291469	11997.285763
835.607811	10665.259161
835.924110	9756.898691
836.240366	8875.808342
836.556578	8073.201197
836.872746	7422.824296
837.188871	6913.130874
837.504952	6490.999775
837.820990	6170.062277
838.136984	5954.721828
838.452935	5851.733576
838.768842	5885.012753
839.084706	6300.471886
839.400526	7498.323136
839.716303	9089.676774
840.032037	10186.795688
840.347727	10140.964038
840.663373	9171.640894
840.978977	8130.680433
841.294537	7309.995711
841.610054	6710.539504
841.925527	6269.458707
842.240957	5905.557976
842.556344	5566.288322
842.871687	5282.574704
843.186987	4997.930993
843.502244	4770.557311
843.817458	4603.163277
844.132629	4466.598419
844.447756	4372.127196
844.762840	4289.406902
845.077881	4213.749265
845.392879	4153.167199
845.707833	4101.298767
846.022745	4060.188157
846.337613	4025.822612
846.652438	3983.073627
846.967221	3968.731544
847.281960	3933.065381
847.596656	3916.527876
847.911309	3899.387953
848.225919	3874.381309
848.540485	3857.112837
848.855009	3843.232019
849.169490	3820.672856
849.483928	3804.195845
849.798323	3797.619659
850.112675	3778.654839
850.426984	3789.773103
850.741251	3770.697377
851.055474	3768.544805
851.369654	3770.296606
851.683792	3769.820217
851.997887	3774.160650
852.311938	3775.604941
852.625947	3780.444448
852.939914	3767.781070
853.253837	3780.078965
853.567718	3778.243985
853.881555	3767.133282
854.195350	3781.545940
854.509103	3776.966052
854.822812	3773.381792
855.136479	3765.862911
855.450103	3774.624436
855.763685	3761.338475
856.077224	3766.654372
856.390720	3785.145324
856.704173	3801.070329
857.017584	3818.734532
857.330953	3824.975481
857.644278	3843.710929
857.957561	3853.843648
858.270802	3851.186960
858.584000	3857.551417
858.897155	3850.735777
859.210268	3835.556863
859.523339	3811.311433
859.836367	3811.326557
860.149352	3803.180052
860.462295	3794.857107
860.775195	3785.162968
861.088054	3781.581228
861.400869	3777.767596
861.713642	3777.732308
862.026373	3792.767549
862.339062	3794.191675
862.651708	3812.775888
862.964312	3847.353163
863.276873	3859.835060
863.589392	3916.061569
863.901869	3960.643013
864.214303	4010.575642
864.526696	4040.295764
864.839045	4089.119339
865.151353	4114.249491
865.463619	4123.494968
865.775842	4131.253303
866.088023	4150.283659
866.400162	4138.961228
866.712258	4148.993124
867.024313	4149.890449
867.336325	4150.966735
867.648296	4156.547293
867.960224	4157.270698
868.272110	4166.977440
868.583954	4171.075898
868.895755	4183.315820
869.207515	4181.238864
869.519233	4221.898291
869.830909	4235.219540
870.142542	4261.143673
870.454134	4274.260756
870.765684	4302.070281
871.077191	4337.655786
871.388657	4364.015979
871.700081	4402.512751
872.011463	4444.989513
872.322803	4483.531655
872.634101	4510.965614
872.945357	4552.817273
873.256571	4608.854739
873.567744	4635.240138
873.878874	4656.448273
874.189963	4695.726423
874.501010	4703.555335
874.812015	4703.502403
875.122979	4749.835648
875.433900	4746.911778
875.744780	4760.389303
876.055618	4785.259836
876.366415	4791.634375
876.677169	4806.478052
876.987882	4855.399930
877.298554	4908.616870
877.609183	4988.589735
877.919771	5094.320375
878.230317	5244.713118
878.540822	5460.625737
878.851285	5784.343431
879.161707	6247.698567
879.472087	7011.511512
879.782425	8243.231755
880.092722	10438.656775
880.402977	13761.326646
880.713191	17553.423721
881.023363	21309.796660
881.333494	23563.872985
881.643583	24811.228366
881.953631	24824.524409
882.263637	23993.974149
882.573602	22522.441176
882.883526	20963.401335
883.193408	19278.383059
883.503248	17564.758756
883.813048	15997.847153
884.122806	14560.054623
884.432522	13076.606883
884.742197	11785.103597
885.051831	10674.842395
885.361424	9661.696501
885.670975	8823.662647
885.980485	8124.068960
886.289954	7533.989300
886.599382	7055.074643
886.908768	6672.793865
887.218113	6302.311907
887.527417	6009.889696
887.836680	5742.733747
888.145901	5521.986662
888.455082	5350.721022
888.764221	5199.793917
889.073319	5064.796858
889.382376	4992.151310
889.691392	4925.537503
890.000366	4902.658227
890.309300	4882.841451
890.618193	4884.714239
890.927044	4871.468608
891.235855	4889.831011
891.544625	4926.061783
891.853353	4985.675948
892.162041	5103.031489
892.470687	5290.670797
892.779293	5546.337955
893.087858	5917.586169
893.396381	6499.211814
893.704864	7305.067983
894.013306	8457.813509
894.321707	9638.834868
894.630068	10464.732144
894.938387	10677.799032
895.246665	10446.064751
895.554903	9842.295837
895.863100	9144.958067
896.171256	8581.674659
896.479371	8072.361845
896.787446	7566.610606
897.095480	7139.425750
897.403473	6815.982798
897.711425	6496.247616
898.019336	6224.849537
898.327207	5951.777795
898.635038	5716.275252
898.942827	5472.863138
899.250576	5278.141009
899.558284	5081.281431
899.865952	4955.721412
900.173579	4809.507786
900.481165	4700.727247
900.788711	4603.924491
901.096216	4529.398593
901.403681	4468.171259
901.711105	4444.329122
902.018489	4427.055608
902.325832	4498.100589
902.633135	4618.122901
902.940397	4960.676866
903.247619	5753.957877
903.554800	7197.419184
903.861941	9131.828382
904.169041	10667.724286
904.476101	11314.345528
904.783121	10985.390075
905.090100	10242.273586
905.397039	9399.362416
905.703938	8634.263976
906.010796	7940.288656
906.317614	7382.190075
906.624391	6834.357804
906.931129	6402.817391
907.237826	5997.427963
907.544483	5617.372854
907.851099	5239.843363
908.157675	4881.805494
908.464211	4553.943971
908.770707	4317.206345
909.077163	4111.313019
909.383578	3963.884475
909.689954	3847.660673
909.996289	3773.157460
910.302584	3710.017008
910.608839	3676.619364
910.915054	3641.449754
911.221229	3632.577324
911.527363	3640.761637
911.833458	3656.295952
912.139513	3677.546937
912.445527	3711.541958
912.751502	3792.351654
913.057436	3897.593302
913.363331	4033.384342
913.669186	4238.193820
913.975000	4499.746526
914.280775	4925.071197
914.586510	5511.080125
914.892205	6314.040151
915.197859	7360.198041
915.503475	8588.921318
915.809050	9649.597731
916.114585	10306.520571
916.420081	10570.596374
916.725536	10534.852073
917.030952	10097.839487
917.336328	9689.939565
917.641665	9276.895145
917.946961	8797.178945
918.252218	8368.133903
918.557435	7859.516768
918.862612	7424.563494
919.167750	7049.768829
919.472848	6616.781604
919.777906	6241.261013
920.082925	5874.910281
920.387904	5504.932438
920.692843	5236.521243
920.997743	4989.257688
921.302603	4748.197273
921.607423	4585.768775
921.912204	4416.718722
922.216946	4298.843942
922.521647	4176.346424
922.826310	4069.834405
923.130932	3973.404694
923.435516	3871.407028
923.740059	3802.892706
924.044564	3725.163155
924.349028	3667.058816
924.653454	3599.956017
924.957840	3534.841953
925.262186	3482.996207
925.566493	3421.113523
925.870761	3363.062116
926.174989	3326.143225
926.479178	3293.882361
926.783328	3245.487284
927.087438	3217.745815
927.391509	3181.293231
927.695541	3152.830877
927.999533	3123.632514
928.303486	3103.656942
928.607400	3090.166814
928.911275	3076.459917
929.215110	3060.671023
929.518906	3049.401523
929.822663	3046.386913
930.126381	3043.117725
930.430060	3050.071997
930.733699	3054.924107
931.037299	3059.829150
931.340861	3059.874520
931.644383	3067.579924
931.947866	3069.291396
932.251309	3062.150601
932.554714	3059.040209
932.858080	3055.486196
933.161407	3044.572098
933.464694	3038.600851
933.767943	3034.802342
934.071153	3027.727082
934.374323	3018.128725
934.677455	3012.286028
934.980548	3008.174967
935.283602	2996.696260
935.586617	2997.144923
935.889593	3007.713702
936.192530	3012.016326
936.495428	3022.512009
936.798287	3044.357849
937.101108	3078.551995
937.403890	3127.942700
937.706632	3188.691125
938.009336	3266.473608
938.312002	3340.029084
938.614628	3404.049217
938.917216	3458.445788
939.219765	3490.323524
939.522275	3519.988194
939.824747	3530.501520
940.127179	3526.773587
940.429573	3521.336702
940.731929	3518.652288
941.034246	3506.087212
941.336524	3497.171931
941.638763	3478.665856
941.940964	3465.090028
942.243126	3425.133843
942.545250	3400.185173
942.847335	3364.355172
943.149381	3328.366374
943.451389	3296.264307
943.753359	3260.620828
944.055290	3239.354721
944.357182	3212.697099
944.659036	3195.605067
944.960851	3186.735157
945.262628	3172.352745
945.564367	3173.975997
945.866067	3165.942918
946.167729	3161.723472
946.469352	3161.652896
946.770937	3153.345074
947.072484	3139.713794
947.373992	3145.001965
947.675462	3137.989720
947.976893	3123.309880
948.278286	3110.507870
948.579641	3106.245574
948.880958	3096.765684
949.182236	3101.348093
949.483476	3095.225612
949.784678	3093.042792
950.085841	3096.687546
950.386967	3108.251953
950.688054	3124.466825
950.989103	3141.047180
951.290114	3167.609019
951.591087	3193.097093
951.892021	3219.306052
952.192917	3248.108684
952.493776	3273.546347
952.794596	3278.547171
953.095378	3284.732667
953.396122	3281.171092
953.696828	3275.348559
953.997496	3262.453288
954.298126	3243.085175
954.598718	3220.344530
954.899272	3192.197247
955.199788	3168.103052
955.500266	3134.798669
955.800706	3097.466405
956.101108	3062.344686
956.401472	3028.697504
956.701798	2999.539471
957.002087	2957.493727
957.302337	2928.363419
957.602550	2899.699419
957.902724	2869.331508
958.202861	2844.839062
958.502960	2823.091524
958.803022	2802.304326
959.103045	2781.998559
959.403031	2767.535488
959.702979	2751.325658
960.002889	2736.184552
960.302762	2722.618807
960.602596	2712.143290
960.902393	2703.313709
961.202153	2695.570497
961.501875	2686.448529
961.801559	2680.270595
962.101205	2676.562826
962.400814	2669.505211
962.700385	2662.228305
962.999918	2654.676657
963.299414	2647.692138
963.598873	2647.024185
963.898293	2638.837351
964.197677	2640.435397
964.497022	2637.917341
964.796331	2634.806949
965.095601	2633.113121
965.394835	2631.517596
965.694030	2627.724128
965.993189	2628.021556
966.292309	2627.048613
966.591393	2625.301853
966.890439	2625.619446
967.189447	2626.781432
967.488419	2625.803448
967.787353	2625.551390
968.086249	2627.086422
968.385108	2631.169756
968.683930	2630.874849
968.982714	2634.466671
969.281462	2638.429018
969.580172	2643.881026
969.878844	2649.993425
970.177480	2660.721000
970.476078	2664.275013
970.774639	2674.349759
971.073162	2683.701100
971.371649	2687.749146
971.670098	2692.069415
971.968510	2698.466639
972.266885	2702.194573
972.565223	2704.357228
972.863524	2709.910059
973.161788	2710.444421
973.460014	2714.442056
973.758204	2720.085628
974.056356	2720.002449
974.354471	2720.839280
974.652550	2725.099055
974.950591	2719.377346
975.248595	2719.586553
975.546563	2718.240565
975.844493	2714.258054
976.142386	2709.680686
976.440243	2701.720704
976.738062	2702.476877
977.035845	2692.936494
977.333590	2686.640092
977.631299	2681.301511
977.928971	2674.304389
978.226606	2670.087464
978.524204	2666.372133
978.821765	2663.319715
979.119290	2663.097904
979.416777	2663.901968
979.714228	2667.851712
980.011642	2670.256342
980.309020	2675.605007
980.606360	2693.317101
980.903664	2714.258054
981.200931	2751.983529
981.498162	2803.052938
981.795356	2876.278218
982.092513	2965.864563
982.389633	3069.646797
982.686717	3171.289062
982.983764	3246.755135
983.280775	3294.978812
983.577749	3304.272179
983.874686	3292.879172
984.171587	3256.305601
984.468451	3220.687328
984.765279	3175.924402
985.062070	3126.793317
985.358824	3081.158272
985.655543	3024.331865
985.952224	2971.528299
986.248869	2905.776530
986.545478	2846.013651
986.842050	2792.196813
987.138586	2742.455748
987.435086	2705.977959
987.731549	2675.829338
988.027975	2647.336737
988.324366	2632.382154
988.620719	2614.604525
988.917037	2604.050869
989.213318	2595.828747
989.509563	2591.493355
989.805772	2586.825246
990.101944	2580.236458
990.398080	2577.655387
990.694180	2574.983576
990.990244	2573.561971
991.286271	2574.688668
991.582262	2578.439287
991.878217	2577.642785
992.174136	2583.077148
992.470019	2586.507654
992.765865	2587.583940
993.061676	2593.867738
993.357450	2603.208996
993.653188	2610.175871
993.948890	2625.369909
994.244556	2647.283804
994.540186	2668.471774
994.835780	2701.272042
995.131337	2740.693865
995.426859	2780.213990
995.722345	2828.485559
996.017795	2881.168137
996.313208	2917.507295
996.608586	2947.451748
996.903928	2961.410703
997.199234	2959.454736
997.494504	2957.176134
997.789738	2942.705502
998.084936	2916.506626
998.380099	2885.538818
998.675225	2855.949765
998.970316	2825.246617
999.265371	2790.515588
999.560390	2751.363467
999.855373	2720.499002
1000.150320	2692.104703
1000.445232	2666.629232
1000.740108	2645.940337
1001.034948	2628.588685
1001.329752	2612.177209
1001.624521	2599.730600
1001.919254	2589.328179
1002.213951	2578.696386
1002.508613	2569.226578
1002.803239	2565.768347
1003.097829	2555.340720
1003.392384	2554.894578
1003.686903	2547.325285
1003.981386	2545.444935
1004.275834	2541.631302
1004.570246	2540.875129
1004.864623	2536.227185
1005.158964	2534.603934
1005.453270	2530.044210
1005.747540	2530.132430
1006.041775	2528.378109
1006.335974	2525.544980
1006.630138	2527.107738
1006.924266	2524.088087
1007.218359	2523.047088
1007.512416	2522.333765
1007.806438	2519.954341
1008.100425	2520.811337
1008.394376	2517.642972
1008.688292	2521.804444
1008.982172	2522.023734
1009.276017	2522.172448
1009.569827	2520.319824
1009.863602	2517.859741
1010.157341	2521.335617
1010.451045	2515.555934
1010.744714	2515.424864
1011.038347	2517.988291
1011.331945	2515.376973
1011.625508	2510.847496
1011.919036	2513.421005
1012.212528	2509.753566
1012.505986	2510.993690
1012.799408	2509.604852
1013.092795	2508.392454
1013.386147	2509.935047
1013.679464	2508.410098
1013.972745	2508.946981
1014.265992	2508.946981
1014.559204	2510.608041
1014.852380	2504.644356
1015.145521	2511.568381
1015.438628	2507.583349
1015.731699	2509.705675
1016.024736	2508.954543
1016.317737	2511.921262
1016.610703	2511.502846
1016.903635	2514.204905
1017.196531	2512.374966
1017.489393	2514.588032
1017.782219	2518.638599
1018.075011	2516.060049
1018.367768	2518.121881
1018.660490	2518.689011
1018.953177	2518.689011
1019.245829	2518.689011
