Dividing Wavelength (nm)	Counts (n)	Blue Motor Position (mm): 47.600000	Red Motor Position (mm): 0.000000	
326.493990	2047.956147
326.888308	2047.956147
327.282561	2047.956147
327.676750	2018.936745
328.070874	2024.671057
328.464933	2030.637263
328.858929	2038.158665
329.252859	2048.109902
329.646726	2061.910061
330.040528	2080.995869
330.434265	2096.840216
330.827938	2117.796293
331.221547	2138.434776
331.615091	2158.251552
332.008571	2179.232834
332.401986	2200.637574
332.795338	2219.718341
333.188625	2238.635271
333.581847	2261.459095
333.975006	2276.995931
334.368100	2291.927829
334.761129	2309.491209
335.154095	2325.335555
335.546996	2378.940665
335.939833	2485.359422
336.332606	2495.640856
336.725315	2507.797598
337.117960	2517.947961
337.510540	2532.307688
337.903056	2537.578214
338.295508	2546.319575
338.687896	2550.907025
339.080220	2554.007335
339.472480	2559.605536
339.864676	2562.458829
340.256807	2566.143913
340.648875	2568.477967
341.040879	2569.990313
341.432818	2570.882597
341.824694	2570.945612
342.216506	2573.740932
342.608253	2570.978379
342.999937	2571.565674
343.391557	2568.992165
343.783113	2572.057186
344.174605	2564.951680
344.566033	2565.909499
344.957397	2563.124262
345.348697	2562.448747
345.739934	2558.347768
346.131106	2560.328942
346.522215	2556.396842
346.913260	2557.170659
347.304241	2553.896429
347.695159	2555.945658
348.086012	2552.540359
348.476802	2549.545914
348.867528	2545.855789
349.258191	2543.413350
349.648789	2542.218597
350.039324	2540.852444
350.429796	2545.870913
350.820203	2541.457382
351.210548	2543.065510
351.600828	2542.899152
351.991045	2541.371683
352.381198	2540.907897
352.771288	2540.323123
353.161314	2539.236754
353.551276	2538.175591
353.941175	2536.635519
354.331010	2539.990407
354.720782	2541.717002
355.110490	2547.373176
355.500135	2541.787578
355.889717	2539.425797
356.279235	2542.226158
356.668689	2544.126673
357.058080	2540.333205
357.447408	2542.765562
357.836672	2541.984183
358.225873	2543.662887
358.615010	2542.614327
359.004084	2542.815973
359.393095	2544.325799
359.782043	2546.286808
360.170927	2546.672456
360.559748	2546.765717
360.948505	2547.980635
361.337199	2548.762014
361.725830	2550.932231
362.114398	2547.421067
362.502903	2552.464742
362.891344	2550.065152
363.279722	2549.117416
363.668037	2553.399876
364.056289	2554.118240
364.444478	2556.568241
364.832603	2551.695966
365.220665	2553.959444
365.608665	2554.690411
365.996601	2554.524053
366.384474	2550.470965
366.772284	2556.205278
367.160031	2553.364588
367.547715	2557.946997
367.935336	2556.169990
368.322893	2555.837274
368.710388	2555.481872
369.097820	2558.002449
369.485189	2553.364588
369.872495	2561.120403
370.259738	2558.493962
370.646918	2561.319528
371.034035	2560.137378
371.421090	2561.253993
371.808081	2559.683674
372.195010	2559.915567
372.581875	2562.872204
372.968678	2562.100907
373.355418	2564.288768
373.742096	2565.647359
374.128710	2564.371947
374.515262	2566.401012
374.901751	2567.973852
375.288177	2569.161043
375.674540	2568.724983
376.060841	2571.749676
376.447079	2571.926116
376.833254	2575.830490
377.219367	2578.797209
377.605417	2581.290059
377.991404	2582.348702
378.377329	2583.709813
378.763191	2588.771132
379.148991	2592.186513
379.534727	2596.668099
379.920402	2602.231012
380.306013	2609.369286
380.691563	2615.693414
381.077049	2620.704321
381.462474	2624.522995
381.847835	2630.622791
382.233134	2643.190387
382.618371	2645.408495
383.003545	2659.480876
383.388657	2667.367761
383.773706	2677.533248
384.158693	2688.507840
384.543618	2703.081816
384.928480	2710.913248
385.313280	2728.093501
385.698017	2742.387692
386.082692	2753.042171
386.467305	2767.996754
386.851856	2783.571399
387.236344	2804.580407
387.620770	2813.425112
388.005133	2830.010508
388.389435	2855.359950
388.773674	2866.785725
389.157851	2892.775394
389.541965	2915.493354
389.926018	2926.092380
390.310008	2955.454580
390.693936	2977.867550
391.077802	3001.155160
391.461606	3028.657175
391.845348	3047.649722
392.229027	3071.391036
392.612645	3108.592231
392.996200	3136.709267
393.379694	3169.663289
393.763125	3207.708877
394.146494	3232.458422
394.529801	3268.336314
394.913047	3309.126811
395.296230	3318.185764
395.679351	3344.697192
396.062410	3388.782082
396.445408	3380.043242
396.828343	3422.192330
397.211217	3455.468986
397.594028	3442.399795
397.976778	3488.037361
398.359466	3525.503216
398.742092	3539.376471
399.124656	3556.402968
399.507158	3612.672328
399.889598	3622.331178
400.271977	3686.048842
400.654294	3681.199252
401.036549	3735.684043
401.418742	3743.351638
401.800874	3808.329591
402.182944	3837.908561
402.564952	3914.982762
402.946898	3912.542844
403.328783	3915.171805
403.710606	3965.016214
404.092367	4026.911501
404.474067	4092.685956
404.855705	4077.958225
405.237282	4054.673135
405.618797	4148.952794
406.000250	4218.308989
406.381642	4296.638438
406.762972	4300.454591
407.144240	4265.254734
407.525447	4325.791430
407.906593	4345.391436
408.287677	4417.469854
408.668700	4446.824493
409.049661	4486.725226
409.430560	4514.285214
409.811399	4510.753885
410.192176	4550.591604
410.572891	4623.484168
410.953545	4717.960432
411.334138	4624.147079
411.714669	4733.257813
412.095139	4655.132532
412.475547	4752.830093
412.855894	4759.842338
413.236180	4849.877346
413.616405	4784.533910
413.996568	4879.607551
414.376670	4890.705651
414.756711	4881.616450
415.136691	4941.283547
415.516609	5024.964181
415.896466	5059.367535
416.276262	5137.581037
416.655997	5243.563735
417.035670	5327.294780
417.415283	5455.703050
417.794834	5513.237739
418.174324	5468.600842
418.553753	5476.341534
418.933121	5620.662207
419.312428	5631.392303
419.691674	5571.992387
420.070859	5778.112565
420.449983	5665.596532
420.829045	5852.610737
421.208047	5788.255367
421.586988	5933.175937
421.965867	6001.050032
422.344686	6071.054015
422.723444	6231.481175
423.102141	5879.744747
423.480777	6237.316310
423.859352	6072.697431
424.237866	6412.987919
424.616319	6406.283184
424.994712	6555.370268
425.373044	6480.095759
425.751314	6763.872391
426.129524	6513.707652
426.507673	6763.854747
426.885762	6802.774975
427.263789	6834.970304
427.641756	6915.568272
428.019662	6986.288099
428.397508	7024.424428
428.775292	7018.107862
429.153016	7161.662279
429.530679	7110.723940
429.908282	7157.183214
430.285824	7107.101871
430.663305	7349.004159
431.040726	7263.415449
431.418086	7256.342710
431.795385	7391.959831
432.172624	7565.035246
432.549802	7443.974457
432.926920	7576.725681
433.303977	7531.088116
433.680974	7585.545180
434.057910	7760.311902
434.434786	7811.275446
434.811601	7765.768951
435.188355	8102.213038
435.565050	8000.714446
435.941683	8009.586877
436.318257	8313.966705
436.694770	8261.299250
437.071222	8467.134603
437.447614	8242.203359
437.823946	8225.151657
438.200218	8357.325669
438.576429	8258.660206
438.952580	8407.394409
439.328670	8425.759333
439.704700	8505.830500
440.080670	8404.042042
440.456580	8646.539186
440.832429	8628.363306
441.208218	8380.255358
441.583947	8491.067481
441.959616	8598.343235
442.335224	8634.238771
442.710773	8711.537303
443.086261	8884.779076
443.461689	8627.743244
443.837057	8769.235829
444.212365	8972.515317
444.587612	8968.242939
444.962800	8863.364254
445.337927	8997.978185
445.712995	8559.186072
446.088002	9191.508081
446.462949	9256.856559
446.837837	9260.597095
447.212664	9322.666302
447.587431	10225.143745
447.962139	11174.345124
448.336786	11917.469174
448.711374	11515.071671
449.085901	10377.358865
449.460369	10356.473365
449.834776	10281.763465
450.209124	11195.505367
450.583412	10966.006838
450.957640	11170.218939
451.331808	10764.176682
451.705917	10293.181678
452.079965	10212.215706
452.453954	10410.648125
452.827883	10363.654488
453.201752	10320.890380
453.575562	10348.112611
453.949311	10695.092710
454.323001	10769.835377
454.696632	10684.317243
455.070202	11269.943045
455.443713	11334.164824
455.817164	11476.824437
456.190556	11786.973865
456.563888	11615.836775
456.937160	11829.654794
457.310373	11335.830925
457.683526	11361.311437
458.056619	11410.001422
458.429653	11490.687610
458.802628	11662.258240
459.175542	11720.957435
459.548398	12265.064293
459.921194	12849.928880
460.293930	13169.931244
460.666607	13997.320701
461.039224	14709.726481
461.411782	14951.827894
461.784280	14560.258790
462.156719	14469.444924
462.529099	14365.307288
462.901419	13794.139516
463.273680	13444.633799
463.645882	13670.674097
464.018024	13632.008447
464.390106	14055.089804
464.762130	15222.583226
465.134094	16893.536683
465.505999	19170.061266
465.877845	21170.897748
466.249631	22017.236903
466.621358	21343.053152
466.993026	20504.484936
467.364634	19786.087745
467.736184	19091.636035
468.107674	18559.537206
468.479105	18409.910718
468.850477	18154.939239
469.221790	17722.035194
469.593043	17112.378212
469.964238	16771.210564
470.335373	16881.195938
470.706449	17725.178353
471.077467	18876.595536
471.448425	21203.612316
471.819324	22685.835055
472.190164	22175.413187
472.560945	20499.174080
472.931667	19094.070913
473.302330	18861.353607
473.672934	18409.840142
474.043479	18849.690898
474.413965	18664.042846
474.784393	18509.975102
475.154761	19125.499986
475.525070	19265.787736
475.895321	19107.508108
476.265513	19613.909656
476.635645	20202.764316
477.005719	20269.219327
477.375734	20649.448356
477.745691	21237.196483
478.115588	21901.038306
478.485427	23160.401716
478.855207	25033.681883
479.224928	26735.993837
479.594591	27893.299087
479.964194	27336.014653
480.333739	27705.705149
480.703226	27993.449170
481.072653	28496.571447
481.442022	28993.540996
481.811333	29281.791652
482.180584	28785.537947
482.549777	28575.190762
482.918912	28387.516166
483.287988	28341.031686
483.657005	28157.251382
484.025964	27816.149268
484.394864	28004.091046
484.763706	27937.023535
485.132489	27450.461448
485.501213	27534.222740
485.869879	27722.053611
486.238487	27674.243308
486.607036	27944.809597
486.975527	27677.147013
487.343959	28000.040478
487.712333	28319.362287
488.080648	28310.255442
488.448905	28713.414159
488.817104	28654.253698
489.185244	29544.289574
489.553326	30693.803721
489.921350	32629.916829
490.289315	35015.206827
490.657222	35673.836098
491.025070	36055.169139
491.392861	35658.347152
491.760593	34838.741237
492.128267	33834.402238
492.495883	32888.941396
492.863440	32070.555440
493.230939	31194.430627
493.598380	30701.990555
493.965763	30575.233262
494.333088	30133.784461
494.700354	29962.037391
495.067563	29951.022470
495.434713	29862.164571
495.801805	30157.588790
496.168839	30019.556956
496.535815	29887.135927
496.902733	30048.147860
497.269593	29851.636122
497.636395	30032.026250
498.003139	30324.892083
498.369825	30100.028895
498.736453	30484.792442
499.103023	30349.122389
499.469535	30455.732710
499.835989	30580.226525
500.202385	30438.595308
500.568723	30534.301614
500.935003	30862.193383
501.301226	30763.177560
501.667390	31452.804886
502.033497	31646.841418
502.399546	31444.638216
502.765537	31059.846943
503.131470	31533.112987
503.497345	31955.917081
503.863163	30953.032455
504.228923	31719.847408
504.594625	32120.697276
504.960269	31618.951234
505.325856	32281.507563
505.691385	31965.187763
506.056856	32291.781435
506.422270	32773.045269
506.787625	32337.408918
507.152924	32788.267033
507.518164	33009.571167
507.883347	32566.665472
508.248472	32733.444485
508.613540	33419.026285
508.978550	33646.667148
509.343503	33507.317053
509.708398	33877.884711
510.073236	34485.038759
510.438016	34578.370682
510.802738	34281.116525
511.167403	34850.293041
511.532010	35103.036330
511.896561	35586.581286
512.261053	36335.285894
512.625488	36103.266788
512.989866	36069.105409
513.354186	36112.708869
513.718449	36084.186021
514.082655	36961.127500
514.446803	36681.396393
514.810894	37283.206819
515.174927	37307.142218
515.538904	37317.973137
515.902822	37958.305539
516.266684	37660.307812
516.630488	38018.247379
516.994235	38043.364928
517.357925	38630.664392
517.721558	38889.192406
518.085133	39267.631825
518.448651	39453.516811
518.812112	39357.528201
519.175516	39526.106906
519.538863	39962.711158
519.902152	40021.758193
520.265385	40557.408516
520.628560	40590.977559
520.991678	40532.716944
521.354739	40785.671962
521.717743	41148.327528
522.080690	41053.291696
522.443580	41729.633061
522.806413	41765.820984
523.169189	41894.816549
523.531908	42141.243272
523.894569	41998.364369
524.257174	42197.787374
524.619722	42528.945812
524.982213	42671.345805
525.344647	42707.092627
525.707025	42833.252543
526.069345	43273.766210
526.431608	43183.098538
526.793815	43567.418463
527.155964	43136.125066
527.518057	43413.451542
527.880093	43261.551494
528.242072	43885.984098
528.603995	43613.897901
528.965860	43538.159606
529.327669	43758.551290
529.689421	43824.504706
530.051117	43771.930513
530.412755	44061.706118
530.774337	44123.916477
531.135862	44068.017643
531.497331	44224.676540
531.858743	44209.154827
532.220098	44614.829080
532.581396	44344.345970
532.942638	44124.839008
533.303824	44359.444226
533.664953	44424.424699
534.026025	44110.154127
534.387040	44667.995609
534.747999	44769.678203
535.108902	45060.260393
535.469748	44395.614505
535.830537	44651.616900
536.191270	44909.066106
536.551947	44628.215864
536.912567	44917.699082
537.273131	45079.517600
537.633638	44704.324684
537.994089	44906.066620
538.354483	44641.050642
538.714821	45300.330221
539.075103	45567.503813
539.435328	45436.534636
539.795497	45188.986256
540.155609	45305.603268
540.515665	45886.117339
540.875665	45203.953442
541.235609	45480.438045
541.595496	45604.823475
541.955328	46169.962027
542.315102	45622.102030
542.674821	45504.282703
543.034483	45411.197797
543.394090	45411.810297
543.753640	45378.553805
544.113134	46450.396374
544.472571	45564.869810
544.831953	46687.209617
545.191278	45951.362473
545.550548	45632.547301
545.909761	46279.735672
546.268918	46408.663182
546.628019	46834.617997
546.987064	46278.787936
547.346053	45571.773670
547.704986	46468.448746
548.063863	46127.996942
548.422684	46320.175809
548.781449	45909.278920
549.140158	46445.640046
549.498811	46207.178345
549.857408	45607.623836
550.215949	46443.033769
550.574434	46296.938610
550.932864	46207.372430
551.291237	46931.256916
551.649555	46690.705657
552.007817	46864.239817
552.366022	46530.021399
552.724173	46597.272912
553.082267	47007.953031
553.440305	47341.420317
553.798288	46601.820033
554.156215	46984.771285
554.514086	47196.736681
554.871902	46825.836307
555.229661	47009.346910
555.587365	46668.088521
555.945014	46809.124882
556.302606	46828.198088
556.660143	46928.393541
557.017625	47139.965727
557.375050	46848.501335
557.732421	47233.990807
558.089735	47306.399421
558.446994	47188.524641
558.804197	47653.616454
559.161345	47501.096344
559.518437	46871.501599
559.875474	47133.250910
560.232455	47352.435238
560.589381	47410.559742
560.946251	47202.289512
561.303065	47870.000421
561.659825	47551.369251
562.016528	47357.917493
562.373177	46939.683205
562.729770	47568.945234
563.086307	47092.014271
563.442789	47641.764701
563.799216	47483.459867
564.155587	47367.553658
564.511904	47350.242336
564.868164	47375.735451
565.224370	47714.886638
565.580520	47459.642936
565.936615	47636.872261
566.292654	47299.702248
566.648638	47653.069488
567.004567	47585.676823
567.360441	47692.481229
567.716260	47420.815969
568.072023	47773.797561
568.427732	47710.263899
568.783385	47247.942201
569.138982	47644.378539
569.494525	47786.045045
569.850013	47380.970689
570.205445	47505.008279
570.560823	47282.063251
570.916145	47150.327818
571.271412	47392.653563
571.626625	47051.430462
571.981782	47113.802138
572.336884	46707.946404
572.691931	47041.834626
573.046923	46702.975826
573.401860	46542.112607
573.756743	46560.772438
574.111570	46710.645942
574.466342	46617.724873
574.821059	46758.589835
575.175722	46254.807167
575.530330	46378.441465
575.884882	46008.493869
576.239380	45909.115083
576.593823	45987.943606
576.948211	45925.599656
577.302544	45482.477192
577.656823	45484.438201
578.011047	45744.944867
578.365216	45549.257357
578.719330	45270.237053
579.073389	45244.882570
579.427394	45310.520913
579.781344	45235.324542
580.135239	44995.345454
580.489080	45063.824488
580.842866	44558.247169
581.196597	45051.985338
581.550273	45043.838834
581.903895	44991.398231
582.257463	45418.008396
582.610975	44852.690883
582.964434	45188.814857
583.317837	44693.019897
583.671186	44646.416950
584.024481	44911.851344
584.377721	44460.320235
584.730906	44676.527762
585.084037	44787.138239
585.437113	44509.330333
585.790135	44617.256395
586.143103	44178.605435
586.496016	44345.787740
586.848874	44453.459225
587.201679	44476.217514
587.554428	43990.023431
587.907124	44249.398358
588.259765	44018.813461
588.612352	44186.646075
588.964884	43630.962207
589.317362	43953.959016
589.669786	43948.098675
590.022155	43807.727746
590.374470	44246.098923
590.726731	43826.425386
591.078937	43166.266125
591.431090	43511.232283
591.783188	43028.317471
592.135232	42823.971779
592.487222	43097.182153
592.839157	43247.564813
593.191038	42881.894637
593.542866	42693.620143
593.894639	42113.310239
594.246358	42405.256061
594.598022	42380.269582
594.949633	41971.600884
595.301190	41952.426855
595.652692	41892.628688
596.004141	42358.401057
596.355535	41282.021449
596.706876	41304.908287
597.058162	41031.886957
597.409395	41497.049346
597.760573	41732.579615
598.111698	41329.400733
598.462768	41238.644841
598.813785	41277.416355
599.164748	40890.969063
599.515657	41156.849599
599.866511	40665.632007
600.217312	41337.516991
600.568060	40288.042022
600.918753	41119.295523
601.269392	41035.181351
601.619978	40750.429255
601.970510	40964.252316
602.320988	41092.584970
602.671412	41362.185878
603.021783	41238.556621
603.372100	40794.302417
603.722363	40910.654769
604.072572	40942.817330
604.422728	40931.751998
604.772830	40720.152085
605.122878	40878.285520
605.472872	40749.259708
605.822813	40993.937151
606.172701	40748.846333
606.522534	41069.073028
606.872314	41287.919599
607.222041	41123.809877
607.571714	41440.326283
607.921333	40935.164859
608.270899	41161.621051
608.620411	41550.999774
608.969870	41273.421241
609.319276	41308.144708
609.668627	41337.559841
610.017926	41740.118661
610.367171	41859.581404
610.716362	41910.237438
611.065500	41802.712148
611.414585	42020.553008
611.763616	42206.813560
612.112594	42096.525717
612.461518	42213.596433
612.810389	42607.101340
613.159207	42418.882300
613.507971	42384.468863
613.856682	42877.793658
614.205340	42714.152763
614.553945	43393.286927
614.902496	42727.370668
615.250994	43142.701251
615.599439	43206.459245
615.947830	43305.601097
616.296169	43318.201461
616.644454	43362.946742
616.992686	43525.531516
617.340864	43994.157177
617.688990	43518.685629
618.037063	44183.737329
618.385082	44006.492881
618.733048	44347.320251
619.080961	44205.966297
619.428821	44236.936626
619.776628	44253.471610
620.124382	44045.702975
620.472083	44156.953679
620.819731	44253.607722
621.167326	43808.829238
621.514868	43790.383656
621.862357	43273.854430
622.209793	43343.097199
622.557176	42922.823765
622.904506	42675.615662
623.251783	42296.654484
623.599007	41996.355470
623.946179	41913.063005
624.293297	41640.747436
624.640363	41106.722886
624.987376	40937.997987
625.334336	40765.025916
625.681243	40356.450479
626.028097	40253.431980
626.374899	40074.904558
626.721647	40059.748329
627.068343	39838.124082
627.414987	39548.136748
627.761577	39296.499992
628.108115	39622.395465
628.454600	38875.790498
628.801032	39114.196746
629.147412	39021.840287
629.493739	38927.336296
629.840014	38490.036365
630.186236	38906.090353
630.532405	38361.053402
630.878521	38586.811395
631.224585	38368.655462
631.570597	38035.518372
631.916556	38204.880977
632.262462	38084.646937
632.608316	38019.706793
632.954117	37884.021617
633.299866	37842.986624
633.645562	37751.076308
633.991206	37215.715851
634.336797	36811.755591
634.682336	36686.727414
635.027823	36469.055432
635.373257	36323.986147
635.718639	36003.953537
636.063968	35896.445890
636.409245	35249.128968
636.754470	35205.908636
637.099642	34979.255838
637.444762	34425.343936
637.789829	34555.330088
638.134845	34190.607648
638.479808	34102.604226
638.824719	34046.281934
639.169577	33541.909451
639.514383	33640.610202
639.859137	33250.608897
640.203839	33422.711368
640.548489	33134.793428
640.893086	33120.015286
641.237632	32859.009545
641.582125	32970.708912
641.926566	32751.738832
642.270955	32787.573875
642.615292	32710.217369
642.959576	32609.487553
643.303809	32611.032667
643.647990	32703.941132
643.992118	32655.009172
644.336195	32517.010107
644.680219	32595.513475
645.024192	32806.447955
645.368112	33339.517206
645.711981	33353.130842
646.055797	34079.626647
646.399562	33904.333124
646.743274	34778.317967
647.086935	35170.106361
647.430544	35127.211183
647.774101	35151.996016
648.117606	35448.080626
648.461059	35573.479327
648.804460	35157.939537
649.147810	34640.908716
649.491108	34296.275274
649.834354	34134.749143
650.177548	33318.447704
650.520690	32814.110508
650.863781	32811.131187
651.206820	32633.062509
651.549807	32226.846332
651.892742	31644.900573
652.235626	31549.514381
652.578458	31429.308067
652.921238	30752.573493
653.263967	31068.951267
653.606644	30769.181574
653.949269	30674.644816
654.291843	30299.414091
654.634365	30655.894244
654.976836	30199.077486
655.319255	30265.376221
655.661622	30147.955145
656.003938	30011.324752
656.346203	29824.171915
656.688416	30076.297663
657.030577	29840.779997
657.372687	29680.935091
657.714746	29831.658029
658.056753	30016.491935
658.398708	29403.081814
658.740612	29472.702669
659.082465	29693.918582
659.424266	29576.681508
659.766016	29580.938763
660.107715	29444.076477
660.449362	29548.453567
660.790958	29526.572439
661.132503	29453.442941
661.473996	29529.529076
661.815438	29615.538722
662.156829	29736.110519
662.498168	29543.798062
662.839456	29511.726241
663.180693	29634.606887
663.521879	29732.004500
663.863013	29674.109368
664.204097	29662.474385
664.545129	30081.948797
664.886110	30010.072025
665.227040	30132.466199
665.567918	30110.980802
665.908746	30199.127897
666.249522	30285.180393
666.590248	30302.486675
666.930922	30398.613917
667.271545	30380.627080
667.612118	30455.508379
667.952639	30257.476732
668.293109	30310.429013
668.633528	30150.274075
668.973896	30123.515631
669.314213	30097.296590
669.654480	29917.892007
669.994695	29881.845236
670.334859	29812.239504
670.674973	29643.612908
671.015035	29836.830253
671.355047	29774.095614
671.695008	29704.681446
672.034918	29619.538878
672.374777	29704.726816
672.714585	29579.353320
673.054342	29724.609127
673.394049	29566.319417
673.733705	29790.801997
674.073310	29513.251190
674.412864	29579.991026
674.752368	29257.367262
675.091820	29481.023094
675.431223	29080.778163
675.770574	28881.511434
676.109875	28712.973058
676.449125	28515.773202
676.788324	28402.145594
677.127473	27931.354757
677.466571	27837.067536
677.805619	27562.700218
678.144616	27493.454928
678.483562	27451.000851
678.822458	27129.879351
679.161303	27076.677534
679.500098	27006.018201
679.838842	26928.903671
680.177535	27023.604267
680.516179	27266.207275
680.854771	27398.577893
681.193314	28171.033896
681.531805	29216.135665
681.870247	29963.821959
682.208638	30689.148216
682.546978	30939.985949
682.885268	31080.813102
683.223508	30623.943411
683.561697	30351.743789
683.899836	30192.430724
684.237925	29782.075760
684.575963	29637.061929
684.913951	29274.565158
685.251889	29440.719069
685.589776	29485.855040
685.927614	29486.671707
686.265401	29684.337869
686.603137	29802.994028
686.940824	30308.752829
687.278460	30647.089869
687.616046	30829.428404
687.953582	31479.888485
688.291068	31383.244524
688.628504	31724.381926
688.965889	31706.528679
689.303224	31427.246236
689.640510	31130.075258
689.977745	30481.792955
690.314930	29747.629556
690.652065	29285.607806
690.989150	28604.439537
691.326185	27769.231250
691.663170	27144.959963
692.000105	26415.719251
692.336990	25802.790560
692.673825	25384.856221
693.010610	24897.716922
693.347345	24405.400358
693.684030	23783.795842
694.020665	23586.888373
694.357251	22914.489190
694.693786	22925.037805
695.030272	22695.415768
695.366707	22201.327238
695.703093	21941.107918
696.039429	22007.855315
696.375716	21772.012494
696.711952	21779.576746
697.048139	21644.879635
697.384276	21490.733754
697.720363	21600.567893
698.056400	21489.526397
698.392388	21337.578459
698.728326	21342.039880
699.064214	21180.178512
699.400053	21170.968324
699.735842	20794.429420
700.071581	20579.855227
700.407270	20334.567804
700.742910	20168.101342
701.078501	19916.348640
701.414042	19714.210974
701.749533	19406.274612
702.084974	19100.652139
702.420366	19326.760492
702.755709	18927.828782
703.091002	18625.493142
703.426246	18688.068985
703.761440	18632.613772
704.096584	18386.260145
704.431679	18320.271441
704.766725	18271.342002
705.101721	18208.811530
705.436668	18329.968101
705.771565	18053.107932
706.106413	18380.719917
706.441212	18450.590309
706.775961	18564.669100
707.110661	18645.478797
707.445311	19014.866824
707.779913	18893.506086
708.114465	19185.588020
708.448967	19505.454272
708.783421	20138.923144
709.117825	20495.877166
709.452180	20729.453988
709.786485	21193.003207
710.120742	21958.968726
710.454949	22075.041293
710.789107	22581.135331
711.123216	23293.372231
711.457275	23512.475901
711.791286	24062.571650
712.125247	24205.672363
712.459159	23925.139713
712.793023	24669.166130
713.126837	23640.039778
713.460602	23869.248441
713.794318	23523.594166
714.127985	23245.667792
714.461602	22341.589782
714.795171	22318.534065
715.128691	21343.002740
715.462162	20822.748102
715.795584	20389.428161
716.128957	20121.669795
716.462281	19750.920656
716.795556	19473.672318
717.128782	19002.629423
717.461960	18394.008399
717.795088	18372.104585
718.128167	18018.213065
718.461198	17574.258810
718.794180	17450.422866
719.127113	17118.576311
719.459997	16929.149914
719.792833	16575.142447
720.125619	16619.668438
720.458357	16278.026922
720.791046	16155.405895
721.123686	16005.003070
721.456278	15789.808816
721.788821	15781.596776
722.121315	15517.127763
722.453761	15626.470390
722.786158	15502.846174
723.118506	15586.660398
723.450805	15477.383306
723.783056	15659.615976
724.115259	15549.313010
724.447412	15551.808381
724.779518	15762.427788
725.111574	15820.345605
725.443582	16080.564925
725.775542	16040.001281
726.107453	16561.029737
726.439315	16489.289076
726.771129	16909.902789
727.102895	17325.215728
727.434612	17600.462728
727.766281	17761.298221
728.097901	18084.509279
728.429473	18153.736924
728.760996	18162.130445
729.092471	18284.025545
729.423897	18180.752467
729.755276	18049.846305
730.086606	18168.999017
730.417887	18748.787162
730.749120	19295.752355
731.080305	19520.648310
731.411442	19920.333672
731.742530	20022.210350
732.073570	20175.148876
732.404562	20491.004890
732.735506	20331.764923
733.066401	20115.345667
733.397249	19610.272464
733.728048	18984.534201
734.058798	18129.315054
734.389501	17365.628137
734.720156	16861.588370
735.050762	16291.264992
735.381320	15908.591003
735.711831	15647.915458
736.042293	15290.076714
736.372707	15324.394369
736.703073	15119.408451
737.033391	15325.437888
737.363661	15325.866386
737.693883	15455.610563
738.024056	15659.583209
738.354182	15890.457973
738.684260	16253.312665
739.014290	16535.183741
739.344272	16759.313441
739.674207	17108.166328
740.004093	17281.027494
740.333931	17313.399263
740.663722	17394.518990
740.993464	17435.498530
741.323159	17270.854445
741.652806	16965.060573
741.982405	16799.120912
742.311956	16425.475630
742.641460	16314.305585
742.970915	15981.198742
743.300323	15633.681760
743.629683	15429.814978
743.958996	15109.253046
744.288260	14798.506241
744.617477	14496.029448
744.946647	14462.765395
745.275768	14152.502540
745.604842	13941.933544
745.933869	13774.105971
746.262847	13746.593874
746.591778	13669.504549
746.920662	13556.549935
747.249498	13566.314650
747.578286	13731.656935
747.907027	13903.749324
748.235720	14165.017205
748.564365	14243.823042
748.892963	14160.442358
749.221514	14261.451957
749.550017	14134.061999
749.878473	14103.749541
750.206881	13885.792734
750.535242	13809.832628
750.863555	13726.184762
751.191821	13632.794867
751.520039	13651.679029
751.848210	13578.506681
752.176334	13621.560655
752.504411	13551.599522
752.832440	13369.676883
753.160421	13491.264473
753.488356	13372.951112
753.816243	13283.889047
754.144082	13120.031383
754.471875	13072.919279
754.799620	13032.758927
755.127318	13013.390814
755.454969	12998.378258
755.782572	12968.433804
756.110129	12981.704642
756.437638	12888.579407
756.765100	12894.606106
757.092515	12929.848813
757.419882	12961.696302
757.747203	12975.146101
758.074477	13073.393148
758.401703	13053.984706
758.728882	13255.766971
759.056014	13295.758444
759.383099	13471.316627
759.710138	13598.409156
760.037129	13714.726220
760.364073	13769.142955
760.690970	13801.615547
761.017820	13817.623731
761.344623	14045.105799
761.671379	14428.606536
761.998088	15127.670902
762.324751	16905.706028
762.651366	20322.204374
762.977935	24804.916842
763.304456	27769.899203
763.630931	28790.843762
763.957359	27551.700420
764.283740	25272.607369
764.610074	22992.531293
764.936362	20363.778770
765.262602	18488.156988
765.588796	16577.703353
765.914943	15301.999043
766.241044	14202.508266
766.567097	13421.729317
766.893104	12708.637941
767.219064	12247.037127
767.544978	11772.072215
767.870845	11391.507949
768.196665	11169.616521
768.522438	10938.799731
768.848165	10740.568959
769.173846	10534.421054
769.499479	10409.788608
769.825066	10237.605478
770.150607	10012.840592
770.476101	9929.971585
770.801548	9805.376947
771.126949	9654.964040
771.452303	9536.708653
771.777611	9338.503086
772.102872	9336.441254
772.428087	9189.282412
772.753256	9030.697794
773.078378	8943.049773
773.403453	8761.890868
773.728482	8651.643354
774.053465	8584.979136
774.378401	8482.021130
774.703291	8359.674847
775.028135	8232.645332
775.352932	8200.818007
775.677683	8095.175587
776.002388	7992.073908
776.327046	7999.620516
776.651658	7902.540496
776.976224	7807.061042
777.300743	7801.314126
777.625216	7717.078966
777.949643	7674.592122
778.274024	7687.794903
778.598359	7600.217458
778.922647	7624.641849
779.246889	7569.693272
779.571086	7579.677277
779.895236	7591.455933
780.219339	7604.071420
780.543397	7603.640402
780.867409	7684.568565
781.191374	7699.301337
781.515294	7664.605596
781.839167	7756.561283
782.162995	7726.442909
782.486776	7674.115733
782.810511	7625.703012
783.134201	7530.437807
783.457844	7531.993003
783.781441	7470.251471
784.104993	7409.056904
784.428498	7387.505972
784.751958	7371.853189
785.075372	7341.712130
785.398739	7285.775487
785.722061	7333.742066
786.045337	7344.197419
786.368568	7494.494380
786.691752	7519.715273
787.014891	7866.801235
787.337983	8228.652738
787.661030	8822.682142
787.984031	9450.028533
788.306987	9857.625986
788.629897	10055.108147
788.952760	10001.790383
789.275579	9777.937947
789.598351	9378.277790
789.921078	9021.210343
790.243759	8604.604348
790.566395	8315.698341
790.888984	8063.065958
791.211529	7849.812547
791.534027	7632.526213
791.856480	7439.447500
792.178888	7362.292641
792.501249	7265.441993
792.823566	7113.148735
793.145836	7108.031964
793.468062	7090.897082
793.790241	7038.227107
794.112375	7106.567509
794.434464	7265.326047
794.756507	7309.073180
795.078505	7465.472457
795.400457	7787.312322
795.722364	8137.642267
796.044226	8425.348479
796.366042	8695.307308
796.687812	8644.888208
797.009538	8721.866627
797.331218	8605.874718
797.652852	8527.731793
797.974442	8369.537864
798.295986	8282.131818
798.617484	8088.884227
798.938938	7943.141949
799.260346	7845.502360
799.581709	7644.771176
799.903026	7564.931902
800.224299	7458.024152
800.545526	7286.962679
800.866708	7191.084974
801.187845	7129.832434
801.508936	7023.426279
801.829983	6979.296018
802.150984	6832.371590
802.471940	6788.387522
802.792851	6774.549555
803.113717	6743.254072
803.434538	6711.653599
803.755314	6658.648387
804.076045	6658.040928
804.396731	6607.876406
804.717372	6641.155583
805.037967	6645.795965
805.358518	6681.686460
805.679024	6767.517145
805.999485	6782.297808
806.319901	6823.741134
806.640272	6842.758887
806.960598	6933.787002
807.280879	6932.272135
807.601115	7009.721902
807.921306	6948.590350
808.241453	6966.090716
808.561554	6986.146947
808.881611	6946.881399
809.201623	6954.783408
809.521590	6900.049080
809.841513	6878.321707
810.161390	6914.270175
810.481223	6786.151771
810.801011	6763.993379
811.120755	6746.467808
811.440453	6663.598800
811.760107	6628.910620
812.079716	6599.490447
812.399281	6533.307658
812.718801	6518.408528
813.038276	6477.612991
813.357707	6416.446150
813.677093	6456.984589
813.996434	6360.774168
814.315731	6410.280819
814.634983	6404.896867
814.954191	6412.314925
815.273354	6519.469691
815.592473	6577.755512
815.911547	6704.280912
816.230577	6789.587317
816.549562	6936.098371
816.868502	7036.729884
817.187399	7128.793956
817.506250	7287.066022
817.825058	7312.082748
818.143821	7585.391425
818.462539	7855.824123
818.781213	8217.670584
819.099843	8775.179350
819.418429	9781.832238
819.736970	10753.350804
820.055466	11935.241762
820.373919	13464.349752
820.692327	15794.683611
821.010691	19921.404917
821.329011	28919.723380
821.647286	41947.907461
821.965517	55441.042201
822.283704	60847.641892
822.601847	62806.881294
822.919945	60074.031464
823.237999	55827.504617
823.556010	49585.356361
823.873976	42831.029394
824.191897	36303.398075
824.509775	31487.014156
824.827609	26957.620604
825.145398	24369.794688
825.463144	23030.839021
825.780845	23334.679446
826.098502	25121.264369
826.416116	28937.317007
826.733685	32647.318892
827.051210	33860.941393
827.368692	32066.018401
827.686129	28073.124606
828.003522	23928.963429
828.320872	20210.174813
828.638177	17347.542998
828.955439	15195.812178
829.272656	13376.921021
829.589830	11904.457956
829.906960	10640.925512
830.224046	9696.694711
830.541088	8949.530176
830.858086	8493.998912
831.175041	8110.813246
831.491952	8005.090168
831.808819	8049.109523
832.125642	8455.076163
832.442421	9338.976955
832.759157	11149.600620
833.075849	14082.745574
833.392497	17326.642374
833.709101	19527.922695
834.025662	19359.049082
834.342179	17652.043814
834.658653	15433.994095
834.975083	13492.802024
835.291469	11873.215405
835.607811	10559.445342
835.924110	9650.031271
836.240366	8781.120350
836.556578	7980.726271
836.872746	7332.083526
837.188871	6836.795202
837.504952	6416.078146
837.820990	6103.284632
838.136984	5888.632302
838.452935	5795.335667
838.768842	5826.285831
839.084706	6253.891624
839.400526	7460.990871
839.716303	9050.514570
840.032037	10144.765068
840.347727	10068.583151
840.663373	9089.538142
840.978977	8042.596352
841.294537	7232.225830
841.610054	6636.464789
841.925527	6203.293563
842.240957	5840.905178
842.556344	5508.156256
842.871687	5230.539914
843.186987	4945.071974
843.502244	4721.617789
843.817458	4561.372111
844.132629	4423.090741
844.447756	4335.709900
844.762840	4258.854989
845.077881	4181.957229
845.392879	4120.649236
845.707833	4069.161411
846.022745	4027.077859
846.337613	4000.707583
846.652438	3953.386272
846.967221	3939.686937
847.281960	3907.574787
847.596656	3890.056777
847.911309	3873.146226
848.225919	3846.725539
848.540485	3828.068229
848.855009	3818.691683
849.169490	3797.170997
849.483928	3785.339409
849.798323	3775.020167
850.112675	3756.708175
850.426984	3765.245369
850.741251	3750.053852
851.055474	3745.375662
851.369654	3752.123246
851.683792	3746.159561
851.997887	3754.716920
852.311938	3754.656426
852.625947	3761.714041
852.939914	3748.823811
853.253837	3758.263371
853.567718	3757.913011
853.881555	3745.388264
854.195350	3762.462653
854.509103	3757.199688
854.822812	3758.540635
855.136479	3747.918924
855.450103	3757.819750
855.763685	3741.740990
856.077224	3747.215683
856.390720	3766.629166
856.704173	3786.440901
857.017584	3800.457829
857.330953	3811.939057
857.644278	3832.383456
857.957561	3832.063343
858.270802	3834.135257
858.584000	3841.916278
858.897155	3834.014270
859.210268	3816.014830
859.523339	3790.672949
859.836367	3791.754277
860.149352	3784.648771
860.462295	3776.313223
860.775195	3767.408024
861.088054	3761.376284
861.400869	3758.878392
861.713642	3759.324534
862.026373	3771.327522
862.339062	3777.225672
862.651708	3797.412972
862.964312	3831.576872
863.276873	3847.189325
863.589392	3900.502048
863.901869	3950.850572
864.214303	3993.748270
864.526696	4028.564999
864.839045	4072.801124
865.151353	4098.261472
865.463619	4109.830920
865.775842	4112.941312
866.088023	4132.135505
866.400162	4124.107468
866.712258	4128.669712
867.024313	4129.773725
867.336325	4128.596615
867.648296	4138.507524
867.960224	4135.719766
868.272110	4144.360303
868.583954	4146.366683
868.895755	4166.322090
869.207515	4155.546624
869.519233	4197.700752
869.830909	4217.184812
870.142542	4240.555601
870.454134	4251.459617
870.765684	4283.599493
871.077191	4322.131553
871.388657	4344.952856
871.700081	4382.159092
872.011463	4422.553858
872.322803	4455.253302
872.634101	4491.015247
872.945357	4529.665774
873.256571	4579.737035
873.567744	4612.383547
873.878874	4634.945231
874.189963	4672.022918
874.501010	4681.525492
874.812015	4677.089277
875.122979	4725.093665
875.433900	4722.426894
875.744780	4730.530549
876.055618	4757.664560
876.366415	4757.170527
876.677169	4777.322539
876.987882	4823.628058
877.298554	4871.524060
877.609183	4954.433397
877.919771	5071.143670
878.230317	5211.580134
878.540822	5421.740797
878.851285	5744.694756
879.161707	6203.386824
879.472087	6964.921168
879.782425	8200.674334
880.092722	10374.414831
880.402977	13707.908059
880.713191	17490.893249
881.023363	21240.097667
881.333494	23468.842194
881.643583	24694.197980
881.953631	24682.489900
882.263637	23803.247134
882.573602	22315.826965
882.883526	20729.290150
883.193408	19047.969561
883.503248	17345.062750
883.813048	15784.634071
884.122806	14352.931255
884.432522	12882.940876
884.742197	11611.869387
885.051831	10526.176247
885.361424	9519.495633
885.670975	8705.566056
885.980485	8020.863938
886.289954	7446.386649
886.599382	6975.903322
886.908768	6596.841320
887.218113	6230.412450
887.527417	5948.034738
887.836680	5680.725035
888.145901	5467.605215
888.455082	5302.572961
888.764221	5154.902442
889.073319	5017.304147
889.382376	4949.132624
889.691392	4886.619796
890.000366	4863.561558
890.309300	4843.248228
890.618193	4850.981358
890.927044	4835.091642
891.235855	4858.966546
891.544625	4893.150610
891.853353	4949.057007
892.162041	5070.465635
892.470687	5255.632257
892.779293	5505.580227
893.087858	5876.125199
893.396381	6453.798580
893.704864	7258.528051
894.013306	8419.662057
894.321707	9615.448955
894.630068	10440.958062
894.938387	10654.735753
895.246665	10408.740048
895.554903	9802.669847
895.863100	9091.257175
896.171256	8529.284468
896.479371	8016.445367
896.787446	7520.884820
897.095480	7085.911381
897.403473	6767.459172
897.711425	6451.908147
898.019336	6180.696591
898.327207	5906.059570
898.635038	5678.088511
898.942827	5431.003917
899.250576	5234.741716
899.558284	5037.725862
899.865952	4918.520217
900.173579	4767.802320
900.481165	4658.401720
900.788711	4563.537287
901.096216	4494.707893
901.403681	4432.590795
901.711105	4405.033328
902.018489	4395.901277
902.325832	4466.116989
902.633135	4585.186522
902.940397	4931.556641
903.247619	5725.266149
903.554800	7172.732653
903.861941	9100.225388
904.169041	10633.668771
904.476101	11263.293763
904.783121	10897.119471
905.090100	10152.689762
905.397039	9304.440010
905.703938	8554.946462
906.010796	7853.374122
906.317614	7299.721839
906.624391	6764.547906
906.931129	6340.382701
907.237826	5936.621566
907.544483	5560.785902
907.851099	5185.739180
908.157675	4834.438812
908.464211	4510.577445
908.770707	4277.161940
909.077163	4076.345056
909.383578	3933.594702
909.689954	3816.599604
909.996289	3746.913213
910.302584	3685.322916
910.608839	3651.849655
910.915054	3619.334212
911.221229	3605.556739
911.527363	3616.654839
911.833458	3630.853249
912.139513	3661.740399
912.445527	3689.965819
912.751502	3769.497583
913.057436	3872.405177
913.363331	4004.579189
913.669186	4210.926219
913.975000	4467.210919
914.280775	4888.427049
914.586510	5468.888188
914.892205	6263.598366
915.197859	7312.788510
915.503475	8550.643837
915.809050	9615.758986
916.114585	10281.340008
916.420081	10542.007991
916.725536	10501.073822
917.030952	10052.796778
917.336328	9646.237802
917.641665	9211.304692
917.946961	8740.992765
918.252218	8310.949574
918.557435	7802.350083
918.862612	7367.152313
919.167750	6991.447720
919.472848	6562.647174
919.777906	6186.488877
920.082925	5826.147200
920.387904	5460.088854
920.692843	5190.422412
920.997743	4946.700267
921.302603	4708.687229
921.607423	4549.684196
921.912204	4383.283269
922.216946	4263.608798
922.521647	4147.563957
922.826310	4042.433214
923.130932	3942.618367
923.435516	3850.587063
923.740059	3780.273049
924.044564	3703.234136
924.349028	3642.087460
924.653454	3576.386102
924.957840	3509.094260
925.262186	3457.649285
925.566493	3402.698188
925.870761	3345.375227
926.174989	3305.981131
926.479178	3272.313785
926.783328	3229.295098
927.087438	3200.827702
927.391509	3165.723628
927.695541	3138.876963
927.999533	3111.695061
928.303486	3092.205961
928.607400	3076.835483
928.911275	3060.338307
929.215110	3044.975390
929.518906	3037.776622
929.822663	3032.410314
930.126381	3035.850902
930.430060	3042.689227
930.733699	3043.389947
931.037299	3055.849159
931.340861	3052.900084
931.644383	3062.773184
931.947866	3057.835374
932.251309	3054.183058
932.554714	3052.864796
932.858080	3045.240051
933.161407	3041.842313
933.464694	3031.369316
933.767943	3025.060312
934.071153	3020.019158
934.374323	3008.847961
934.677455	3004.925943
934.980548	2996.953359
935.283602	2991.778614
935.586617	2986.916421
935.889593	2996.648369
936.192530	3004.668845
936.495428	3017.337264
936.798287	3042.961449
937.101108	3072.762230
937.403890	3126.594192
937.706632	3187.108202
938.009336	3268.142230
938.312002	3345.450845
938.614628	3407.310843
938.917216	3460.411838
939.219765	3494.308556
939.522275	3521.626569
939.824747	3529.009338
940.127179	3525.082280
940.429573	3519.552134
940.731929	3514.828573
941.034246	3500.408352
941.336524	3490.510047
941.638763	3472.651759
941.940964	3456.930921
942.243126	3415.722009
942.545250	3387.980539
942.847335	3351.762369
943.149381	3317.454797
943.451389	3286.943213
943.753359	3246.107346
944.055290	3222.406362
944.357182	3199.655634
944.659036	3186.800692
944.960851	3175.180832
945.262628	3161.962927
945.564367	3164.231446
945.866067	3161.733554
946.167729	3153.718120
946.469352	3153.087976
946.770937	3151.142090
947.072484	3134.092908
947.373992	3134.952425
947.675462	3130.120479
947.976893	3112.231944
948.278286	3103.508227
948.579641	3097.569748
948.880958	3088.152873
949.182236	3094.406424
949.483476	3083.134404
949.784678	3086.799323
950.085841	3089.105651
950.386967	3100.327259
950.688054	3113.051132
950.989103	3136.948722
951.290114	3158.577792
951.591087	3188.701207
951.892021	3213.927141
952.192917	3243.211203
952.493776	3269.256325
952.794596	3277.004578
953.095378	3277.538941
953.396122	3273.664814
953.696828	3270.619957
953.997496	3255.620004
954.298126	3230.169738
954.598718	3212.744990
954.899272	3187.140970
955.199788	3156.019407
955.500266	3127.645272
955.800706	3090.229828
956.101108	3054.084755
956.401472	3019.557893
956.701798	2989.381546
957.002087	2945.790688
957.302337	2920.131215
957.602550	2890.101062
957.902724	2860.083511
958.202861	2835.081909
958.502960	2815.625575
958.803022	2793.588171
959.103045	2773.282404
959.403031	2756.601226
959.702979	2746.544124
960.002889	2731.859242
960.302762	2718.429609
960.602596	2703.641384
960.902393	2696.795497
961.202153	2693.470856
961.501875	2681.329237
961.801559	2676.111643
962.101205	2668.328101
962.400814	2664.093532
962.700385	2657.754281
962.999918	2653.265133
963.299414	2645.053094
963.598873	2640.183339
963.898293	2635.490025
964.197677	2637.541775
964.497022	2634.736372
964.796331	2631.678913
965.095601	2631.444499
965.394835	2627.890486
965.694030	2624.681791
965.993189	2625.979888
966.292309	2622.993005
966.591393	2622.715741
966.890439	2622.816564
967.189447	2621.210957
967.488419	2622.390587
967.787353	2624.001235
968.086249	2624.228087
968.385108	2626.259672
968.683930	2628.041720
968.982714	2631.633542
969.281462	2634.312916
969.580172	2640.939512
969.878844	2648.763383
970.177480	2656.912408
970.476078	2666.266269
970.774639	2672.850016
971.073162	2679.557271
971.371649	2686.446008
971.670098	2691.025896
971.968510	2695.746937
972.266885	2699.416897
972.565223	2706.454348
972.863524	2706.199769
973.161788	2711.550954
973.460014	2715.082282
973.758204	2713.927858
974.056356	2715.818291
974.354471	2719.969681
974.652550	2719.810885
974.950591	2717.643189
975.248595	2718.177551
975.546563	2714.792416
975.844493	2709.834441
976.142386	2706.643391
976.440243	2698.242308
976.738062	2695.041175
977.035845	2687.534897
977.333590	2682.191274
977.631299	2678.410409
977.928971	2671.367917
978.226606	2664.464057
978.524204	2662.699653
978.821765	2656.662871
979.119290	2661.963644
979.416777	2658.152532
979.714228	2661.119251
980.011642	2665.230312
980.309020	2673.848165
980.606360	2686.262006
980.903664	2710.565409
981.200931	2746.158475
981.498162	2797.805097
981.795356	2871.206817
982.092513	2959.290898
982.389633	3066.826272
982.686717	3164.780932
982.983764	3240.221799
983.280775	3287.480096
983.577749	3294.089049
983.874686	3278.993313
984.171587	3249.406782
984.468451	3207.136707
984.765279	3163.729851
985.062070	3115.798561
985.358824	3074.710636
985.655543	3013.556399
985.952224	2963.064202
986.248869	2900.836199
986.545478	2838.845130
986.842050	2784.771193
987.138586	2736.446692
987.435086	2700.687268
987.731549	2666.387257
988.027975	2642.363638
988.324366	2628.729838
988.620719	2613.936572
988.917037	2598.881166
989.213318	2591.014445
989.509563	2583.845924
989.805772	2581.622776
990.101944	2574.701271
990.398080	2573.922413
990.694180	2571.878225
990.990244	2572.901579
991.286271	2574.570201
991.582262	2571.328739
991.878217	2576.064903
992.174136	2579.681931
992.470019	2578.819894
992.765865	2584.932293
993.061676	2588.466142
993.357450	2598.994592
993.653188	2603.476177
993.948890	2623.063581
994.244556	2642.524955
994.540186	2665.595796
994.835780	2696.059488
995.131337	2735.171281
995.426859	2774.643515
995.722345	2824.666885
996.017795	2877.304093
996.313208	2915.503436
996.608586	2940.444545
996.903928	2954.668160
997.199234	2953.662450
997.494504	2951.232614
997.789738	2937.104780
998.084936	2910.721902
998.380099	2881.596635
998.675225	2851.221163
998.970316	2819.502223
999.265371	2783.941923
999.560390	2747.204515
999.855373	2716.950030
1000.150320	2688.943900
1000.445232	2663.085301
1000.740108	2642.114101
1001.034948	2624.432254
1001.329752	2608.106477
1001.624521	2594.707090
1001.919254	2584.551686
1002.213951	2576.153124
1002.508613	2567.900755
1002.803239	2562.040413
1003.097829	2555.736451
1003.392384	2550.251675
1003.686903	2549.908877
1003.981386	2542.994934
1004.275834	2538.498225
1004.570246	2535.297092
1004.864623	2536.408667
1005.158964	2529.124199
1005.453270	2528.829292
1005.747540	2529.295599
1006.041775	2525.504651
1006.335974	2526.288550
1006.630138	2523.478107
1006.924266	2523.957017
1007.218359	2522.694208
1007.512416	2520.415606
1007.806438	2517.481655
1008.100425	2519.155318
1008.394376	2515.127436
1008.688292	2519.127591
1008.982172	2515.689524
1009.276017	2518.447036
1009.569827	2519.835873
1009.863602	2516.932169
1010.157341	2513.869668
1010.451045	2514.661129
1010.744714	2512.644668
1011.038347	2514.585512
1011.331945	2512.206087
1011.625508	2513.002589
1011.919036	2508.452948
1012.212528	2512.102743
1012.505986	2509.577125
1012.799408	2509.728360
1013.092795	2506.048318
1013.386147	2507.782475
1013.679464	2505.362721
1013.972745	2507.911024
1014.265992	2507.316168
1014.559204	2506.391116
1014.852380	2505.614778
1015.145521	2504.704850
1015.438628	2507.134686
1015.731699	2507.648884
1016.024736	2506.680982
1016.317737	2511.066786
1016.610703	2509.476302
1016.903635	2511.530573
1017.196531	2513.819256
1017.489393	2516.387724
1017.782219	2514.739267
1018.075011	2515.858403
1018.367768	2517.106089
1018.660490	2518.618435
1018.953177	2518.618435
1019.245829	2518.618435
