Dividing Wavelength (nm)	Counts (n)	Blue Motor Position (mm): 21.800000	Red Motor Position (mm): 0.000000	
326.493990	2134.326236
326.888308	2134.326236
327.282561	2134.326236
327.676750	2099.580083
328.070874	2102.652666
328.464933	2100.064034
328.858929	2109.357401
329.252859	2121.085645
329.646726	2130.631070
330.040528	2144.083389
330.434265	2161.966883
330.827938	2178.433812
331.221547	2195.576255
331.615091	2215.761035
332.008571	2234.761144
332.401986	2254.782087
332.795338	2274.011568
333.188625	2293.974537
333.581847	2313.067907
333.975006	2327.856132
334.368100	2348.721468
334.761129	2366.501618
335.154095	2383.623897
335.546996	2404.118707
335.939833	2423.678384
336.332606	2441.907197
336.725315	2450.638475
337.117960	2461.149281
337.510540	2469.633543
337.903056	2481.586119
338.295508	2488.114413
338.687896	2497.904334
339.080220	2508.672238
339.472480	2509.791374
339.864676	2516.854031
340.256807	2523.304187
340.648875	2523.604136
341.040879	2526.996833
341.432818	2525.502130
341.824694	2529.444313
342.216506	2528.592358
342.608253	2531.289375
342.999937	2531.677544
343.391557	2524.869466
343.783113	2527.082532
344.174605	2526.263345
344.566033	2526.545649
344.957397	2525.151770
345.348697	2522.174969
345.739934	2523.803262
346.131106	2521.075997
346.522215	2520.440812
346.913260	2515.117353
347.304241	2514.683814
347.695159	2510.741632
348.086012	2512.087620
348.476802	2511.613752
348.867528	2509.055366
349.258191	2504.903976
349.648789	2505.236692
350.039324	2502.615292
350.429796	2502.355673
350.820203	2501.055055
351.210548	2499.625888
351.600828	2497.498521
351.991045	2498.232009
352.381198	2497.425424
352.771288	2496.455002
353.161314	2495.776967
353.551276	2496.192862
353.941175	2497.644714
354.331010	2495.955928
354.720782	2497.732934
355.110490	2495.764364
355.500135	2496.202944
355.889717	2495.270331
356.279235	2493.541215
356.668689	2497.589262
357.058080	2495.703870
357.447408	2494.783859
357.836672	2494.665392
358.225873	2494.241935
358.615010	2493.044661
359.004084	2497.833758
359.393095	2501.665034
359.782043	2499.928357
360.170927	2501.488594
360.559748	2499.721670
360.948505	2503.928512
361.337199	2505.125787
361.725830	2502.791732
362.114398	2501.947339
362.502903	2502.640498
362.891344	2505.168636
363.279722	2504.846002
363.668037	2505.347597
364.056289	2503.754593
364.444478	2506.141579
364.832603	2504.616630
365.220665	2505.745848
365.608665	2509.899759
365.996601	2510.023268
366.384474	2506.068482
366.772284	2509.713237
367.160031	2508.548730
367.547715	2509.544358
367.935336	2508.279028
368.322893	2508.324399
368.710388	2511.452435
369.097820	2511.399503
369.485189	2511.399503
369.872495	2509.473782
370.259738	2510.156858
370.646918	2509.940088
371.034035	2508.200890
371.421090	2513.138701
371.808081	2510.192146
372.195010	2509.410767
372.581875	2513.642816
372.968678	2511.003772
373.355418	2511.855727
373.742096	2509.133504
374.128710	2513.123577
374.515262	2513.446211
374.901751	2510.766838
375.288177	2511.533093
375.674540	2512.599297
376.060841	2516.138187
376.447079	2511.893536
376.833254	2512.110305
377.219367	2511.137362
377.605417	2512.808505
377.991404	2511.588546
378.377329	2509.977897
378.763191	2513.617610
379.148991	2516.314628
379.534727	2514.731705
379.920402	2519.062056
380.306013	2516.992663
380.691563	2516.196160
381.077049	2516.881757
381.462474	2515.828156
381.847835	2518.575585
382.233134	2515.371932
382.618371	2517.600122
383.003545	2517.050636
383.388657	2517.839577
383.773706	2518.396624
384.158693	2517.239679
384.543618	2520.886954
384.928480	2517.837056
385.313280	2521.509537
385.698017	2519.220853
386.082692	2519.596419
386.467305	2519.172962
386.851856	2517.784124
387.236344	2521.018024
387.620770	2519.505678
388.005133	2517.718589
388.389435	2524.619928
388.773674	2522.999197
389.157851	2519.999711
389.541965	2521.557427
389.926018	2521.474248
390.310008	2520.914680
390.693936	2521.698580
391.077802	2523.009280
391.461606	2522.868128
391.845348	2522.384177
392.229027	2523.969620
392.612645	2523.246214
392.996200	2524.037675
393.379694	2519.437622
393.763125	2522.079187
394.146494	2523.447860
394.529801	2524.221677
394.913047	2523.921729
395.296230	2522.981553
395.679351	2525.476925
396.062410	2525.103879
396.445408	2525.350896
396.828343	2524.803931
397.211217	2520.380318
397.594028	2525.161853
397.976778	2523.543642
398.359466	2525.575227
398.742092	2521.007942
399.124656	2528.516740
399.507158	2529.260311
399.889598	2524.133457
400.271977	2527.689991
400.654294	2528.090763
401.036549	2525.880217
401.418742	2525.950793
401.800874	2527.256452
402.182944	2528.201668
402.564952	2528.073119
402.946898	2528.340300
403.328783	2527.954652
403.710606	2527.919364
404.092367	2527.458098
404.474067	2530.197965
404.855705	2531.455733
405.237282	2529.174611
405.618797	2527.523633
406.000250	2531.821217
406.381642	2528.330218
406.762972	2527.793335
407.144240	2528.869621
407.525447	2532.224509
407.906593	2530.346679
408.287677	2527.906761
408.668700	2530.749972
409.049661	2531.380116
409.430560	2529.623274
409.811399	2531.591844
410.192176	2529.598068
410.572891	2530.142512
410.953545	2531.158305
411.334138	2531.475898
411.714669	2532.731145
412.095139	2532.784077
412.475547	2532.176618
412.855894	2535.574356
413.236180	2533.878007
413.616405	2534.372041
413.996568	2533.499921
414.376670	2530.767616
414.756711	2534.170394
415.136691	2533.767102
415.516609	2530.933974
415.896466	2533.394057
416.276262	2533.278110
416.655997	2531.329704
417.035670	2529.996319
417.415283	2533.426824
417.794834	2528.947759
418.174324	2532.867256
418.553753	2534.825744
418.933121	2533.663758
419.312428	2535.357586
419.691674	2536.892617
420.070859	2535.939839
420.449983	2536.378420
420.829045	2535.281969
421.208047	2536.713657
421.586988	2537.086702
421.965867	2537.684079
422.344686	2535.183666
422.723444	2536.028060
423.102141	2539.445962
423.480777	2537.137113
423.859352	2536.864891
424.237866	2535.100487
424.616319	2538.145344
424.994712	2537.860519
425.373044	2538.019315
425.751314	2539.297248
426.129524	2539.135931
426.507673	2539.085519
426.885762	2539.302289
427.263789	2536.680889
427.641756	2537.495035
428.019662	2537.918492
428.397508	2537.971424
428.775292	2537.966383
429.153016	2540.078627
429.530679	2540.305479
429.908282	2538.914120
430.285824	2537.114428
430.663305	2541.590973
431.040726	2538.034439
431.418086	2540.784388
431.795385	2541.822866
432.172624	2540.968390
432.549802	2539.007382
432.926920	2539.269522
433.303977	2539.755993
433.680974	2542.107691
434.057910	2540.492001
434.434786	2540.464275
434.811601	2540.779347
435.188355	2540.847403
435.565050	2541.653987
435.941683	2544.081303
436.318257	2539.408153
436.694770	2533.729293
437.071222	2542.029553
437.447614	2536.791794
437.823946	2538.846065
438.200218	2541.447300
438.576429	2542.889070
438.952580	2541.074255
439.328670	2542.644574
439.704700	2541.911086
440.080670	2541.659028
440.456580	2540.081147
440.832429	2544.051056
441.208218	2543.002496
441.583947	2544.751776
441.959616	2543.171375
442.335224	2541.313709
442.710773	2544.545089
443.086261	2545.507949
443.461689	2542.226158
443.837057	2547.315203
444.212365	2543.010058
444.587612	2547.100954
444.962800	2542.969728
445.337927	2545.938968
445.712995	2545.172713
446.088002	2544.517363
446.462949	2544.837476
446.837837	2545.422250
447.212664	2542.823535
447.587431	2545.749925
447.962139	2547.678166
448.336786	2548.782179
448.711374	2547.282436
449.085901	2547.721016
449.460369	2547.705892
449.834776	2546.289328
450.209124	2545.074410
450.583412	2546.695141
450.957640	2547.153886
451.331808	2544.197249
451.705917	2547.113557
452.079965	2545.321427
452.453954	2547.322765
452.827883	2548.812426
453.201752	2548.172199
453.575562	2550.017262
453.949311	2549.238403
454.323001	2548.262940
454.696632	2548.028526
455.070202	2549.868547
455.443713	2548.888043
455.817164	2546.372507
456.190556	2546.823691
456.563888	2546.740512
456.937160	2545.026519
457.310373	2548.593136
457.683526	2549.873589
458.056619	2552.552962
458.429653	2549.104813
458.802628	2549.243444
459.175542	2549.792930
459.548398	2548.847714
459.921194	2552.189999
460.293930	2553.926676
460.666607	2551.796789
461.039224	2552.401727
461.411782	2555.948179
461.784280	2551.879968
462.156719	2552.363919
462.529099	2553.062118
462.901419	2554.269475
463.273680	2551.625390
463.645882	2553.596481
464.018024	2555.660833
464.390106	2553.742674
464.762130	2556.969013
465.134094	2555.910370
465.505999	2558.516647
465.877845	2559.305587
466.249631	2562.413459
466.621358	2558.231822
466.993026	2562.161401
467.364634	2564.538305
467.736184	2563.734241
468.107674	2560.510423
468.479105	2560.785166
468.850477	2562.383212
469.221790	2561.405228
469.593043	2562.025290
469.964238	2562.884807
470.335373	2563.086453
470.706449	2567.321022
471.077467	2567.172308
471.448425	2573.244378
471.819324	2577.390727
472.190164	2578.403999
472.560945	2577.733525
472.931667	2578.978690
473.302330	2577.761252
473.672934	2580.259143
474.043479	2584.551686
474.413965	2588.813982
474.784393	2584.319793
475.154761	2592.597367
475.525070	2594.760022
475.895321	2598.873604
476.265513	2604.539861
476.635645	2613.432456
477.005719	2619.045781
477.375734	2625.284209
477.745691	2635.716877
478.115588	2645.020326
478.485427	2650.575678
478.855207	2668.839778
479.224928	2693.864066
479.594591	2713.547251
479.964194	2717.108826
480.333739	2722.349106
480.703226	2734.798235
481.072653	2748.104361
481.442022	2771.875922
481.811333	2791.911988
482.180584	2799.183852
482.549777	2805.218113
482.918912	2813.793116
483.287988	2832.140395
483.657005	2848.219156
484.025964	2854.654188
484.394864	2874.879298
484.763706	2891.575599
485.132489	2897.919891
485.501213	2918.409661
485.869879	2937.054369
486.238487	2956.790486
486.607036	2978.480050
486.975527	2994.367247
487.343959	3022.670805
487.712333	3051.286915
488.080648	3073.006726
488.448905	3103.896396
488.817104	3125.190230
489.185244	3174.069258
489.553326	3215.164744
489.921350	3294.567958
490.289315	3424.584357
490.657222	3488.443173
491.025070	3527.554966
491.392861	3549.857030
491.760593	3554.729305
492.128267	3551.702093
492.495883	3555.641754
492.863440	3559.198288
493.230939	3567.601892
493.598380	3601.375102
493.965763	3633.625884
494.333088	3655.018020
494.700354	3691.067311
495.067563	3735.197572
495.434713	3763.349896
495.801805	3827.554031
496.168839	3860.901264
496.535815	3908.172163
496.902733	3947.636836
497.269593	3996.583919
497.636395	4051.035943
498.003139	4118.042960
498.369825	4132.768170
498.736453	4222.341912
499.103023	4256.059670
499.469535	4322.965863
499.835989	4370.065364
500.202385	4424.020833
500.568723	4446.925316
500.935003	4543.760840
501.301226	4585.705761
501.667390	4689.296431
502.033497	4781.272283
502.399546	4801.187361
502.765537	4841.539277
503.131470	4925.804684
503.497345	5037.355337
503.863163	4990.139890
504.228923	5149.420187
504.594625	5228.583946
504.960269	5219.018357
505.325856	5354.002813
505.691385	5363.815419
506.056856	5472.716945
506.422270	5554.532351
506.787625	5572.393159
507.152924	5692.380182
507.518164	5743.502523
507.883347	5789.979441
508.248472	5826.253064
508.613540	5985.334235
508.978550	6017.229616
509.343503	6069.534107
509.708398	6191.023394
510.073236	6310.569317
510.438016	6386.085801
510.802738	6436.162103
511.167403	6530.313213
511.532010	6569.404840
511.896561	6724.811011
512.261053	6838.284863
512.625488	6856.591813
512.989866	6919.901144
513.354186	6983.815413
513.718449	7016.366143
514.082655	7172.273908
514.446803	7195.059924
514.810894	7335.791295
515.174927	7342.249013
515.538904	7408.885505
515.902822	7581.446722
516.266684	7578.391783
516.630488	7623.583206
516.994235	7711.861372
517.357925	7829.209351
517.721558	7951.835418
518.085133	8032.529168
518.448651	8106.591280
518.812112	8094.038807
519.175516	8190.680247
519.538863	8320.013569
519.902152	8329.924478
520.265385	8517.067232
520.628560	8501.217844
520.991678	8567.292248
521.354739	8670.030963
521.717743	8683.337088
522.080690	8735.606292
522.443580	8896.214933
522.806413	8930.063761
523.169189	9011.715329
523.531908	9104.969114
523.894569	9038.234319
524.257174	9101.082384
524.619722	9249.720805
524.982213	9249.670394
525.344647	9359.350778
525.707025	9374.401143
526.069345	9502.711111
526.431608	9496.034103
526.793815	9627.779618
527.155964	9514.129325
527.518057	9604.335732
527.880093	9618.829049
528.242072	9716.846724
528.603995	9697.834012
528.965860	9674.513634
529.327669	9762.769115
529.689421	9757.402806
530.051117	9785.570253
530.412755	9916.622609
530.774337	9856.279998
531.135862	9886.821828
531.497331	9938.412997
531.858743	9860.202016
532.220098	10036.914623
532.581396	9958.350760
532.942638	9987.765893
533.303824	9982.457558
533.664953	10031.883551
534.026025	9990.593980
534.387040	10109.744172
534.747999	10142.257094
535.108902	10215.938598
535.469748	10033.103510
535.830537	10157.393158
536.191270	10163.755094
536.551947	10217.738290
536.912567	10239.697557
537.273131	10200.863028
537.633638	10197.540908
537.994089	10219.477488
538.354483	10193.976812
538.714821	10345.914668
539.075103	10375.899451
539.435328	10365.975940
539.795497	10224.422860
540.155609	10396.147246
540.515665	10492.072842
540.875665	10263.897616
541.235609	10346.426345
541.595496	10360.566782
541.955328	10518.725422
542.315102	10425.517008
542.674821	10395.098686
543.034483	10413.970245
543.394090	10428.050188
543.753640	10370.553307
544.113134	10600.702145
544.472571	10472.994595
544.831953	10621.905238
545.191278	10443.103073
545.550548	10485.143776
545.909761	10632.705910
546.268918	10613.040369
546.628019	10705.059071
546.987064	10588.368962
547.346053	10512.257622
547.704986	10622.719385
548.063863	10617.211924
548.422684	10616.102870
548.781449	10548.808507
549.140158	10659.217338
549.498811	10540.606550
549.857408	10405.881714
550.215949	10628.042843
550.574434	10496.625003
550.932864	10594.665363
551.291237	10659.164406
551.649555	10618.878025
552.007817	10626.855651
552.366022	10599.320869
552.724173	10598.249624
553.082267	10588.951216
553.440305	10720.941226
553.798288	10534.063132
554.156215	10692.151197
554.514086	10673.130923
554.871902	10523.696000
555.229661	10558.424508
555.587365	10548.818590
555.945014	10435.135529
556.302606	10564.814171
556.660143	10463.275250
557.017625	10618.764599
557.375050	10522.319765
557.732421	10649.195525
558.089735	10576.310522
558.446994	10580.023332
558.804197	10613.516758
559.161345	10613.007602
559.518437	10469.402773
559.875474	10557.625486
560.232455	10586.478530
560.589381	10541.254338
560.946251	10535.668740
561.303065	10642.599175
561.659825	10578.233723
562.016528	10513.132262
562.373177	10390.508715
562.729770	10508.650676
563.086307	10424.541545
563.442789	10517.286173
563.799216	10400.457432
564.155587	10448.902921
564.511904	10403.605633
564.868164	10398.463656
565.224370	10408.452702
565.580520	10334.866979
565.936615	10338.133647
566.292654	10214.781654
566.648638	10342.726138
567.004567	10304.998143
567.360441	10284.571387
567.716260	10200.104334
568.072023	10296.402976
568.427732	10245.731818
568.783385	10158.834928
569.138982	10230.268078
569.494525	10244.877342
569.850013	10119.529052
570.205445	10203.474346
570.560823	10104.019942
570.916145	10013.821097
571.271412	10092.664743
571.626625	10036.004694
571.981782	10007.554943
572.336884	9986.740018
572.691931	9989.396706
573.046923	9936.537688
573.401860	9891.961285
573.756743	9827.449639
574.111570	9879.628102
574.466342	9854.760090
574.821059	9892.699814
575.175722	9778.668914
575.530330	9787.886664
575.884882	9782.192680
576.239380	9711.306496
576.593823	9682.360190
576.948211	9709.151402
577.302544	9586.845448
577.656823	9601.910937
578.011047	9601.119475
578.365216	9577.635260
578.719330	9500.503086
579.073389	9516.554120
579.427394	9459.337023
579.781344	9433.218805
580.135239	9391.115088
580.489080	9396.264627
580.842866	9298.012539
581.196597	9301.463208
581.550273	9345.442235
581.903895	9314.938213
582.257463	9377.612358
582.610975	9254.280529
582.964434	9279.503942
583.317837	9202.351603
583.671186	9187.644037
584.024481	9187.545734
584.377721	9108.306358
584.730906	9075.881656
585.084037	9112.465310
585.437113	9045.722953
585.790135	9065.174245
586.143103	8963.947876
586.496016	8939.311757
586.848874	8996.145726
587.201679	8985.939910
587.554428	8875.465544
587.907124	8916.187985
588.259765	8892.693687
588.612352	8897.069409
588.964884	8766.324563
589.317362	8789.990260
589.669786	8782.841904
590.022155	8833.031631
590.374470	8846.163837
590.726731	8788.712327
591.078937	8634.725242
591.431090	8754.692101
591.783188	8628.471691
592.135232	8619.221173
592.487222	8619.223694
592.839157	8667.480139
593.191038	8598.950694
593.542866	8548.884474
593.894639	8451.131460
594.246358	8499.241712
594.598022	8516.762242
594.949633	8410.335923
595.301190	8390.078046
595.652692	8421.383611
596.004141	8531.250518
596.355535	8310.430336
596.706876	8284.753218
597.058162	8224.702994
597.409395	8299.997668
597.760573	8364.799180
598.111698	8268.969366
598.462768	8256.268179
598.813785	8220.531439
599.164748	8191.360802
599.515657	8183.821757
599.866511	8092.965041
600.217312	8215.863331
600.568060	8077.022392
600.918753	8176.791868
601.269392	8146.423957
601.619978	8058.024804
601.970510	8124.903271
602.320988	8123.063250
602.671412	8180.756735
603.021783	8112.585212
603.372100	8086.182168
603.722363	8089.194258
604.072572	8069.659787
604.422728	8080.873833
604.772830	8005.679983
605.122878	8017.856890
605.472872	8009.034871
605.822813	8036.940178
606.172701	7980.930438
606.522534	8059.000267
606.872314	8051.090697
607.222041	8024.105400
607.571714	8080.747805
607.921333	8042.397227
608.270899	8042.694655
608.620411	8134.317626
608.969870	8046.072228
609.319276	8037.976135
609.668627	8050.788227
610.017926	8087.099658
610.367171	8129.480639
610.716362	8103.566587
611.065500	8102.681865
611.414585	8125.402345
611.763616	8109.225283
612.112594	8099.319415
612.461518	8113.411961
612.810389	8169.366248
613.159207	8110.044470
613.507971	8058.042448
613.856682	8180.663474
614.205340	8134.801577
614.553945	8213.950213
614.902496	8111.052701
615.250994	8162.752254
615.599439	8141.440776
615.947830	8160.738313
616.296169	8131.373592
616.644454	8145.577043
616.992686	8140.782906
617.340864	8197.291720
617.688990	8106.077082
618.037063	8193.208385
618.385082	8146.688618
618.733048	8226.956390
619.080961	8171.302051
619.428821	8187.738733
619.776628	8187.181686
620.124382	8135.003223
620.472083	8128.719425
620.819731	8152.586767
621.167326	8046.611631
621.514868	8049.013741
621.862357	7940.386958
622.209793	7959.543343
622.557176	7895.351810
622.904506	7866.007254
623.251783	7801.843447
623.599007	7752.644307
623.946179	7757.385512
624.293297	7715.357412
624.640363	7634.396481
624.987376	7614.839325
625.334336	7567.702016
625.681243	7517.996239
626.028097	7502.083837
626.374899	7479.814540
626.721647	7471.829352
627.068343	7412.255517
627.414987	7379.251082
627.761577	7336.494536
628.108115	7368.117694
628.454600	7262.041735
628.801032	7319.689850
629.147412	7275.262161
629.493739	7264.763958
629.840014	7199.294493
630.186236	7256.773729
630.532405	7143.640154
630.878521	7193.582866
631.224585	7145.248282
631.570597	7072.774134
631.916556	7106.988445
632.262462	7102.322857
632.608316	7061.297947
632.954117	7041.987808
633.299866	7026.118255
633.645562	7020.547780
633.991206	6942.097344
634.336797	6882.883951
634.682336	6842.484144
635.027823	6811.070194
635.373257	6797.764068
635.718639	6737.665953
636.063968	6743.468321
636.409245	6645.120451
636.754470	6637.336909
637.099642	6600.438183
637.444762	6541.620521
637.789829	6554.152829
638.134845	6497.149982
638.479808	6481.598023
638.824719	6483.059957
639.169577	6410.545480
639.514383	6432.812256
639.859137	6358.281317
640.203839	6369.147524
640.548489	6357.136975
640.893086	6333.355332
641.237632	6302.503471
641.582125	6325.528941
641.926566	6294.435104
642.270955	6308.404141
642.615292	6303.940199
642.959576	6319.207334
643.303809	6307.811806
643.647990	6314.761036
643.992118	6301.969108
644.336195	6245.702270
644.680219	6278.936076
645.024192	6268.563902
645.368112	6357.953642
645.711981	6377.004163
646.055797	6456.369568
646.399562	6413.766777
646.743274	6542.890892
647.086935	6593.539364
647.430544	6585.047541
647.774101	6612.274813
648.117606	6617.000894
648.461059	6611.874041
648.804460	6570.513894
649.147810	6478.467466
649.491108	6450.153826
649.834354	6421.358755
650.177548	6341.093503
650.520690	6256.989413
650.863781	6233.046453
651.206820	6250.720738
651.549807	6177.104769
651.892742	6118.944977
652.235626	6129.455783
652.578458	6112.709069
652.921238	6016.884297
653.263967	6059.812242
653.606644	5994.791440
653.949269	5998.748746
654.291843	5942.514674
654.634365	5986.234081
654.976836	5949.703360
655.319255	5944.546259
655.661622	5920.729328
656.003938	5922.224030
656.346203	5882.340942
656.688416	5910.997381
657.030577	5864.555751
657.372687	5835.949723
657.714746	5820.503628
658.056753	5868.308890
658.398708	5803.058715
658.740612	5792.764679
659.082465	5840.753943
659.424266	5835.256565
659.766016	5833.547613
660.107715	5810.262524
660.449362	5822.832641
660.790958	5821.519420
661.132503	5803.078880
661.473996	5843.723183
661.815438	5830.452345
662.156829	5826.784906
662.498168	5819.936498
662.839456	5793.959432
663.180693	5831.899156
663.521879	5835.266647
663.863013	5819.303833
664.204097	5842.654458
664.545129	5882.182145
664.886110	5873.990270
665.227040	5908.191978
665.567918	5874.529674
665.908746	5902.049333
666.249522	5905.794910
666.590248	5891.777982
666.930922	5924.474905
667.271545	5934.017810
667.612118	5936.898829
667.952639	5909.197689
668.293109	5933.059990
668.633528	5888.576849
668.973896	5890.033742
669.314213	5884.866560
669.654480	5866.231934
669.994695	5855.786664
670.334859	5846.412638
670.674973	5841.545404
671.015035	5842.349468
671.355047	5843.672771
671.695008	5830.994269
672.034918	5803.151976
672.374777	5812.490714
672.714585	5799.108971
673.054342	5804.344209
673.394049	5799.610566
673.733705	5829.653322
674.073310	5810.733872
674.412864	5771.443119
674.752368	5763.513384
675.091820	5767.112768
675.431223	5705.756884
675.770574	5705.557758
676.109875	5656.812321
676.449125	5666.945041
676.788324	5631.896418
677.127473	5574.833077
677.466571	5568.309824
677.805619	5559.318927
678.144616	5544.865938
678.483562	5521.769892
678.822458	5489.829141
679.161303	5485.087936
679.500098	5477.014528
679.838842	5455.085509
680.177535	5463.920131
680.516179	5480.286237
680.854771	5490.769317
681.193314	5570.333848
681.531805	5679.366444
681.870247	5825.509494
682.208638	5924.253095
682.546978	5938.837153
682.885268	5914.634573
683.223508	5831.090051
683.561697	5778.246156
683.899836	5747.984109
684.237925	5704.408375
684.575963	5670.612480
684.913951	5628.357528
685.251889	5693.448907
685.589776	5656.383823
685.927614	5632.128312
686.265401	5702.691862
686.603137	5683.255694
686.940824	5760.365183
687.278460	5785.475170
687.616046	5797.952026
687.953582	5860.129618
688.291068	5842.538511
688.628504	5902.843314
688.965889	5863.325709
689.303224	5810.194468
689.640510	5769.313231
689.977745	5688.753072
690.314930	5595.290080
690.652065	5535.779259
690.989150	5443.311894
691.326185	5371.737592
691.663170	5315.783305
692.000105	5237.506788
692.336990	5163.331251
692.673825	5140.641017
693.010610	5069.154935
693.347345	5002.861242
693.684030	4988.052852
694.020665	4944.194814
694.357251	4858.749777
694.693786	4870.215881
695.030272	4837.723124
695.366707	4797.867762
695.703093	4769.720479
696.039429	4791.152945
696.375716	4772.087301
696.711952	4743.468670
697.048139	4737.600767
697.384276	4713.834247
697.720363	4726.686669
698.056400	4738.389708
698.392388	4683.688147
698.728326	4666.825488
699.064214	4644.384792
699.400053	4635.028410
699.735842	4607.050006
700.071581	4581.377930
700.407270	4554.458169
700.742910	4536.151218
701.078501	4483.519052
701.414042	4485.144824
701.749533	4452.397488
702.084974	4387.401892
702.420366	4442.438689
702.755709	4386.403743
703.091002	4328.148170
703.426246	4380.137589
703.761440	4336.879448
704.096584	4296.779590
704.431679	4317.697858
704.766725	4303.237308
705.101721	4295.476452
705.436668	4323.326306
705.771565	4266.520064
706.106413	4297.717244
706.441212	4330.726720
706.775961	4337.880117
707.110661	4319.590811
707.445311	4346.364379
707.779913	4365.878686
708.114465	4381.594483
708.448967	4403.407555
708.783421	4464.357626
709.117825	4506.509234
709.452180	4510.217003
709.786485	4551.050349
710.120742	4636.873472
710.454949	4623.095999
710.789107	4686.682593
711.123216	4762.050363
711.457275	4752.046194
711.791286	4824.177543
712.125247	4845.221840
712.459159	4745.195266
712.793023	4819.567408
713.126837	4779.409577
713.460602	4771.570582
713.794318	4694.009910
714.127985	4702.879820
714.461602	4612.428917
714.795171	4587.490329
715.128691	4522.136811
715.462162	4465.900219
715.795584	4416.990944
716.128957	4401.325559
716.462281	4352.335626
716.795556	4325.010051
717.128782	4284.627888
717.461960	4217.242785
717.795088	4227.851893
718.128167	4185.680121
718.461198	4129.985453
718.794180	4127.275833
719.127113	4105.210702
719.459997	4083.352259
719.792833	4039.794170
720.125619	4030.959547
720.458357	3997.216584
720.791046	4002.484590
721.123686	3974.841423
721.456278	3933.834157
721.788821	3953.436684
722.121315	3925.899381
722.453761	3897.570617
722.786158	3909.235847
723.118506	3933.140998
723.450805	3884.461096
723.783056	3909.477822
724.115259	3919.643309
724.447412	3927.305863
724.779518	3921.034667
725.111574	3927.552879
725.443582	3957.940955
725.775542	3942.101649
726.107453	3992.487982
726.439315	3988.805419
726.771129	4007.124972
727.102895	4042.781053
727.434612	4085.819904
727.766281	4099.922532
728.097901	4100.625773
728.429473	4108.681537
728.760996	4111.786888
729.092471	4108.432000
729.423897	4090.893826
729.755276	4096.555041
730.086606	4098.321966
730.417887	4133.693222
730.749120	4201.960527
731.080305	4265.284981
731.411442	4289.167448
731.742530	4256.054628
732.073570	4263.608798
732.404562	4315.983865
732.735506	4308.618740
733.066401	4271.737658
733.397249	4208.753482
733.728048	4129.105772
734.058798	4052.888567
734.389501	3977.654387
734.720156	3917.417639
735.050762	3871.036503
735.381320	3865.453426
735.711831	3813.330415
736.042293	3786.413174
736.372707	3806.436637
736.703073	3783.428811
737.033391	3772.121503
737.363661	3789.059780
737.693883	3813.496773
738.024056	3825.262827
738.354182	3818.381652
738.684260	3880.539078
739.014290	3902.087491
739.344272	3896.511974
739.674207	3938.736679
740.004093	3945.852268
740.333931	3940.743058
740.663722	3941.037966
740.993464	3938.419086
741.323159	3915.083585
741.652806	3883.596538
741.982405	3855.973536
742.311956	3824.181499
742.641460	3816.062721
742.970915	3796.132519
743.300323	3752.970160
743.629683	3719.902711
743.958996	3706.314281
744.288260	3681.736135
744.617477	3653.087258
744.946647	3636.217037
745.275768	3612.301803
745.604842	3609.650156
745.933869	3560.390521
746.262847	3554.182340
746.591778	3593.720110
746.920662	3562.298598
747.249498	3530.912374
747.578286	3576.875094
747.907027	3594.047785
748.235720	3589.929162
748.564365	3617.189202
748.892963	3617.932772
749.221514	3597.435440
749.550017	3576.265115
749.878473	3572.441399
750.206881	3545.909807
750.535242	3543.064075
750.863555	3540.851009
751.191821	3535.441851
751.520039	3520.164634
751.848210	3499.342148
752.176334	3533.616953
752.504411	3538.000236
752.832440	3497.822240
753.160421	3479.411946
753.488356	3489.915190
753.816243	3504.942870
754.144082	3456.918318
754.471875	3441.968776
754.799620	3462.413176
755.127318	3455.998307
755.454969	3454.738019
755.782572	3457.208184
756.110129	3437.663631
756.437638	3428.937393
756.765100	3440.305195
757.092515	3452.056125
757.419882	3458.861683
757.747203	3429.441509
758.074477	3431.052158
758.401703	3449.719550
758.728882	3473.281903
759.056014	3475.794918
759.383099	3476.656956
759.710138	3475.835248
760.037129	3494.046416
760.364073	3525.311652
760.690970	3510.505783
761.017820	3489.458966
761.344623	3507.256760
761.671379	3548.085065
761.998088	3601.327211
762.324751	3725.395048
762.651366	3973.114828
762.977935	4440.180252
763.304456	4877.230647
763.630931	4967.921004
763.957359	4611.047641
764.283740	4274.001136
764.610074	4086.228238
764.936362	3889.164493
765.262602	3731.590626
765.588796	3621.466621
765.914943	3534.824309
766.241044	3445.495063
766.567097	3418.756783
766.893104	3375.710371
767.219064	3340.694516
767.544978	3316.214673
767.870845	3258.795931
768.196665	3245.227665
768.522438	3248.789240
768.848165	3246.051894
769.173846	3212.132490
769.499479	3190.367308
769.825066	3177.590504
770.150607	3162.678771
770.476101	3175.626974
770.801548	3170.250584
771.126949	3124.015641
771.452303	3109.988631
771.777611	3115.604476
772.102872	3118.528345
772.428087	3097.030345
772.753256	3084.336719
773.078378	3077.445462
773.403453	3046.313817
773.728482	3036.670089
774.053465	3054.823284
774.378401	3045.976059
774.703291	3010.637571
775.028135	3012.790143
775.352932	3007.358300
775.677683	2995.766167
776.002388	2990.921618
776.327046	2995.161228
776.651658	2984.322748
776.976224	2970.285655
777.300743	2973.801860
777.625216	2963.038996
777.949643	2958.693522
778.274024	2960.097483
778.598359	2945.982252
778.922647	2953.642285
779.246889	2953.952316
779.571086	2937.044286
779.895236	2931.080601
780.219339	2942.791202
780.543397	2956.477934
780.867409	2957.506330
781.191374	2951.779579
781.515294	2945.092488
781.839167	2949.861420
782.162995	2939.401026
782.486776	2947.202211
782.810511	2946.640123
783.134201	2931.683019
783.457844	2940.315995
783.781441	2930.977258
784.104993	2909.176788
784.428498	2910.051428
784.751958	2924.348140
785.075372	2921.109199
785.398739	2902.633370
785.722061	2919.299425
786.045337	2930.654624
786.368568	2915.420257
786.691752	2909.809453
787.014891	2955.540280
787.337983	2981.802171
787.661030	3010.405678
787.984031	3080.765062
788.306987	3125.374232
788.629897	3118.067080
788.952760	3102.242898
789.275579	3084.553489
789.598351	3025.314890
789.921078	2980.950216
790.243759	2975.722539
790.566395	2958.985908
790.888984	2932.958431
791.211529	2917.212387
791.534027	2907.805594
791.856480	2896.687329
792.178888	2883.459342
792.501249	2874.418032
792.823566	2874.690254
793.145836	2869.578524
793.468062	2863.982844
793.790241	2863.962679
794.112375	2868.550129
794.434464	2884.961605
794.756507	2889.241545
795.078505	2893.408059
795.400457	2906.804925
795.722364	2941.026798
796.044226	2965.849439
796.366042	2969.206848
796.687812	2957.226546
797.009538	2979.082468
797.331218	2963.686784
797.652852	2950.756225
797.974442	2932.464398
798.295986	2927.697987
798.617484	2927.007349
798.938938	2909.068403
799.260346	2892.979561
799.581709	2886.579816
799.903026	2881.853734
800.224299	2875.648074
800.545526	2865.553163
800.866708	2851.639578
801.187845	2841.895028
801.508936	2844.196315
801.829983	2850.069259
802.150984	2835.558298
802.471940	2826.242245
802.792851	2824.656802
803.113717	2824.558500
803.434538	2830.464212
803.755314	2824.092193
804.076045	2815.444094
804.396731	2815.282777
804.717372	2815.033240
805.037967	2809.659370
805.358518	2818.856955
805.679024	2829.090497
805.999485	2825.536484
806.319901	2831.989161
806.640272	2818.355360
806.960598	2826.335507
807.280879	2836.405212
807.601115	2842.701613
807.921306	2831.013697
808.241453	2825.216371
808.561554	2832.752896
808.881611	2836.306909
809.201623	2828.203254
809.521590	2826.350630
809.841513	2821.306956
810.161390	2828.273830
810.481223	2822.690752
810.801011	2810.397899
811.120755	2805.921354
811.440453	2810.229020
811.760107	2811.174237
812.079716	2807.305151
812.399281	2798.813327
812.718801	2793.608336
813.038276	2786.273457
813.357707	2794.180507
813.677093	2802.233750
813.996434	2792.479117
814.315731	2792.083387
814.634983	2787.281688
814.954191	2786.785134
815.273354	2801.921199
815.592473	2808.318423
815.911547	2812.086685
816.230577	2818.405772
816.549562	2829.357678
816.868502	2827.525219
817.187399	2837.080726
817.506250	2854.755012
817.825058	2846.119515
818.143821	2859.997812
818.462539	2875.721170
818.781213	2900.463153
819.099843	2937.361879
819.418429	2991.271978
819.736970	3055.143398
820.055466	3125.132257
820.373919	3230.315932
820.692327	3368.040255
821.010691	3531.933208
821.329011	3970.226247
821.647286	4857.489488
821.965517	6217.408794
822.283704	6944.136491
822.601847	6912.788076
822.919945	6292.030473
823.237999	5797.528569
823.556010	5223.641095
823.873976	4679.120862
824.191897	4274.064151
824.509775	3987.865244
824.827609	3721.357084
825.145398	3602.317798
825.463144	3592.169955
825.780845	3684.216383
826.098502	3789.473155
826.416116	4068.248962
826.733685	4375.023339
827.051210	4432.008542
827.368692	4319.656346
827.686129	4057.344947
828.003522	3735.701687
828.320872	3485.327740
828.638177	3298.895789
828.955439	3160.458142
829.272656	3081.780854
829.589830	3011.479443
829.906960	2964.054789
830.224046	2920.514343
830.541088	2885.669887
830.858086	2871.196735
831.175041	2852.433560
831.491952	2856.048067
831.808819	2867.317567
832.125642	2889.143243
832.442421	2936.991354
832.759157	3014.073117
833.075849	3188.814633
833.392497	3467.459371
833.709101	3668.203158
834.025662	3617.305148
834.342179	3459.617856
834.658653	3285.062863
834.975083	3141.216058
835.291469	3046.654094
835.607811	2961.196454
835.924110	2903.329049
836.240366	2854.490351
836.556578	2811.219607
836.872746	2788.907460
837.188871	2767.694285
837.504952	2752.477562
837.820990	2743.471540
838.136984	2730.132647
838.452935	2722.908674
838.768842	2719.301728
839.084706	2737.033987
839.400526	2815.900318
839.716303	2945.493260
840.032037	3024.425127
840.347727	3009.591531
840.663373	2951.807305
840.978977	2879.575133
841.294537	2806.075109
841.610054	2759.928387
841.925527	2740.605644
842.240957	2716.019937
842.556344	2694.257276
842.871687	2680.522652
843.186987	2670.465550
843.502244	2667.322391
843.817458	2660.647903
844.132629	2649.733805
844.447756	2641.214255
844.762840	2634.023049
845.077881	2639.931282
845.392879	2635.442134
845.707833	2634.101187
846.022745	2623.976030
846.337613	2627.593057
846.652438	2626.214302
846.967221	2628.744961
847.281960	2626.123561
847.596656	2624.311266
847.911309	2622.955196
848.225919	2620.144753
848.540485	2615.806840
848.855009	2615.068311
849.169490	2616.474793
849.483928	2616.026130
849.798323	2617.188116
850.112675	2615.070831
850.426984	2614.322220
850.741251	2613.608897
851.055474	2610.649739
851.369654	2617.120060
851.683792	2617.767849
851.997887	2615.665687
852.311938	2613.036726
852.625947	2614.813732
852.939914	2618.168620
853.253837	2618.345061
853.567718	2614.269288
853.881555	2614.140738
854.195350	2615.307766
854.509103	2616.255502
854.822812	2610.886674
855.136479	2610.349791
855.450103	2615.395986
855.763685	2615.998404
856.077224	2612.734257
856.390720	2612.686366
856.704173	2614.596963
857.017584	2617.203239
857.330953	2620.432098
857.644278	2623.391256
857.957561	2622.136008
858.270802	2613.687035
858.584000	2616.000924
858.897155	2621.117695
859.210268	2619.181892
859.523339	2618.239197
859.836367	2613.644185
860.149352	2613.334154
860.462295	2614.644854
860.775195	2609.875922
861.088054	2609.092023
861.400869	2609.543206
861.713642	2605.472474
862.026373	2606.299224
862.339062	2610.372476
862.651708	2616.373970
862.964312	2617.246089
863.276873	2617.188116
863.589392	2616.656274
863.901869	2621.558796
864.214303	2626.579786
864.526696	2630.542132
864.839045	2631.167236
865.151353	2633.967597
865.463619	2634.970786
865.775842	2634.890128
866.088023	2632.717390
866.400162	2634.244860
866.712258	2633.511372
867.024313	2633.932308
867.336325	2625.977368
867.648296	2631.706639
867.960224	2638.038328
868.272110	2634.401136
868.583954	2628.313942
868.895755	2630.796711
869.207515	2632.881228
869.519233	2643.684421
869.830909	2635.618574
870.142542	2630.801752
870.454134	2634.617905
870.765684	2636.652011
871.077191	2640.626961
871.388657	2643.266005
871.700081	2643.243320
872.011463	2642.217445
872.322803	2644.964874
872.634101	2646.134421
872.945357	2654.243117
873.256571	2662.288799
873.567744	2657.386277
873.878874	2655.135402
874.189963	2657.661020
874.501010	2661.890548
874.812015	2666.122596
875.122979	2664.285096
875.433900	2655.367295
875.744780	2656.292346
876.055618	2660.400887
876.366415	2662.944149
876.677169	2668.920437
876.987882	2659.962306
877.298554	2659.967347
877.609183	2669.104439
877.919771	2676.338495
878.230317	2683.408713
878.540822	2694.589992
878.851285	2705.302444
879.161707	2729.739437
879.472087	2765.579521
879.782425	2814.665236
880.092722	2922.989549
880.402977	3109.529886
880.713191	3362.273175
881.023363	3647.300013
881.333494	3831.692818
881.643583	4002.542563
881.953631	4003.507944
882.263637	3826.351716
882.573602	3608.468005
882.883526	3482.628203
883.193408	3374.684496
883.503248	3274.602468
883.813048	3161.574758
884.122806	3051.327244
884.432522	2966.741724
884.742197	2906.106725
885.051831	2868.204810
885.361424	2830.343224
885.670975	2800.731486
885.980485	2770.106477
886.289954	2750.398086
886.599382	2736.660942
886.908768	2725.537636
887.218113	2709.728577
887.527417	2696.152750
887.836680	2688.959023
888.145901	2685.203364
888.455082	2677.989472
888.764221	2662.868532
889.073319	2655.117757
889.382376	2656.902326
889.691392	2657.542552
890.000366	2657.262768
890.309300	2657.575320
890.618193	2659.115392
890.927044	2659.740496
891.235855	2661.076401
891.544625	2659.115392
891.853353	2659.589261
892.162041	2665.555467
892.470687	2687.696214
892.779293	2696.747606
893.087858	2706.880325
893.396381	2728.834550
893.704864	2768.757968
894.013306	2839.124914
894.321707	2928.575148
894.630068	2973.867395
894.938387	2994.702483
895.246665	2987.765856
895.554903	2946.693055
895.863100	2901.320150
896.171256	2847.551203
896.479371	2788.133643
896.787446	2750.869434
897.095480	2734.440313
897.403473	2728.136350
897.711425	2711.629092
898.019336	2693.848942
898.327207	2680.174813
898.635038	2680.527693
898.942827	2678.327230
899.250576	2668.265087
899.558284	2656.047850
899.865952	2653.086172
900.173579	2649.945534
900.481165	2647.813126
900.788711	2640.541261
901.096216	2633.629839
901.403681	2629.627163
901.711105	2632.377112
902.018489	2629.614560
902.325832	2632.850981
902.633135	2632.596403
902.940397	2648.526449
903.247619	2685.967098
903.554800	2753.657192
903.861941	2874.760831
904.169041	2996.025786
904.476101	3058.246228
904.783121	3051.249106
905.090100	2994.692401
905.397039	2923.171031
905.703938	2850.338961
906.010796	2791.964920
906.317614	2741.848289
906.624391	2705.602393
906.931129	2680.875533
907.237826	2654.684218
907.544483	2640.952115
907.851099	2627.381329
908.157675	2619.083590
908.464211	2610.649739
908.770707	2600.678337
909.077163	2598.455188
909.383578	2594.936463
909.689954	2593.529981
909.996289	2590.394383
910.302584	2590.843046
910.608839	2585.978332
910.915054	2587.203333
911.221229	2588.987901
911.527363	2591.447984
911.833458	2591.967223
912.139513	2593.101483
912.445527	2593.981164
912.751502	2598.833275
913.057436	2603.914758
913.363331	2613.495471
913.669186	2619.612911
913.975000	2632.120014
914.280775	2649.542241
914.586510	2668.980931
914.892205	2702.058462
915.197859	2766.988523
915.503475	2847.576408
915.809050	2911.150400
916.114585	2924.862338
916.420081	2935.877259
916.725536	2947.310596
917.030952	2921.686411
917.336328	2875.932899
917.641665	2826.650579
917.946961	2782.111985
918.252218	2746.768455
918.557435	2725.056205
918.862612	2701.009902
919.167750	2684.295956
919.472848	2670.621826
919.777906	2653.668426
920.082925	2643.772641
920.387904	2632.500621
920.692843	2627.449385
920.997743	2625.168262
921.302603	2619.318003
921.607423	2607.937599
921.912204	2608.164451
922.216946	2604.156733
922.521647	2600.448965
922.826310	2596.481577
923.130932	2594.081987
923.435516	2589.771801
923.740059	2586.666450
924.044564	2584.579412
924.349028	2583.490523
924.653454	2575.964080
924.957840	2572.415108
925.262186	2571.331260
925.566493	2571.941240
925.870761	2568.914027
926.174989	2568.674572
926.479178	2566.209448
926.783328	2566.025446
927.087438	2564.742472
927.391509	2562.196689
927.695541	2561.120403
927.999533	2560.109652
928.303486	2562.063099
928.607400	2557.009342
928.911275	2557.899106
929.215110	2557.581513
929.518906	2558.191492
929.822663	2559.658468
930.126381	2558.889692
930.430060	2560.437327
930.733699	2557.427758
931.037299	2558.778787
931.340861	2560.371792
931.644383	2558.809034
931.947866	2559.877758
932.251309	2559.449260
932.554714	2558.619991
932.858080	2560.502862
933.161407	2557.412634
933.464694	2554.332489
933.767943	2558.083108
934.071153	2556.938766
934.374323	2556.051523
934.677455	2555.547407
934.980548	2555.121430
935.283602	2555.136553
935.586617	2553.967006
935.889593	2554.256872
936.192530	2555.373488
936.495428	2553.586398
936.798287	2555.832233
937.101108	2559.285423
937.403890	2561.105279
937.706632	2564.757595
938.009336	2567.429407
938.312002	2572.778071
938.614628	2571.270766
938.917216	2575.011302
939.219765	2577.277301
939.522275	2577.178998
939.824747	2578.277970
940.127179	2572.427711
940.429573	2568.679613
940.731929	2569.944943
941.034246	2567.303378
941.336524	2569.007288
941.638763	2569.786146
941.940964	2567.623491
942.243126	2567.079047
942.545250	2568.672051
942.847335	2564.349262
943.149381	2566.675754
943.451389	2564.860939
943.753359	2563.159550
944.055290	2559.557645
944.357182	2558.902295
944.659036	2557.193344
944.960851	2559.023283
945.262628	2557.800803
945.564367	2560.573438
945.866067	2558.675443
946.167729	2556.207798
946.469352	2559.887841
946.770937	2558.607388
947.072484	2558.894733
947.373992	2559.010680
947.675462	2557.374826
947.976893	2555.698642
948.278286	2556.759805
948.579641	2556.981616
948.880958	2558.030176
949.182236	2555.391132
949.483476	2555.565051
949.784678	2555.249979
950.085841	2554.599670
950.386967	2557.231153
950.688054	2554.090514
950.989103	2555.658313
951.290114	2559.048489
951.591087	2560.674261
951.892021	2563.348593
952.192917	2561.856411
952.493776	2562.398335
952.794596	2561.657286
953.095378	2563.467060
953.396122	2564.765157
953.696828	2561.324570
953.997496	2559.459343
954.298126	2556.961451
954.598718	2557.553787
954.899272	2555.176882
955.199788	2557.538663
955.500266	2556.633776
955.800706	2552.479865
956.101108	2547.567261
956.401472	2548.341078
956.701798	2544.466951
957.002087	2545.543238
957.302337	2548.635985
957.602550	2547.209339
957.902724	2545.265974
958.202861	2548.202446
958.502960	2546.279246
958.803022	2548.993907
959.103045	2545.898639
959.403031	2543.496529
959.702979	2545.850748
960.002889	2546.284287
960.302762	2546.528783
960.602596	2544.971067
960.902393	2544.295552
961.202153	2544.502239
961.501875	2544.585418
961.801559	2543.355377
962.101205	2542.553833
962.400814	2543.791437
962.700385	2543.120963
962.999918	2541.946374
963.299414	2543.451159
963.598873	2541.056611
963.898293	2542.644574
964.197677	2542.687424
964.497022	2544.749256
964.796331	2541.568288
965.095601	2541.162475
965.394835	2542.352187
965.694030	2540.514687
965.993189	2542.833617
966.292309	2541.837989
966.591393	2540.582742
966.890439	2540.305479
967.189447	2541.596014
967.488419	2541.414532
967.787353	2540.605427
968.086249	2541.500232
968.385108	2543.511652
968.683930	2541.646426
968.982714	2542.332022
969.281462	2539.236754
969.580172	2541.777496
969.878844	2540.794471
970.177480	2543.320089
970.476078	2541.046528
970.774639	2543.854451
971.073162	2542.684903
971.371649	2541.555685
971.670098	2538.712474
971.968510	2540.623071
972.266885	2538.190715
972.565223	2542.659698
972.863524	2539.945036
973.161788	2541.424615
973.460014	2542.644574
973.758204	2542.712630
974.056356	2541.830428
974.354471	2541.596014
974.652550	2541.845551
974.950591	2543.282280
975.248595	2542.760521
975.546563	2540.817156
975.844493	2542.813453
976.142386	2541.648946
976.440243	2541.578370
976.738062	2542.006868
977.035845	2542.813453
977.333590	2541.830428
977.631299	2539.219110
977.928971	2541.230530
978.226606	2543.428473
978.524204	2540.605427
978.821765	2541.580891
979.119290	2539.778678
979.416777	2541.036446
979.714228	2540.013092
980.011642	2540.272711
980.309020	2542.052238
980.606360	2541.308668
980.903664	2541.406971
981.200931	2544.149358
981.498162	2543.120963
981.795356	2544.703885
982.092513	2548.847714
982.389633	2550.082797
982.686717	2552.409289
982.983764	2554.387942
983.280775	2554.392983
983.577749	2554.760987
983.874686	2555.890206
984.171587	2552.442057
984.468451	2549.548434
984.765279	2543.902342
985.062070	2546.538865
985.358824	2542.311858
985.655543	2544.729091
985.952224	2542.750438
986.248869	2540.590304
986.545478	2536.441434
986.842050	2536.736342
987.138586	2536.774150
987.435086	2534.929088
987.731549	2534.460261
988.027975	2542.175747
988.324366	2537.948739
988.620719	2538.815818
988.917037	2537.636188
989.213318	2539.856816
989.509563	2537.031249
989.805772	2537.928575
990.101944	2533.792308
990.398080	2535.317257
990.694180	2538.110056
990.990244	2538.140303
991.286271	2537.036290
991.582262	2540.434028
991.878217	2536.711136
992.174136	2538.140303
992.470019	2538.500746
992.765865	2538.067206
993.061676	2540.358411
993.357450	2538.735159
993.653188	2534.767771
993.948890	2539.592155
994.244556	2537.855478
994.540186	2541.454862
994.835780	2537.187525
995.131337	2543.136087
995.426859	2540.376055
995.722345	2536.741383
996.017795	2541.845551
996.313208	2542.853782
996.608586	2542.299255
996.903928	2542.334543
997.199234	2542.702547
997.494504	2543.521735
997.789738	2542.173226
998.084936	2540.600386
998.380099	2540.814635
998.675225	2539.733308
998.970316	2540.234902
999.265371	2537.943698
999.560390	2540.423946
999.855373	2538.460416
1000.150320	2538.641898
1000.445232	2537.268183
1000.740108	2538.208359
1001.034948	2536.237267
1001.329752	2536.320447
1001.624521	2539.277083
1001.919254	2534.792977
1002.213951	2536.247350
1002.508613	2532.373223
1002.803239	2535.823893
1003.097829	2530.732328
1003.392384	2536.209541
1003.686903	2536.824562
1003.981386	2537.810107
1004.275834	2534.102339
1004.570246	2539.047711
1004.864623	2535.786084
1005.158964	2537.515200
1005.453270	2536.423790
1005.747540	2535.949922
1006.041775	2535.186187
1006.335974	2536.632998
1006.630138	2535.173584
1006.924266	2534.515713
1007.218359	2535.861702
1007.512416	2536.239788
1007.806438	2536.839685
1008.100425	2536.214582
1008.394376	2536.388502
1008.688292	2537.865560
1008.982172	2536.862371
1009.276017	2536.887576
1009.569827	2537.323636
1009.863602	2536.779192
1010.157341	2535.758358
1010.451045	2534.107380
1010.744714	2537.832793
1011.038347	2535.181146
1011.331945	2539.226672
1011.625508	2533.719211
1011.919036	2535.400436
1012.212528	2534.709798
1012.505986	2535.226516
1012.799408	2536.474202
1013.092795	2535.927237
1013.386147	2536.017977
1013.679464	2536.144006
1013.972745	2537.497556
1014.265992	2536.572504
1014.559204	2536.249870
1014.852380	2533.081505
1015.145521	2536.741383
1015.438628	2535.491177
1015.731699	2536.965714
1016.024736	2536.474202
1016.317737	2535.531506
1016.610703	2537.288348
1016.903635	2536.023018
1017.196531	2530.820548
1017.489393	2535.597041
1017.782219	2529.129241
1018.075011	2535.745755
1018.367768	2533.363810
1018.660490	2534.283820
1018.953177	2534.283820
1019.245829	2534.283820
