Dividing Wavelength (nm)	Counts (n)	Blue Motor Position (mm): 18.800000	Red Motor Position (mm): 0.000000	
326.493990	2060.165822
326.888308	2060.165822
327.282561	2060.165822
327.676750	2034.085412
328.070874	2038.246885
328.464933	2043.643440
328.858929	2052.354554
329.252859	2062.204968
329.646726	2073.802143
330.040528	2089.490214
330.434265	2108.218100
330.827938	2131.374640
331.221547	2148.585140
331.615091	2169.861329
332.008571	2191.934022
332.401986	2210.644264
332.795338	2231.156719
333.188625	2248.321848
333.581847	2270.381937
333.975006	2287.297529
334.368100	2305.433080
334.761129	2322.963692
335.154095	2337.411639
335.546996	2381.738505
335.939833	2474.810808
336.332606	2480.078814
336.725315	2500.760147
337.117960	2506.312978
337.510540	2519.482993
337.903056	2523.861235
338.295508	2531.599406
338.687896	2540.986034
339.080220	2542.846220
339.472480	2550.271840
339.864676	2552.258054
340.256807	2553.344423
340.648875	2557.024465
341.040879	2557.636966
341.432818	2559.111503
341.824694	2559.960937
342.216506	2560.210475
342.608253	2558.715772
342.999937	2557.755433
343.391557	2557.168138
343.783113	2557.417675
344.174605	2552.379042
344.566033	2552.454659
344.957397	2551.890050
345.348697	2549.371994
345.739934	2547.249668
346.131106	2548.280584
346.522215	2545.981818
346.913260	2542.662218
347.304241	2542.362269
347.695159	2541.522917
348.086012	2537.883204
348.476802	2535.952442
348.867528	2533.772143
349.258191	2529.880373
349.648789	2531.002029
350.039324	2526.419620
350.429796	2531.770805
350.820203	2527.637059
351.210548	2526.210412
351.600828	2530.802904
351.991045	2530.414735
352.381198	2524.451050
352.771288	2524.849301
353.161314	2525.799558
353.551276	2525.131606
353.941175	2523.468025
354.331010	2526.966586
354.720782	2529.469518
355.110490	2530.661751
355.500135	2527.211082
355.889717	2528.834333
356.279235	2526.412059
356.668689	2528.234436
357.058080	2527.778211
357.447408	2529.063706
357.836672	2529.164529
358.225873	2528.063037
358.615010	2528.267203
359.004084	2530.850795
359.393095	2531.170908
359.782043	2532.642925
360.170927	2531.581762
360.559748	2533.487318
360.948505	2534.631660
361.337199	2536.053265
361.725830	2534.049407
362.114398	2534.072092
362.502903	2534.097298
362.891344	2533.096629
363.279722	2534.246012
363.668037	2534.722401
364.056289	2535.097967
364.444478	2538.856147
364.832603	2535.655014
365.220665	2535.407998
365.608665	2536.822041
365.996601	2538.165509
366.384474	2538.939326
366.772284	2537.331198
367.160031	2539.511497
367.547715	2541.737166
367.935336	2533.212575
368.322893	2535.791125
368.710388	2534.344314
369.097820	2536.927906
369.485189	2536.222144
369.872495	2542.914276
370.259738	2543.304965
370.646918	2542.127856
371.034035	2542.909235
371.421090	2541.553164
371.808081	2541.762372
372.195010	2543.413350
372.581875	2545.243289
372.968678	2542.261446
373.355418	2539.924872
373.742096	2541.570808
374.128710	2545.689431
374.515262	2542.158103
374.901751	2545.749925
375.288177	2544.018288
375.674540	2545.056766
376.060841	2545.696993
376.447079	2547.073228
376.833254	2545.994421
377.219367	2545.286139
377.605417	2546.523742
377.991404	2545.966694
378.377329	2545.883515
378.763191	2545.787733
379.148991	2544.625748
379.534727	2546.826211
379.920402	2548.406613
380.306013	2548.482230
380.691563	2546.256561
381.077049	2546.276725
381.462474	2548.580533
381.847835	2547.632796
382.233134	2549.409802
382.618371	2548.933413
383.003545	2550.294525
383.388657	2548.877961
383.773706	2550.150852
384.158693	2551.151521
384.543618	2548.769576
384.928480	2549.402241
385.313280	2547.975594
385.698017	2550.554144
386.082692	2549.014072
386.467305	2552.666388
386.851856	2551.239741
387.236344	2548.086500
387.620770	2548.998948
388.005133	2548.741850
388.389435	2552.026161
388.773674	2545.344112
389.157851	2550.828887
389.541965	2550.952396
389.926018	2554.657644
390.310008	2552.270657
390.693936	2550.498692
391.077802	2551.297715
391.461606	2554.095555
391.845348	2554.496327
392.229027	2555.696121
392.612645	2554.836605
392.996200	2553.967006
393.379694	2555.595298
393.763125	2556.056564
394.146494	2556.318704
394.529801	2555.315514
394.913047	2556.432130
395.296230	2554.196378
395.679351	2556.606050
396.062410	2557.692418
396.445408	2557.647048
396.828343	2557.218550
397.211217	2556.711914
397.594028	2558.743499
397.976778	2555.244938
398.359466	2559.507234
398.742092	2556.969013
399.124656	2559.550083
399.507158	2557.344579
399.889598	2556.439692
400.271977	2557.236194
400.654294	2560.515464
401.036549	2559.822306
401.418742	2560.134857
401.800874	2559.923129
402.182944	2558.088149
402.564952	2560.747357
402.946898	2560.475135
403.328783	2560.278530
403.710606	2559.519837
404.092367	2560.578479
404.474067	2561.833726
404.855705	2561.468242
405.237282	2559.401369
405.618797	2561.382543
406.000250	2563.187276
406.381642	2563.162070
406.762972	2558.070505
407.144240	2558.330124
407.525447	2559.509754
407.906593	2558.733417
408.287677	2563.608212
408.668700	2562.897410
409.049661	2565.538974
409.430560	2565.095353
409.811399	2565.075188
410.192176	2563.267934
410.572891	2564.359344
410.953545	2564.941598
411.334138	2565.687688
411.714669	2566.857236
412.095139	2563.202399
412.475547	2564.366906
412.855894	2565.057544
413.236180	2566.494273
413.616405	2568.616599
413.996568	2564.487894
414.376670	2564.646690
414.756711	2562.801628
415.136691	2565.922102
415.516609	2567.603327
415.896466	2564.553429
416.276262	2567.184911
416.655997	2566.496793
417.035670	2563.028480
417.415283	2564.707184
417.794834	2563.850188
418.174324	2568.397308
418.553753	2566.489232
418.933121	2565.387740
419.312428	2567.225240
419.691674	2567.318502
420.070859	2569.579459
420.449983	2569.481157
420.829045	2565.014694
421.208047	2566.769016
421.586988	2564.666855
421.965867	2566.925292
422.344686	2565.760785
422.723444	2568.172977
423.102141	2566.514437
423.480777	2567.376475
423.859352	2566.826989
424.237866	2567.376475
424.616319	2568.677092
424.994712	2569.912175
425.373044	2569.952504
425.751314	2567.784808
426.129524	2566.249777
426.507673	2567.066444
426.885762	2559.945814
427.263789	2568.109963
427.641756	2567.855384
428.019662	2572.084912
428.397508	2570.007957
428.775292	2571.308575
429.153016	2569.652556
429.530679	2569.019891
429.908282	2568.402350
430.285824	2570.156671
430.663305	2569.773543
431.040726	2567.154664
431.418086	2569.614747
431.795385	2566.766495
432.172624	2570.252453
432.549802	2569.007288
432.926920	2570.610375
433.303977	2569.662638
433.680974	2568.346897
434.057910	2568.820765
434.434786	2569.524006
434.811601	2571.021229
435.188355	2569.007288
435.565050	2569.259346
435.941683	2570.905283
436.318257	2573.161199
436.694770	2572.024419
437.071222	2571.910993
437.447614	2573.420818
437.823946	2570.867474
438.200218	2570.895200
438.576429	2571.502659
438.952580	2570.975859
439.328670	2567.804973
439.704700	2572.215983
440.080670	2568.682134
440.456580	2568.500652
440.832429	2570.915365
441.208218	2571.837896
441.583947	2570.438976
441.959616	2571.835375
442.335224	2572.037022
442.710773	2572.876374
443.086261	2570.174315
443.461689	2572.863771
443.837057	2575.296127
444.212365	2571.835375
444.587612	2571.059038
444.962800	2570.567525
445.337927	2570.174315
445.712995	2563.963614
446.088002	2574.691189
446.462949	2571.938719
446.837837	2570.895200
447.212664	2578.522466
447.587431	2576.009451
447.962139	2574.660942
448.336786	2575.097002
448.711374	2575.565829
449.085901	2575.611200
449.460369	2573.761096
449.834776	2575.492733
450.209124	2573.461147
450.583412	2576.163206
450.957640	2573.446024
451.331808	2576.279152
451.705917	2573.251940
452.079965	2574.925603
452.453954	2574.686148
452.827883	2574.547516
453.201752	2575.762434
453.575562	2575.845613
453.949311	2574.267732
454.323001	2575.953998
454.696632	2575.202866
455.070202	2576.216138
455.443713	2577.894842
455.817164	2576.979873
456.190556	2579.487847
456.563888	2579.792837
456.937160	2579.588670
457.310373	2580.054977
457.683526	2580.823753
458.056619	2574.272773
458.429653	2574.711354
458.802628	2577.741087
459.175542	2577.723443
459.548398	2579.775193
459.921194	2577.569688
460.293930	2579.414750
460.666607	2579.548341
461.039224	2582.825091
461.411782	2582.124370
461.784280	2579.109760
462.156719	2580.181006
462.529099	2582.260482
462.901419	2577.257136
463.273680	2579.107240
463.645882	2578.020871
464.018024	2577.751169
464.390106	2576.609348
464.762130	2580.296952
465.134094	2584.844073
465.505999	2587.384814
465.877845	2586.401789
466.249631	2587.339444
466.621358	2586.888261
466.993026	2589.492017
467.364634	2593.197265
467.736184	2587.541090
468.107674	2588.839187
468.479105	2587.606625
468.850477	2586.883220
469.221790	2588.791296
469.593043	2586.270719
469.964238	2587.538570
470.335373	2587.596543
470.706449	2590.331369
471.077467	2593.933273
471.448425	2593.063674
471.819324	2596.753799
472.190164	2592.725917
472.560945	2596.267327
472.931667	2597.023501
473.302330	2594.228181
473.672934	2593.580392
474.043479	2593.446802
474.413965	2592.988057
474.784393	2596.680702
475.154761	2595.186000
475.525070	2594.167687
475.895321	2597.008377
476.265513	2598.122472
476.635645	2599.677668
477.005719	2601.434510
477.375734	2602.266301
477.745691	2602.304109
478.115588	2604.986003
478.485427	2604.582711
478.855207	2610.574122
479.224928	2612.696448
479.594591	2616.673918
479.964194	2614.942282
480.333739	2616.038733
480.703226	2617.430091
481.072653	2618.181223
481.442022	2620.175000
481.811333	2620.205247
482.180584	2616.033692
482.549777	2618.965123
482.918912	2620.996708
483.287988	2625.216153
483.657005	2625.362347
484.025964	2625.493417
484.394864	2627.956021
484.763706	2624.490227
485.132489	2623.824795
485.501213	2628.361833
485.869879	2630.675723
486.238487	2632.598923
486.607036	2632.397277
486.975527	2635.190076
487.343959	2635.608492
487.712333	2634.806949
488.080648	2636.979686
488.448905	2640.687455
488.817104	2642.814822
489.185244	2648.014772
489.553326	2651.215904
489.921350	2658.016421
490.289315	2665.323573
490.657222	2669.301044
491.025070	2676.792198
491.392861	2675.675583
491.760593	2676.237672
492.128267	2678.123063
492.495883	2675.766324
492.863440	2678.879236
493.230939	2677.760100
493.598380	2678.004596
493.965763	2683.416275
494.333088	2687.325689
494.700354	2690.244517
495.067563	2696.893799
495.434713	2695.802390
495.801805	2703.192721
496.168839	2708.173381
496.535815	2710.570450
496.902733	2719.276522
497.269593	2722.298694
497.636395	2730.462843
498.003139	2742.022209
498.369825	2745.440111
498.736453	2754.514188
499.103023	2760.079622
499.469535	2772.208638
499.835989	2779.359515
500.202385	2786.805299
500.568723	2796.454067
500.935003	2810.539051
501.301226	2819.386276
501.667390	2841.895028
502.033497	2859.912112
502.399546	2870.697661
502.765537	2876.835265
503.131470	2901.494069
503.497345	2921.104158
503.863163	2922.429981
504.228923	2949.511060
504.594625	2976.234216
504.960269	2989.411793
505.325856	3015.048580
505.691385	3037.320398
506.056856	3063.468863
506.422270	3093.955241
506.787625	3111.868981
507.152924	3146.960453
507.518164	3175.231244
507.883347	3195.494162
508.248472	3230.308370
508.613540	3272.402005
508.978550	3312.905155
509.343503	3342.214424
509.708398	3385.890981
510.073236	3438.445010
510.438016	3478.857419
510.802738	3510.962008
511.167403	3568.393353
511.532010	3624.196405
511.896561	3680.589273
512.261053	3752.977722
512.625488	3795.540183
512.989866	3845.518183
513.354186	3899.052716
513.718449	3952.312506
514.082655	4043.683420
514.446803	4090.908949
514.810894	4176.651414
515.174927	4240.416969
515.538904	4301.029283
515.902822	4400.944952
516.266684	4448.528403
516.630488	4540.615160
516.994235	4609.981437
517.357925	4714.469433
517.721558	4808.396211
518.085133	4908.727776
518.448651	4994.414788
518.812112	5063.839038
519.175516	5159.900746
519.538863	5270.569196
519.902152	5363.669225
520.265385	5492.611858
520.628560	5586.883956
520.991678	5669.808416
521.354739	5783.244460
521.717743	5908.134005
522.080690	5999.807388
522.443580	6162.649260
522.806413	6272.871568
523.169189	6385.354834
523.531908	6509.848649
523.894569	6608.057888
524.257174	6733.587659
524.619722	6882.798252
524.982213	7014.629466
525.344647	7134.941643
525.707025	7265.043742
526.069345	7443.014117
526.431608	7550.993112
526.793815	7727.788897
527.155964	7807.509704
527.518057	7960.037376
527.880093	8067.234992
528.242072	8286.300853
528.603995	8388.043940
528.965860	8506.407712
529.327669	8684.723406
529.689421	8824.507040
530.051117	8959.501578
530.412755	9149.490064
530.774337	9304.860946
531.135862	9435.265514
531.497331	9608.802194
531.858743	9755.993804
532.220098	9987.801181
532.581396	10096.019631
532.942638	10199.930414
533.303824	10402.005066
533.664953	10574.515872
534.026025	10667.573051
534.387040	10951.100146
534.747999	11121.957453
535.108902	11359.927641
535.469748	11384.830941
535.830537	11608.214550
536.191270	11833.062614
536.551947	11951.806993
536.912567	12180.488855
537.273131	12393.278480
537.633638	12487.452275
537.994089	12731.267680
538.354483	12850.710259
538.714821	13194.844626
539.075103	13458.978403
539.435328	13614.364408
539.795497	13733.544847
540.155609	13959.081029
540.515665	14309.244616
540.875665	14315.795596
541.235609	14585.406586
541.595496	14822.534901
541.955328	15189.944275
542.315102	15230.684360
542.674821	15390.841818
543.034483	15559.851542
543.394090	15758.843528
543.753640	15961.218129
544.113134	16511.636511
544.472571	16431.557782
544.831953	17023.908483
545.191278	16982.041700
545.550548	17086.055828
545.909761	17539.684056
546.268918	17811.558524
546.628019	18205.242393
546.987064	18201.519501
547.346053	18145.502199
547.704986	18720.831444
548.063863	18813.016503
548.422684	19120.937742
548.781449	19179.460497
549.140158	19614.522156
549.498811	19745.962681
549.857408	19717.059226
550.215949	20302.596807
550.574434	20464.364913
550.932864	20659.054274
551.291237	21197.726769
551.649555	21330.493117
552.007817	21630.971092
552.366022	21707.246270
552.724173	21974.167805
553.082267	22392.069376
553.440305	22798.204895
553.798288	22669.010204
554.156215	23077.958686
554.514086	23412.217433
554.871902	23471.826557
555.229661	23786.999495
555.587365	23861.807698
555.945014	24163.379603
556.302606	24400.618824
556.660143	24690.805283
557.017625	25031.322622
557.375050	25106.597132
557.732421	25565.808438
558.089735	25821.311759
558.446994	25972.748021
558.804197	26487.769942
559.161345	26632.866952
559.518437	26495.409811
559.875474	26865.450668
560.232455	27239.779026
560.589381	27511.547630
560.946251	27614.795502
561.303065	28236.261386
561.659825	28283.756617
562.016528	28401.175172
562.373177	28361.697897
562.729770	28989.833228
563.086307	28913.585776
563.442789	29476.412958
563.799216	29616.060482
564.155587	29763.199160
564.511904	29971.156838
564.868164	30229.553781
565.224370	30643.495527
565.580520	30688.291220
565.936615	31036.130835
566.292654	31025.312519
566.648638	31472.372124
567.004567	31644.260347
567.360441	31915.010638
567.716260	31941.101129
568.072023	32404.640267
568.427732	32564.323856
568.783385	32455.172793
569.138982	32942.601958
569.494525	33231.119796
569.850013	33136.724190
570.205445	33419.283384
570.560823	33483.754700
570.916145	33587.279836
571.271412	33961.184737
571.626625	33875.999319
571.981782	34134.058505
572.336884	34017.403685
572.691931	34452.908965
573.046923	34388.054521
573.401860	34447.666165
573.756743	34643.416690
574.111570	34920.798618
574.466342	35041.887134
574.821059	35329.731977
575.175722	35114.409173
575.530330	35383.442951
575.884882	35274.957320
576.239380	35370.920725
576.593823	35601.067042
576.948211	35716.237243
577.302544	35513.126634
577.656823	35691.401998
578.011047	36038.971912
578.365216	36060.651394
578.719330	35980.053426
579.073389	36114.858921
579.427394	36316.696639
579.781344	36399.732005
580.135239	36351.266352
580.489080	36544.650054
580.842866	36274.920597
581.196597	36823.239339
581.550273	36957.276058
581.903895	37022.138064
582.257463	37533.341311
582.610975	37185.010183
582.964434	37611.832077
583.317837	37322.845412
583.671186	37407.254492
584.024481	37772.334853
584.377721	37508.364914
584.730906	37827.979109
585.084037	38071.802077
585.437113	37940.643857
585.790135	38170.215482
586.143103	37897.897393
586.496016	38145.407964
586.848874	38367.332159
587.201679	38496.060543
587.554428	38170.807818
587.907124	38523.199595
588.259765	38435.034856
588.612352	38683.246148
588.964884	38303.417890
589.317362	38689.154380
589.669786	38788.636510
590.022155	38750.830377
590.374470	39275.977455
590.726731	38979.643308
591.078937	38503.367696
591.431090	38886.155110
591.783188	38571.524096
592.135232	38487.273812
592.487222	38829.996657
592.839157	39050.075789
593.191038	38807.508069
593.542866	38737.519210
593.894639	38262.014894
594.246358	38625.812282
594.598022	38715.449038
594.949633	38397.203517
595.301190	38480.006989
595.652692	38502.735031
596.004141	39021.769711
596.355535	38083.421937
596.706876	38184.504633
597.058162	37986.571289
597.409395	38543.447390
597.760573	38812.347577
598.111698	38500.519444
598.462768	38490.311107
598.813785	38584.464738
599.164748	38281.025085
599.515657	38613.789130
599.866511	38213.864313
600.217312	38930.970968
600.568060	37975.465627
600.918753	38827.476080
601.269392	38792.871079
601.619978	38601.140875
601.970510	38849.362249
602.320988	39037.883759
602.671412	39334.157412
603.021783	39255.601111
603.372100	38907.380889
603.722363	39067.366947
604.072572	39145.424173
604.422728	39191.540649
604.772830	39044.838031
605.122878	39229.276206
605.472872	39147.722939
605.822813	39448.866347
606.172701	39261.577399
606.522534	39617.578642
606.872314	39855.042194
607.222041	39723.778110
607.571714	40092.301580
607.921333	39636.369543
608.270899	39889.503522
608.620411	40312.446247
608.969870	40071.564793
609.319276	40154.829531
609.668627	40209.067306
610.017926	40640.514457
610.367171	40780.729111
610.716362	40869.312266
611.065500	40783.340428
611.414585	41038.790817
611.763616	41244.903433
612.112594	41173.871055
612.461518	41313.596716
612.810389	41725.290107
613.159207	41557.250805
613.507971	41557.865826
613.856682	42074.188364
614.205340	41928.441045
614.553945	42641.275322
614.902496	41988.438338
615.250994	42430.582818
615.599439	42510.767411
615.947830	42655.524144
616.296169	42675.981146
616.644454	42739.086310
616.992686	42909.419337
617.340864	43373.709606
617.688990	42929.215948
618.037063	43617.953510
618.385082	43458.673213
618.733048	43811.312007
619.080961	43698.606930
619.428821	43755.904685
619.776628	43767.930357
620.124382	43601.632774
620.472083	43743.200977
620.819731	43858.487124
621.167326	43440.267960
621.514868	43443.383393
621.862357	42949.773773
622.209793	43047.975450
622.557176	42643.564006
622.904506	42408.931062
623.251783	42067.760893
623.599007	41774.307766
623.946179	41711.676471
624.293297	41463.898718
624.640363	40947.233381
624.987376	40794.899794
625.334336	40606.728644
625.681243	40217.115508
626.028097	40139.930401
626.374899	39973.905040
626.721647	39957.838883
627.068343	39765.488617
627.414987	39476.880039
627.761577	39229.636648
628.108115	39576.077343
628.454600	38845.989717
628.801032	39061.362933
629.147412	38994.887758
629.493739	38919.789689
629.840014	38476.359714
630.186236	38902.281762
630.532405	38353.776497
630.878521	38600.465360
631.224585	38386.354953
631.570597	38042.490288
631.916556	38209.604538
632.262462	38103.180739
632.608316	38047.672594
632.954117	37917.257944
633.299866	37893.372957
633.645562	37796.764285
633.991206	37281.835625
634.336797	36878.818060
634.682336	36802.474827
635.027823	36554.886117
635.373257	36434.200894
635.718639	36108.005473
636.063968	36012.410072
636.409245	35368.962237
636.754470	35325.663766
637.099642	35114.693998
637.444762	34552.328081
637.789829	34699.890216
638.134845	34335.069474
638.479808	34255.106691
638.824719	34195.089234
639.169577	33693.973336
639.514383	33799.449398
639.859137	33409.669903
640.203839	33590.644806
640.548489	33280.749955
640.893086	33305.905313
641.237632	33038.003274
641.582125	33129.812768
641.926566	32932.489404
642.270955	32957.322128
642.615292	32894.027920
642.959576	32781.048101
643.303809	32801.568118
643.647990	32871.758623
643.992118	32834.086081
644.336195	32687.028061
644.680219	32786.134625
645.024192	32988.441170
645.368112	33523.884805
645.711981	33529.752708
646.055797	34273.776605
646.399562	34067.553083
646.743274	34941.061536
647.086935	35342.791086
647.430544	35299.941279
647.774101	35347.910378
648.117606	35627.800281
648.461059	35778.397190
648.804460	35361.944950
649.147810	34859.498188
649.491108	34512.775188
649.834354	34374.551791
650.177548	33551.187695
650.520690	33060.567479
650.863781	33059.844073
651.206820	32869.303581
651.549807	32468.846923
651.892742	31885.358571
652.235626	31786.123457
652.578458	31668.558708
652.921238	30975.077421
653.263967	31296.307306
653.606644	31003.320485
653.949269	30905.595197
654.291843	30523.543791
654.634365	30887.994009
654.976836	30433.977611
655.319255	30500.677118
655.661622	30378.676153
656.003938	30248.571534
656.346203	30068.854400
656.688416	30315.608798
657.030577	30090.455744
657.372687	29901.737629
657.714746	30060.758307
658.056753	30267.952250
658.398708	29632.658481
658.740612	29723.326153
659.082465	29921.960218
659.424266	29821.285855
659.766016	29820.489353
660.107715	29680.367961
660.449362	29777.742888
660.790958	29772.134605
661.132503	29694.485712
661.473996	29780.061819
661.815438	29855.689209
662.156829	29980.246038
662.498168	29775.774318
662.839456	29765.240827
663.180693	29900.590767
663.521879	29994.641053
663.863013	29948.776636
664.204097	29913.377653
664.545129	30343.501502
664.886110	30284.275506
665.227040	30379.409641
665.567918	30374.744053
665.908746	30441.347778
666.249522	30540.018282
666.590248	30559.240202
666.930922	30669.228096
667.271545	30654.021456
667.612118	30715.034541
667.952639	30532.769103
668.293109	30562.085933
668.633528	30430.947878
668.973896	30389.628060
669.314213	30370.257426
669.654480	30171.832570
669.994695	30165.006847
670.334859	30088.025908
670.674973	29916.208261
671.015035	30114.728900
671.355047	30055.371834
671.695008	29973.296808
672.034918	29886.246163
672.374777	29999.084830
672.714585	29865.945437
673.054342	29983.374074
673.394049	29851.610916
673.733705	30064.299717
674.073310	29772.605953
674.412864	29831.784058
674.752368	29531.182574
675.091820	29771.302814
675.431223	29356.821666
675.770574	29155.341870
676.109875	28981.832916
676.449125	28803.542428
676.788324	28694.598053
677.127473	28205.381798
677.466571	28116.826369
677.805619	27833.276589
678.144616	27768.840560
678.483562	27730.482421
678.822458	27419.745698
679.161303	27352.708434
679.500098	27270.179704
679.838842	27189.944699
680.177535	27283.127908
680.516179	27519.663887
680.854771	27659.782758
681.193314	28444.261914
681.531805	29457.450658
681.870247	30200.796519
682.208638	30930.997572
682.546978	31196.613447
682.885268	31331.461792
683.223508	30887.147095
683.561697	30613.006628
683.899836	30456.864449
684.237925	30040.344154
684.575963	29893.742359
684.913951	29536.841270
685.251889	29708.003566
685.589776	29732.672453
685.927614	29734.888040
686.265401	29910.168959
686.603137	30041.647292
686.940824	30537.233045
687.278460	30866.017098
687.616046	31039.072348
687.953582	31702.720088
688.291068	31622.409466
688.628504	31954.109827
688.965889	31932.112752
689.303224	31658.315084
689.640510	31374.997197
689.977745	30754.834450
690.314930	30001.151703
690.652065	29564.555013
690.989150	28898.996676
691.326185	28033.526343
691.663170	27404.987720
692.000105	26665.316860
692.336990	26072.406591
692.673825	25648.465717
693.010610	25150.608925
693.347345	24655.668441
693.684030	24032.349932
694.020665	23831.956505
694.357251	23153.893587
694.693786	23163.128980
695.030272	22930.452004
695.366707	22447.489301
695.703093	22164.136126
696.039429	22225.330692
696.375716	21993.540959
696.711952	21988.623313
697.048139	21848.396057
697.384276	21697.854601
697.720363	21816.157878
698.056400	21692.823529
698.392388	21539.930374
698.728326	21542.254346
699.064214	21372.085157
699.400053	21378.706712
699.735842	20992.670274
700.071581	20779.119436
700.407270	20541.282838
700.742910	20366.001919
701.078501	20109.271077
701.414042	19917.475338
701.749533	19617.262023
702.084974	19292.914185
702.420366	19527.998312
702.755709	19117.101424
703.091002	18808.628179
703.426246	18881.147698
703.761440	18820.479932
704.096584	18571.071366
704.431679	18507.691459
704.766725	18454.633315
705.101721	18391.961690
705.436668	18516.034569
705.771565	18240.608608
706.106413	18549.870793
706.441212	18622.717987
706.775961	18730.273525
707.110661	18813.462646
707.445311	19182.034006
707.779913	19053.915602
708.114465	19338.322378
708.448967	19668.323871
708.783421	20299.708225
709.117825	20651.618572
709.452180	20903.015874
709.786485	21356.301304
710.120742	22119.022840
710.454949	22242.405080
710.789107	22746.608685
711.123216	23448.680099
711.457275	23657.724146
711.791286	24209.468352
712.125247	24363.997362
712.459159	24091.207924
712.793023	24844.348747
713.126837	23814.337672
713.460602	24066.206322
713.794318	23729.217790
714.127985	23458.694351
714.461602	22554.581053
714.795171	22536.952138
715.128691	21558.716234
715.462162	21036.447654
715.795584	20605.504618
716.128957	20333.355407
716.462281	19958.457398
716.795556	19677.531538
717.128782	19203.249702
717.461960	18597.184543
717.795088	18555.277431
718.128167	18222.074806
718.461198	17762.482892
718.794180	17642.052247
719.127113	17295.273794
719.459997	17099.810616
719.792833	16736.509782
720.125619	16779.074764
720.458357	16438.827126
720.791046	16302.408462
721.123686	16152.797098
721.456278	15921.556851
721.788821	15919.232879
722.121315	15660.679660
722.453761	15766.826195
722.786158	15649.248843
723.118506	15732.569034
723.450805	15602.338386
723.783056	15796.521112
724.115259	15683.006930
724.447412	15683.523648
724.779518	15901.235960
725.111574	15945.227589
725.443582	16212.018053
725.775542	16172.523133
726.107453	16693.029830
726.439315	16607.894823
726.771129	17031.893671
727.102895	17452.726673
727.434612	17733.014827
727.766281	17883.737765
728.097901	18206.185089
728.429473	18299.615313
728.760996	18304.875757
729.092471	18436.772507
729.423897	18318.731369
729.755276	18187.190021
730.086606	18314.043096
730.417887	18890.546929
730.749120	19459.327715
731.080305	19668.112142
731.411442	20072.188349
731.742530	20188.815444
732.073570	20352.947851
732.404562	20669.265132
732.735506	20505.619195
733.066401	20304.605706
733.397249	19804.346804
733.728048	19172.430608
734.058798	18314.622828
734.389501	17559.422694
734.720156	17032.617076
735.050762	16448.770802
735.381320	16075.798514
735.711831	15803.246011
736.042293	15430.538384
736.372707	15462.020390
736.703073	15257.042033
737.033391	15451.277691
737.363661	15449.772906
737.693883	15583.630664
738.024056	15788.518280
738.354182	16000.198851
738.684260	16360.636310
739.014290	16643.064433
739.344272	16862.377311
739.674207	17206.231894
740.004093	17386.921971
740.333931	17440.695959
740.663722	17520.426849
740.993464	17561.388744
741.323159	17402.852017
741.652806	17118.223430
741.982405	16934.334741
742.311956	16571.346458
742.641460	16466.124974
742.970915	16136.930067
743.300323	15793.264527
743.629683	15570.690023
743.958996	15253.916518
744.288260	14940.326502
744.617477	14638.323578
744.946647	14603.937867
745.275768	14291.164518
745.604842	14080.620727
745.933869	13902.078182
746.262847	13872.962998
746.591778	13797.759065
746.920662	13679.475951
747.249498	13683.844111
747.578286	13851.938866
747.907027	14015.511705
748.235720	14292.812975
748.564365	14363.684037
748.892963	14269.953863
749.221514	14381.842273
749.550017	14252.796296
749.878473	14222.783787
750.206881	13991.999763
750.535242	13912.475562
750.863555	13838.718440
751.191821	13738.878388
751.520039	13750.362136
751.848210	13680.774048
752.176334	13724.800966
752.504411	13657.234381
752.832440	13472.468530
753.160421	13585.047578
753.488356	13487.760871
753.816243	13383.545097
754.144082	13229.056417
754.471875	13178.362574
754.799620	13140.601811
755.127318	13113.601391
755.454969	13096.920213
755.782572	13079.699631
756.110129	13094.719749
756.437638	12992.104542
756.765100	12988.056496
757.092515	13027.102753
757.419882	13068.334350
757.747203	13077.486565
758.074477	13167.302282
758.401703	13147.137667
758.728882	13340.980115
759.056014	13385.180952
759.383099	13551.435685
759.710138	13677.535107
760.037129	13805.779540
760.364073	13871.261608
760.690970	13891.832037
761.017820	13914.938165
761.344623	14140.118946
761.671379	14527.897102
761.998088	15229.875255
762.324751	17025.814039
762.651366	20456.621701
762.977935	24941.380876
763.304456	27906.161591
763.630931	28941.249107
763.957359	27719.540596
764.283740	25450.718896
764.610074	23185.519265
764.936362	20543.095133
765.262602	18652.299478
765.588796	16722.545785
765.914943	15431.503765
766.241044	14333.941229
766.567097	13546.192885
766.893104	12817.791524
767.219064	12352.253570
767.544978	11875.057947
767.870845	11486.962197
768.196665	11265.121181
768.522438	11032.603001
768.848165	10828.229583
769.173846	10627.324479
769.499479	10486.852727
769.825066	10325.679477
770.150607	10096.851421
770.476101	10012.850675
770.801548	9892.692252
771.126949	9731.438343
771.452303	9620.898443
771.777611	9415.063090
772.102872	9410.246267
772.428087	9272.269887
772.753256	9107.925751
773.078378	9021.550621
773.403453	8835.085902
773.728482	8725.745795
774.053465	8650.050350
774.378401	8548.874392
774.703291	8427.606916
775.028135	8303.652504
775.352932	8269.844006
775.677683	8159.024321
776.002388	8054.422899
776.327046	8069.727842
776.651658	7968.950136
776.976224	7867.096143
777.300743	7860.719083
777.625216	7778.840663
777.949643	7732.845175
778.274024	7751.510047
778.598359	7664.643404
778.922647	7681.327103
779.246889	7625.410625
779.571086	7639.805639
779.895236	7643.977194
780.219339	7660.116448
780.543397	7657.810120
780.867409	7736.709219
781.191374	7749.682629
781.515294	7714.296249
781.839167	7809.982390
782.162995	7779.165817
782.486776	7728.005667
782.810511	7676.840476
783.134201	7592.194462
783.457844	7579.382369
783.781441	7530.997375
784.104993	7460.396015
784.428498	7439.878519
784.751958	7423.479646
785.075372	7399.808908
785.398739	7334.382292
785.722061	7390.084522
786.045337	7391.831282
786.368568	7549.198461
786.691752	7578.003614
787.014891	7921.875841
787.337983	8282.255327
787.661030	8879.274136
787.984031	9504.833437
788.306987	9905.080888
788.629897	10116.148958
788.952760	10059.768693
789.275579	9840.778450
789.598351	9434.295092
789.921078	9083.246782
790.243759	8668.995006
790.566395	8381.608907
790.888984	8126.342521
791.211529	7914.019203
791.534027	7690.915378
791.856480	7488.991960
792.178888	7419.144253
792.501249	7317.859911
792.823566	7160.664131
793.145836	7167.424318
793.468062	7135.130687
793.790241	7092.555622
794.112375	7159.000550
794.434464	7314.590722
794.756507	7356.149995
795.078505	7517.166969
795.400457	7827.326480
795.722364	8185.979371
796.044226	8464.666958
796.366042	8741.706088
796.687812	8691.833953
797.009538	8774.652549
797.331218	8661.274479
797.652852	8577.505625
797.974442	8417.882530
798.295986	8335.575611
798.617484	8143.807598
798.938938	7997.571287
799.260346	7901.242398
799.581709	7694.393774
799.903026	7613.737833
800.224299	7509.141452
800.545526	7338.889084
800.866708	7239.790082
801.187845	7171.626120
801.508936	7065.978659
801.829983	7026.534151
802.150984	6873.782148
802.471940	6829.745148
802.792851	6818.755433
803.113717	6783.996677
803.434538	6746.137612
803.755314	6695.625250
804.076045	6697.893770
804.396731	6643.550131
804.717372	6674.522980
805.037967	6671.934348
805.358518	6717.796245
805.679024	6798.235416
805.999485	6814.924156
806.319901	6851.822882
806.640272	6873.577981
806.960598	6952.930784
807.280879	6954.775846
807.601115	7030.123452
807.921306	6982.043447
808.241453	6995.578945
808.561554	7018.518716
808.881611	6985.370609
809.201623	6991.745148
809.521590	6934.066786
809.841513	6915.008704
810.161390	6957.001516
810.481223	6822.778274
810.801011	6805.799668
811.120755	6782.564990
811.440453	6701.427618
811.760107	6668.297155
812.079716	6643.829915
812.399281	6573.115130
812.718801	6567.300159
813.038276	6519.671337
813.357707	6460.664631
813.677093	6503.479151
813.996434	6408.773514
814.315731	6447.482014
814.634983	6441.750222
814.954191	6456.175484
815.273354	6564.358645
815.592473	6627.156299
815.911547	6749.701708
816.230577	6837.586663
816.549562	6981.778787
816.868502	7085.006494
817.187399	7183.734972
817.506250	7341.013930
817.825058	7367.553085
818.143821	7641.519632
818.462539	7910.951661
818.781213	8281.980584
819.099843	8831.115993
819.418429	9840.972534
819.736970	10813.917747
820.055466	12009.737413
820.373919	13550.992063
820.692327	15926.940803
821.010691	20101.507700
821.329011	29139.270672
821.647286	42122.631332
821.965517	55504.293558
822.283704	60842.288187
822.601847	62809.124607
822.919945	60124.506017
823.237999	55941.651463
823.556010	49818.081228
823.873976	43094.084364
824.191897	36564.066058
824.509775	31719.250031
824.827609	27185.022013
825.145398	24584.575569
825.463144	23241.982709
825.780845	23558.589856
826.098502	25347.249213
826.416116	29142.784356
826.733685	32801.479898
827.051210	33949.819456
827.368692	32150.561072
827.686129	28162.847062
828.003522	24038.658936
828.320872	20315.373611
828.638177	17462.133466
828.955439	15299.954855
829.272656	13475.183192
829.589830	12002.203408
829.906960	10722.493902
830.224046	9773.758830
830.541088	9028.953555
830.858086	8571.163854
831.175041	8196.371709
831.491952	8079.104388
831.808819	8120.983774
832.125642	8526.199282
832.442421	9430.146222
832.759157	11240.243087
833.075849	14177.763762
833.392497	17404.019045
833.709101	19581.747095
834.025662	19403.292769
834.342179	17698.808077
834.658653	15496.673281
834.975083	13568.810022
835.291469	11944.474635
835.607811	10618.981369
835.924110	9706.096463
836.240366	8835.650511
836.556578	8034.023870
836.872746	7381.512040
837.188871	6882.820937
837.504952	6460.921730
837.820990	6147.634183
838.136984	5928.664104
838.452935	5834.334033
838.768842	5869.107913
839.084706	6297.036339
839.400526	7511.518356
839.716303	9093.374460
840.032037	10194.364981
840.347727	10115.193659
840.663373	9138.248291
840.978977	8087.482786
841.294537	7275.582274
841.610054	6678.767632
841.925527	6241.707155
842.240957	5874.655703
842.556344	5544.399632
842.871687	5261.336323
843.186987	4977.862160
843.502244	4752.215072
843.817458	4591.182974
844.132629	4449.526551
844.447756	4362.937172
844.762840	4281.386427
845.077881	4203.982030
845.392879	4141.577586
845.707833	4093.384156
846.022745	4051.005696
846.337613	4019.173330
846.652438	3976.749500
846.967221	3958.230821
847.281960	3926.801747
847.596656	3909.135024
847.911309	3890.523084
848.225919	3864.029300
848.540485	3847.416177
848.855009	3838.100125
849.169490	3812.589366
849.483928	3804.571411
849.798323	3795.421716
850.112675	3773.003705
850.426984	3779.642905
850.741251	3765.694032
851.055474	3762.366871
851.369654	3771.569497
851.683792	3761.247734
851.997887	3768.690998
852.311938	3772.842388
852.625947	3772.761730
852.939914	3765.094135
853.253837	3773.016308
853.567718	3775.877163
853.881555	3760.597426
854.195350	3775.196607
854.509103	3774.354734
854.822812	3773.717028
855.136479	3762.293774
855.450103	3771.337604
855.763685	3758.991818
856.077224	3763.412910
856.390720	3780.603245
856.704173	3799.154691
857.017584	3810.923264
857.330953	3823.074966
857.644278	3842.690095
857.957561	3852.152341
858.270802	3848.757124
858.584000	3854.274667
858.897155	3844.063810
859.210268	3827.080162
859.523339	3809.882266
859.836367	3810.509890
860.149352	3799.681491
860.462295	3788.674132
860.775195	3778.753141
861.088054	3779.496711
861.400869	3774.669807
861.713642	3774.768109
862.026373	3785.914100
862.339062	3791.449287
862.651708	3810.618275
862.964312	3845.462730
863.276873	3857.763145
863.589392	3911.471598
863.901869	3960.610246
864.214303	4007.863501
864.526696	4045.339439
864.839045	4083.947116
865.151353	4110.035087
865.463619	4121.470944
865.775842	4127.487561
866.088023	4144.468688
866.400162	4135.999550
866.712258	4142.885766
867.024313	4144.796363
867.336325	4144.715705
867.648296	4151.916993
867.960224	4148.491529
868.272110	4162.193385
868.583954	4164.509795
868.895755	4180.669214
869.207515	4174.697967
869.519233	4216.781519
869.830909	4231.259713
870.142542	4251.383999
870.454134	4270.769757
870.765684	4297.681956
871.077191	4333.693439
871.388657	4358.702603
871.700081	4398.406731
872.011463	4438.304943
872.322803	4472.244511
872.634101	4504.830530
872.945357	4545.278227
873.256571	4598.313687
873.567744	4629.334427
873.878874	4645.307323
874.189963	4686.443138
874.501010	4693.231052
874.812015	4692.144683
875.122979	4741.910954
875.433900	4736.658072
875.744780	4751.605093
876.055618	4776.062251
876.366415	4773.690388
876.677169	4800.652999
876.987882	4840.914174
877.298554	4896.989449
877.609183	4977.342921
877.919771	5085.987348
878.230317	5231.916149
878.540822	5449.741886
878.851285	5771.579230
879.161707	6238.443008
879.472087	6998.548185
879.782425	8242.689831
880.092722	10428.135887
880.402977	13741.431732
880.713191	17485.476529
881.023363	21178.114160
881.333494	23372.220918
881.643583	24582.223870
881.953631	24591.408853
882.263637	23762.237348
882.573602	22284.259260
882.883526	20728.208823
883.193408	19063.556808
883.503248	17368.143673
883.813048	15819.385265
884.122806	14389.361154
884.432522	12914.511102
884.742197	11651.606282
885.051831	10560.569519
885.361424	9553.004183
885.670975	8740.196263
885.980485	8053.752426
886.289954	7473.089641
886.599382	7002.699575
886.908768	6630.332226
887.218113	6261.861688
887.527417	5974.233614
887.836680	5709.555393
888.145901	5485.952494
888.455082	5323.672711
888.764221	5172.415410
889.073319	5036.468094
889.382376	4969.685408
889.691392	4906.950769
890.000366	4880.484711
890.309300	4862.815467
890.618193	4862.570971
890.927044	4852.778530
891.235855	4878.490935
891.544625	4908.284154
891.853353	4973.173887
892.162041	5087.880301
892.470687	5275.191934
892.779293	5527.778947
893.087858	5902.313993
893.396381	6481.267827
893.704864	7280.681401
894.013306	8443.514277
894.321707	9614.942319
894.630068	10427.379714
894.938387	10640.524740
895.246665	10397.621783
895.554903	9793.615935
895.863100	9090.057381
896.171256	8537.836786
896.479371	8027.213271
896.787446	7528.272631
897.095480	7099.867816
897.403473	6780.546008
897.711425	6461.720753
898.019336	6194.632861
898.327207	5919.317805
898.635038	5692.846489
898.942827	5440.483807
899.250576	5247.248818
899.558284	5056.486516
899.865952	4930.858441
900.173579	4786.172285
900.481165	4673.620963
900.788711	4585.241975
901.096216	4512.717415
901.403681	4446.075882
901.711105	4422.357253
902.018489	4406.880910
902.325832	4480.058300
902.633135	4603.470787
902.940397	4949.578766
903.247619	5747.406897
903.554800	7196.594955
903.861941	9110.847099
904.169041	10625.154262
904.476101	11243.446740
904.783121	10883.488191
905.090100	10147.845213
905.397039	9310.262543
905.703938	8560.834529
906.010796	7867.413736
906.317614	7310.731719
906.624391	6776.823115
906.931129	6352.718404
907.237826	5953.718639
907.544483	5576.448767
907.851099	5201.621335
908.157675	4846.754351
908.464211	4523.578581
908.770707	4292.711379
909.077163	4089.777210
909.383578	3943.240950
909.689954	3830.911439
909.996289	3758.192795
910.302584	3693.895398
910.608839	3662.637724
910.915054	3635.218888
911.221229	3617.637864
911.527363	3629.661016
911.833458	3640.693581
912.139513	3667.194927
912.445527	3700.849670
912.751502	3782.660035
913.057436	3883.329357
913.363331	4018.245757
913.669186	4224.471800
913.975000	4482.972087
914.280775	4906.867590
914.586510	5490.451724
914.892205	6287.153157
915.197859	7322.482649
915.503475	8546.968836
915.809050	9593.535059
916.114585	10246.971942
916.420081	10503.727989
916.725536	10458.667636
917.030952	10025.584629
917.336328	9608.656000
917.641665	9203.190955
917.946961	8723.222698
918.252218	8302.666959
918.557435	7790.089997
918.862612	7366.217179
919.167750	6984.173335
919.472848	6564.376289
919.777906	6188.812848
920.082925	5833.315720
920.387904	5466.042457
920.692843	5198.208474
920.997743	4954.372903
921.302603	4718.701482
921.607423	4555.663004
921.912204	4395.644178
922.216946	4275.211013
922.521647	4156.693486
922.826310	4046.251888
923.130932	3954.205460
923.435516	3859.456973
923.740059	3786.874440
924.044564	3710.415260
924.349028	3653.014161
924.653454	3586.861620
924.957840	3519.060621
925.262186	3472.019094
925.566493	3409.768406
925.870761	3354.131712
926.174989	3315.161072
926.479178	3280.770320
926.783328	3238.031418
927.087438	3211.691389
927.391509	3174.512879
927.695541	3147.270484
927.999533	3119.778552
928.303486	3098.323401
928.607400	3081.236410
928.911275	3072.921027
929.215110	3054.155331
929.518906	3045.134187
929.822663	3046.142417
930.126381	3044.372972
930.430060	3048.758776
930.733699	3050.462686
931.037299	3061.187741
931.340861	3059.274623
931.644383	3065.911302
931.947866	3066.491035
932.251309	3059.801424
932.554714	3058.440312
932.858080	3054.609035
933.161407	3048.158879
933.464694	3037.121273
933.767943	3030.348482
934.071153	3024.702390
934.374323	3015.769465
934.677455	3010.942561
934.980548	2999.347907
935.283602	2997.535612
935.586617	2995.085611
935.889593	3006.047600
936.192530	3004.873011
936.495428	3026.023172
936.798287	3045.393806
937.101108	3077.891604
937.403890	3129.356744
937.706632	3191.345292
938.009336	3270.509052
938.312002	3339.656038
938.614628	3405.188518
938.917216	3457.694656
939.219765	3491.210767
939.522275	3523.101106
939.824747	3529.450439
940.127179	3521.936600
940.429573	3517.845703
940.731929	3511.929909
941.034246	3505.071419
941.336524	3487.623986
941.638763	3473.654949
941.940964	3459.869913
942.243126	3418.731578
942.545250	3394.672671
942.847335	3355.596167
943.149381	3323.481496
943.451389	3290.104017
943.753359	3254.193357
944.055290	3230.245356
944.357182	3208.215513
944.659036	3190.752957
944.960851	3181.888087
945.262628	3165.519461
945.564367	3168.897034
945.866067	3161.032834
946.167729	3158.539983
946.469352	3157.320024
946.770937	3157.425888
947.072484	3135.353196
947.373992	3139.113897
947.675462	3135.080974
947.976893	3115.024743
948.278286	3107.969649
948.579641	3100.629729
948.880958	3094.713935
949.182236	3098.280551
949.483476	3092.160590
949.784678	3093.814089
950.085841	3092.621856
950.386967	3100.395315
950.688054	3119.788634
950.989103	3139.928043
951.290114	3160.674912
951.591087	3188.093748
951.892021	3217.614745
952.192917	3244.080802
952.493776	3270.962755
952.794596	3279.106739
953.095378	3284.137811
953.396122	3278.159002
953.696828	3268.958897
953.997496	3257.328955
954.298126	3236.095615
954.598718	3216.253633
954.899272	3191.998122
955.199788	3163.863442
955.500266	3134.216416
955.800706	3095.570931
956.101108	3056.743964
956.401472	3027.275899
956.701798	2991.095538
957.002087	2955.610856
957.302337	2925.535332
957.602550	2896.747823
957.902724	2866.382433
958.202861	2844.095492
958.502960	2820.064311
958.803022	2801.197793
959.103045	2782.280863
959.403031	2766.433996
959.702979	2751.592839
960.002889	2738.382496
960.302762	2722.802810
960.602596	2712.614638
960.902393	2704.720191
961.202153	2698.605271
961.501875	2688.253262
961.801559	2680.535255
962.101205	2675.231961
962.400814	2668.726352
962.700385	2664.194355
962.999918	2658.828047
963.299414	2652.904691
963.598873	2649.411171
963.898293	2641.695685
964.197677	2643.891108
964.497022	2642.245171
964.796331	2637.279635
965.095601	2634.554891
965.394835	2634.645632
965.694030	2630.327883
965.993189	2629.967441
966.292309	2627.227574
966.591393	2627.928294
966.890439	2628.175311
967.189447	2627.963582
967.488419	2629.791001
967.787353	2627.177162
968.086249	2630.421145
968.385108	2632.669499
968.683930	2636.152937
968.982714	2639.217958
969.281462	2641.652836
969.580172	2648.289515
969.878844	2654.124650
970.177480	2660.501710
970.476078	2672.600479
970.774639	2677.220697
971.073162	2683.801923
971.371649	2691.754343
971.670098	2696.649303
971.968510	2701.536702
972.266885	2706.827393
972.565223	2709.196735
972.863524	2711.034236
973.161788	2714.757128
973.460014	2720.294836
973.758204	2720.766183
974.056356	2723.737944
974.354471	2724.768860
974.652550	2724.368088
974.950591	2721.401369
975.248595	2720.612428
975.546563	2718.759804
975.844493	2715.679659
976.142386	2710.318392
976.440243	2702.713812
976.738062	2699.094263
977.035845	2697.554191
977.333590	2687.628159
977.631299	2682.876871
977.928971	2678.271777
978.226606	2669.376661
978.524204	2669.285920
978.821765	2664.199396
979.119290	2664.884993
979.416777	2665.802483
979.714228	2670.208452
980.011642	2672.998730
980.309020	2679.884946
980.606360	2692.109744
980.903664	2718.721996
981.200931	2756.702049
981.498162	2803.030252
981.795356	2875.980790
982.092513	2968.289358
982.389633	3068.459605
982.686717	3164.241528
982.983764	3238.785070
983.280775	3286.766773
983.577749	3292.291877
983.874686	3280.427522
984.171587	3247.148345
984.468451	3209.692572
984.765279	3167.546005
985.062070	3118.069600
985.358824	3074.123342
985.655543	3016.671832
985.952224	2965.831795
986.248869	2905.947929
986.545478	2843.601459
986.842050	2788.854528
987.138586	2743.554719
987.435086	2705.415870
987.731549	2674.397650
988.027975	2649.403610
988.324366	2632.561115
988.620719	2620.996708
988.917037	2610.090171
989.213318	2601.691609
989.509563	2591.624425
989.805772	2586.898343
990.101944	2585.885071
990.398080	2581.103537
990.694180	2578.666139
990.990244	2580.279308
991.286271	2580.400296
991.582262	2581.922724
991.878217	2582.545307
992.174136	2587.914136
992.470019	2591.752974
992.765865	2595.380084
993.061676	2598.994592
993.357450	2605.502721
993.653188	2613.966819
993.948890	2629.942235
994.244556	2651.901501
994.540186	2672.192146
994.835780	2702.129038
995.131337	2739.670510
995.426859	2782.603497
995.722345	2830.807010
996.017795	2880.598487
996.313208	2917.277922
996.608586	2945.876388
996.903928	2957.614715
997.199234	2958.547328
997.494504	2951.812347
997.789738	2940.230296
998.084936	2913.822211
998.380099	2884.394476
998.675225	2854.792820
998.970316	2822.980619
999.265371	2784.556944
999.560390	2752.207860
999.855373	2725.814899
1000.150320	2692.253417
1000.445232	2667.728204
1000.740108	2650.311017
1001.034948	2632.656897
1001.329752	2617.057046
1001.624521	2601.999119
1001.919254	2592.579723
1002.213951	2584.571851
1002.508613	2575.361663
1002.803239	2572.838565
1003.097829	2565.508727
1003.392384	2559.930691
1003.686903	2553.961964
1003.981386	2551.905174
1004.275834	2548.961140
1004.570246	2545.192877
1004.864623	2543.350336
1005.158964	2539.965201
1005.453270	2540.333205
1005.747540	2537.527803
1006.041775	2535.657535
1006.335974	2535.491177
1006.630138	2533.467153
1006.924266	2529.887934
1007.218359	2530.021525
1007.512416	2527.851308
1007.806438	2522.273271
1008.100425	2527.894158
1008.394376	2526.444826
1008.688292	2527.100176
1008.982172	2527.629497
1009.276017	2527.942049
1009.569827	2525.176976
1009.863602	2526.354085
1010.157341	2524.123375
1010.451045	2523.730165
1010.744714	2522.255627
1011.038347	2522.888292
1011.331945	2519.644310
1011.625508	2519.591377
1011.919036	2519.745133
1012.212528	2518.585667
1012.505986	2518.789834
1012.799408	2517.559793
1013.092795	2519.036851
1013.386147	2518.114319
1013.679464	2515.525687
1013.972745	2515.863444
1014.265992	2515.321520
1014.559204	2516.428053
1014.852380	2513.635254
1015.145521	2514.867816
1015.438628	2514.968639
1015.731699	2516.402848
1016.024736	2516.864113
1016.317737	2520.254289
1016.610703	2519.949299
1016.903635	2522.507685
1017.196531	2521.559948
1017.489393	2523.006759
1017.782219	2524.153622
1018.075011	2525.202182
1018.367768	2526.044054
1018.660490	2528.390712
1018.953177	2528.390712
1019.245829	2528.390712
