Dividing Wavelength (nm)	Counts (n)	Blue Motor Position (mm): 42.600000	Red Motor Position (mm): 0.000000	
326.493990	2050.025541
326.888308	2050.025541
327.282561	2050.025541
327.676750	2022.755419
328.070874	2026.652231
328.464933	2033.518282
328.858929	2041.543799
329.252859	2049.670139
329.646726	2064.838971
330.040528	2082.412434
330.434265	2098.060175
330.827938	2120.689915
331.221547	2139.690024
331.615091	2160.378919
332.008571	2179.401713
332.401986	2200.587162
332.795338	2221.303784
333.188625	2241.009654
333.581847	2259.946749
333.975006	2278.435180
334.368100	2293.815741
334.761129	2313.778710
335.154095	2328.612305
335.546996	2381.151211
335.939833	2486.201295
336.332606	2498.161433
336.725315	2510.509739
337.117960	2522.578261
337.510540	2529.867770
337.903056	2539.057793
338.295508	2546.478372
338.687896	2552.487427
339.080220	2556.616132
339.472480	2563.583007
339.864676	2569.334963
340.256807	2569.733214
340.648875	2569.135837
341.040879	2571.462330
341.432818	2575.593556
341.824694	2576.049780
342.216506	2572.339491
342.608253	2572.420149
342.999937	2574.250088
343.391557	2569.977710
343.783113	2568.787998
344.174605	2567.401681
344.566033	2565.337328
344.957397	2568.356979
345.348697	2560.848181
345.739934	2564.273645
346.131106	2561.342214
346.522215	2557.896585
346.913260	2557.311811
347.304241	2557.392470
347.695159	2554.151008
348.086012	2553.611604
348.476802	2552.991542
348.867528	2547.365615
349.258191	2544.726571
349.648789	2546.054915
350.039324	2542.427804
350.429796	2546.737991
350.820203	2543.851930
351.210548	2546.556509
351.600828	2541.850592
351.991045	2541.525438
352.381198	2541.464944
352.771288	2544.429142
353.161314	2541.006199
353.551276	2539.261960
353.941175	2541.916127
354.331010	2542.470654
354.720782	2546.138094
355.110490	2545.452497
355.500135	2543.352856
355.889717	2543.698175
356.279235	2543.519214
356.668689	2545.157589
357.058080	2542.959646
357.447408	2543.302445
357.836672	2544.298073
358.225873	2546.337219
358.615010	2545.704554
359.004084	2545.999462
359.393095	2545.787733
359.782043	2545.223124
360.170927	2547.549617
360.559748	2547.499205
360.948505	2547.537014
361.337199	2553.961964
361.725830	2553.530946
362.114398	2554.483724
362.502903	2551.199412
362.891344	2551.259906
363.279722	2551.942982
363.668037	2553.190668
364.056289	2552.830225
364.444478	2553.127653
364.832603	2556.296019
365.220665	2555.073539
365.608665	2555.484393
365.996601	2557.301729
366.384474	2556.825340
366.772284	2555.123950
367.160031	2557.092521
367.547715	2560.470094
367.935336	2556.737120
368.322893	2556.986657
368.710388	2554.713096
369.097820	2556.749722
369.485189	2553.122612
369.872495	2557.508416
370.259738	2560.137378
370.646918	2561.213664
371.034035	2561.052347
371.421090	2560.767522
371.808081	2560.049158
372.195010	2563.774570
372.581875	2562.204251
372.968678	2562.927657
373.355418	2565.508727
373.742096	2564.409756
374.128710	2563.807338
374.515262	2566.257339
374.901751	2567.694067
375.288177	2566.030487
375.674540	2566.912689
376.060841	2568.477967
376.447079	2567.353790
376.833254	2568.926630
377.219367	2567.741958
377.605417	2568.495611
377.991404	2565.919581
378.377329	2569.029973
378.763191	2567.873028
379.148991	2570.197000
379.534727	2570.454099
379.920402	2569.405539
380.306013	2571.275807
380.691563	2574.547516
381.077049	2569.758420
381.462474	2572.888977
381.847835	2572.031980
382.233134	2574.665983
382.618371	2574.252609
383.003545	2577.942733
383.388657	2575.830490
383.773706	2577.234451
384.158693	2578.882908
384.543618	2579.505491
384.928480	2580.458269
385.313280	2581.526994
385.698017	2583.903898
386.082692	2584.612180
386.467305	2587.692325
386.851856	2588.811461
387.236344	2591.241297
387.620770	2593.318252
388.005133	2596.257245
388.389435	2600.106166
388.773674	2602.011722
389.157851	2612.134359
389.541965	2616.681480
389.926018	2622.635083
390.310008	2629.465846
390.693936	2637.030097
391.077802	2646.487302
391.461606	2658.066832
391.845348	2667.002278
392.229027	2676.875377
392.612645	2687.431554
392.996200	2701.267000
393.379694	2712.838969
393.763125	2731.798749
394.146494	2745.717374
394.529801	2763.656320
394.913047	2784.990483
395.296230	2793.376443
395.679351	2810.453352
396.062410	2834.802125
396.445408	2844.667663
396.828343	2870.969883
397.211217	2894.053326
397.594028	2902.562794
397.976778	2934.485901
398.359466	2959.066567
398.742092	2979.967191
399.124656	3002.735562
399.507158	3039.808207
399.889598	3062.019531
400.271977	3105.050821
400.654294	3122.591515
401.036549	3166.293278
401.418742	3187.561906
401.800874	3236.844226
402.182944	3272.717077
402.564952	3336.323836
402.946898	3354.703883
403.328783	3376.179198
403.710606	3425.171652
404.092367	3486.789675
404.474067	3546.552554
404.855705	3561.093762
405.237282	3570.031728
405.618797	3652.222700
406.000250	3725.374884
406.381642	3802.237356
406.762972	3827.145697
407.144240	3826.298784
407.525447	3895.876789
407.906593	3929.728137
408.287677	4015.926827
408.668700	4056.419895
409.049661	4114.753607
409.430560	4160.507119
409.811399	4172.943646
410.192176	4226.170668
410.572891	4310.650325
410.953545	4410.523144
411.334138	4351.415615
411.714669	4464.478614
412.095139	4419.204011
412.475547	4525.128736
412.855894	4546.362076
413.236180	4644.956962
413.616405	4603.916929
413.996568	4703.857804
414.376670	4727.654571
414.756711	4731.853852
415.136691	4808.187003
415.516609	4899.648658
415.896466	4945.442499
416.276262	5030.784193
416.655997	5148.172501
417.035670	5234.484617
417.415283	5365.849524
417.794834	5431.727323
418.174324	5398.004524
418.553753	5415.053706
418.933121	5570.699331
419.312428	5587.050314
419.691674	5534.791192
420.070859	5743.484879
420.449983	5643.702801
420.829045	5829.272715
421.208047	5763.435246
421.586988	5925.029432
421.965867	5990.846737
422.344686	6070.834725
422.723444	6234.095013
423.102141	5881.925046
423.480777	6241.676908
423.859352	6080.796045
424.237866	6427.350166
424.616319	6415.059833
424.994712	6575.272743
425.373044	6496.834910
425.751314	6788.412728
426.129524	6536.990221
426.507673	6790.388860
426.885762	6828.331105
427.263789	6865.479368
427.641756	6953.200486
428.019662	7022.513830
428.397508	7057.696043
428.775292	7056.203862
429.153016	7200.983279
429.530679	7155.139026
429.908282	7204.131480
430.285824	7142.599156
430.663305	7387.775673
431.040726	7300.530944
431.418086	7299.608413
431.795385	7435.896007
432.172624	7616.132381
432.549802	7495.679051
432.926920	7622.373329
433.303977	7579.425219
433.680974	7626.144113
434.057910	7813.138153
434.434786	7859.955348
434.811601	7823.112076
435.188355	8153.232035
435.565050	8052.676139
435.941683	8057.046820
436.318257	8370.949388
436.694770	8318.702869
437.071222	8524.039148
437.447614	8296.546998
437.823946	8275.212835
438.200218	8419.256244
438.576429	8311.514184
438.952580	8466.534706
439.328670	8481.380904
439.704700	8560.491731
440.080670	8455.323179
440.456580	8706.370120
440.832429	8686.835649
441.208218	8437.197711
441.583947	8550.691728
441.959616	8651.527408
442.335224	8691.203809
442.710773	8772.162219
443.086261	8951.728119
443.461689	8682.316255
443.837057	8835.481632
444.212365	9036.727014
444.587612	9033.924133
444.962800	8926.668543
445.337927	9056.130415
445.712995	8623.317111
446.088002	9255.366898
446.462949	9321.690838
446.837837	9332.244494
447.212664	9384.057473
447.587431	10291.765114
447.962139	11255.293452
448.336786	12000.623007
448.711374	11602.707089
449.085901	10463.335744
449.460369	10450.274114
449.834776	10359.039312
450.209124	11281.981320
450.583412	11050.695702
450.957640	11259.827969
451.331808	10857.430467
451.705917	10370.167659
452.079965	10292.072624
452.453954	10491.069652
452.827883	10449.951481
453.201752	10411.744576
453.575562	10431.982288
453.949311	10786.763572
454.323001	10859.840138
454.696632	10780.172263
455.070202	11367.968281
455.443713	11416.701115
455.817164	11573.803634
456.190556	11883.829554
456.563888	11718.136910
456.937160	11930.893767
457.310373	11436.459918
457.683526	11477.343676
458.056619	11511.363902
458.429653	11591.566139
458.802628	11764.006368
459.175542	11830.947850
459.548398	12375.624359
459.921194	12954.376547
460.293930	13270.943364
460.666607	14091.930556
461.039224	14824.916846
461.411782	15087.140025
461.784280	14702.157188
462.156719	14614.307521
462.529099	14515.566440
462.901419	13944.338174
463.273680	13586.353237
463.645882	13822.067508
464.018024	13777.667546
464.390106	14182.908260
464.762130	15345.594942
465.134094	17012.084457
465.505999	19281.558986
465.877845	21281.046959
466.249631	22171.992764
466.621358	21540.981455
466.993026	20712.540917
467.364634	20007.376755
467.736184	19311.826074
468.107674	18761.821066
468.479105	18625.677144
468.850477	18355.264611
469.221790	17930.839786
469.593043	17300.912325
469.964238	16952.805528
470.335373	17062.138073
470.706449	17925.927182
471.077467	19061.200069
471.448425	21385.393803
471.819324	22873.980999
472.190164	22358.586032
472.560945	20687.751043
472.931667	19292.616757
473.302330	19048.309839
473.672934	18597.953319
474.043479	19029.052631
474.413965	18842.789558
474.784393	18681.822995
475.154761	19309.313058
475.525070	19442.586043
475.895321	19287.280696
476.265513	19801.354880
476.635645	20389.833974
477.005719	20442.264494
477.375734	20821.807926
477.745691	21419.761869
478.115588	22077.410635
478.485427	23337.144570
478.855207	25217.467228
479.224928	26918.392865
479.594591	28088.968953
479.964194	27566.022338
480.333739	27934.422299
480.703226	28240.949659
481.072653	28742.342821
481.442022	29235.332379
481.811333	29540.775890
482.180584	29031.967191
482.549777	28819.185129
482.918912	28641.814651
483.287988	28591.556868
483.657005	28415.547502
484.025964	28075.380523
484.394864	28260.799202
484.763706	28208.381285
485.132489	27718.718888
485.501213	27803.049830
485.869879	27998.523091
486.238487	27952.031050
486.607036	28224.838131
486.975527	27942.755327
487.343959	28269.482590
487.712333	28598.690101
488.080648	28577.139168
488.448905	29004.838222
488.817104	28942.096021
489.185244	29831.514356
489.553326	30994.415287
489.921350	32921.537497
490.289315	35302.817257
490.657222	35973.295760
491.025070	36371.191512
491.392861	35997.059759
491.760593	35189.625709
492.128267	34194.423802
492.495883	33255.859258
492.863440	32428.714297
493.230939	31550.973795
493.598380	31056.691181
493.965763	30923.934915
494.333088	30488.124644
494.700354	30301.135645
495.067563	30288.701639
495.434713	30215.562059
495.801805	30501.597128
496.168839	30362.204183
496.535815	30242.872510
496.902733	30386.394160
497.269593	30214.896627
497.636395	30385.317873
498.003139	30666.684834
498.369825	30429.314544
498.736453	30847.914315
499.103023	30696.954443
499.469535	30800.522428
499.835989	30935.350608
500.202385	30822.272486
500.568723	30891.164894
500.935003	31221.728476
501.301226	31133.283952
501.667390	31820.529332
502.033497	32013.655936
502.399546	31821.333396
502.765537	31427.468046
503.131470	31910.168609
503.497345	32334.235512
503.863163	31328.033807
504.228923	32108.835441
504.594625	32513.529190
504.960269	32010.316172
505.325856	32670.230937
505.691385	32367.955790
506.056856	32688.961344
506.422270	33177.055941
506.787625	32728.461305
507.152924	33205.407391
507.518164	33401.558687
507.883347	32972.375013
508.248472	33130.805875
508.613540	33814.358611
508.978550	34060.762649
509.343503	33922.486319
509.708398	34287.188594
510.073236	34899.840021
510.438016	35007.584603
510.802738	34697.044484
511.167403	35248.042600
511.532010	35510.079256
511.896561	35987.867215
512.261053	36750.611436
512.625488	36542.477317
512.989866	36473.441236
513.354186	36538.991359
513.718449	36504.260330
514.082655	37387.349496
514.446803	37089.082067
514.810894	37711.906542
515.174927	37757.808768
515.538904	37740.280677
515.902822	38377.802636
516.266684	38097.872404
516.630488	38455.600243
516.994235	38484.337340
517.357925	39056.856141
517.721558	39318.539917
518.085133	39704.841016
518.448651	39888.528059
518.812112	39790.966608
519.175516	39948.719436
519.538863	40399.083518
519.902152	40454.568977
520.265385	40995.376400
520.628560	41014.731910
520.991678	40976.882927
521.354739	41216.370502
521.717743	41584.760382
522.080690	41481.509989
522.443580	42168.243692
522.806413	42187.508462
523.169189	42329.248064
523.531908	42561.526789
523.894569	42428.659618
524.257174	42629.733601
524.619722	42967.201042
524.982213	43108.393679
525.344647	43143.112105
525.707025	43266.232206
526.069345	43732.458278
526.431608	43626.304181
526.793815	44017.641392
527.155964	43573.034308
527.518057	43829.215664
527.880093	43688.358264
528.242072	44321.040716
528.603995	44057.085901
528.965860	43978.648067
529.327669	44198.638980
529.689421	44253.214512
530.051117	44195.616808
530.412755	44492.505482
530.774337	44551.401282
531.135862	44490.090769
531.497331	44643.936702
531.858743	44645.116332
532.220098	45053.762345
532.581396	44777.002999
532.942638	44549.367177
533.303824	44784.408454
533.664953	44835.235888
534.026025	44528.123754
534.387040	45107.173370
534.747999	45171.929512
535.108902	45499.929666
535.469748	44825.551831
535.830537	45064.517647
536.191270	45324.736967
536.551947	45057.409620
536.912567	45348.667325
537.273131	45490.285939
537.633638	45120.784486
537.994089	45323.363253
538.354483	45066.924798
538.714821	45721.332102
539.075103	46002.993970
539.435328	45850.146186
539.795497	45606.628208
540.155609	45739.215595
540.515665	46297.442725
540.875665	45629.764584
541.235609	45912.248160
541.595496	46019.133224
541.955328	46611.461240
542.315102	46039.295319
542.674821	45931.212981
543.034483	45829.681622
543.394090	45846.176277
543.753640	45829.215315
544.113134	46893.985145
544.472571	45984.820611
544.831953	47131.168913
545.191278	46385.912455
545.550548	46060.269040
545.909761	46719.319247
546.268918	46871.998153
546.628019	47277.135523
546.987064	46706.479428
547.346053	46016.809253
547.704986	46915.132786
548.063863	46564.815443
548.422684	46758.748632
548.781449	46357.752569
549.140158	46896.941782
549.498811	46635.429406
549.857408	46049.092802
550.215949	46890.539517
550.574434	46725.096409
550.932864	46658.381779
551.291237	47378.934063
551.649555	47130.584139
552.007817	47309.308167
552.366022	46979.770460
552.724173	47051.750575
553.082267	47477.153384
553.440305	47801.332344
553.798288	47051.546409
554.156215	47451.914847
554.514086	47652.804828
554.871902	47290.741597
555.229661	47443.717931
555.587365	47150.287489
555.945014	47268.169831
556.302606	47286.605330
556.660143	47389.412101
557.017625	47605.163403
557.375050	47297.897515
557.732421	47716.441833
558.089735	47783.252245
558.446994	47645.139753
558.804197	48133.551944
559.161345	47988.984254
559.518437	47331.098554
559.875474	47594.332484
560.232455	47826.218000
560.589381	47867.016058
560.946251	47684.516206
561.303065	48353.714256
561.659825	48038.720278
562.016528	47827.319492
562.373177	47426.656146
562.729770	48052.094459
563.086307	47567.803412
563.442789	48112.278275
563.799216	47968.471799
564.155587	47851.927884
564.511904	47826.376796
564.868164	47866.227117
565.224370	48205.902584
565.580520	47908.776976
565.936615	48118.977968
566.292654	47760.272146
566.648638	48131.101943
567.004567	48080.103110
567.360441	48180.674129
567.716260	47877.040392
568.072023	48252.102238
568.427732	48188.588741
568.783385	47714.009477
569.138982	48134.731574
569.494525	48270.295762
569.850013	47858.060448
570.205445	47987.479470
570.560823	47762.820449
570.916145	47622.794839
571.271412	47871.563178
571.626625	47525.649284
571.981782	47601.019575
572.336884	47194.785754
572.691931	47525.084675
573.046923	47201.004017
573.401860	47019.812345
573.756743	47029.249385
574.111570	47178.659103
574.466342	47095.890918
574.821059	47248.206861
575.175722	46752.800070
575.530330	46835.321238
575.884882	46476.761609
576.239380	46384.079995
576.593823	46471.191134
576.948211	46400.708241
577.302544	45947.001875
577.656823	45949.421628
578.011047	46204.393108
578.365216	46032.230142
578.719330	45753.517349
579.073389	45723.996352
579.427394	45779.675896
579.781344	45704.489607
580.135239	45456.989118
580.489080	45527.628286
580.842866	45014.479154
581.196597	45496.005128
581.550273	45497.988822
581.903895	45439.309791
582.257463	45884.539458
582.610975	45291.515763
582.964434	45632.012938
583.317837	45142.138813
583.671186	45097.393532
584.024481	45360.508995
584.377721	44925.338951
584.730906	45125.518129
585.084037	45246.725112
585.437113	44948.172857
585.790135	45084.684783
586.143103	44637.519313
586.496016	44794.069825
586.848874	44896.596812
587.201679	44933.364468
587.554428	44423.789514
587.907124	44712.924893
588.259765	44482.012320
588.612352	44627.401717
588.964884	44078.304117
589.317362	44389.499585
589.669786	44388.687959
590.022155	44238.300258
590.374470	44700.387543
590.726731	44274.528510
591.078937	43607.845996
591.431090	43959.947907
591.783188	43469.725942
592.135232	43272.291673
592.487222	43537.123649
592.839157	43685.469683
593.191038	43316.721882
593.542866	43126.380516
593.894639	42530.059907
594.246358	42837.129190
594.598022	42834.928727
594.949633	42397.298600
595.301190	42377.847308
595.652692	42317.958400
596.004141	42796.656287
596.355535	41703.010727
596.706876	41723.744993
597.058162	41442.098248
597.409395	41946.876545
597.760573	42150.009839
598.111698	41755.519386
598.462768	41677.923425
598.813785	41709.339896
599.164748	41290.881277
599.515657	41563.564850
599.866511	41072.508575
600.217312	41774.441357
600.568060	40705.565507
600.918753	41537.925542
601.269392	41457.965280
601.619978	41162.818325
601.970510	41375.524771
602.320988	41509.135512
602.671412	41765.765531
603.021783	41641.138126
603.372100	41201.088245
603.722363	41321.357573
604.072572	41352.799249
604.422728	41344.874555
604.772830	41117.818465
605.122878	41284.080760
605.472872	41129.811370
605.822813	41400.559141
606.172701	41154.686944
606.522534	41479.967396
606.872314	41668.902280
607.222041	41499.070848
607.571714	41839.598270
607.921333	41339.243586
608.270899	41561.843296
608.620411	41922.726897
608.969870	41671.490913
609.319276	41691.078316
609.668627	41730.580798
610.017926	42124.942701
610.367171	42253.323246
610.716362	42289.906899
611.065500	42175.354240
611.414585	42410.350147
611.763616	42578.492792
612.112594	42470.070176
612.461518	42604.280815
612.810389	42983.839370
613.159207	42776.844552
613.507971	42756.584155
613.856682	43253.480607
614.205340	43076.117691
614.553945	43764.235191
614.902496	43094.916154
615.250994	43518.098334
615.599439	43582.466307
615.947830	43692.426475
616.296169	43683.720403
616.644454	43715.635948
616.992686	43895.302671
617.340864	44352.321076
617.688990	43855.412020
618.037063	44538.921906
618.385082	44349.228328
618.733048	44695.812696
619.080961	44575.934057
619.428821	44602.349703
619.776628	44604.789622
620.124382	44427.696408
620.472083	44547.625458
620.819731	44647.851158
621.167326	44191.465418
621.514868	44179.729612
621.862357	43650.605063
622.209793	43733.259822
622.557176	43317.102489
622.904506	43067.230137
623.251783	42674.622555
623.599007	42383.281671
623.946179	42290.143833
624.293297	42045.252141
624.640363	41497.674449
624.987376	41334.000786
625.334336	41139.893678
625.681243	40733.949723
626.028097	40642.788018
626.374899	40463.254885
626.721647	40430.568044
627.068343	40206.881965
627.414987	39933.767373
627.761577	39683.411071
628.108115	39984.509108
628.454600	39250.786809
628.801032	39470.961724
629.147412	39365.042041
629.493739	39285.686717
629.840014	38832.693674
630.186236	39270.790108
630.532405	38708.073830
630.878521	38942.495046
631.224585	38725.637210
631.570597	38374.500680
631.916556	38547.785302
632.262462	38435.302037
632.608316	38379.587204
632.954117	38224.702794
633.299866	38185.061680
633.645562	38099.785522
633.991206	37572.677435
634.336797	37171.462082
634.682336	37054.000677
635.027823	36829.944074
635.373257	36691.743362
635.718639	36376.126802
636.063968	36259.048524
636.409245	35615.701512
636.754470	35578.911171
637.099642	35344.724369
637.444762	34776.336793
637.789829	34912.705046
638.134845	34542.165115
638.479808	34452.425015
638.824719	34399.606325
639.169577	33883.586256
639.514383	33982.329857
639.859137	33600.626290
640.203839	33758.661422
640.548489	33469.521002
640.893086	33466.398008
641.237632	33201.041751
641.582125	33293.748571
641.926566	33090.446398
642.270955	33135.960455
642.615292	33065.467480
642.959576	32937.318829
643.303809	32955.802220
643.647990	33039.999571
643.992118	32973.973059
644.336195	32821.896571
644.680219	32920.004986
645.024192	33117.807260
645.368112	33642.455264
645.711981	33659.983356
646.055797	34386.464037
646.399562	34190.345508
646.743274	35065.996452
647.086935	35460.885156
647.430544	35418.615081
647.774101	35466.059901
648.117606	35756.836175
648.461059	35894.731897
648.804460	35490.809446
649.147810	34986.764637
649.491108	34637.805886
649.834354	34503.920401
650.177548	33669.541384
650.520690	33175.568801
650.863781	33172.070240
651.206820	32987.848835
651.549807	32581.914962
651.892742	31999.417197
652.235626	31902.009502
652.578458	31766.019336
652.921238	31069.745249
653.263967	31385.676881
653.606644	31103.929313
653.949269	30993.323877
654.291843	30597.711767
654.634365	30979.170838
654.976836	30514.005928
655.319255	30592.017784
655.661622	30463.496087
656.003938	30327.027012
656.346203	30138.031633
656.688416	30392.103267
657.030577	30155.234571
657.372687	29979.804937
657.714746	30138.089607
658.056753	30317.060650
658.398708	29717.816172
658.740612	29775.542425
659.082465	29993.663069
659.424266	29882.850946
659.766016	29883.697860
660.107715	29740.261910
660.449362	29848.281234
660.790958	29833.797999
661.132503	29762.906773
661.473996	29826.079992
661.815438	29901.919111
662.156829	30024.961073
662.498168	29843.403917
662.839456	29803.172989
663.180693	29932.002196
663.521879	30028.477278
663.863013	29984.304167
664.204097	29949.348807
664.545129	30374.665915
664.886110	30302.446345
665.227040	30414.123027
665.567918	30405.568188
665.908746	30478.357409
666.249522	30558.478987
666.590248	30597.971387
666.930922	30691.419256
667.271545	30684.381805
667.612118	30730.790667
667.952639	30551.320549
668.293109	30585.227350
668.633528	30458.807814
668.973896	30419.068398
669.314213	30400.164072
669.654480	30209.860514
669.994695	30182.933191
670.334859	30116.417686
670.674973	29943.914443
671.015035	30127.727515
671.355047	30057.307637
671.695008	30012.882468
672.034918	29905.523536
672.374777	30004.317548
672.714585	29874.296108
673.054342	29996.302113
673.394049	29865.025426
673.733705	30072.980584
674.073310	29793.589756
674.412864	29838.975264
674.752368	29538.585509
675.091820	29778.589802
675.431223	29371.556958
675.770574	29169.724282
676.109875	29017.867084
676.449125	28813.201279
676.788324	28698.383959
677.127473	28220.142297
677.466571	28124.932544
677.805619	27839.010901
678.144616	27777.418083
678.483562	27736.761178
678.822458	27400.392708
679.161303	27363.357871
679.500098	27272.128110
679.838842	27191.885544
680.177535	27286.757538
680.516179	27516.188012
680.854771	27651.217838
681.193314	28403.925122
681.531805	29417.333156
681.870247	30135.652209
682.208638	30888.397301
682.546978	31157.529381
682.885268	31311.536631
683.223508	30860.053413
683.561697	30596.317888
683.899836	30444.306935
684.237925	30023.834375
684.575963	29888.877646
684.913951	29506.876651
685.251889	29681.464412
685.589776	29701.182885
685.927614	29712.039010
686.265401	29896.595652
686.603137	29988.468160
686.940824	30488.520375
687.278460	30825.017394
687.616046	31008.601094
687.953582	31670.814625
688.291068	31573.137228
688.628504	31917.937027
688.965889	31915.645823
689.303224	31644.177168
689.640510	31373.439480
689.977745	30732.794526
690.314930	29998.127011
690.652065	29570.604397
690.989150	28910.195600
691.326185	28071.307270
691.663170	27421.565554
692.000105	26677.650043
692.336990	26078.249289
692.673825	25649.229452
693.010610	25159.352807
693.347345	24659.446786
693.684030	24040.481313
694.020665	23836.909439
694.357251	23148.829747
694.693786	23157.994565
695.030272	22919.726949
695.366707	22427.148245
695.703093	22145.796408
696.039429	22214.164536
696.375716	21973.404070
696.711952	21977.379020
697.048139	21839.284172
697.384276	21663.481493
697.720363	21785.621089
698.056400	21686.017971
698.392388	21533.979292
698.728326	21525.530318
699.064214	21364.929239
699.400053	21374.472143
699.735842	20994.195223
700.071581	20775.031060
700.407270	20524.621825
700.742910	20362.883965
701.078501	20114.455904
701.414042	19909.243134
701.749533	19595.307798
702.084974	19282.723493
702.420366	19515.516415
702.755709	19099.933775
703.091002	18797.363721
703.426246	18863.722949
703.761440	18794.737280
704.096584	18563.265139
704.431679	18491.063213
704.766725	18433.515921
705.101721	18375.522487
705.436668	18487.186566
705.771565	18206.636272
706.106413	18520.682512
706.441212	18595.210931
706.775961	18688.868008
707.110661	18774.529814
707.445311	19138.425505
707.779913	19005.601183
708.114465	19309.819694
708.448967	19619.245718
708.783421	20242.334853
709.117825	20607.006882
709.452180	20831.275213
709.786485	21283.058380
710.120742	22041.930995
710.454949	22160.143532
710.789107	22664.727744
711.123216	23376.576475
711.457275	23585.176901
711.791286	24155.215454
712.125247	24302.351612
712.459159	24039.901581
712.793023	24801.403157
713.126837	23781.035810
713.460602	24032.591908
713.794318	23705.050498
714.127985	23431.283077
714.461602	22545.592675
714.795171	22517.740300
715.128691	21539.748892
715.462162	21026.052795
715.795584	20594.585478
716.128957	20324.568676
716.462281	19951.533373
716.795556	19670.471402
717.128782	19182.948976
717.461960	18590.474767
717.795088	18548.149239
718.128167	18203.798102
718.461198	17737.128408
718.794180	17602.171679
719.127113	17273.266637
719.459997	17090.023216
719.792833	16721.545116
720.125619	16757.775889
720.458357	16424.230465
720.791046	16289.878674
721.123686	16138.414686
721.456278	15903.824592
721.788821	15911.081333
722.121315	15635.761236
722.453761	15734.467029
722.786158	15630.178158
723.118506	15697.830443
723.450805	15587.207363
723.783056	15766.407779
724.115259	15650.544420
724.447412	15640.290713
724.779518	15866.509971
725.111574	15915.905717
725.443582	16182.590318
725.775542	16135.342103
726.107453	16647.351935
726.439315	16566.224646
726.771129	16980.841906
727.102895	17397.896563
727.434612	17679.460129
727.766281	17836.915528
728.097901	18160.643305
728.429473	18263.510570
728.760996	18265.932844
729.092471	18394.010919
729.423897	18292.310682
729.755276	18153.658786
730.086606	18269.403678
730.417887	18848.226442
730.749120	19389.938753
731.080305	19614.043247
731.411442	20009.509163
731.742530	20128.621546
732.073570	20298.120262
732.404562	20621.762339
732.735506	20468.670058
733.066401	20265.461147
733.397249	19767.392626
733.728048	19157.067692
734.058798	18291.022667
734.389501	17520.225202
734.720156	17013.987492
735.050762	16431.429233
735.381320	16040.724687
735.711831	15771.988337
736.042293	15403.235495
736.372707	15426.029072
736.703073	15217.085848
737.033391	15413.779068
737.363661	15406.981072
737.693883	15534.333221
738.024056	15729.128447
738.354182	15939.248780
738.684260	16313.962787
739.014290	16576.586737
739.344272	16803.831871
739.674207	17156.377403
740.004093	17327.259916
740.333931	17388.746869
740.663722	17472.775342
740.993464	17515.811672
741.323159	17367.263992
741.652806	17070.690391
741.982405	16902.978764
742.311956	16551.572532
742.641460	16448.874146
742.970915	16111.759585
743.300323	15771.733758
743.629683	15554.583536
743.958996	15239.849178
744.288260	14924.444346
744.617477	14620.467811
744.946647	14583.173354
745.275768	14259.685033
745.604842	14058.293457
745.933869	13877.011044
746.262847	13858.111758
746.591778	13770.430970
746.920662	13649.218946
747.249498	13660.987520
747.578286	13816.093741
747.907027	13979.895953
748.235720	14255.271502
748.564365	14327.526361
748.892963	14246.540224
749.221514	14351.030740
749.550017	14217.417478
749.878473	14191.347151
750.206881	13954.145739
750.535242	13886.057395
750.863555	13809.121825
751.191821	13701.939333
751.520039	13731.742634
751.848210	13644.613852
752.176334	13694.123024
752.504411	13622.193320
752.832440	13447.963482
753.160421	13561.129824
753.488356	13452.041775
753.816243	13356.065768
754.144082	13199.694216
754.471875	13148.508861
754.799620	13123.056075
755.127318	13090.331425
755.454969	13074.255185
755.782572	13048.182337
756.110129	13068.982138
756.437638	12962.064306
756.765100	12965.822487
757.092515	12991.232423
757.419882	13026.644008
757.747203	13045.901215
758.074477	13133.158547
758.401703	13120.497689
758.728882	13309.220845
759.056014	13351.803472
759.383099	13531.306357
759.710138	13645.077638
760.037129	13769.654632
760.364073	13833.009333
760.690970	13863.397408
761.017820	13874.881157
761.344623	14099.789715
761.671379	14475.426253
761.998088	15172.070864
762.324751	16932.540090
762.651366	20309.072169
762.977935	24762.805563
763.304456	27747.095543
763.630931	28832.461007
763.957359	27663.102358
764.283740	25420.880307
764.610074	23170.587367
764.936362	20540.761079
765.262602	18655.941711
765.588796	16723.531331
765.914943	15438.780670
766.241044	14329.479808
766.567097	13536.904559
766.893104	12814.295484
767.219064	12348.407169
767.544978	11859.758045
767.870845	11481.966414
768.196665	11255.815211
768.522438	11022.742504
768.848165	10825.093985
769.173846	10614.809814
769.499479	10484.536317
769.825066	10312.796808
770.150607	10083.099153
770.476101	10003.821968
770.801548	9884.858299
771.126949	9724.350481
771.452303	9606.256411
771.777611	9416.464531
772.102872	9404.017922
772.428087	9263.097507
772.753256	9102.493907
773.078378	9012.872274
773.403453	8834.453237
773.728482	8718.945279
774.053465	8654.174013
774.378401	8544.337353
774.703291	8422.225484
775.028135	8299.027246
775.352932	8258.138447
775.677683	8156.891913
776.002388	8050.329482
776.327046	8058.090339
776.651658	7962.777243
776.976224	7866.589507
777.300743	7854.924277
777.625216	7771.785568
777.949643	7728.134217
778.274024	7740.167451
778.598359	7661.066706
778.922647	7677.873913
779.246889	7620.855942
779.571086	7628.730224
779.895236	7637.733725
780.219339	7643.556258
780.543397	7649.542628
780.867409	7726.342086
781.191374	7736.215186
781.515294	7694.602982
781.839167	7796.943446
782.162995	7773.612986
782.486776	7710.860703
782.810511	7666.059969
783.134201	7584.756239
783.457844	7575.578819
783.781441	7525.162239
784.104993	7457.414173
784.428498	7436.390041
784.751958	7420.979233
785.075372	7390.815489
785.398739	7337.530493
785.722061	7382.875672
786.045337	7388.683081
786.368568	7540.620938
786.691752	7566.799649
787.014891	7905.913027
787.337983	8260.404445
787.661030	8852.112399
787.984031	9481.820570
788.306987	9877.997289
788.629897	10091.222973
788.952760	10040.849243
789.275579	9829.047685
789.598351	9431.041027
789.921078	9073.461902
790.243759	8664.563832
790.566395	8376.605562
790.888984	8121.830688
791.211529	7914.326713
791.534027	7691.265738
791.856480	7487.930798
792.178888	7414.912205
792.501249	7312.523849
792.823566	7156.177504
793.145836	7159.703791
793.468062	7128.854450
793.790241	7080.877789
794.112375	7153.162894
794.434464	7296.291334
794.756507	7343.373190
795.078505	7497.110739
795.400457	7807.368552
795.722364	8163.004312
796.044226	8448.041233
796.366042	8721.962409
796.687812	8680.067900
797.009538	8755.864169
797.331218	8648.938775
797.652852	8570.362310
797.974442	8412.377590
798.295986	8319.948034
798.617484	8135.262842
798.938938	7991.766398
799.260346	7898.487408
799.581709	7692.190790
799.903026	7614.148687
800.224299	7506.792275
800.545526	7334.873805
800.866708	7237.791264
801.187845	7176.579054
801.508936	7065.187198
801.829983	7030.824173
802.150984	6877.358847
802.471940	6827.779098
802.792851	6809.746891
803.113717	6783.757223
803.434538	6747.833960
803.755314	6691.302461
804.076045	6693.381937
804.396731	6640.285984
804.717372	6672.294790
805.037967	6669.635582
805.358518	6708.359205
805.679024	6792.291896
805.999485	6799.747763
806.319901	6844.651840
806.640272	6863.868719
806.960598	6954.428007
807.280879	6949.470032
807.601115	7025.281424
807.921306	6970.479040
808.241453	6984.274158
808.561554	7011.539238
808.881611	6974.469114
809.201623	6981.385577
809.521590	6931.349604
809.841513	6913.698004
810.161390	6950.821061
810.481223	6823.743655
810.801011	6808.781510
811.120755	6781.529033
811.440453	6704.472475
811.760107	6671.536097
812.079716	6644.081973
812.399281	6577.090079
812.718801	6569.200674
813.038276	6524.185690
813.357707	6460.223530
813.677093	6505.908987
813.996434	6407.888792
814.315731	6451.746830
814.634983	6446.057888
814.954191	6457.783612
815.273354	6563.920065
815.592473	6627.645291
815.911547	6751.166163
816.230577	6832.709347
816.549562	6980.778118
816.868502	7087.070847
817.187399	7182.767070
817.506250	7333.530337
817.825058	7368.397478
818.143821	7637.201883
818.462539	7909.386382
818.781213	8281.027806
819.099843	8820.022934
819.418429	9824.924021
819.736970	10788.195260
820.055466	11977.043009
820.373919	13512.008821
820.692327	15858.678539
821.010691	19999.343676
821.329011	28997.536111
821.647286	42020.696681
821.965517	55538.878394
822.283704	60952.155094
822.601847	62978.328415
822.919945	60321.920123
823.237999	56217.707568
823.556010	50102.510690
823.873976	43362.409859
824.191897	36799.389640
824.509775	31922.519436
824.827609	27363.504065
825.145398	24723.436672
825.463144	23321.269977
825.780845	23610.294450
826.098502	25355.400759
826.416116	29123.401119
826.733685	32774.582821
827.051210	33947.949187
827.368692	32178.224403
827.686129	28223.585405
828.003522	24104.030099
828.320872	20381.788292
828.638177	17521.782919
828.955439	15359.246386
829.272656	13534.898180
829.589830	12044.080273
829.906960	10765.338668
830.224046	9814.206528
830.541088	9063.102331
830.858086	8596.649407
831.175041	8211.132208
831.491952	8092.017304
831.808819	8136.636557
832.125642	8531.643728
832.442421	9415.743646
832.759157	11202.643641
833.075849	14113.531900
833.392497	17350.779419
833.709101	19543.333502
834.025662	19415.058822
834.342179	17731.179847
834.658653	15533.186358
834.975083	13604.256895
835.291469	11981.063330
835.607811	10647.635287
835.924110	9733.848015
836.240366	8857.897123
836.556578	8056.761995
836.872746	7402.989876
837.188871	6899.839872
837.504952	6481.973589
837.820990	6165.462224
838.136984	5940.750271
838.452935	5845.956414
838.768842	5872.382142
839.084706	6296.703623
839.400526	7500.707602
839.716303	9077.320906
840.032037	10190.400113
840.347727	10131.476586
840.663373	9158.612032
840.978977	8119.239535
841.294537	7300.447765
841.610054	6696.134407
841.925527	6252.830461
842.240957	5893.965842
842.556344	5559.639040
842.871687	5269.848311
843.186987	4988.262060
843.502244	4768.142598
843.817458	4598.071711
844.132629	4459.674394
844.447756	4364.976319
844.762840	4286.835914
845.077881	4208.899675
845.392879	4145.431548
845.707833	4099.352882
846.022745	4054.340419
846.337613	4023.458311
846.652438	3980.938698
846.967221	3963.042602
847.281960	3929.637396
847.596656	3911.151485
847.911309	3893.174731
848.225919	3868.094990
848.540485	3851.693596
848.855009	3838.236236
849.169490	3819.112619
849.483928	3806.759271
849.798323	3795.129329
850.112675	3774.816000
850.426984	3784.096764
850.741251	3766.787963
851.055474	3764.302674
851.369654	3767.783590
851.683792	3765.827623
851.997887	3770.488169
852.311938	3772.055968
852.625947	3777.344139
852.939914	3766.339300
853.253837	3775.912451
853.567718	3773.936319
853.881555	3760.491561
854.195350	3779.892442
854.509103	3773.991771
854.822812	3774.057306
855.136479	3764.698404
855.450103	3773.406997
855.763685	3760.892333
856.077224	3764.842077
856.390720	3779.269859
856.704173	3799.094197
857.017584	3811.470230
857.330953	3823.551355
857.644278	3846.445755
857.957561	3857.261551
858.270802	3850.322402
858.584000	3854.312476
858.897155	3843.426104
859.210268	3830.649299
859.523339	3808.780774
859.836367	3808.652225
860.149352	3798.942962
860.462295	3793.528763
860.775195	3783.885036
861.088054	3777.394550
861.400869	3778.450672
861.713642	3777.250877
862.026373	3784.495015
862.339062	3792.908701
862.651708	3814.406702
862.964312	3844.588090
863.276873	3859.734237
863.589392	3916.916045
863.901869	3962.813230
864.214303	4008.715456
864.526696	4040.414232
864.839045	4084.970470
865.151353	4116.694451
865.463619	4120.813074
865.775842	4127.139722
866.088023	4147.873988
866.400162	4138.918378
866.712258	4145.199655
867.024313	4149.945902
867.336325	4150.359276
867.648296	4155.715502
867.960224	4153.121829
868.272110	4166.493489
868.583954	4168.424251
868.895755	4183.726674
869.207515	4178.703164
869.519233	4218.056931
869.830909	4233.250969
870.142542	4259.527983
870.454134	4272.687916
870.765684	4302.302174
871.077191	4336.939942
871.388657	4362.796020
871.700081	4398.290784
872.011463	4445.851550
872.322803	4477.494873
872.634101	4512.462837
872.945357	4549.525400
873.256571	4606.593782
873.567744	4633.765601
873.878874	4655.631606
874.189963	4692.394220
874.501010	4701.697670
874.812015	4701.848904
875.122979	4745.059154
875.433900	4743.130913
875.744780	4754.443262
876.055618	4787.699754
876.366415	4784.395278
876.677169	4806.170542
876.987882	4852.806256
877.298554	4907.895985
877.609183	4981.559846
877.919771	5094.837093
878.230317	5237.937807
878.540822	5457.028874
878.851285	5782.422752
879.161707	6247.645634
879.472087	7002.439956
879.782425	8248.923217
880.092722	10435.178379
880.402977	13769.284107
880.713191	17567.659940
881.023363	21340.615754
881.333494	23591.014557
881.643583	24838.596790
881.953631	24848.981567
882.263637	24007.229863
882.573602	22520.301207
882.883526	20963.363526
883.193408	19271.517008
883.503248	17552.541519
883.813048	15989.486399
884.122806	14538.680131
884.432522	13067.777303
884.742197	11770.010383
885.051831	10664.477783
885.361424	9647.056990
885.670975	8812.478847
885.980485	8109.623534
886.289954	7530.243722
886.599382	7050.028448
886.908768	6663.606362
887.218113	6296.333098
887.527417	6011.694429
887.836680	5736.429785
888.145901	5510.535681
888.455082	5349.329663
888.764221	5194.581363
889.073319	5058.210590
889.382376	4985.055886
889.691392	4921.091206
890.000366	4897.695211
890.309300	4876.908013
890.618193	4886.045104
890.927044	4866.876117
891.235855	4890.320002
891.544625	4920.377882
891.853353	4980.196214
892.162041	5101.551910
892.470687	5291.101816
892.779293	5539.227408
893.087858	5920.661273
893.396381	6500.565364
893.704864	7304.463044
894.013306	8459.371226
894.321707	9651.498246
894.630068	10473.554163
894.938387	10684.350011
895.246665	10452.880391
895.554903	9847.415129
895.863100	9147.029981
896.171256	8583.854958
896.479371	8070.209272
896.787446	7572.196205
897.095480	7137.134545
897.403473	6815.524053
897.711425	6492.554971
898.019336	6224.945319
898.327207	5950.686385
898.635038	5720.630808
898.942827	5465.853414
899.250576	5270.896871
899.558284	5077.961831
899.865952	4952.855516
900.173579	4807.929905
900.481165	4693.248696
900.788711	4601.071198
901.096216	4527.777862
901.403681	4463.089776
901.711105	4436.250673
902.018489	4422.614352
902.325832	4496.676463
902.633135	4613.613588
902.940397	4959.953461
903.247619	5756.818731
903.554800	7202.712395
903.861941	9137.933219
904.169041	10686.003509
904.476101	11324.037146
904.783121	10981.843623
905.090100	10243.939688
905.397039	9405.358869
905.703938	8637.029049
906.010796	7936.933768
906.317614	7370.169444
906.624391	6832.542989
906.931129	6403.820581
907.237826	5999.404096
907.544483	5617.788749
907.851099	5239.518209
908.157675	4878.576635
908.464211	4551.955236
908.770707	4314.078309
909.077163	4110.453503
909.383578	3959.569247
909.689954	3845.031711
909.996289	3771.579579
910.302584	3704.398643
910.608839	3673.163653
910.915054	3642.878922
911.221229	3630.064308
911.527363	3643.617451
911.833458	3653.757732
912.139513	3677.824200
912.445527	3706.485680
912.751502	3793.586736
913.057436	3896.040627
913.363331	4032.207233
913.669186	4238.917226
913.975000	4495.010362
914.280775	4925.971043
914.586510	5511.218757
914.892205	6312.863042
915.197859	7364.180553
915.503475	8591.053726
915.809050	9664.252366
916.114585	10322.251492
916.420081	10577.860677
916.725536	10550.351101
917.030952	10108.171332
917.336328	9694.239669
917.641665	9278.914127
917.946961	8794.638204
918.252218	8377.031540
918.557435	7864.547840
918.862612	7428.109945
919.167750	7048.077522
919.472848	6617.701615
919.777906	6239.501650
920.082925	5873.103027
920.387904	5507.843705
920.692843	5230.872630
920.997743	4989.035877
921.302603	4744.860029
921.607423	4583.222992
921.912204	4416.912807
922.216946	4295.872182
922.521647	4173.147812
922.826310	4068.899271
923.130932	3973.087101
923.435516	3870.451730
923.740059	3801.425731
924.044564	3723.217270
924.349028	3666.650482
924.653454	3598.925101
924.957840	3528.172507
925.262186	3481.375476
925.566493	3419.936413
925.870761	3363.679657
926.174989	3326.231446
926.479178	3288.894140
926.783328	3242.986872
927.087438	3216.248592
927.391509	3181.114270
927.695541	3152.782986
927.999533	3125.132257
928.303486	3105.333125
928.607400	3085.072728
928.911275	3075.166861
929.215110	3054.004097
929.518906	3049.572922
929.822663	3048.088303
930.126381	3043.011861
930.430060	3051.511246
930.733699	3055.352605
931.037299	3064.751837
931.340861	3062.513564
931.644383	3071.688464
931.947866	3065.235788
932.251309	3063.688153
932.554714	3060.323183
932.858080	3058.863769
933.161407	3049.401523
933.464694	3040.977755
933.767943	3033.332845
934.071153	3027.737165
934.374323	3020.661905
934.677455	3012.001203
934.980548	3008.230420
935.283602	2998.884121
935.586617	2997.573421
935.889593	3005.208248
936.192530	3011.625637
936.495428	3024.946886
936.798287	3045.978580
937.101108	3078.050401
937.403890	3129.881024
937.706632	3191.733461
938.009336	3270.506531
938.312002	3343.215093
938.614628	3406.705905
938.917216	3459.794296
939.219765	3492.024913
939.522275	3526.105634
939.824747	3532.734751
940.127179	3528.724513
940.429573	3526.269471
940.731929	3521.127494
941.034246	3510.543592
941.336524	3496.345182
941.638763	3478.534786
941.940964	3466.519195
942.243126	3425.942948
942.545250	3399.670975
942.847335	3364.206458
943.149381	3327.015345
943.451389	3298.172383
943.753359	3261.044285
944.055290	3235.505800
944.357182	3209.697613
944.659036	3197.412321
944.960851	3185.744570
945.262628	3172.980369
945.564367	3173.328208
945.866067	3165.763957
946.167729	3162.799758
946.469352	3164.165911
946.770937	3158.232473
947.072484	3143.671100
947.373992	3144.397026
947.675462	3138.448465
947.976893	3120.156638
948.278286	3112.000051
948.579641	3103.682147
948.880958	3098.320880
949.182236	3102.845316
949.483476	3094.444233
949.784678	3093.418358
950.085841	3097.234512
950.386967	3104.090481
950.688054	3124.701238
950.989103	3144.371821
951.290114	3165.600119
951.591087	3192.537525
951.892021	3220.215980
952.192917	3250.079776
952.493776	3274.942746
952.794596	3281.975156
953.095378	3287.711989
953.396122	3280.793005
953.696828	3274.972993
953.997496	3264.563011
954.298126	3238.525451
954.598718	3217.977708
954.899272	3197.112372
955.199788	3166.870490
955.500266	3136.920995
955.800706	3101.332970
956.101108	3062.306877
956.401472	3030.567773
956.701798	2999.123575
957.002087	2957.420630
957.302337	2925.928542
957.602550	2897.395611
957.902724	2868.761858
958.202861	2844.115656
958.502960	2824.371977
958.803022	2802.296765
959.103045	2780.934875
959.403031	2765.647576
959.702979	2750.413209
960.002889	2738.826117
960.302762	2724.158880
960.602596	2712.080275
960.902393	2702.958307
961.202153	2693.367512
961.501875	2686.360308
961.801559	2683.542303
962.101205	2675.310099
962.400814	2669.117042
962.700385	2662.394663
962.999918	2652.115750
963.299414	2648.934782
963.598873	2647.482930
963.898293	2638.696199
964.197677	2641.950264
964.497022	2638.247536
964.796331	2636.150416
965.095601	2632.684623
965.394835	2629.730507
965.694030	2629.365023
965.993189	2628.387039
966.292309	2628.215640
966.591393	2626.355454
966.890439	2624.701956
967.189447	2625.422841
967.488419	2625.241359
967.787353	2626.259672
968.086249	2624.848149
968.385108	2628.112296
968.683930	2630.277472
968.982714	2635.048924
969.281462	2640.319450
969.580172	2644.538896
969.878844	2649.254896
970.177480	2659.233860
970.476078	2665.510096
970.774639	2674.264060
971.073162	2680.809998
971.371649	2688.376770
971.670098	2694.002698
971.968510	2698.834644
972.266885	2702.592824
972.565223	2705.816642
972.863524	2707.817980
973.161788	2711.566078
973.460014	2714.595811
973.758204	2718.028837
974.056356	2723.080073
974.354471	2722.641493
974.652550	2723.800958
974.950591	2720.652757
975.248595	2721.023282
975.546563	2717.431460
975.844493	2712.319730
976.142386	2709.010213
976.440243	2701.992927
976.738062	2699.875642
977.035845	2692.697039
977.333590	2686.551872
977.631299	2681.777900
977.928971	2675.602486
978.226606	2669.888338
978.524204	2668.370951
978.821765	2663.191165
979.119290	2664.317863
979.416777	2660.685712
979.714228	2669.366579
980.011642	2670.402536
980.309020	2675.776406
980.606360	2690.715865
980.903664	2715.215873
981.200931	2752.767428
981.498162	2800.746610
981.795356	2877.944319
982.092513	2966.499748
982.389633	3074.161150
982.686717	3170.497600
982.983764	3249.520208
983.280775	3294.346147
983.577749	3305.913075
983.874686	3293.153915
984.171587	3255.501537
984.468451	3218.827142
984.765279	3175.843744
985.062070	3128.285499
985.358824	3082.766400
985.655543	3023.190044
985.952224	2968.380099
986.248869	2907.137641
986.545478	2846.482478
986.842050	2792.716052
987.138586	2745.795512
987.435086	2706.729091
987.731549	2675.584842
988.027975	2648.453352
988.324366	2631.552884
988.620719	2615.726181
988.917037	2605.482557
989.213318	2594.248345
989.509563	2589.166862
989.805772	2582.353743
990.101944	2579.513053
990.398080	2574.232444
990.694180	2576.430387
990.990244	2576.291755
991.286271	2576.914338
991.582262	2578.260326
991.878217	2577.249575
992.174136	2583.583784
992.470019	2585.416244
992.765865	2589.640731
993.061676	2592.126020
993.357450	2601.754623
993.653188	2607.788885
993.948890	2628.576082
994.244556	2645.970584
994.540186	2668.743996
994.835780	2700.982175
995.131337	2739.433576
995.426859	2782.858075
995.722345	2829.529078
996.017795	2883.502191
996.313208	2918.429826
996.608586	2945.173147
996.903928	2958.998511
997.199234	2960.503296
997.494504	2955.799899
997.789738	2941.578804
998.084936	2917.093920
998.380099	2887.709034
998.675225	2857.446988
998.970316	2827.247956
999.265371	2788.247069
999.560390	2752.260792
999.855373	2723.785835
1000.150320	2695.061340
1000.445232	2668.411280
1000.740108	2646.716675
1001.034948	2624.291102
1001.329752	2609.180243
1001.624521	2602.813266
1001.919254	2589.345823
1002.213951	2577.635223
1002.508613	2570.774212
1002.803239	2566.960580
1003.097829	2557.750392
1003.392384	2554.060267
1003.686903	2545.545758
1003.981386	2545.631458
1004.275834	2542.790768
1004.570246	2541.089378
1004.864623	2536.965714
1005.158964	2529.610671
1005.453270	2531.150743
1005.747540	2528.859539
1006.041775	2531.034797
1006.335974	2526.517923
1006.630138	2527.720238
1006.924266	2527.069929
1007.218359	2523.132788
1007.512416	2521.643127
1007.806438	2518.043743
1008.100425	2518.449556
1008.394376	2517.315297
1008.688292	2520.166069
1008.982172	2520.014834
1009.276017	2518.225225
1009.569827	2520.413086
1009.863602	2520.100534
1010.157341	2514.330933
1010.451045	2515.606345
1010.744714	2515.210615
1011.038347	2516.347395
1011.331945	2515.167765
1011.625508	2514.555265
1011.919036	2512.654750
1012.212528	2511.684328
1012.505986	2513.103413
1012.799408	2509.350273
1013.092795	2511.386900
1013.386147	2509.559481
1013.679464	2507.926148
1013.972745	2509.403206
1014.265992	2511.248268
1014.559204	2509.778772
1014.852380	2508.122753
1015.145521	2511.523011
1015.438628	2509.670387
1015.731699	2509.267094
1016.024736	2508.155520
1016.317737	2508.543689
1016.610703	2510.850017
1016.903635	2515.140039
1017.196531	2514.023423
1017.489393	2517.390914
1017.782219	2517.073321
1018.075011	2518.610873
1018.367768	2518.623476
1018.660490	2518.076511
1018.953177	2518.076511
1019.245829	2518.076511
