Dividing Wavelength (nm)	Counts (n)	Blue Motor Position (mm): 4.200000	Red Motor Position (mm): 0.000000	
326.493990	2159.567293
326.888308	2159.567293
327.282561	2159.567293
327.676750	2117.967692
328.070874	2115.308483
328.464933	2116.614142
328.858929	2118.691097
329.252859	2124.092694
329.646726	2134.732049
330.040528	2147.919707
330.434265	2156.005718
330.827938	2179.457166
331.221547	2193.413600
331.615091	2212.809440
332.008571	2228.205123
332.401986	2248.457959
332.795338	2267.957142
333.188625	2285.848197
333.581847	2303.956022
333.975006	2321.098465
334.368100	2338.596310
334.761129	2359.191944
335.154095	2375.232896
335.546996	2393.910371
335.939833	2404.146434
336.332606	2420.973805
336.725315	2435.525096
337.117960	2446.577826
337.510540	2459.556276
337.903056	2465.736731
338.295508	2479.461272
338.687896	2492.442243
339.080220	2494.229333
339.472480	2501.627226
339.864676	2510.073679
340.256807	2512.253978
340.648875	2519.709845
341.040879	2516.165913
341.432818	2524.496420
341.824694	2525.434075
342.216506	2527.826102
342.608253	2527.480783
342.999937	2528.882224
343.391557	2528.305012
343.783113	2525.958355
344.174605	2524.672861
344.566033	2525.393746
344.957397	2525.464322
345.348697	2523.541122
345.739934	2523.636903
346.131106	2521.784279
346.522215	2518.303363
346.913260	2515.329082
347.304241	2515.926459
347.695159	2513.877230
348.086012	2510.575274
348.476802	2505.829028
348.867528	2502.501866
349.258191	2499.711587
349.648789	2501.201248
350.039324	2497.395177
350.429796	2499.351145
350.820203	2501.516320
351.210548	2496.928870
351.600828	2496.238232
351.991045	2496.732265
352.381198	2495.648417
352.771288	2499.202431
353.161314	2493.029538
353.551276	2494.539363
353.941175	2492.021307
354.331010	2492.117089
354.720782	2490.955103
355.110490	2495.325783
355.500135	2493.556338
355.889717	2491.565083
356.279235	2492.401914
356.668689	2492.880824
357.058080	2493.248828
357.447408	2492.036431
357.836672	2492.694301
358.225873	2493.122799
358.615010	2495.356030
359.004084	2497.087667
359.393095	2493.805876
359.782043	2493.765546
360.170927	2495.872749
360.559748	2495.653458
360.948505	2497.397698
361.337199	2497.342245
361.725830	2498.584889
362.114398	2498.794097
362.502903	2499.900631
362.891344	2501.783502
363.279722	2496.515496
363.668037	2501.881804
364.056289	2498.257214
364.444478	2503.673934
364.832603	2502.786691
365.220665	2501.728049
365.608665	2502.887514
365.996601	2501.251660
366.384474	2501.924654
366.772284	2501.208810
367.160031	2503.041269
367.547715	2508.510921
367.935336	2505.098060
368.322893	2504.548574
368.710388	2500.185456
369.097820	2504.205776
369.485189	2498.973058
369.872495	2507.900942
370.259738	2507.114522
370.646918	2507.802639
371.034035	2507.139728
371.421090	2505.466064
371.808081	2509.183915
372.195010	2507.913545
372.581875	2506.817094
372.968678	2509.703154
373.355418	2508.233658
373.742096	2506.650736
374.128710	2509.199039
374.515262	2511.081910
374.901751	2509.728360
375.288177	2506.965808
375.674540	2509.693072
376.060841	2512.790861
376.447079	2510.517301
376.833254	2513.060563
377.219367	2510.416477
377.605417	2513.393279
377.991404	2508.185767
378.377329	2514.056191
378.763191	2509.874553
379.148991	2511.001251
379.534727	2512.632065
379.920402	2513.383197
380.306013	2512.576612
380.691563	2514.721623
381.077049	2517.320338
381.462474	2513.539472
381.847835	2514.635923
382.233134	2513.705830
382.618371	2512.380007
383.003545	2514.235152
383.388657	2513.894874
383.773706	2514.240193
384.158693	2514.343536
384.543618	2514.091479
384.928480	2515.790347
385.313280	2513.100892
385.698017	2516.352436
386.082692	2514.056191
386.467305	2515.631551
386.851856	2516.715399
387.236344	2515.712210
387.620770	2514.177178
388.005133	2512.458145
388.389435	2515.777745
388.773674	2510.668535
389.157851	2516.445697
389.541965	2516.443177
389.926018	2517.310255
390.310008	2517.093486
390.693936	2517.723630
391.077802	2517.174144
391.461606	2520.392921
391.845348	2517.776562
392.229027	2518.867972
392.612645	2516.975019
392.996200	2518.187416
393.379694	2517.842097
393.763125	2520.226563
394.146494	2519.198167
394.529801	2519.412417
394.913047	2519.931655
395.296230	2518.923425
395.679351	2520.705473
396.062410	2522.989115
396.445408	2520.781090
396.828343	2522.558097
397.211217	2522.805113
397.594028	2520.395442
397.976778	2521.685977
398.359466	2522.414424
398.742092	2521.920391
399.124656	2522.507685
399.507158	2522.255627
399.889598	2524.919877
400.271977	2523.478107
400.654294	2527.241328
401.036549	2522.104393
401.418742	2520.387880
401.800874	2522.711852
402.182944	2523.208405
402.564952	2520.408044
402.946898	2526.114631
403.328783	2521.743950
403.710606	2524.572037
404.092367	2524.067922
404.474067	2523.558766
404.855705	2524.476256
405.237282	2527.304343
405.618797	2525.580268
406.000250	2527.783253
406.381642	2525.507172
406.762972	2524.380474
407.144240	2523.735206
407.525447	2525.285361
407.906593	2522.021214
408.287677	2527.821061
408.668700	2525.292923
409.049661	2528.113448
409.430560	2525.373581
409.811399	2527.185876
410.192176	2527.551359
410.572891	2529.439272
410.953545	2528.592358
411.334138	2526.328880
411.714669	2528.720907
412.095139	2528.274765
412.475547	2529.121679
412.855894	2528.476411
413.236180	2531.435568
413.616405	2527.609333
413.996568	2529.645959
414.376670	2531.324663
414.756711	2529.593027
415.136691	2530.684437
415.516609	2528.461288
415.896466	2528.788963
416.276262	2526.938859
416.655997	2530.283665
417.035670	2529.729138
417.415283	2531.861546
417.794834	2531.564118
418.174324	2531.775846
418.553753	2531.065044
418.933121	2532.032945
419.312428	2532.111083
419.691674	2528.796524
420.070859	2531.816176
420.449983	2529.953469
420.829045	2529.696370
421.208047	2530.757533
421.586988	2531.148223
421.965867	2531.596885
422.344686	2532.428676
422.723444	2534.147709
423.102141	2528.216792
423.480777	2529.625794
423.859352	2531.269210
424.237866	2531.029756
424.616319	2529.761905
424.994712	2534.079654
425.373044	2531.982534
425.751314	2530.460105
426.129524	2529.585465
426.507673	2529.328366
426.885762	2528.350382
427.263789	2531.238963
427.641756	2531.372554
428.019662	2533.386495
428.397508	2534.243491
428.775292	2534.450178
429.153016	2531.554036
429.530679	2534.732483
429.908282	2534.077133
430.285824	2533.961187
430.663305	2534.482946
431.040726	2534.409849
431.418086	2533.000847
431.795385	2535.463450
432.172624	2532.156453
432.549802	2534.122503
432.926920	2535.866743
433.303977	2534.765251
433.680974	2534.046886
434.057910	2535.168543
434.434786	2537.089223
434.811601	2535.072761
435.188355	2533.656197
435.565050	2536.874973
435.941683	2537.225334
436.318257	2532.897503
436.694770	2535.060158
437.071222	2538.984696
437.447614	2535.682741
437.823946	2537.545447
438.200218	2535.796167
438.576429	2534.901362
438.952580	2536.544778
439.328670	2536.128883
439.704700	2533.368851
440.080670	2535.592000
440.456580	2535.594520
440.832429	2537.164840
441.208218	2538.064686
441.583947	2537.366486
441.959616	2537.832793
442.335224	2535.879346
442.710773	2538.493184
443.086261	2536.968235
443.461689	2536.789274
443.837057	2537.447144
444.212365	2536.023018
444.587612	2535.849099
444.962800	2533.411701
445.337927	2535.226516
445.712995	2532.269879
446.088002	2535.206352
446.462949	2538.208359
446.837837	2538.160468
447.212664	2539.418236
447.587431	2537.621064
447.962139	2540.247505
448.336786	2540.701209
448.711374	2535.881866
449.085901	2537.777340
449.460369	2538.309182
449.834776	2537.099305
450.209124	2538.430169
450.583412	2541.701878
450.957640	2540.668442
451.331808	2541.374203
451.705917	2540.436549
452.079965	2540.502084
452.453954	2541.142310
452.827883	2541.333874
453.201752	2536.489325
453.575562	2539.687937
453.949311	2539.577032
454.323001	2537.651311
454.696632	2540.905376
455.070202	2541.142310
455.443713	2538.813297
455.817164	2538.067206
456.190556	2540.771785
456.563888	2538.636857
456.937160	2540.403781
457.310373	2539.980324
457.683526	2541.953936
458.056619	2542.851261
458.429653	2539.025026
458.802628	2542.284132
459.175542	2540.650798
459.548398	2540.822197
459.921194	2541.170037
460.293930	2542.505942
460.666607	2540.711292
461.039224	2539.057793
461.411782	2541.371683
461.784280	2542.543751
462.156719	2541.994265
462.529099	2543.183977
462.901419	2540.376055
463.273680	2539.080478
463.645882	2538.455375
464.018024	2539.763555
464.390106	2537.482432
464.762130	2541.956457
465.134094	2544.066179
465.505999	2540.923020
465.877845	2542.647095
466.249631	2540.073586
466.621358	2540.819676
466.993026	2542.518545
467.364634	2550.100441
467.736184	2543.390665
468.107674	2542.586601
468.479105	2543.040305
468.850477	2544.139276
469.221790	2543.292362
469.593043	2543.887218
469.964238	2543.889739
470.335373	2542.846220
470.706449	2543.960315
471.077467	2541.971580
471.448425	2541.790098
471.819324	2542.374872
472.190164	2546.611962
472.560945	2544.310675
472.931667	2540.416384
473.302330	2543.632640
473.672934	2543.531817
474.043479	2543.604914
474.413965	2544.492157
474.784393	2543.073072
475.154761	2545.795295
475.525070	2540.983514
475.895321	2542.279090
476.265513	2545.260933
476.635645	2544.867723
477.005719	2543.310006
477.375734	2547.032898
477.745691	2544.613145
478.115588	2545.492826
478.485427	2544.701365
478.855207	2543.310006
479.224928	2545.155069
479.594591	2541.238092
479.964194	2543.824204
480.333739	2542.266488
480.703226	2542.475695
481.072653	2544.686241
481.442022	2544.446787
481.811333	2544.353525
482.180584	2541.878319
482.549777	2545.976777
482.918912	2539.219110
483.287988	2543.733463
483.657005	2541.774975
484.025964	2544.787064
484.394864	2542.818494
484.763706	2545.961653
485.132489	2545.639019
485.501213	2546.228834
485.869879	2545.018958
486.238487	2544.729091
486.607036	2544.716488
486.975527	2546.062476
487.343959	2543.418391
487.712333	2546.478372
488.080648	2545.576005
488.448905	2548.943496
488.817104	2545.482744
489.185244	2546.054915
489.553326	2545.402085
489.921350	2545.951571
490.289315	2547.784030
490.657222	2547.690769
491.025070	2546.511139
491.392861	2546.831252
491.760593	2545.094575
492.128267	2546.521221
492.495883	2547.468958
492.863440	2546.954761
493.230939	2545.903680
493.598380	2545.805377
493.965763	2547.284956
494.333088	2546.576674
494.700354	2546.004503
495.067563	2543.509132
495.434713	2547.511808
495.801805	2548.421736
496.168839	2549.137580
496.535815	2546.185985
496.902733	2545.618855
497.269593	2549.941644
497.636395	2547.509287
498.003139	2545.908721
498.369825	2546.700182
498.736453	2548.509957
499.103023	2545.117260
499.469535	2545.208001
499.835989	2545.197918
500.202385	2543.252033
500.568723	2541.822866
500.935003	2544.471992
501.301226	2542.679862
501.667390	2548.545245
502.033497	2548.996428
502.399546	2548.189843
502.765537	2548.714123
503.131470	2545.031560
503.497345	2546.349822
503.863163	2548.971222
504.228923	2546.979966
504.594625	2546.312013
504.960269	2548.419216
505.325856	2546.259081
505.691385	2547.786551
506.056856	2547.489123
506.422270	2547.073228
506.787625	2547.060625
507.152924	2546.735470
507.518164	2548.615821
507.883347	2547.663043
508.248472	2547.375697
508.613540	2548.981304
508.978550	2546.584236
509.343503	2545.790254
509.708398	2547.544576
510.073236	2548.693959
510.438016	2547.728578
510.802738	2544.933258
511.167403	2546.606921
511.532010	2548.474668
511.896561	2547.274874
512.261053	2548.890564
512.625488	2546.092723
512.989866	2545.568443
513.354186	2547.078269
513.718449	2548.199926
514.082655	2548.033568
514.446803	2547.806716
514.810894	2547.557178
515.174927	2549.056922
515.538904	2548.585574
515.902822	2551.708569
516.266684	2545.722198
516.630488	2547.731098
516.994235	2546.619524
517.357925	2547.358053
517.721558	2549.578681
518.085133	2549.500543
518.448651	2549.092210
518.812112	2543.720860
519.175516	2545.933927
519.538863	2542.909235
519.902152	2548.613300
520.265385	2546.614483
520.628560	2546.969884
520.991678	2548.124308
521.354739	2548.547765
521.717743	2546.533824
522.080690	2549.220759
522.443580	2546.440563
522.806413	2550.831408
523.169189	2546.564071
523.531908	2547.363094
523.894569	2549.651778
524.257174	2547.710934
524.619722	2546.833773
524.982213	2549.435008
525.344647	2551.043136
525.707025	2549.077086
526.069345	2548.038609
526.431608	2549.936603
526.793815	2549.422405
527.155964	2548.522559
527.518057	2548.189843
527.880093	2550.226469
528.242072	2547.073228
528.603995	2549.813095
528.965860	2548.514998
529.327669	2549.314021
529.689421	2551.915256
530.051117	2550.165976
530.412755	2546.296890
530.774337	2546.148176
531.135862	2549.034237
531.497331	2548.298228
531.858743	2547.284956
532.220098	2550.357539
532.581396	2548.963660
532.942638	2549.099772
533.303824	2548.157076
533.664953	2550.556665
534.026025	2551.771583
534.387040	2550.387786
534.747999	2550.176058
535.108902	2549.407282
535.469748	2550.271840
535.830537	2550.493651
536.191270	2550.735626
536.551947	2546.569112
536.912567	2545.331509
537.273131	2549.072045
537.633638	2544.013247
537.994089	2548.124308
538.354483	2547.262271
538.714821	2548.661191
539.075103	2547.549617
539.435328	2549.261088
539.795497	2551.753939
540.155609	2552.237890
540.515665	2549.437529
540.875665	2549.492982
541.235609	2548.346119
541.595496	2550.717982
541.955328	2551.953065
542.315102	2548.094061
542.674821	2550.488609
543.034483	2547.305121
543.394090	2549.523228
543.753640	2548.086500
544.113134	2548.487271
544.472571	2549.631613
544.831953	2553.621687
545.191278	2549.855945
545.550548	2550.798640
545.909761	2551.398538
546.268918	2546.407795
546.628019	2549.608928
546.987064	2548.807385
547.346053	2549.671943
547.704986	2549.727395
548.063863	2550.758311
548.422684	2548.963660
548.781449	2551.396017
549.140158	2550.596994
549.498811	2549.684545
549.857408	2551.398538
550.215949	2551.721172
550.574434	2547.842004
550.932864	2549.956768
551.291237	2551.693445
551.649555	2550.932231
552.007817	2551.481717
552.366022	2549.752601
552.724173	2551.106151
553.082267	2549.702189
553.440305	2551.335523
553.798288	2551.106151
554.156215	2550.148332
554.514086	2547.632796
554.871902	2545.928886
555.229661	2549.939124
555.587365	2544.676159
555.945014	2552.855431
556.302606	2549.273691
556.660143	2548.968702
557.017625	2551.625390
557.375050	2549.442570
557.732421	2550.377704
558.089735	2551.353167
558.446994	2548.361243
558.804197	2551.786707
559.161345	2550.922149
559.518437	2551.736295
559.875474	2548.416695
560.232455	2553.510781
560.589381	2549.172868
560.946251	2550.551624
561.303065	2547.894936
561.659825	2548.862837
562.016528	2548.784699
562.373177	2549.838301
562.729770	2550.324772
563.086307	2551.431305
563.442789	2549.268650
563.799216	2549.472817
564.155587	2549.124977
564.511904	2549.898794
564.868164	2550.329813
565.224370	2550.806202
565.580520	2550.796120
565.936615	2552.663867
566.292654	2550.544062
566.648638	2549.999618
567.004567	2549.414844
567.360441	2550.518856
567.716260	2550.029864
568.072023	2551.244782
568.427732	2549.969371
568.783385	2552.399207
569.138982	2551.368291
569.494525	2552.318548
569.850013	2552.691594
570.205445	2550.438198
570.560823	2549.704710
570.916145	2552.416851
571.271412	2550.329813
571.626625	2551.388455
571.981782	2548.562889
572.336884	2547.058104
572.691931	2546.261602
573.046923	2551.098589
573.401860	2544.628268
573.756743	2549.886192
574.111570	2551.252344
574.466342	2549.019113
574.821059	2552.011038
575.175722	2550.092879
575.530330	2550.576830
575.884882	2552.084135
576.239380	2551.227138
576.593823	2552.240410
576.948211	2548.537683
577.302544	2552.522715
577.656823	2549.734957
578.011047	2550.997766
578.365216	2551.421223
578.719330	2551.542211
579.073389	2550.725544
579.427394	2552.830225
579.781344	2551.849721
580.135239	2552.210163
580.489080	2550.193702
580.842866	2550.642365
581.196597	2552.018600
581.550273	2554.302242
581.903895	2552.031202
582.257463	2548.026006
582.610975	2551.587581
582.964434	2553.868703
583.317837	2549.971891
583.671186	2551.809392
584.024481	2550.607077
584.377721	2555.154197
584.730906	2549.964329
585.084037	2551.660678
585.437113	2551.413661
585.790135	2555.441543
586.143103	2551.930379
586.496016	2551.975750
586.848874	2553.087324
587.201679	2552.842828
587.554428	2550.571788
587.907124	2551.753939
588.259765	2550.344937
588.612352	2552.888199
588.964884	2553.404917
589.317362	2552.789896
589.669786	2550.750749
590.022155	2551.161603
590.374470	2548.961140
590.726731	2548.109185
591.078937	2547.471479
591.431090	2551.257385
591.783188	2554.766028
592.135232	2554.055226
592.487222	2551.655637
592.839157	2551.459032
593.191038	2549.427447
593.542866	2551.491799
593.894639	2550.186140
594.246358	2551.511964
594.598022	2552.270657
594.949633	2549.049360
595.301190	2551.769062
595.652692	2549.172868
596.004141	2548.880481
596.355535	2552.187478
596.706876	2552.510112
597.058162	2551.373332
597.409395	2552.255534
597.760573	2550.203784
598.111698	2550.564227
598.462768	2552.023641
598.813785	2551.438867
599.164748	2551.320400
599.515657	2551.890050
599.866511	2548.928372
600.217312	2551.499361
600.568060	2551.801830
600.918753	2551.121274
601.269392	2551.814433
601.619978	2551.748898
601.970510	2551.844680
602.320988	2550.216387
602.671412	2550.886861
603.021783	2549.225800
603.372100	2551.315359
603.722363	2549.787889
604.072572	2550.652447
604.422728	2550.516336
604.772830	2552.076573
605.122878	2550.155893
605.472872	2549.626572
605.822813	2552.333672
606.172701	2552.532797
606.522534	2550.304607
606.872314	2551.403579
607.222041	2552.046326
607.571714	2549.654298
607.921333	2547.574822
608.270899	2552.116902
608.620411	2546.503577
608.969870	2556.643858
609.319276	2556.225442
609.668627	2559.108982
610.017926	2560.059240
610.367171	2565.140723
610.716362	2565.475960
611.065500	2560.225598
611.414585	2559.827347
611.763616	2559.968499
612.112594	2557.697459
612.461518	2556.323745
612.810389	2556.381718
613.159207	2555.378529
613.507971	2555.270144
613.856682	2555.958261
614.205340	2555.176882
614.553945	2556.643858
614.902496	2552.096737
615.250994	2553.530946
615.599439	2554.239228
615.947830	2553.551110
616.296169	2553.062118
616.644454	2551.000287
616.992686	2553.057077
617.340864	2552.162273
617.688990	2552.157231
618.037063	2552.681511
618.385082	2551.494320
618.733048	2553.954403
619.080961	2552.104299
619.428821	2549.939124
619.776628	2548.809905
620.124382	2551.993394
620.472083	2552.530277
620.819731	2553.445246
621.167326	2551.121274
621.514868	2551.867365
621.862357	2551.484237
622.209793	2552.933569
622.557176	2551.348126
622.904506	2551.673281
623.251783	2551.756460
623.599007	2551.481717
623.946179	2552.235369
624.293297	2549.182951
624.640363	2552.129505
624.987376	2549.016593
625.334336	2549.399720
625.681243	2550.982643
626.028097	2544.575336
626.374899	2551.668239
626.721647	2551.214536
627.068343	2549.137580
627.414987	2550.055070
627.761577	2548.681356
628.108115	2553.157900
628.454600	2550.418033
628.801032	2552.547921
629.147412	2553.326779
629.493739	2552.699155
629.840014	2551.154042
630.186236	2552.633620
630.532405	2552.807540
630.878521	2553.059598
631.224585	2553.024310
631.570597	2552.575647
631.916556	2551.653116
632.262462	2552.137067
632.608316	2550.972560
632.954117	2550.506253
633.299866	2552.212684
633.645562	2548.913249
633.991206	2552.079093
634.336797	2550.702858
634.682336	2551.902653
635.027823	2552.310987
635.373257	2548.341078
635.718639	2552.429454
636.063968	2552.053888
636.409245	2550.334854
636.754470	2550.831408
637.099642	2550.745708
637.444762	2555.071018
637.789829	2549.349309
638.134845	2550.483568
638.479808	2550.254196
638.824719	2548.341078
639.169577	2551.106151
639.514383	2552.442057
639.859137	2552.250493
640.203839	2548.469627
640.548489	2551.527087
640.893086	2550.707900
641.237632	2550.236552
641.582125	2551.716130
641.926566	2549.334185
642.270955	2548.767055
642.615292	2546.377548
642.959576	2547.267312
643.303809	2545.139945
643.647990	2550.460883
643.992118	2548.991387
644.336195	2551.015410
644.680219	2550.281922
645.024192	2551.496840
645.368112	2549.175389
645.711981	2549.266130
646.055797	2550.423074
646.399562	2551.479196
646.743274	2550.881819
647.086935	2548.474668
647.430544	2554.561862
647.774101	2550.667570
648.117606	2548.769576
648.461059	2551.398538
648.804460	2551.607746
649.147810	2551.517005
649.491108	2553.372149
649.834354	2551.159083
650.177548	2552.169834
650.520690	2552.517674
650.863781	2551.370811
651.206820	2553.828374
651.549807	2551.559855
651.892742	2549.964329
652.235626	2550.836449
652.578458	2550.032385
652.921238	2550.561706
653.263967	2550.357539
653.606644	2550.909546
653.949269	2551.292673
654.291843	2551.118754
654.634365	2547.655481
654.976836	2550.574309
655.319255	2553.175544
655.661622	2550.181099
656.003938	2548.915769
656.346203	2553.498178
656.688416	2552.250493
657.030577	2550.942313
657.372687	2549.492982
657.714746	2547.327806
658.056753	2550.029864
658.398708	2549.049360
658.740612	2552.058929
659.082465	2552.462221
659.424266	2547.622713
659.766016	2545.543238
660.107715	2548.469627
660.449362	2545.593649
660.790958	2551.746377
661.132503	2550.975081
661.473996	2548.711603
661.815438	2551.433826
662.156829	2551.194371
662.498168	2549.818136
662.839456	2547.637837
663.180693	2551.524567
663.521879	2548.071376
663.863013	2549.639175
664.204097	2554.163611
664.545129	2551.101110
664.886110	2550.276881
665.227040	2551.769062
665.567918	2555.300391
665.908746	2549.654298
666.249522	2550.176058
666.590248	2550.034906
666.930922	2551.685883
667.271545	2550.498692
667.612118	2549.326623
667.952639	2549.717313
668.293109	2547.897456
668.633528	2550.042467
668.973896	2549.036757
669.314213	2552.764690
669.654480	2548.643547
669.994695	2550.629762
670.334859	2549.044319
670.674973	2550.770914
671.015035	2550.433157
671.355047	2550.370142
671.695008	2547.589946
672.034918	2551.600184
672.374777	2549.187992
672.714585	2550.244113
673.054342	2550.894422
673.394049	2551.769062
673.733705	2548.953578
674.073310	2551.975750
674.412864	2548.696479
674.752368	2552.048847
675.091820	2547.952909
675.431223	2550.034906
675.770574	2553.404917
676.109875	2550.440718
676.449125	2545.485264
676.788324	2544.988711
677.127473	2546.248999
677.466571	2545.298742
677.805619	2553.203271
678.144616	2551.065822
678.483562	2552.638662
678.822458	2551.166645
679.161303	2549.906356
679.500098	2551.980791
679.838842	2548.961140
680.177535	2550.483568
680.516179	2551.448949
680.854771	2550.375183
681.193314	2551.151521
681.531805	2551.017931
681.870247	2550.271840
682.208638	2551.413661
682.546978	2550.319731
682.885268	2548.804864
683.223508	2551.166645
683.561697	2549.031716
683.899836	2551.592622
684.237925	2548.704041
684.575963	2549.384597
684.913951	2550.138249
685.251889	2549.223280
685.589776	2550.987684
685.927614	2549.896274
686.265401	2551.015410
686.603137	2545.172713
686.940824	2549.268650
687.278460	2550.332334
687.616046	2549.485420
687.953582	2553.785524
688.291068	2551.154042
688.628504	2550.513815
688.965889	2551.028013
689.303224	2549.072045
689.640510	2552.139587
689.977745	2548.300749
690.314930	2549.694628
690.652065	2549.387117
690.989150	2550.680173
691.326185	2549.286294
691.663170	2548.709082
692.000105	2548.343598
692.336990	2546.803526
692.673825	2552.139587
693.010610	2548.933413
693.347345	2545.318906
693.684030	2545.800336
694.020665	2547.297559
694.357251	2544.555171
694.693786	2551.330482
695.030272	2553.089845
695.366707	2548.540203
695.703093	2548.706562
696.039429	2546.992569
696.375716	2547.108516
696.711952	2552.144628
697.048139	2548.119267
697.384276	2550.385266
697.720363	2548.744370
698.056400	2551.156562
698.392388	2549.003990
698.728326	2548.923331
699.064214	2547.479041
699.400053	2551.617828
699.735842	2551.330482
700.071581	2549.263609
700.407270	2547.753783
700.742910	2549.591284
701.078501	2548.799823
701.414042	2549.485420
701.749533	2550.362581
702.084974	2548.600697
702.420366	2546.080120
702.755709	2549.964329
703.091002	2548.744370
703.426246	2550.513815
703.761440	2548.590615
704.096584	2549.926521
704.431679	2548.668753
704.766725	2550.632282
705.101721	2548.381407
705.436668	2550.392827
705.771565	2548.121788
706.106413	2550.740667
706.441212	2547.232024
706.775961	2549.248486
707.110661	2548.966181
707.445311	2552.840308
707.779913	2548.653629
708.114465	2551.751418
708.448967	2550.455842
708.783421	2548.527601
709.117825	2548.509957
709.452180	2547.806716
709.786485	2548.361243
710.120742	2546.352343
710.454949	2543.335212
710.789107	2548.719164
711.123216	2545.901159
711.457275	2547.761345
711.791286	2550.128167
712.125247	2546.770758
712.459159	2549.616490
712.793023	2549.190512
713.126837	2547.567261
713.460602	2549.498023
713.794318	2547.113557
714.127985	2550.518856
714.461602	2547.612631
714.795171	2550.473486
715.128691	2547.557178
715.462162	2547.226983
715.795584	2551.267468
716.128957	2550.324772
716.462281	2550.259237
716.795556	2549.687066
717.128782	2547.819318
717.461960	2549.170348
717.795088	2547.365615
718.128167	2549.603887
718.461198	2551.007848
718.794180	2549.916438
719.127113	2547.398382
719.459997	2549.308979
719.792833	2548.943496
720.125619	2545.858310
720.458357	2551.393497
720.791046	2547.065666
721.123686	2547.637837
721.456278	2547.151366
721.788821	2547.279915
722.121315	2547.665563
722.453761	2545.331509
722.786158	2550.433157
723.118506	2549.172868
723.450805	2549.775286
723.783056	2549.349309
724.115259	2549.561037
724.447412	2551.322920
724.779518	2547.058104
725.111574	2547.877292
725.443582	2549.719833
725.775542	2548.784699
726.107453	2547.547096
726.439315	2546.647250
726.771129	2548.328475
727.102895	2543.110881
727.434612	2547.035419
727.766281	2542.367311
728.097901	2549.021634
728.429473	2551.252344
728.760996	2548.870399
729.092471	2551.290153
729.423897	2546.571633
729.755276	2549.180430
730.086606	2547.297559
730.417887	2550.092879
730.749120	2547.206818
731.080305	2547.441232
731.411442	2545.923845
731.742530	2548.464586
732.073570	2548.225131
732.404562	2548.646068
732.735506	2549.881150
733.066401	2548.255378
733.397249	2548.764535
733.728048	2548.487271
734.058798	2550.014741
734.389501	2547.985677
734.720156	2548.363763
735.050762	2550.009700
735.381320	2548.446942
735.711831	2550.372663
736.042293	2549.916438
736.372707	2548.449463
736.703073	2547.030378
737.033391	2548.981304
737.363661	2548.676315
737.693883	2550.085317
738.024056	2549.591284
738.354182	2548.290666
738.684260	2551.035575
739.014290	2548.739329
739.344272	2550.866696
739.674207	2549.487940
740.004093	2546.407795
740.333931	2550.571788
740.663722	2546.475851
740.993464	2550.140770
741.323159	2547.703372
741.652806	2548.764535
741.982405	2549.041798
742.311956	2546.710265
742.641460	2552.237890
742.970915	2548.189843
743.300323	2546.102806
743.629683	2541.908566
743.958996	2546.291849
744.288260	2542.836138
744.617477	2549.437529
744.946647	2546.680018
745.275768	2547.905018
745.604842	2548.028526
745.933869	2549.742519
746.262847	2546.644730
746.591778	2546.927034
746.920662	2547.405944
747.249498	2547.121119
747.578286	2546.238917
747.907027	2548.320913
748.235720	2545.956612
748.564365	2549.871068
748.892963	2546.634647
749.221514	2547.053063
749.550017	2546.780841
749.878473	2547.935265
750.206881	2545.490305
750.535242	2546.874102
750.863555	2546.659853
751.191821	2549.208156
751.520039	2546.669935
751.848210	2547.085831
752.176334	2546.871582
752.504411	2545.265974
752.832440	2546.969884
753.160421	2550.317210
753.488356	2548.010882
753.816243	2548.416695
754.144082	2543.713299
754.471875	2546.334699
754.799620	2549.092210
755.127318	2550.034906
755.454969	2547.642878
755.782572	2546.521221
756.110129	2548.633465
756.437638	2547.156407
756.765100	2548.666232
757.092515	2547.930224
757.419882	2549.165307
757.747203	2549.072045
758.074477	2549.734957
758.401703	2549.182951
758.728882	2546.758156
759.056014	2546.793444
759.383099	2550.523898
759.710138	2545.346632
760.037129	2544.633309
760.364073	2544.454348
760.690970	2542.417722
761.017820	2548.157076
761.344623	2548.706562
761.671379	2550.120605
761.998088	2548.988866
762.324751	2548.252858
762.651366	2547.771427
762.977935	2547.274874
763.304456	2545.268495
763.630931	2550.226469
763.957359	2547.221942
764.283740	2548.446942
764.610074	2546.985008
764.936362	2545.538196
765.262602	2547.612631
765.588796	2547.549617
765.914943	2546.634647
766.241044	2547.267312
766.567097	2544.552651
766.893104	2548.494833
767.219064	2547.020296
767.544978	2543.862013
767.870845	2545.586087
768.196665	2550.047508
768.522438	2548.255378
768.848165	2547.214380
769.173846	2545.570964
769.499479	2548.031047
769.825066	2547.778989
770.150607	2545.298742
770.476101	2545.354194
770.801548	2549.240924
771.126949	2546.198588
771.452303	2547.428629
771.777611	2548.056253
772.102872	2548.908208
772.428087	2546.440563
772.753256	2548.368804
773.078378	2546.319575
773.403453	2550.120605
773.728482	2547.015254
774.053465	2546.680018
774.378401	2547.405944
774.703291	2546.523742
775.028135	2545.817980
775.352932	2547.443752
775.677683	2546.364946
776.002388	2543.620037
776.327046	2549.034237
776.651658	2542.942002
776.976224	2539.178781
777.300743	2547.022816
777.625216	2546.165820
777.949643	2543.337733
778.274024	2548.295707
778.598359	2547.297559
778.922647	2544.189688
779.246889	2548.255378
779.571086	2546.700182
779.895236	2547.123639
780.219339	2545.976777
780.543397	2547.874771
780.867409	2546.213711
781.191374	2545.850748
781.515294	2546.122970
781.839167	2545.225645
782.162995	2546.508618
782.486776	2546.848896
782.810511	2547.080789
783.134201	2546.251520
783.457844	2547.307641
783.781441	2546.795964
784.104993	2547.214380
784.428498	2544.799667
784.751958	2548.164638
785.075372	2544.406457
785.398739	2545.296221
785.722061	2546.455686
786.045337	2547.627755
786.368568	2545.782692
786.691752	2547.801674
787.014891	2545.334030
787.337983	2546.155738
787.661030	2546.342260
787.984031	2545.397044
788.306987	2544.073741
788.629897	2546.732950
788.952760	2546.090203
789.275579	2546.894267
789.598351	2545.883515
789.921078	2547.920142
790.243759	2545.429812
790.566395	2546.594318
790.888984	2546.904349
791.211529	2545.268495
791.534027	2547.216901
791.856480	2547.635316
792.178888	2545.414688
792.501249	2544.600542
792.823566	2543.070552
793.145836	2541.432177
793.468062	2544.111550
793.790241	2545.328988
794.112375	2546.700182
794.434464	2545.858310
794.756507	2546.642209
795.078505	2545.311344
795.400457	2546.216232
795.722364	2547.473999
796.044226	2549.661860
796.366042	2544.903011
796.687812	2547.105995
797.009538	2545.656663
797.331218	2546.677497
797.652852	2544.461910
797.974442	2545.139945
798.295986	2547.602549
798.617484	2548.114226
798.938938	2543.922507
799.260346	2546.145655
799.581709	2544.845038
799.903026	2546.843855
800.224299	2545.384441
800.545526	2545.298742
800.866708	2546.816129
801.187845	2548.162117
801.508936	2545.180274
801.829983	2548.139432
802.150984	2542.493339
802.471940	2546.312013
802.792851	2547.668084
803.113717	2545.611293
803.434538	2546.062476
803.755314	2548.071376
804.076045	2544.953422
804.396731	2547.743701
804.717372	2546.702703
805.037967	2548.235214
805.358518	2548.603218
805.679024	2545.805377
805.999485	2543.869574
806.319901	2545.817980
806.640272	2545.896118
806.960598	2545.649102
807.280879	2545.475182
807.601115	2547.048022
807.921306	2545.160110
808.241453	2541.457382
808.561554	2544.499719
808.881611	2543.849410
809.201623	2543.108360
809.521590	2547.201777
809.841513	2545.649102
810.161390	2545.870912
810.481223	2544.857641
810.801011	2544.724050
811.120755	2545.613814
811.440453	2546.707744
811.760107	2544.091385
812.079716	2547.259750
812.399281	2543.032743
812.718801	2546.422919
813.038276	2543.998124
813.357707	2546.939637
813.677093	2545.460058
813.996434	2548.540203
814.315731	2544.154400
814.634983	2546.879143
814.954191	2545.253371
815.273354	2545.893598
815.592473	2548.804864
815.911547	2545.696993
816.230577	2547.927703
816.549562	2546.306972
816.868502	2546.246478
817.187399	2545.833104
817.506250	2545.646581
817.825058	2543.446118
818.143821	2546.644730
818.462539	2545.253371
818.781213	2547.055584
819.099843	2546.364946
819.418429	2545.923845
819.736970	2546.228834
820.055466	2544.406457
820.373919	2547.370656
820.692327	2546.836293
821.010691	2548.051212
821.329011	2545.392003
821.647286	2549.056922
821.965517	2548.419216
822.283704	2548.787220
822.601847	2546.049873
822.919945	2547.784030
823.237999	2548.033568
823.556010	2546.380069
823.873976	2549.598846
824.191897	2543.930068
824.509775	2543.423432
824.827609	2546.097764
825.145398	2541.563247
825.463144	2546.049873
825.780845	2542.969728
826.098502	2544.469472
826.416116	2548.000800
826.733685	2544.139276
827.051210	2547.116078
827.368692	2546.690100
827.686129	2546.425439
828.003522	2548.252858
828.320872	2545.578526
828.638177	2543.330171
828.955439	2546.407795
829.272656	2545.276056
829.589830	2548.567930
829.906960	2545.742363
830.224046	2545.548279
830.541088	2548.527601
830.858086	2544.960984
831.175041	2544.512322
831.491952	2543.456200
831.808819	2543.894780
832.125642	2544.540048
832.442421	2546.120450
832.759157	2544.424101
833.075849	2545.679349
833.392497	2543.791437
833.709101	2544.915614
834.025662	2544.461910
834.342179	2549.104813
834.658653	2544.666077
834.975083	2544.005686
835.291469	2554.067829
835.607811	2544.219935
835.924110	2547.950388
836.240366	2547.960471
836.556578	2546.322096
836.872746	2543.262115
837.188871	2543.730943
837.504952	2543.327650
837.820990	2544.875285
838.136984	2546.798485
838.452935	2543.856972
838.768842	2545.588608
839.084706	2542.770603
839.400526	2545.296221
839.716303	2543.630120
840.032037	2543.937630
840.347727	2542.067362
840.663373	2543.793957
840.978977	2539.952598
841.294537	2545.858310
841.610054	2541.858154
841.925527	2544.822352
842.240957	2544.933258
842.556344	2547.831921
842.871687	2546.294369
843.186987	2546.576674
843.502244	2547.486602
843.817458	2543.735984
844.132629	2544.940820
844.447756	2544.310675
844.762840	2544.628268
845.077881	2544.293031
845.392879	2545.646581
845.707833	2544.610624
846.022745	2544.356046
846.337613	2544.146838
846.652438	2544.600542
846.967221	2546.339740
847.281960	2542.977290
847.596656	2545.563402
847.911309	2543.466282
848.225919	2543.025181
848.540485	2544.351005
848.855009	2545.056766
849.169490	2544.827394
849.483928	2543.695655
849.798323	2545.565923
850.112675	2545.964174
850.426984	2542.170706
850.741251	2545.099616
851.055474	2545.805377
851.369654	2545.263453
851.683792	2543.947712
851.997887	2544.293031
852.311938	2543.746066
852.625947	2544.277908
852.939914	2545.981818
853.253837	2546.632127
853.567718	2543.312527
853.881555	2543.632640
854.195350	2543.468803
854.509103	2545.777651
854.822812	2544.275387
855.136479	2546.591797
855.450103	2544.111550
855.763685	2544.096426
856.077224	2540.466796
856.390720	2543.226827
856.704173	2539.178781
857.017584	2545.039122
857.330953	2543.960315
857.644278	2548.008362
857.957561	2545.008875
858.270802	2546.017106
858.584000	2544.540048
858.897155	2546.831252
859.210268	2544.320758
859.523339	2546.228834
859.836367	2546.543907
860.149352	2545.719678
860.462295	2543.844369
860.775195	2542.122815
861.088054	2546.143135
861.400869	2544.628268
861.713642	2542.488298
862.026373	2546.506098
862.339062	2543.713299
862.651708	2543.093237
862.964312	2544.245140
863.276873	2545.896118
863.589392	2543.259595
863.901869	2544.885367
864.214303	2543.904862
864.526696	2543.410829
864.839045	2546.750594
865.151353	2540.439069
865.463619	2541.855633
865.775842	2546.511139
866.088023	2542.241282
866.400162	2546.135573
866.712258	2543.635161
867.024313	2545.533155
867.336325	2541.170037
867.648296	2545.722198
867.960224	2543.035263
868.272110	2545.361756
868.583954	2543.557023
868.895755	2544.804708
869.207515	2542.241282
869.519233	2543.680531
869.830909	2544.429143
870.142542	2545.792775
870.454134	2547.163968
870.765684	2546.306972
871.077191	2545.273536
871.388657	2545.162630
871.700081	2541.331353
872.011463	2543.718340
872.322803	2539.473688
872.634101	2544.595501
872.945357	2542.074924
873.256571	2542.021992
873.567744	2544.605583
873.878874	2541.880839
874.189963	2546.095244
874.501010	2545.611293
874.812015	2543.209183
875.122979	2545.593649
875.433900	2544.232537
875.744780	2547.436191
876.055618	2545.142466
876.366415	2545.724719
876.677169	2543.274718
876.987882	2542.352187
877.298554	2543.302445
877.609183	2542.160623
877.919771	2542.546272
878.230317	2544.461910
878.540822	2543.917465
878.851285	2546.672456
879.161707	2545.598690
879.472087	2546.153217
879.782425	2543.710778
880.092722	2544.681200
880.402977	2543.796478
880.713191	2544.716488
881.023363	2543.589790
881.333494	2545.608773
881.643583	2544.908052
881.953631	2546.208670
882.263637	2544.030891
882.573602	2545.835624
882.883526	2546.551468
883.193408	2541.815304
883.503248	2542.447969
883.813048	2543.093237
884.122806	2544.217414
884.432522	2544.552651
884.742197	2543.506611
885.051831	2542.974770
885.361424	2544.298073
885.670975	2542.861344
885.980485	2544.449307
886.289954	2543.783875
886.599382	2544.363607
886.908768	2539.526620
887.218113	2539.156096
887.527417	2542.372352
887.836680	2539.514018
888.145901	2543.042825
888.455082	2546.967363
888.764221	2542.508463
889.073319	2543.458720
889.382376	2544.547610
889.691392	2545.288659
890.000366	2543.310006
890.309300	2541.558205
890.618193	2545.449976
890.927044	2543.123484
891.235855	2542.800850
891.544625	2543.559543
891.853353	2546.087682
892.162041	2542.790767
892.470687	2543.841848
892.779293	2543.350336
893.087858	2545.233207
893.396381	2542.954605
893.704864	2543.798998
894.013306	2545.944009
894.321707	2541.966539
894.630068	2543.798998
894.938387	2545.485264
895.246665	2542.054759
895.554903	2542.163144
895.863100	2543.521735
896.171256	2544.703885
896.479371	2542.644574
896.787446	2543.430994
897.095480	2545.016437
897.403473	2543.967877
897.711425	2544.875285
898.019336	2541.691796
898.327207	2544.764379
898.635038	2544.013247
898.942827	2545.283618
899.250576	2544.880326
899.558284	2545.601211
899.865952	2541.606096
900.173579	2545.903680
900.481165	2548.822508
900.788711	2543.196580
901.096216	2541.865716
901.403681	2543.539379
901.711105	2547.007693
902.018489	2544.373690
902.325832	2540.673483
902.633135	2538.571322
902.940397	2541.797660
903.247619	2536.690971
903.554800	2545.702034
903.861941	2541.966539
904.169041	2544.832435
904.476101	2544.746735
904.783121	2542.861344
905.090100	2544.018288
905.397039	2544.834955
905.703938	2542.180788
906.010796	2544.376210
906.317614	2542.863864
906.624391	2542.911755
906.931129	2543.438556
907.237826	2543.751107
907.544483	2542.357228
907.851099	2544.839997
908.157675	2543.499050
908.464211	2542.914276
908.770707	2544.776982
909.077163	2541.525438
909.383578	2545.911242
909.689954	2544.572815
909.996289	2542.107691
910.302584	2546.858979
910.608839	2541.832948
910.915054	2544.482075
911.221229	2541.843031
911.527363	2543.783875
911.833458	2543.143648
912.139513	2541.817825
912.445527	2541.774975
912.751502	2543.378062
913.057436	2545.449976
913.363331	2541.774975
913.669186	2541.558205
913.975000	2544.567774
914.280775	2542.747918
914.586510	2545.313865
914.892205	2541.971580
915.197859	2543.032743
915.503475	2540.093750
915.809050	2544.529966
916.114585	2543.461241
916.420081	2542.286652
916.725536	2545.271015
917.030952	2546.372507
917.336328	2543.778834
917.641665	2541.860675
917.946961	2538.704912
918.252218	2542.047197
918.557435	2537.527803
918.862612	2542.198432
919.167750	2542.785726
919.472848	2542.120294
919.777906	2543.557023
920.082925	2541.447300
920.387904	2542.546272
920.692843	2544.497198
920.997743	2538.301620
921.302603	2546.105326
921.607423	2541.754810
921.912204	2545.724719
922.216946	2542.826056
922.521647	2542.352187
922.826310	2540.761703
923.130932	2543.967877
923.435516	2541.648946
923.740059	2538.021836
924.044564	2541.739687
924.349028	2543.108360
924.653454	2541.608617
924.957840	2544.182126
925.262186	2540.678524
925.566493	2543.468803
925.870761	2541.878319
926.174989	2543.060469
926.479178	2543.612476
926.783328	2540.396219
927.087438	2540.910417
927.391509	2544.388813
927.695541	2540.701209
927.999533	2544.502239
928.303486	2541.129707
928.607400	2543.985521
928.911275	2541.162475
929.215110	2544.479554
929.518906	2543.163813
929.822663	2543.647764
930.126381	2545.260933
930.430060	2543.269677
930.733699	2542.581560
931.037299	2543.123484
931.340861	2541.298586
931.644383	2543.148689
931.947866	2542.102650
932.251309	2543.010058
932.554714	2541.195242
932.858080	2541.051569
933.161407	2539.040149
933.464694	2540.101312
933.767943	2537.936136
934.071153	2543.156251
934.374323	2543.607434
934.677455	2542.155582
934.980548	2544.237579
935.283602	2541.752290
935.586617	2543.037784
935.889593	2541.984183
936.192530	2545.989380
936.495428	2542.430325
936.798287	2539.970242
937.101108	2541.230530
937.403890	2544.454348
937.706632	2544.759338
938.009336	2544.537527
938.312002	2545.245809
938.614628	2541.903524
938.917216	2544.333361
939.219765	2543.778834
939.522275	2543.481406
939.824747	2539.695499
940.127179	2542.057280
940.429573	2541.669111
940.731929	2543.138607
941.034246	2543.602393
941.336524	2543.413350
941.638763	2541.207845
941.940964	2541.205325
942.243126	2539.768596
942.545250	2538.195756
942.847335	2541.374203
943.149381	2542.120294
943.451389	2541.762372
943.753359	2543.786395
944.055290	2542.846220
944.357182	2542.087527
944.659036	2538.881353
944.960851	2542.954605
945.262628	2544.222455
945.564367	2541.706919
945.866067	2542.450490
946.167729	2541.638864
946.469352	2542.395037
946.770937	2542.498381
947.072484	2542.306817
947.373992	2544.028371
947.675462	2539.705581
947.976893	2540.197094
948.278286	2540.207176
948.579641	2541.565767
948.880958	2536.264994
949.182236	2542.064841
949.483476	2539.806404
949.784678	2542.856303
950.085841	2541.429656
950.386967	2543.456200
950.688054	2541.306148
950.989103	2543.254554
951.290114	2542.359749
951.591087	2542.594163
951.892021	2541.858154
952.192917	2541.434697
952.493776	2541.593493
952.794596	2545.281098
953.095378	2541.601055
953.396122	2541.182639
953.696828	2544.257743
953.997496	2541.553164
954.298126	2541.089378
954.598718	2542.725233
954.899272	2541.406971
955.199788	2543.952753
955.500266	2540.676003
955.800706	2541.268339
956.101108	2541.588452
956.401472	2541.873278
956.701798	2539.481250
957.002087	2541.835469
957.302337	2542.689944
957.602550	2545.611293
957.902724	2541.863195
958.202861	2540.003009
958.502960	2544.129194
958.803022	2540.991076
959.103045	2543.481406
959.403031	2542.274049
959.702979	2539.198945
960.002889	2541.873277
960.302762	2541.245654
960.602596	2541.464944
960.902393	2539.403112
961.202153	2541.225489
961.501875	2541.175078
961.801559	2539.844213
962.101205	2539.866898
962.400814	2540.401261
962.700385	2541.885880
962.999918	2537.174922
963.299414	2538.475540
963.598873	2538.841023
963.898293	2540.010571
964.197677	2542.420243
964.497022	2543.536858
964.796331	2540.630633
965.095601	2542.344625
965.394835	2544.154400
965.694030	2540.111394
965.993189	2541.820345
966.292309	2542.014430
966.591393	2541.709440
966.890439	2543.131045
967.189447	2540.592824
967.488419	2538.588966
967.787353	2542.082485
968.086249	2540.950746
968.385108	2543.042825
968.683930	2539.876981
968.982714	2541.187681
969.281462	2543.070552
969.580172	2541.633823
969.878844	2543.040305
970.177480	2541.139790
970.476078	2542.200952
970.774639	2542.669780
971.073162	2540.915458
971.371649	2542.228679
971.670098	2541.306148
971.968510	2540.940664
972.266885	2540.428987
972.565223	2542.173226
972.863524	2543.355377
973.161788	2544.391334
973.460014	2545.152548
973.758204	2543.645243
974.056356	2539.511497
974.354471	2544.945861
974.652550	2538.805735
974.950591	2541.827907
975.248595	2543.516694
975.546563	2539.022505
975.844493	2539.871939
976.142386	2540.360931
976.440243	2541.964018
976.738062	2541.371683
977.035845	2541.187681
977.333590	2542.881508
977.631299	2541.575849
977.928971	2538.289017
978.226606	2537.966383
978.524204	2539.708102
978.821765	2538.498225
979.119290	2541.492670
979.416777	2538.442772
979.714228	2542.339584
980.011642	2541.785057
980.309020	2542.392516
980.606360	2540.731456
980.903664	2542.284132
981.200931	2540.706250
981.498162	2539.065355
981.795356	2540.295396
982.092513	2540.519728
982.389633	2539.546785
982.686717	2541.220448
982.983764	2541.495191
983.280775	2540.759183
983.577749	2541.522917
983.874686	2540.585263
984.171587	2541.611138
984.468451	2538.326826
984.765279	2540.983514
985.062070	2541.228010
985.358824	2541.348997
985.655543	2540.401261
985.952224	2538.624254
986.248869	2540.650798
986.545478	2540.176929
986.842050	2544.661036
987.138586	2539.919830
987.435086	2540.257588
987.731549	2539.619882
988.027975	2539.655170
988.324366	2538.445293
988.620719	2541.976621
988.917037	2543.123484
989.213318	2539.246836
989.509563	2542.493339
989.805772	2543.299924
990.101944	2540.368493
990.398080	2542.095088
990.694180	2539.778678
990.990244	2541.457382
991.286271	2538.911600
991.582262	2540.005530
991.878217	2542.019471
992.174136	2539.720705
992.470019	2542.347146
992.765865	2536.953111
993.061676	2539.418236
993.357450	2538.924202
993.653188	2533.946063
993.948890	2538.271373
994.244556	2540.670962
994.540186	2540.809594
994.835780	2542.261446
995.131337	2540.653318
995.426859	2541.946374
995.722345	2541.553164
996.017795	2540.209697
996.313208	2540.378575
996.608586	2539.191384
996.903928	2540.227341
997.199234	2539.261960
997.494504	2541.492670
997.789738	2541.384286
998.084936	2541.265818
998.380099	2538.319264
998.675225	2541.293545
998.970316	2538.662063
999.265371	2540.444110
999.560390	2541.280942
999.855373	2540.353370
1000.150320	2540.769265
1000.445232	2539.468647
1000.740108	2540.965870
1001.034948	2541.202804
1001.329752	2538.868750
1001.624521	2542.130376
1001.919254	2536.857329
1002.213951	2539.826569
1002.508613	2541.170037
1002.803239	2539.471168
1003.097829	2541.903524
1003.392384	2540.219779
1003.686903	2539.781199
1003.981386	2542.029553
1004.275834	2541.192722
1004.570246	2538.435211
1004.864623	2540.638195
1005.158964	2540.610468
1005.453270	2542.407640
1005.747540	2541.212886
1006.041775	2542.352187
1006.335974	2542.256405
1006.630138	2541.222969
1006.924266	2539.539223
1007.218359	2539.261960
1007.512416	2536.753986
1007.806438	2538.251208
1008.100425	2537.001002
1008.394376	2535.937319
1008.688292	2540.676003
1008.982172	2539.302289
1009.276017	2538.893956
1009.569827	2540.237423
1009.863602	2541.767413
1010.157341	2541.137269
1010.451045	2540.867567
1010.744714	2537.318595
1011.038347	2537.610982
1011.331945	2538.881353
1011.625508	2538.858668
1011.919036	2541.457382
1012.212528	2540.660880
1012.505986	2542.826056
1012.799408	2538.246167
1013.092795	2540.217258
1013.386147	2539.990407
1013.679464	2539.879501
1013.972745	2543.385624
1014.265992	2540.875129
1014.559204	2542.528628
1014.852380	2540.585263
1015.145521	2542.677342
1015.438628	2541.656508
1015.731699	2540.315561
1016.024736	2538.170550
1016.317737	2540.544933
1016.610703	2537.973945
1016.903635	2543.781354
1017.196531	2539.589635
1017.489393	2538.909079
1017.782219	2541.477547
1018.075011	2539.317413
1018.367768	2543.378062
1018.660490	2541.578370
1018.953177	2541.578370
1019.245829	2541.578370
