Dividing Wavelength (nm)	Counts (n)	Blue Motor Position (mm): 38.700000	Red Motor Position (mm): 0.000000	
326.493990	2128.453292
326.888308	2128.453292
327.282561	2128.453292
327.676750	2097.591348
328.070874	2097.036821
328.464933	2094.733014
328.858929	2105.221134
329.252859	2115.021137
329.646726	2126.943466
330.040528	2136.998048
330.434265	2157.606284
330.827938	2175.325940
331.221547	2191.926460
331.615091	2211.612166
332.008571	2227.277551
332.401986	2248.924266
332.795338	2268.783891
333.188625	2289.548404
333.581847	2307.154634
333.975006	2322.888075
334.368100	2340.174192
334.761129	2362.181349
335.154095	2376.835983
335.546996	2399.485887
335.939833	2423.459094
336.332606	2439.116918
336.725315	2452.634772
337.117960	2462.187759
337.510540	2469.764613
337.903056	2480.487147
338.295508	2485.704741
338.687896	2496.946514
339.080220	2504.271311
339.472480	2509.322547
339.864676	2513.766324
340.256807	2522.653878
340.648875	2523.074815
341.040879	2527.808458
341.432818	2527.387522
341.824694	2527.838705
342.216506	2529.141843
342.608253	2530.480270
342.999937	2528.882224
343.391557	2528.978006
343.783113	2527.586648
344.174605	2523.982222
344.566033	2524.425844
344.957397	2524.274609
345.348697	2521.812006
345.739934	2519.278826
346.131106	2519.283867
346.522215	2517.763959
346.913260	2514.527538
347.304241	2514.356139
347.695159	2510.514780
348.086012	2511.830521
348.476802	2506.549913
348.867528	2508.989831
349.258191	2504.873729
349.648789	2504.977072
350.039324	2503.341218
350.429796	2503.300889
350.820203	2499.477174
351.210548	2499.814931
351.600828	2499.928357
351.991045	2498.569766
352.381198	2498.179077
352.771288	2497.432986
353.161314	2497.513644
353.551276	2496.439878
353.941175	2495.847543
354.331010	2493.642038
354.720782	2493.636997
355.110490	2498.824344
355.500135	2495.852584
355.889717	2497.672441
356.279235	2497.377533
356.668689	2498.259735
357.058080	2496.064313
357.447408	2495.025835
357.836672	2492.936277
358.225873	2496.742348
358.615010	2495.812255
359.004084	2500.669407
359.393095	2499.031032
359.782043	2498.695795
360.170927	2498.778974
360.559748	2500.629077
360.948505	2502.915241
361.337199	2502.146465
361.725830	2502.607730
362.114398	2501.234016
362.502903	2503.147134
362.891344	2503.568070
363.279722	2504.919099
363.668037	2506.585201
364.056289	2504.664521
364.444478	2510.431601
364.832603	2507.061590
365.220665	2511.273474
365.608665	2508.800788
365.996601	2506.202073
366.384474	2508.503360
366.772284	2509.781292
367.160031	2508.770541
367.547715	2509.148627
367.935336	2509.173833
368.322893	2508.669718
368.710388	2509.904800
369.097820	2514.381345
369.485189	2510.923113
369.872495	2511.623834
370.259738	2510.613083
370.646918	2511.606190
371.034035	2512.805984
371.421090	2515.487878
371.808081	2509.607372
372.195010	2513.610048
372.581875	2511.747342
372.968678	2515.356808
373.355418	2511.490243
373.742096	2513.927641
374.128710	2514.187261
374.515262	2514.247754
374.901751	2518.920904
375.288177	2517.453928
375.674540	2517.161541
376.060841	2519.477952
376.447079	2517.055677
376.833254	2519.684639
377.219367	2514.542662
377.605417	2515.787827
377.991404	2517.340502
378.377329	2514.688855
378.763191	2514.898063
379.148991	2520.836542
379.534727	2519.727489
379.920402	2520.234125
380.306013	2518.436953
380.691563	2523.100021
381.077049	2520.007273
381.462474	2523.231091
381.847835	2524.632531
382.233134	2525.151770
382.618371	2523.636903
383.003545	2524.619928
383.388657	2526.331400
383.773706	2525.996163
384.158693	2524.075484
384.543618	2525.998684
384.928480	2523.929290
385.313280	2527.354754
385.698017	2526.712007
386.082692	2528.342821
386.467305	2528.536905
386.851856	2530.250897
387.236344	2527.576565
387.620770	2530.984385
388.005133	2531.705270
388.389435	2528.554549
388.773674	2530.094622
389.157851	2531.692667
389.541965	2530.392050
389.926018	2533.023532
390.310008	2535.549150
390.693936	2535.975127
391.077802	2537.689120
391.461606	2540.401261
391.845348	2546.760676
392.229027	2547.965512
392.612645	2553.798127
392.996200	2563.008315
393.379694	2566.980744
393.763125	2580.654874
394.146494	2587.294074
394.529801	2599.206320
394.913047	2617.046964
395.296230	2626.935187
395.679351	2642.260295
396.062410	2661.227636
396.445408	2678.861592
396.828343	2700.808255
397.211217	2716.307283
397.594028	2728.431258
397.976778	2755.482089
398.359466	2784.652726
398.742092	2809.399750
399.124656	2823.411637
399.507158	2863.690457
399.889598	2895.338821
400.271977	2937.452620
400.654294	2960.107565
401.036549	2992.053357
401.418742	3014.282325
401.800874	3076.636357
402.182944	3116.705968
402.564952	3176.216789
402.946898	3201.170501
403.328783	3242.490318
403.710606	3244.353025
404.092367	3356.301928
404.474067	3381.263202
404.855705	3422.562854
405.237282	3425.282557
405.618797	3518.604397
406.000250	3577.550609
406.381642	3659.481962
406.762972	3674.917975
407.144240	3724.437229
407.525447	3761.456942
407.906593	3836.577696
408.287677	3902.838622
408.668700	3896.085997
409.049661	3968.431596
409.430560	4038.221330
409.811399	4021.310779
410.192176	4169.389632
410.572891	4160.252541
410.953545	4278.984317
411.334138	4220.920307
411.714669	4303.590189
412.095139	4251.089092
412.475547	4395.140063
412.855894	4411.130603
413.236180	4449.629895
413.616405	4435.365950
413.996568	4536.741033
414.376670	4516.800749
414.756711	4492.966174
415.136691	4543.286972
415.516609	4636.568482
415.896466	4685.422304
416.276262	4739.158484
416.655997	4734.823092
417.035670	4922.313685
417.415283	5020.659035
417.794834	4984.508921
418.174324	4957.851299
418.553753	4881.760123
418.933121	5069.898505
419.312428	5147.088653
419.691674	5099.227938
420.070859	5227.835335
420.449983	5150.156195
420.829045	5276.643786
421.208047	5186.598696
421.586988	5265.107106
421.965867	5281.029590
422.344686	5416.034211
422.723444	5278.675371
423.102141	5103.139874
423.480777	5398.806067
423.859352	5173.796686
424.237866	5436.178662
424.616319	5427.187764
424.994712	5538.859404
425.373044	5418.471609
425.751314	5564.836469
426.129524	5369.622828
426.507673	5564.468465
426.885762	5648.885107
427.263789	5579.889355
427.641756	5467.048167
428.019662	5583.604685
428.397508	5591.267239
428.775292	5542.872162
429.153016	5638.281040
429.530679	5567.606583
429.908282	5652.618081
430.285824	5522.422722
430.663305	5797.636954
431.040726	5534.609711
431.418086	5534.448394
431.795385	5641.497296
432.172624	5655.194111
432.549802	5645.628522
432.926920	5661.704761
433.303977	5666.461090
433.680974	5703.881575
434.057910	5726.972580
434.434786	5729.140276
434.811601	5695.823290
435.188355	5929.705103
435.565050	5810.650693
435.941683	5791.338032
436.318257	6005.009859
436.694770	5984.162167
437.071222	6020.690368
437.447614	5955.004133
437.823946	5871.389035
438.200218	6022.847982
438.576429	5886.184821
438.952580	5984.038659
439.328670	6028.312592
439.704700	5933.889260
440.080670	5926.405667
440.456580	6194.050607
440.832429	6078.525005
441.208218	5920.368886
441.583947	6080.357465
441.959616	6080.914512
442.335224	6007.764849
442.710773	6148.002187
443.086261	6169.976577
443.461689	5968.325382
443.837057	6116.361385
444.212365	6273.695797
444.587612	6167.019940
444.962800	6318.597354
445.337927	6296.834693
445.712995	5908.698614
446.088002	6488.108673
446.462949	6318.456202
446.837837	6249.304174
447.212664	6415.044710
447.587431	6562.629530
447.962139	7109.262006
448.336786	8032.093108
448.711374	7768.831452
449.085901	6845.796182
449.460369	6763.607731
449.834776	6697.092226
450.209124	7094.587207
450.583412	7240.178251
450.957640	7387.415231
451.331808	7151.320352
451.705917	6705.488268
452.079965	6627.375589
452.453954	6842.451377
452.827883	6716.921605
453.201752	6808.829401
453.575562	6609.628207
453.949311	6809.305790
454.323001	6698.909562
454.696632	6776.192971
455.070202	6915.560710
455.443713	7065.885397
455.817164	7171.026223
456.190556	7245.915084
456.563888	7326.674368
456.937160	7372.082562
457.310373	7028.674120
457.683526	7050.517440
458.056619	6943.982736
458.429653	6931.652073
458.802628	6868.299893
459.175542	6974.070862
459.548398	7331.652508
459.921194	7486.536918
460.293930	7492.843402
460.666607	8019.182713
461.039224	8332.301382
461.411782	8451.728837
461.784280	8472.019481
462.156719	8360.375567
462.529099	8238.861074
462.901419	7830.187335
463.273680	7720.055767
463.645882	7738.892039
464.018024	7607.267512
464.390106	7766.328519
464.762130	8153.330338
465.134094	8625.071432
465.505999	9645.857195
465.877845	10865.251817
466.249631	11510.305260
466.621358	11128.669749
466.993026	10496.650209
467.364634	10239.553884
467.736184	9879.739007
468.107674	9545.944047
468.479105	9581.698430
468.850477	9348.151855
469.221790	9113.886915
469.593043	8789.743243
469.964238	8650.614959
470.335373	8660.798090
470.706449	8716.220535
471.077467	8698.800828
471.448425	10012.520479
471.819324	11082.550753
472.190164	11100.126736
472.560945	9855.843938
472.931667	9067.326818
473.302330	8938.167415
473.672934	8581.702386
474.043479	8937.892672
474.413965	8872.259370
474.784393	8762.324408
475.154761	8911.703878
475.525070	9009.083847
475.895321	8828.517278
476.265513	9006.676696
476.635645	9174.683230
477.005719	9174.529475
477.375734	9289.823184
477.745691	9530.271099
478.115588	9660.552159
478.485427	9909.083564
478.855207	10448.630698
479.224928	11260.019533
479.594591	11882.355017
479.964194	11689.994668
480.333739	11633.367387
480.703226	11549.059130
481.072653	11643.021197
481.442022	11874.306815
481.811333	12069.772514
482.180584	11869.268181
482.549777	11581.874521
482.918912	11399.846018
483.287988	11424.711509
483.657005	11448.886362
484.025964	11121.130704
484.394864	11250.557287
484.763706	11223.808925
485.132489	10984.525517
485.501213	10945.973293
485.869879	11017.164467
486.238487	10862.663184
486.607036	10966.395007
486.975527	10751.483057
487.343959	10945.529671
487.712333	10991.053811
488.080648	10916.351473
488.448905	10966.914246
488.817104	10900.300439
489.185244	11173.026862
489.553326	11329.093423
489.921350	11866.520753
490.289315	12929.783278
490.657222	13264.324329
491.025070	13176.590608
491.392861	13047.219477
491.760593	12665.962053
492.128267	12307.412506
492.495883	11983.077271
492.863440	11655.429997
493.230939	11312.606330
493.598380	11249.997719
493.965763	11120.924016
494.333088	11016.163798
494.700354	10932.619276
495.067563	10995.369039
495.434713	10832.290232
495.801805	10960.327978
496.168839	10878.247911
496.535815	10812.367592
496.902733	10819.936885
497.269593	10753.849878
497.636395	10849.805721
498.003139	10837.364154
498.369825	10709.018897
498.736453	10864.888854
499.103023	10793.987545
499.469535	10824.705816
499.835989	10811.482870
500.202385	10773.119689
500.568723	10630.412185
500.935003	10848.394198
501.301226	10654.070320
501.667390	10914.425752
502.033497	11006.328507
502.399546	10863.910870
502.765537	10779.022880
503.131470	10847.196924
503.497345	11020.413491
503.863163	10634.921498
504.228923	10950.711977
504.594625	11008.307160
504.960269	10755.578994
505.325856	10981.606689
505.691385	10772.262693
506.056856	10928.435118
506.422270	10945.529671
506.787625	10833.177475
507.152924	10956.219438
507.518164	10936.735378
507.883347	10853.463078
508.248472	10779.295102
508.613540	11011.621719
508.978550	10893.978832
509.343503	10867.913546
509.708398	10988.782771
510.073236	11098.891653
510.438016	11112.590989
510.802738	11055.182329
511.167403	11110.508992
511.532010	11009.738848
511.896561	11232.552807
512.261053	11305.009311
512.625488	11173.785556
512.989866	11166.914463
513.354186	11150.031639
513.718449	11045.473067
514.082655	11242.277192
514.446803	11136.763322
514.810894	11258.234965
515.174927	11121.786054
515.538904	11146.250773
515.902822	11304.832870
516.266684	11183.058758
516.630488	11126.728905
516.994235	11179.706391
517.357925	11242.877090
517.721558	11333.388486
518.085133	11345.893068
518.448651	11363.794206
518.812112	11242.990516
519.175516	11256.697413
519.538863	11375.542615
519.902152	11295.665532
520.265385	11457.058072
520.628560	11367.572551
520.991678	11346.646721
521.354739	11406.414641
521.717743	11345.893068
522.080690	11321.793832
522.443580	11455.694440
522.806413	11414.886300
523.169189	11439.560228
523.531908	11498.932417
523.894569	11320.992289
524.257174	11319.676548
524.619722	11446.365785
524.982213	11390.482074
525.344647	11439.653489
525.707025	11394.567929
526.069345	11485.265849
526.431608	11405.313149
526.793815	11512.336845
527.155964	11300.353805
527.518057	11358.932013
527.880093	11304.172479
528.242072	11369.455422
528.603995	11276.315063
528.965860	11191.704337
529.327669	11256.231106
529.689421	11199.092148
530.051117	11169.417396
530.412755	11277.598037
530.774337	11162.465645
531.135862	11139.498148
531.497331	11165.989411
531.858743	11016.940136
532.220098	11181.990033
532.581396	11048.870804
532.942638	11046.551874
533.303824	11003.596202
533.664953	11012.062820
534.026025	10935.885944
534.387040	11029.595953
534.747999	11035.567199
535.108902	11096.247568
535.469748	10847.698519
535.830537	10957.557864
536.191270	10930.212125
536.551947	10955.281783
536.912567	10953.459406
537.273131	10883.402491
537.633638	10857.599345
537.994089	10851.461740
538.354483	10796.465273
538.714821	10942.658734
539.075103	10946.532861
539.435328	10918.955229
539.795497	10740.347148
540.155609	10904.630790
540.515665	10985.952163
540.875665	10721.531041
541.235609	10793.879161
541.595496	10785.082347
541.955328	10944.695360
542.315102	10823.364869
542.674821	10775.514237
543.034483	10771.506520
543.394090	10780.615885
543.753640	10704.519668
544.113134	10932.125243
544.472571	10786.526638
544.831953	10922.738615
545.191278	10737.246838
545.550548	10759.869016
545.909761	10901.832950
546.268918	10872.838753
546.628019	10956.574839
546.987064	10815.624178
547.346053	10742.845040
547.704986	10838.112765
548.063863	10833.202681
548.422684	10818.638788
548.781449	10740.205996
549.140158	10840.832467
549.498811	10715.501821
549.857408	10573.535367
550.215949	10807.099587
550.574434	10653.374641
550.932864	10753.260063
551.291237	10815.493108
551.649555	10757.837431
552.007817	10771.950141
552.366022	10729.513708
552.724173	10729.765766
553.082267	10713.261028
553.440305	10850.090547
553.798288	10649.674434
554.156215	10804.437857
554.514086	10786.168716
554.871902	10626.338933
555.229661	10663.560293
555.587365	10642.778136
555.945014	10534.620180
556.302606	10660.845631
556.660143	10553.340505
557.017625	10711.693229
557.375050	10613.040369
557.732421	10744.780843
558.089735	10657.117698
558.446994	10656.162399
558.804197	10685.247336
559.161345	10692.045332
559.518437	10541.768536
559.875474	10631.584254
560.232455	10662.632720
560.589381	10612.261511
560.946251	10609.163722
561.303065	10714.813704
561.659825	10650.675103
562.016528	10580.345966
562.373177	10464.346495
562.729770	10579.143651
563.086307	10492.493778
563.442789	10580.903013
563.799216	10467.028389
564.155587	10511.014977
564.511904	10468.331527
564.868164	10456.550351
565.224370	10470.683226
565.580520	10400.613708
565.936615	10401.256455
566.292654	10270.367937
566.648638	10406.017825
567.004567	10357.753818
567.360441	10348.536068
567.716260	10253.374207
568.072023	10352.697541
568.427732	10302.744747
568.783385	10208.732269
569.138982	10281.448393
569.494525	10298.668974
569.850013	10168.125775
570.205445	10249.046376
570.560823	10150.138938
570.916145	10058.946985
571.271412	10135.108738
571.626625	10078.688144
571.981782	10058.589063
572.336884	10034.257934
572.691931	10038.240446
573.046923	9985.696499
573.401860	9941.291496
573.756743	9876.479901
574.111570	9918.253423
574.466342	9900.347244
574.821059	9925.263147
575.175722	9821.458228
575.530330	9830.983488
575.884882	9825.289505
576.239380	9753.339636
576.593823	9727.881809
576.948211	9747.648174
577.302544	9629.579309
577.656823	9640.541298
578.011047	9644.763265
578.365216	9614.748235
578.719330	9540.718891
579.073389	9557.405110
579.427394	9499.794804
579.781344	9480.590528
580.135239	9424.918546
580.489080	9441.337584
580.842866	9335.886728
581.196597	9341.426956
581.550273	9379.006237
581.903895	9351.151341
582.257463	9418.352443
582.610975	9297.934401
582.964434	9324.647475
583.317837	9243.008509
583.671186	9219.925066
584.024481	9216.386176
584.377721	9139.143096
584.730906	9107.577911
585.084037	9145.389085
585.437113	9083.410619
585.790135	9103.900389
586.143103	8995.737392
586.496016	8976.104619
586.848874	9036.444710
587.201679	9021.109520
587.554428	8905.891428
587.907124	8952.549827
588.259765	8924.999922
588.612352	8925.461187
588.964884	8802.121797
589.317362	8821.658788
589.669786	8816.715937
590.022155	8865.163946
590.374470	8882.366883
590.726731	8821.951175
591.078937	8670.071292
591.431090	8785.896843
591.783188	8658.078387
592.135232	8652.517994
592.487222	8649.571440
592.839157	8705.399698
593.191038	8638.422928
593.542866	8578.287004
593.894639	8481.252354
594.246358	8534.189511
594.598022	8547.205770
594.949633	8446.276829
595.301190	8426.207995
595.652692	8451.922921
596.004141	8560.242194
596.355535	8335.502514
596.706876	8318.060122
597.058162	8248.661078
597.409395	8332.450096
597.760573	8389.228611
598.111698	8300.095970
598.462768	8284.659957
598.813785	8252.383970
599.164748	8217.894916
599.515657	8211.152372
599.866511	8115.269626
600.217312	8247.027744
600.568060	8101.502235
600.918753	8214.071200
601.269392	8183.736057
601.619978	8089.123682
601.970510	8154.739340
602.320988	8150.338413
602.671412	8211.963998
603.021783	8142.577557
603.372100	8112.789378
603.722363	8114.740305
604.072572	8091.868590
604.422728	8105.711598
604.772830	8032.531689
605.122878	8036.297431
605.472872	8035.984879
605.822813	8066.935043
606.172701	8011.951178
606.522534	8085.655368
606.872314	8083.515398
607.222041	8053.578506
607.571714	8107.057587
607.921333	8065.876401
608.270899	8076.039367
608.620411	8164.632605
608.969870	8069.662307
609.319276	8062.103097
609.668627	8080.140346
610.017926	8109.507587
610.367171	8160.687902
610.716362	8134.741083
611.065500	8129.427707
611.414585	8155.009042
611.763616	8140.107391
612.112594	8124.862942
612.461518	8139.802401
612.810389	8205.070220
613.159207	8141.450859
613.507971	8086.557734
613.856682	8205.312196
614.205340	8163.200917
614.553945	8241.555571
614.902496	8135.855178
615.250994	8198.466309
615.599439	8179.624996
615.947830	8187.229577
616.296169	8157.156573
616.644454	8174.336826
616.992686	8175.438318
617.340864	8230.104590
617.688990	8136.316443
618.037063	8231.816062
618.385082	8173.580653
618.733048	8258.254393
619.080961	8192.895834
619.428821	8214.527425
619.776628	8212.999955
620.124382	8171.874222
620.472083	8158.787387
620.819731	8183.131119
621.167326	8078.222187
621.514868	8083.091941
621.862357	7970.465002
622.209793	7982.377249
622.557176	7927.325328
622.904506	7890.426603
623.251783	7825.705749
623.599007	7787.423227
623.946179	7785.636138
624.293297	7742.814057
624.640363	7655.637383
624.987376	7642.749673
625.334336	7590.798062
625.681243	7543.721247
626.028097	7530.342025
626.374899	7505.640371
626.721647	7501.849423
627.068343	7428.283865
627.414987	7402.092550
627.761577	7359.146961
628.108115	7392.398412
628.454600	7282.980167
628.801032	7337.427149
629.147412	7298.675800
629.493739	7284.507637
629.840014	7226.567135
630.186236	7284.946217
630.532405	7166.332908
630.878521	7218.783594
631.224585	7174.464290
631.570597	7093.236178
631.916556	7129.890407
632.262462	7124.955118
632.608316	7087.469098
632.954117	7061.779378
633.299866	7055.349386
633.645562	7042.577623
633.991206	6965.969728
634.336797	6904.853300
634.682336	6862.663883
635.027823	6826.360014
635.373257	6822.856412
635.718639	6754.286637
636.063968	6763.761486
636.409245	6660.485888
636.754470	6661.700806
637.099642	6618.001563
637.444762	6563.446197
637.789829	6568.852834
638.134845	6513.352251
638.479808	6494.649570
638.824719	6505.326734
639.169577	6429.578356
639.514383	6452.921419
639.859137	6378.541715
640.203839	6390.509414
640.548489	6376.389142
640.893086	6351.513568
641.237632	6316.409493
641.582125	6341.890006
641.926566	6315.882693
642.270955	6326.653118
642.615292	6323.830072
642.959576	6340.846487
643.303809	6325.591955
643.647990	6330.436504
643.992118	6325.907027
644.336195	6269.471310
644.680219	6297.459796
645.024192	6284.582169
645.368112	6377.604060
645.711981	6403.172792
646.055797	6478.240614
646.399562	6437.465241
646.743274	6567.126239
647.086935	6616.380833
647.430544	6611.090142
647.774101	6631.622761
648.117606	6639.640716
648.461059	6628.182174
648.804460	6596.490960
649.147810	6502.334809
649.491108	6472.377752
649.834354	6446.768691
650.177548	6360.023036
650.520690	6274.946003
650.863781	6255.933291
651.206820	6275.886178
651.549807	6196.488005
651.892742	6138.161855
652.235626	6145.400952
652.578458	6124.152489
652.921238	6042.357247
653.263967	6077.962917
653.606644	6019.341859
653.949269	6022.336304
654.291843	5961.522345
654.634365	6010.459346
654.976836	5970.719930
655.319255	5971.231607
655.661622	5942.552483
656.003938	5940.200785
656.346203	5900.413478
656.688416	5930.685607
657.030577	5883.422269
657.372687	5853.228278
657.714746	5839.511298
658.056753	5881.549480
658.398708	5821.022867
658.740612	5814.855015
659.082465	5862.209094
659.424266	5855.844637
659.766016	5854.165933
660.107715	5829.257592
660.449362	5841.983984
660.790958	5837.719168
661.132503	5823.989586
661.473996	5856.830183
661.815438	5849.538153
662.156829	5849.311302
662.498168	5843.166135
662.839456	5816.145550
663.180693	5848.532443
663.521879	5856.515110
663.863013	5840.620352
664.204097	5859.444021
664.545129	5896.057921
664.886110	5894.837962
665.227040	5930.292397
665.567918	5893.585235
665.908746	5922.612199
666.249522	5927.176964
666.590248	5912.897896
666.930922	5945.428461
667.271545	5956.274504
667.612118	5951.739986
667.952639	5927.996151
668.293109	5951.689574
668.633528	5908.620477
668.973896	5909.784983
669.314213	5901.293159
669.654480	5887.245984
669.994695	5878.562597
670.334859	5865.937027
670.674973	5856.789853
671.015035	5863.537438
671.355047	5863.592890
671.695008	5850.634604
672.034918	5819.437424
672.374777	5834.938972
672.714585	5818.988761
673.054342	5821.239636
673.394049	5814.716383
673.733705	5846.397515
674.073310	5836.068190
674.412864	5796.394310
674.752368	5785.092043
675.091820	5790.516324
675.431223	5723.040480
675.770574	5728.028702
676.109875	5677.556669
676.449125	5683.979099
676.788324	5651.577083
677.127473	5597.838383
677.466571	5586.972176
677.805619	5575.816102
678.144616	5563.626592
678.483562	5539.408889
678.822458	5512.995764
679.161303	5502.424464
679.500098	5492.669832
679.838842	5474.471266
680.177535	5483.804962
680.516179	5494.436756
680.854771	5507.286657
681.193314	5590.800932
681.531805	5698.265729
681.870247	5848.144274
682.208638	5952.281910
682.546978	5961.537468
682.885268	5941.967709
683.223508	5855.211972
683.561697	5800.853210
683.899836	5773.459580
684.237925	5724.262960
684.575963	5690.467064
684.913951	5652.171939
685.251889	5714.024376
685.589776	5678.181772
685.927614	5653.659080
686.265401	5725.351849
686.603137	5702.777562
686.940824	5781.414521
687.278460	5807.636083
687.616046	5817.352907
687.953582	5888.967538
688.291068	5863.141707
688.628504	5931.192243
688.965889	5890.598352
689.303224	5836.058108
689.640510	5789.054390
689.977745	5711.226536
690.314930	5610.342965
690.652065	5556.271549
690.989150	5464.774607
691.326185	5385.638574
691.663170	5336.560420
692.000105	5259.844141
692.336990	5183.498387
692.673825	5158.466537
693.010610	5088.691927
693.347345	5018.660218
693.684030	5005.401983
694.020665	4962.920180
694.357251	4872.081108
694.693786	4884.729363
695.030272	4852.453375
695.366707	4815.557170
695.703093	4779.928816
696.039429	4806.452847
696.375716	4786.018529
696.711952	4761.064818
697.048139	4748.003188
697.384276	4724.682811
697.720363	4742.488166
698.056400	4749.248353
698.392388	4697.725240
698.728326	4677.409390
699.064214	4655.150176
699.400053	4652.911903
699.735842	4618.654742
700.071581	4594.593315
700.407270	4566.105755
700.742910	4550.889032
701.078501	4498.130836
701.414042	4493.619003
701.749533	4465.113799
702.084974	4399.462852
702.420366	4454.151810
702.755709	4402.180034
703.091002	4343.558977
703.426246	4391.903642
703.761440	4346.172815
704.096584	4311.683761
704.431679	4332.168490
704.766725	4313.569153
705.101721	4303.320487
705.436668	4332.508768
705.771565	4279.100263
706.106413	4305.954490
706.441212	4341.305581
706.775961	4350.120039
707.110661	4328.173375
707.445311	4355.322509
707.779913	4379.036097
708.114465	4393.055546
708.448967	4414.417435
708.783421	4475.506138
709.117825	4519.197818
709.452180	4520.798384
709.786485	4568.631373
710.120742	4653.232017
710.454949	4637.183503
710.789107	4705.286971
711.123216	4782.915699
711.457275	4771.109317
711.791286	4845.978013
712.125247	4865.134398
712.459159	4765.422895
712.793023	4838.885110
713.126837	4798.092093
713.460602	4791.609169
713.794318	4714.280390
714.127985	4721.201894
714.461602	4633.876506
714.795171	4603.685036
715.128691	4541.489800
715.462162	4482.727591
715.795584	4434.130868
716.128957	4415.871808
716.462281	4363.922718
716.795556	4333.761494
717.128782	4297.684477
717.461960	4230.385073
717.795088	4241.510900
718.128167	4201.101010
718.461198	4140.143378
718.794180	4138.668841
719.127113	4119.003299
719.459997	4095.103189
719.792833	4052.336560
720.125619	4041.301475
720.458357	4008.478522
720.791046	4014.711909
721.123686	3985.866426
721.456278	3944.493677
721.788821	3960.839618
722.121315	3932.853652
722.453761	3910.130652
722.786158	3923.146911
723.118506	3946.467288
723.450805	3898.089856
723.783056	3916.532917
724.115259	3931.333745
724.447412	3942.073923
724.779518	3929.007252
725.111574	3938.378757
725.443582	3966.354640
725.775542	3951.402578
726.107453	4002.915609
726.439315	4000.510978
726.771129	4018.205428
727.102895	4052.323957
727.434612	4098.717696
727.766281	4118.302579
728.097901	4111.370993
728.429473	4118.337867
728.760996	4126.464207
729.092471	4121.947333
729.423897	4105.031742
729.755276	4111.108853
730.086606	4110.768575
730.417887	4147.299296
730.749120	4208.655179
731.080305	4275.674799
731.411442	4303.007935
731.742530	4270.089201
732.073570	4276.751086
732.404562	4331.417358
732.735506	4322.817149
733.066401	4284.665697
733.397249	4222.047005
733.728048	4143.014315
734.058798	4060.616656
734.389501	3991.867920
734.720156	3927.063887
735.050762	3882.071589
735.381320	3875.921382
735.711831	3824.940193
736.042293	3796.472797
736.372707	3820.115808
736.703073	3791.393834
737.033391	3779.549643
737.363661	3801.259373
737.693883	3823.818536
738.024056	3834.467973
738.354182	3829.789783
738.684260	3894.878641
739.014290	3913.606527
739.344272	3907.108480
739.674207	3952.388124
740.004093	3956.562199
740.333931	3951.019450
740.663722	3950.119604
740.993464	3948.942495
741.323159	3923.968619
741.652806	3893.106675
741.982405	3869.798900
742.311956	3837.969055
742.641460	3826.356757
742.970915	3806.348417
743.300323	3760.171448
743.629683	3727.217425
743.958996	3716.361301
744.288260	3695.412786
744.617477	3661.866428
744.946647	3645.202893
745.275768	3619.225828
745.604842	3619.954274
745.933869	3571.440730
746.262847	3562.343968
746.591778	3600.419803
746.920662	3569.237746
747.249498	3543.033828
747.578286	3588.250458
747.907027	3602.010287
748.235720	3603.736882
748.564365	3625.118937
748.892963	3628.771252
749.221514	3609.720732
749.550017	3585.624017
749.878473	3582.833738
750.206881	3557.348185
750.535242	3551.329047
750.863555	3551.170251
751.191821	3547.633881
751.520039	3527.411293
751.848210	3505.232736
752.176334	3542.532234
752.504411	3548.427863
752.832440	3505.048734
753.160421	3485.393275
753.488356	3499.032117
753.816243	3512.116432
754.144082	3466.312508
754.471875	3454.140642
754.799620	3469.211172
755.127318	3464.351499
755.454969	3465.700008
755.782572	3469.909371
756.110129	3443.922223
756.437638	3435.047272
756.765100	3448.247533
757.092515	3461.742702
757.419882	3468.187817
757.747203	3440.774023
758.074477	3440.411060
758.401703	3456.215077
758.728882	3477.803818
759.056014	3484.417812
759.383099	3488.670025
759.710138	3486.653564
760.037129	3506.533354
760.364073	3533.059906
760.690970	3519.645395
761.017820	3495.606653
761.344623	3515.554499
761.671379	3558.827763
761.998088	3611.522945
762.324751	3734.985843
762.651366	3987.824915
762.977935	4461.584991
763.304456	4899.131939
763.630931	4995.675077
763.957359	4636.152587
764.283740	4294.921925
764.610074	4101.104683
764.936362	3903.685536
765.262602	3747.681989
765.588796	3634.505565
765.914943	3545.088099
766.241044	3455.048050
766.567097	3428.251797
766.893104	3382.137842
767.219064	3350.315558
767.544978	3324.139367
767.870845	3266.997888
768.196665	3249.837800
768.522438	3256.103954
768.848165	3252.464241
769.173846	3214.890001
769.499479	3197.079605
769.825066	3180.181657
770.150607	3167.006601
770.476101	3180.466482
770.801548	3174.467509
771.126949	3130.765746
771.452303	3113.101543
771.777611	3120.557410
772.102872	3122.412554
772.428087	3099.535798
772.753256	3089.582040
773.078378	3080.356728
773.403453	3052.201884
773.728482	3037.411139
774.053465	3055.846638
774.378401	3046.623848
774.703291	3012.328878
775.028135	3016.087058
775.352932	3013.226203
775.677683	2998.488390
776.002388	2993.164932
776.327046	2997.170128
776.651658	2983.639671
776.976224	2978.008703
777.300743	2974.600883
777.625216	2963.984213
777.949643	2959.250569
778.274024	2962.842391
778.598359	2953.148252
778.922647	2955.215125
779.246889	2958.270065
779.571086	2941.009154
779.895236	2936.010850
780.219339	2947.413940
780.543397	2956.120013
780.867409	2962.484469
781.191374	2951.898046
781.515294	2948.885957
781.839167	2950.201698
782.162995	2944.220369
782.486776	2952.210598
782.810511	2948.643981
783.134201	2936.260387
783.457844	2943.680965
783.781441	2936.323401
784.104993	2913.849938
784.428498	2915.914290
784.751958	2929.333842
785.075372	2922.397214
785.398739	2906.444483
785.722061	2922.414858
786.045337	2933.591096
786.368568	2918.565937
786.691752	2909.748959
787.014891	2959.805096
787.337983	2987.970023
787.661030	3016.250896
787.984031	3083.126843
788.306987	3132.036117
788.629897	3120.539766
788.952760	3105.630553
789.275579	3092.964654
789.598351	3033.148843
789.921078	2984.836945
790.243759	2982.089517
790.566395	2958.617904
790.888984	2937.651745
791.211529	2920.867224
791.534027	2908.231572
791.856480	2901.121024
792.178888	2887.283057
792.501249	2877.311654
792.823566	2876.626058
793.145836	2872.683875
793.468062	2868.287989
793.790241	2867.153729
794.112375	2873.382075
794.434464	2885.609394
794.756507	2891.210116
795.078505	2894.922925
795.400457	2907.142682
795.722364	2947.177006
796.044226	2972.914617
796.366042	2972.811273
796.687812	2961.811475
797.009538	2982.767552
797.331218	2968.826241
797.652852	2954.748819
797.974442	2937.757610
798.295986	2932.018256
798.617484	2928.033224
798.938938	2911.334402
799.260346	2896.520971
799.581709	2892.717421
799.903026	2883.207284
800.224299	2878.151007
800.545526	2871.839482
800.866708	2853.746781
801.187845	2845.345698
801.508936	2845.756552
801.829983	2851.881554
802.150984	2840.286900
802.471940	2823.099086
802.792851	2827.522698
803.113717	2823.963644
803.434538	2831.744665
803.755314	2823.015907
804.076045	2817.397541
804.396731	2816.323775
804.717372	2818.821667
805.037967	2813.813281
805.358518	2820.422233
805.679024	2833.045282
805.999485	2826.219560
806.319901	2831.714418
806.640272	2823.094045
806.960598	2832.072340
807.280879	2837.599965
807.601115	2845.290245
807.921306	2832.568893
808.241453	2828.452791
808.561554	2837.327743
808.881611	2838.421673
809.201623	2832.536126
809.521590	2831.059068
809.841513	2828.278872
810.161390	2830.174345
810.481223	2823.061277
810.801011	2815.600370
811.120755	2810.092909
811.440453	2816.885864
811.760107	2810.196253
812.079716	2807.403453
812.399281	2799.171249
812.718801	2793.467184
813.038276	2789.260341
813.357707	2798.299130
813.677093	2803.854481
813.996434	2799.055303
814.315731	2793.104221
814.634983	2787.571554
814.954191	2790.321504
815.273354	2805.137455
815.592473	2815.320586
815.911547	2816.275884
816.230577	2821.251503
816.549562	2833.962773
816.868502	2833.365396
817.187399	2841.489215
817.506250	2856.804241
817.825058	2850.621265
818.143821	2863.221629
818.462539	2879.628065
818.781213	2906.336098
819.099843	2941.989658
819.418429	3001.997033
819.736970	3062.190931
820.055466	3134.927219
820.373919	3241.325812
820.692327	3379.924775
821.010691	3552.586815
821.329011	3997.410669
821.647286	4906.736520
821.965517	6298.571371
822.283704	7053.380815
822.601847	7033.995058
822.919945	6391.046297
823.237999	5876.919181
823.556010	5289.501249
823.873976	4733.199840
824.191897	4314.418587
824.509775	4020.819267
824.827609	3746.973707
825.145398	3622.210191
825.463144	3613.239457
825.780845	3708.116493
826.098502	3812.503666
826.416116	4096.124023
826.733685	4416.239813
827.051210	4484.865040
827.368692	4365.901371
827.686129	4093.295935
828.003522	3765.212602
828.320872	3504.809279
828.638177	3308.476502
828.955439	3173.000533
829.272656	3090.668409
829.589830	3019.436905
829.906960	2972.012250
830.224046	2925.187493
830.541088	2892.041906
830.858086	2876.535317
831.175041	2855.924559
831.491952	2860.138964
831.808819	2874.309647
832.125642	2894.622977
832.442421	2942.171140
832.759157	3025.140970
833.075849	3202.801314
833.392497	3487.371928
833.709101	3693.368598
834.025662	3639.730721
834.342179	3482.252637
834.658653	3302.205306
834.975083	3154.670898
835.291469	3056.872513
835.607811	2967.896148
835.924110	2907.266191
836.240366	2858.611494
836.556578	2816.820329
836.872746	2795.821402
837.188871	2770.754265
837.504952	2751.628127
837.820990	2746.982704
838.136984	2731.602144
838.452935	2726.989488
838.768842	2722.941441
839.084706	2740.403998
839.400526	2819.136739
839.716303	2955.774693
840.032037	3038.184956
840.347727	3020.392203
840.663373	2958.267544
840.978977	2881.198384
841.294537	2810.269349
841.610054	2758.806730
841.925527	2738.778226
842.240957	2715.974567
842.556344	2692.233253
842.871687	2677.437466
843.186987	2671.163750
843.502244	2666.909016
843.817458	2661.981288
844.132629	2648.733136
844.447756	2640.450520
844.762840	2634.270066
845.077881	2636.218472
845.392879	2636.440282
845.707833	2631.235291
846.022745	2623.764301
846.337613	2626.809158
846.652438	2624.457460
846.967221	2623.744137
847.281960	2622.743467
847.596656	2618.518981
847.911309	2620.623662
848.225919	2620.066615
848.540485	2614.818774
848.855009	2613.871037
849.169490	2616.222735
849.483928	2615.995883
849.798323	2613.772734
850.112675	2613.702158
850.426984	2616.210132
850.741251	2611.484050
851.055474	2610.165789
851.369654	2617.273816
851.683792	2616.147118
851.997887	2611.965481
852.311938	2612.595625
852.625947	2612.562857
852.939914	2614.954885
853.253837	2614.077724
853.567718	2611.360542
853.881555	2612.094030
854.195350	2614.964967
854.509103	2614.433125
854.822812	2612.043618
855.136479	2610.380038
855.450103	2610.889194
855.763685	2616.321037
856.077224	2612.731736
856.390720	2610.185953
856.704173	2614.087806
857.017584	2618.395472
857.330953	2616.739453
857.644278	2621.601646
857.957561	2618.503857
858.270802	2616.232817
858.584000	2616.857920
858.897155	2620.653909
859.210268	2619.287757
859.523339	2615.577467
859.836367	2609.724688
860.149352	2612.386417
860.462295	2611.965481
860.775195	2611.244596
861.088054	2606.221086
861.400869	2607.609924
861.713642	2604.335694
862.026373	2608.441714
862.339062	2610.758124
862.651708	2615.635441
862.964312	2617.505709
863.276873	2612.953547
863.589392	2617.639299
863.901869	2623.751698
864.214303	2624.873355
864.526696	2628.974334
864.839045	2631.273100
865.151353	2633.334932
865.463619	2633.246712
865.775842	2633.471043
866.088023	2632.893831
866.400162	2634.471712
866.712258	2632.888790
867.024313	2630.242184
867.336325	2628.450054
867.648296	2630.895013
867.960224	2634.542288
868.272110	2634.335601
868.583954	2624.664147
868.895755	2626.433592
869.207515	2636.364665
869.519233	2640.760551
869.830909	2635.646301
870.142542	2631.953656
870.454134	2634.091105
870.765684	2640.122845
871.077191	2642.212404
871.388657	2644.294400
871.700081	2641.952784
872.011463	2644.259112
872.322803	2644.012096
872.634101	2650.749598
872.945357	2655.838643
873.256571	2660.393325
873.567744	2658.414672
873.878874	2655.200937
874.189963	2658.540701
874.501010	2662.049344
874.812015	2665.005981
875.122979	2665.759633
875.433900	2657.676143
875.744780	2660.920126
876.055618	2663.203768
876.366415	2666.578821
876.677169	2668.436486
876.987882	2661.094045
877.298554	2659.001967
877.609183	2672.759275
877.919771	2679.181705
878.230317	2685.836028
878.540822	2696.719880
878.851285	2710.678835
879.161707	2736.045921
879.472087	2771.828031
879.782425	2821.735454
880.092722	2935.950356
880.402977	3129.767598
880.713191	3390.748133
881.023363	3695.329607
881.333494	3889.845048
881.643583	4064.899116
881.953631	4060.513312
882.263637	3882.941188
882.573602	3659.769307
882.883526	3522.203781
883.193408	3406.554670
883.503248	3301.809576
883.813048	3185.658871
884.122806	3071.469174
884.432522	2982.782675
884.742197	2918.213056
885.051831	2878.488764
885.361424	2843.861078
885.670975	2805.059317
885.980485	2776.602003
886.289954	2757.964858
886.599382	2744.373907
886.908768	2732.121382
887.218113	2711.911397
887.527417	2699.716846
887.836680	2690.151256
888.145901	2687.552541
888.455082	2678.034843
888.764221	2665.462205
889.073319	2659.826195
889.382376	2657.103972
889.691392	2661.265445
890.000366	2656.725886
890.309300	2657.325783
890.618193	2658.787717
890.927044	2663.907009
891.235855	2660.481545
891.544625	2661.968686
891.853353	2662.359375
892.162041	2668.945642
892.470687	2688.679239
892.779293	2703.565767
893.087858	2711.061962
893.396381	2733.162381
893.704864	2776.070162
894.013306	2849.313086
894.321707	2941.369596
894.630068	2993.495127
894.938387	3016.646626
895.246665	3010.103208
895.554903	2964.382464
895.863100	2919.528797
896.171256	2861.984026
896.479371	2798.195786
896.787446	2756.008890
897.095480	2737.124728
897.403473	2731.571897
897.711425	2718.858107
898.019336	2698.141485
898.327207	2684.999197
898.635038	2683.501974
898.942827	2679.484175
899.250576	2671.909841
899.558284	2661.270486
899.865952	2652.904691
900.173579	2652.740853
900.481165	2650.444608
900.788711	2642.066210
901.096216	2635.235447
901.403681	2633.357617
901.711105	2634.968266
902.018489	2630.779067
902.325832	2634.688482
902.633135	2638.212248
902.940397	2650.870585
903.247619	2689.077490
903.554800	2760.782863
903.861941	2890.784138
904.169041	3021.632327
904.476101	3083.620876
904.783121	3079.086358
905.090100	3017.909435
905.397039	2942.095523
905.703938	2864.166846
906.010796	2799.682926
906.317614	2748.553023
906.624391	2712.496171
906.931129	2686.740916
907.237826	2659.866524
907.544483	2643.611324
907.851099	2626.887296
908.157675	2618.831532
908.464211	2612.512446
908.770707	2599.450816
909.077163	2597.877976
909.383578	2593.318252
909.689954	2590.969075
909.996289	2589.060998
910.302584	2588.375401
910.608839	2586.152252
910.915054	2588.708117
911.221229	2589.481934
911.527363	2594.999477
911.833458	2591.190886
912.139513	2589.302973
912.445527	2595.816144
912.751502	2598.634149
913.057436	2606.894080
913.363331	2610.785851
913.669186	2622.166255
913.975000	2634.091105
914.280775	2654.669095
914.586510	2672.366065
914.892205	2709.836962
915.197859	2779.677107
915.503475	2861.028727
915.809050	2933.086981
916.114585	2948.502829
916.420081	2962.058492
916.725536	2972.002168
917.030952	2942.524021
917.336328	2895.117010
917.641665	2848.398117
917.946961	2793.361319
918.252218	2759.280599
918.557435	2734.248749
918.862612	2708.609441
919.167750	2692.530681
919.472848	2675.292455
919.777906	2660.189158
920.082925	2644.380100
920.387904	2637.183853
920.692843	2629.828809
920.997743	2626.562142
921.302603	2618.980246
921.607423	2611.824328
921.912204	2603.768564
922.216946	2600.799325
922.521647	2602.059613
922.826310	2596.751278
923.130932	2592.574682
923.435516	2586.830287
923.740059	2583.833322
924.044564	2583.026737
924.349028	2578.439287
924.653454	2573.110787
924.957840	2568.903944
925.262186	2568.934191
925.566493	2569.914696
925.870761	2564.399673
926.174989	2567.076526
926.479178	2563.633418
926.783328	2561.720300
927.087438	2563.353634
927.391509	2563.827502
927.695541	2561.533777
927.999533	2558.214178
928.303486	2557.087480
928.607400	2557.657130
928.911275	2554.259392
929.215110	2557.649568
929.518906	2556.832902
929.822663	2554.763508
930.126381	2554.392983
930.430060	2555.101265
930.733699	2553.324258
931.037299	2556.996739
931.340861	2557.226112
931.644383	2558.105793
931.947866	2556.900957
932.251309	2558.400700
932.554714	2556.356512
932.858080	2556.648899
933.161407	2557.160577
933.464694	2558.085628
933.767943	2552.096737
934.071153	2552.610935
934.374323	2552.416851
934.677455	2552.101779
934.980548	2550.591953
935.283602	2551.902653
935.586617	2553.946841
935.889593	2555.413817
936.192530	2554.627397
936.495428	2551.156562
936.798287	2553.046995
937.101108	2552.449618
937.403890	2557.359702
937.706632	2561.437996
938.009336	2564.770198
938.312002	2567.457133
938.614628	2571.069120
938.917216	2574.240006
939.219765	2574.925603
939.522275	2578.348546
939.824747	2576.503484
940.127179	2569.612227
940.429573	2567.126938
940.731929	2570.159192
941.034246	2565.506207
941.336524	2566.058213
941.638763	2563.862791
941.940964	2569.723132
942.243126	2563.068809
942.545250	2564.331618
942.847335	2561.437996
943.149381	2559.905485
943.451389	2559.038406
943.753359	2560.175187
944.055290	2559.043447
944.357182	2557.929352
944.659036	2553.566234
944.960851	2556.802655
945.262628	2558.861966
945.564367	2555.857438
945.866067	2556.921122
946.167729	2554.695452
946.469352	2557.911708
946.770937	2556.449774
947.072484	2555.355843
947.373992	2554.753426
947.675462	2554.904660
947.976893	2556.737120
948.278286	2554.599670
948.579641	2555.696121
948.880958	2554.357695
949.182236	2556.369115
949.483476	2553.906512
949.784678	2553.982129
950.085841	2554.488765
950.386967	2554.934907
950.688054	2552.270657
950.989103	2555.149156
951.290114	2553.208312
951.591087	2558.710731
951.892021	2556.096893
952.192917	2559.527398
952.493776	2557.863818
952.794596	2561.095197
953.095378	2560.737275
953.396122	2563.903120
953.696828	2558.526729
953.997496	2555.973385
954.298126	2556.331307
954.598718	2554.453477
954.899272	2556.502706
955.199788	2552.598332
955.500266	2553.294012
955.800706	2548.167158
956.101108	2542.878988
956.401472	2545.981818
956.701798	2543.892260
957.002087	2544.189688
957.302337	2544.348484
957.602550	2544.603062
957.902724	2541.313709
958.202861	2544.434184
958.502960	2542.833617
958.803022	2539.967721
959.103045	2540.504604
959.403031	2541.661549
959.702979	2542.148020
960.002889	2540.363452
960.302762	2539.549306
960.602596	2539.677855
960.902393	2539.264480
961.202153	2538.210879
961.501875	2540.474357
961.801559	2538.349511
962.101205	2537.631147
962.400814	2539.327495
962.700385	2537.737011
962.999918	2539.221631
963.299414	2536.774150
963.598873	2539.813966
963.898293	2537.772299
964.197677	2537.308513
964.497022	2538.687268
964.796331	2537.409336
965.095601	2536.683410
965.394835	2536.930426
965.694030	2537.779861
965.993189	2537.749614
966.292309	2535.541588
966.591393	2537.268183
966.890439	2536.264994
967.189447	2536.481763
967.488419	2536.078471
967.787353	2537.391692
968.086249	2537.489994
968.385108	2536.307844
968.683930	2537.177443
968.982714	2537.613502
969.281462	2532.642925
969.580172	2535.576876
969.878844	2535.738193
970.177480	2535.937319
970.476078	2541.101981
970.774639	2539.294727
971.073162	2538.682227
971.371649	2536.053265
971.670098	2536.138965
971.968510	2535.939839
972.266885	2533.590662
972.565223	2538.783050
972.863524	2535.223996
973.161788	2539.226672
973.460014	2536.615354
973.758204	2537.205169
974.056356	2540.413863
974.354471	2538.541075
974.652550	2538.377237
974.950591	2539.685417
975.248595	2537.542926
975.546563	2537.618544
975.844493	2536.038142
976.142386	2536.403626
976.440243	2536.406146
976.738062	2536.529654
977.035845	2537.777340
977.333590	2534.185518
977.631299	2536.464119
977.928971	2537.240457
978.226606	2536.648122
978.524204	2534.671989
978.821765	2536.993441
979.119290	2535.879346
979.416777	2535.276928
979.714228	2536.275076
980.011642	2536.370858
980.309020	2538.604089
980.606360	2535.380271
980.903664	2537.489994
981.200931	2538.394881
981.498162	2537.411856
981.795356	2539.430838
982.092513	2541.802701
982.389633	2546.314534
982.686717	2550.854093
982.983764	2549.445091
983.280775	2553.634289
983.577749	2552.610935
983.874686	2554.113199
984.171587	2547.264792
984.468451	2545.432332
984.765279	2544.071221
985.062070	2540.865047
985.358824	2540.373534
985.655543	2536.983358
985.952224	2538.523431
986.248869	2535.339942
986.545478	2534.296423
986.842050	2534.293903
987.138586	2533.273069
987.435086	2534.006557
987.731549	2528.292409
988.027975	2534.908923
988.324366	2534.566125
988.620719	2534.787936
988.917037	2535.347504
989.213318	2536.496887
989.509563	2531.128058
989.805772	2532.544622
990.101944	2533.106711
990.398080	2532.887421
990.694180	2535.733152
990.990244	2535.140817
991.286271	2533.532688
991.582262	2531.644776
991.878217	2533.378933
992.174136	2534.359438
992.470019	2531.548994
992.765865	2533.484797
993.061676	2533.910775
993.357450	2533.089067
993.653188	2534.576207
993.948890	2534.503111
994.244556	2532.834489
994.540186	2536.060827
994.835780	2532.509334
995.131337	2535.929757
995.426859	2536.703574
995.722345	2535.649973
996.017795	2538.896476
996.313208	2538.921682
996.608586	2536.766589
996.903928	2538.765406
997.199234	2535.904551
997.494504	2538.042001
997.789738	2536.385982
998.084936	2537.127031
998.380099	2535.864222
998.675225	2535.755837
998.970316	2534.122503
999.265371	2534.591331
999.560390	2531.375075
999.855373	2534.266176
1000.150320	2534.079654
1000.445232	2533.333563
1000.740108	2530.681916
1001.034948	2532.426155
1001.329752	2532.380785
1001.624521	2536.401105
1001.919254	2528.282327
1002.213951	2530.654190
1002.508613	2527.863911
1002.803239	2530.744930
1003.097829	2525.761750
1003.392384	2533.446989
1003.686903	2532.320291
1003.981386	2532.106042
1004.275834	2533.663758
1004.570246	2533.227699
1004.864623	2530.407173
1005.158964	2531.662420
1005.453270	2532.106042
1005.747540	2531.790970
1006.041775	2529.938346
1006.335974	2531.972451
1006.630138	2529.885414
1006.924266	2530.954138
1007.218359	2532.106042
1007.512416	2531.934643
1007.806438	2531.980013
1008.100425	2531.624612
1008.394376	2531.339787
1008.688292	2530.323994
1008.982172	2529.940866
1009.276017	2533.716691
1009.569827	2533.988913
1009.863602	2532.098480
1010.157341	2531.841381
1010.451045	2532.012781
1010.744714	2530.376926
1011.038347	2530.442461
1011.331945	2530.865918
1011.625508	2533.376413
1011.919036	2531.206196
1012.212528	2529.950949
1012.505986	2531.319622
1012.799408	2531.498583
1013.092795	2530.654190
1013.386147	2530.656710
1013.679464	2528.952800
1013.972745	2530.853315
1014.265992	2531.856505
1014.559204	2531.186031
1014.852380	2530.286185
1015.145521	2531.372554
1015.438628	2529.030938
1015.731699	2530.797863
1016.024736	2527.014477
1016.317737	2530.714683
1016.610703	2531.017153
1016.903635	2527.639580
1017.196531	2526.951462
1017.489393	2529.340969
1017.782219	2527.737882
1018.075011	2529.736700
1018.367768	2528.151257
1018.660490	2529.240146
1018.953177	2529.240146
1019.245829	2529.240146
