Dividing Wavelength (nm)	Counts (n)	Blue Motor Position (mm): 16.100000	Red Motor Position (mm): 0.000000	
326.493990	2134.265742
326.888308	2134.265742
327.282561	2134.265742
327.676750	2102.887080
328.070874	2102.370362
328.464933	2103.446648
328.858929	2109.841352
329.252859	2120.281581
329.646726	2130.966307
330.040528	2146.109933
330.434265	2161.886224
330.827938	2177.758297
331.221547	2197.625484
331.615091	2218.367312
332.008571	2233.049672
332.401986	2256.191089
332.795338	2275.140786
333.188625	2295.678447
333.581847	2312.974646
333.975006	2331.064827
334.368100	2349.031499
334.761129	2365.717718
335.154095	2383.061808
335.546996	2403.808677
335.939833	2423.892633
336.332606	2437.113059
336.725315	2448.775769
337.117960	2459.901595
337.510540	2466.129941
337.903056	2478.357260
338.295508	2489.830926
338.687896	2492.827892
339.080220	2503.230313
339.472480	2508.422701
339.864676	2515.177847
340.256807	2517.678260
340.648875	2521.025586
341.040879	2524.531708
341.432818	2526.555732
341.824694	2529.144364
342.216506	2527.725279
342.608253	2529.537574
342.999937	2528.166380
343.391557	2528.332738
343.783113	2526.613705
344.174605	2525.824764
344.566033	2522.916018
344.957397	2521.842253
345.348697	2518.585667
345.739934	2515.757580
346.131106	2517.945441
346.522215	2515.288753
346.913260	2512.511077
347.304241	2510.504698
347.695159	2510.287928
348.086012	2507.681652
348.476802	2505.269459
348.867528	2504.888852
349.258191	2504.808194
349.648789	2503.142093
350.039324	2500.981958
350.429796	2501.952380
350.820203	2496.089518
351.210548	2499.880466
351.600828	2494.942656
351.991045	2494.476349
352.381198	2494.998108
352.771288	2494.506596
353.161314	2495.333345
353.551276	2494.420896
353.941175	2491.620535
354.331010	2494.115907
354.720782	2494.196565
355.110490	2490.743375
355.500135	2494.030207
355.889717	2493.541215
356.279235	2494.630104
356.668689	2494.579693
357.058080	2495.802173
357.447408	2491.257572
357.836672	2492.417038
358.225873	2494.196565
358.615010	2493.460557
359.004084	2497.148161
359.393095	2497.448109
359.782043	2499.451968
360.170927	2500.082112
360.559748	2498.567245
360.948505	2502.476660
361.337199	2501.624705
361.725830	2500.135044
362.114398	2498.136227
362.502903	2501.508759
362.891344	2501.594458
363.279722	2501.297030
363.668037	2500.513131
364.056289	2503.381547
364.444478	2502.585045
364.832603	2503.875580
365.220665	2505.312309
365.608665	2501.539006
365.996601	2506.033194
366.384474	2503.936074
366.772284	2504.881291
367.160031	2507.676610
367.547715	2504.069665
367.935336	2509.067969
368.322893	2508.400016
368.710388	2507.873215
369.097820	2508.231137
369.485189	2507.444717
369.872495	2508.639471
370.259738	2508.649553
370.646918	2506.063441
371.034035	2504.646877
371.421090	2508.999913
371.808081	2509.289780
372.195010	2509.851868
372.581875	2510.144255
372.968678	2511.268432
373.355418	2510.852537
373.742096	2508.573936
374.128710	2512.367404
374.515262	2511.588546
374.901751	2510.842455
375.288177	2511.976715
375.674540	2510.363545
376.060841	2511.187774
376.447079	2514.202384
376.833254	2511.873371
377.219367	2507.180057
377.605417	2509.582167
377.991404	2509.267094
378.377329	2509.849348
378.763191	2509.078051
379.148991	2513.211797
379.534727	2512.954698
379.920402	2515.603825
380.306013	2515.046777
380.691563	2513.148783
381.077049	2515.742457
381.462474	2513.708351
381.847835	2515.417302
382.233134	2515.003928
382.618371	2513.796571
383.003545	2514.512415
383.388657	2515.187930
383.773706	2512.942096
384.158693	2515.737415
384.543618	2516.375121
384.928480	2514.721623
385.313280	2518.079031
385.698017	2515.510563
386.082692	2518.890657
386.467305	2516.942251
386.851856	2515.629031
387.236344	2518.983918
387.620770	2520.735719
388.005133	2519.009124
388.389435	2520.433250
388.773674	2519.351923
389.157851	2519.062056
389.541965	2519.949299
389.926018	2519.828312
390.310008	2519.649351
390.693936	2521.083559
391.077802	2518.951151
391.461606	2521.567510
391.845348	2519.979546
392.229027	2520.014834
392.612645	2520.299660
392.996200	2521.345699
393.379694	2521.812006
393.763125	2519.651871
394.146494	2522.928621
394.529801	2524.009949
394.913047	2522.923580
395.296230	2524.632531
395.679351	2520.287057
396.062410	2524.163704
396.445408	2523.654548
396.828343	2524.451050
397.211217	2516.123064
397.594028	2519.934176
397.976778	2518.263033
398.359466	2522.555576
398.742092	2518.270595
399.124656	2522.694208
399.507158	2523.581451
399.889598	2524.274609
400.271977	2522.427027
400.654294	2523.193282
401.036549	2527.158149
401.418742	2524.443488
401.800874	2525.963396
402.182944	2525.550021
402.564952	2522.553055
402.946898	2527.362316
403.328783	2527.437933
403.710606	2525.229908
404.092367	2526.200330
404.474067	2525.759229
404.855705	2526.338962
405.237282	2527.019518
405.618797	2528.572193
406.000250	2528.914992
406.381642	2525.363499
406.762972	2527.367357
407.144240	2527.291740
407.525447	2529.272913
407.906593	2526.880886
408.287677	2527.080012
408.668700	2529.323325
409.049661	2528.436082
409.430560	2526.767460
409.811399	2530.825589
410.192176	2528.489014
410.572891	2528.799045
410.953545	2525.497089
411.334138	2528.902389
411.714669	2528.443644
412.095139	2528.884745
412.475547	2530.243336
412.855894	2531.208717
413.236180	2530.603778
413.616405	2530.288706
413.996568	2529.731658
414.376670	2528.451205
414.756711	2529.214940
415.136691	2531.259128
415.516609	2531.843902
415.896466	2532.158974
416.276262	2531.080167
416.655997	2526.505320
417.035670	2528.209230
417.415283	2526.124713
417.794834	2529.721576
418.174324	2528.007584
418.553753	2532.098480
418.933121	2532.151412
419.312428	2529.535053
419.691674	2530.815507
420.070859	2531.060002
420.449983	2531.682585
420.829045	2531.803573
421.208047	2530.228212
421.586988	2531.501103
421.965867	2532.181659
422.344686	2533.527647
422.723444	2535.503780
423.102141	2532.529499
423.480777	2533.981351
423.859352	2532.670651
424.237866	2532.111083
424.616319	2534.356917
424.994712	2533.784746
425.373044	2533.837678
425.751314	2533.411701
426.129524	2533.245343
426.507673	2534.606454
426.885762	2531.168387
427.263789	2532.499252
427.641756	2535.367668
428.019662	2535.526465
428.397508	2534.805580
428.775292	2538.256250
429.153016	2533.477236
429.530679	2536.365817
429.908282	2535.574356
430.285824	2533.784746
430.663305	2536.509490
431.040726	2536.950591
431.418086	2532.332894
431.795385	2537.525282
432.172624	2536.809438
432.549802	2534.354397
432.926920	2534.634181
433.303977	2537.353883
433.680974	2533.494880
434.057910	2537.951260
434.434786	2537.484953
434.811601	2536.433873
435.188355	2537.242978
435.565050	2534.913965
435.941683	2535.518903
436.318257	2537.260622
436.694770	2535.561753
437.071222	2536.204500
437.447614	2531.211237
437.823946	2534.291382
438.200218	2537.636188
438.576429	2536.083512
438.952580	2538.077289
439.328670	2536.965714
439.704700	2539.874460
440.080670	2534.750127
440.456580	2539.743390
440.832429	2537.167360
441.208218	2536.620395
441.583947	2538.992258
441.959616	2536.307844
442.335224	2537.111908
442.710773	2538.614172
443.086261	2540.988555
443.461689	2537.784902
443.837057	2540.726415
444.212365	2538.379758
444.587612	2541.873278
444.962800	2538.823379
445.337927	2541.598535
445.712995	2542.516025
446.088002	2540.333205
446.462949	2539.884542
446.837837	2539.135931
447.212664	2537.711805
447.587431	2541.477547
447.962139	2541.149872
448.336786	2541.845551
448.711374	2541.805222
449.085901	2541.038967
449.460369	2541.210366
449.834776	2538.362114
450.209124	2540.355890
450.583412	2538.994779
450.957640	2541.664070
451.331808	2544.086344
451.705917	2544.051056
452.079965	2541.023843
452.453954	2540.880170
452.827883	2542.717671
453.201752	2541.147351
453.575562	2541.152392
453.949311	2541.016281
454.323001	2544.635830
454.696632	2542.379913
455.070202	2543.582229
455.443713	2542.117773
455.817164	2540.660880
456.190556	2538.520910
456.563888	2538.750283
456.937160	2540.111394
457.310373	2541.038967
457.683526	2542.163144
458.056619	2543.720860
458.429653	2543.420912
458.802628	2541.691796
459.175542	2543.015099
459.548398	2545.076931
459.921194	2544.623227
460.293930	2545.339071
460.666607	2541.417053
461.039224	2545.699513
461.411782	2544.308155
461.784280	2543.332692
462.156719	2542.942002
462.529099	2544.416540
462.901419	2544.212373
463.273680	2545.893598
463.645882	2540.335726
464.018024	2545.596170
464.390106	2545.802857
464.762130	2547.784030
465.134094	2546.861499
465.505999	2547.287477
465.877845	2545.470141
466.249631	2547.355532
466.621358	2545.200439
466.993026	2547.484082
467.364634	2549.104813
467.736184	2546.964843
468.107674	2547.468958
468.479105	2543.327650
468.850477	2547.229503
469.221790	2546.395192
469.593043	2544.262784
469.964238	2547.486602
470.335373	2544.663556
470.706449	2547.237065
471.077467	2547.650440
471.448425	2548.920811
471.819324	2549.021634
472.190164	2548.446942
472.560945	2546.180943
472.931667	2545.770089
473.302330	2546.821170
473.672934	2548.033568
474.043479	2548.267981
474.413965	2547.365615
474.784393	2546.221273
475.154761	2545.165151
475.525070	2542.405119
475.895321	2543.715819
476.265513	2541.114584
476.635645	2547.380738
477.005719	2547.257230
477.375734	2550.153373
477.745691	2546.828732
478.115588	2551.297715
478.485427	2549.918959
478.855207	2550.274360
479.224928	2550.397869
479.594591	2548.835111
479.964194	2551.262427
480.333739	2550.566747
480.703226	2552.953734
481.072653	2550.097920
481.442022	2551.708569
481.811333	2553.084804
482.180584	2550.458363
482.549777	2550.758311
482.918912	2550.836449
483.287988	2552.636141
483.657005	2550.551624
484.025964	2550.778476
484.394864	2550.554144
484.763706	2552.875596
485.132489	2550.039947
485.501213	2552.563044
485.869879	2549.666901
486.238487	2549.394679
486.607036	2552.000956
486.975527	2553.200750
487.343959	2551.234700
487.712333	2550.652447
488.080648	2549.382076
488.448905	2551.960626
488.817104	2551.373332
489.185244	2551.867365
489.553326	2550.942313
489.921350	2549.689587
490.289315	2551.360729
490.657222	2556.301060
491.025070	2554.095555
491.392861	2554.559341
491.760593	2550.949875
492.128267	2554.541697
492.495883	2554.282078
492.863440	2554.917263
493.230939	2553.175544
493.598380	2552.726882
493.965763	2548.497354
494.333088	2549.377035
494.700354	2549.949206
495.067563	2553.556152
495.434713	2548.600697
495.801805	2550.357539
496.168839	2553.150339
496.535815	2553.742674
496.902733	2556.732078
497.269593	2553.808209
497.636395	2555.370967
498.003139	2550.808723
498.369825	2553.911553
498.736453	2559.403890
499.103023	2553.344423
499.469535	2557.011862
499.835989	2554.224104
500.202385	2554.904660
500.568723	2553.934238
500.935003	2555.239897
501.301226	2556.888354
501.667390	2557.279044
502.033497	2554.909701
502.399546	2554.844166
502.765537	2556.681667
503.131470	2556.482541
503.497345	2558.657799
503.863163	2558.960268
504.228923	2557.485731
504.594625	2557.609239
504.960269	2555.479352
505.325856	2560.308777
505.691385	2558.345248
506.056856	2556.626214
506.422270	2559.199723
506.787625	2560.049158
507.152924	2558.017573
507.518164	2558.703170
507.883347	2559.411452
508.248472	2559.194682
508.613540	2561.826164
508.978550	2557.712583
509.343503	2559.340876
509.708398	2559.592933
510.073236	2563.424210
510.438016	2562.683161
510.802738	2561.785835
511.167403	2561.274158
511.532010	2559.562686
511.896561	2562.902451
512.261053	2563.462019
512.625488	2560.311298
512.989866	2558.236863
513.354186	2562.287430
513.718449	2562.478994
514.082655	2564.785322
514.446803	2565.317163
514.810894	2565.831361
515.174927	2567.237843
515.538904	2565.470919
515.902822	2569.125755
516.266684	2566.242215
516.630488	2567.018553
516.994235	2567.182390
517.357925	2569.082905
517.721558	2569.460992
518.085133	2567.797411
518.448651	2567.953687
518.812112	2569.234140
519.175516	2570.713719
519.538863	2570.822103
519.902152	2571.913513
520.265385	2573.221693
520.628560	2575.477609
520.991678	2574.297979
521.354739	2575.495253
521.717743	2575.565829
522.080690	2577.436097
522.443580	2577.723443
522.806413	2579.140007
523.169189	2580.881726
523.531908	2582.666294
523.894569	2582.157138
524.257174	2584.869279
524.619722	2585.391038
524.982213	2589.189547
525.344647	2589.497058
525.707025	2589.275247
526.069345	2592.604929
526.431608	2594.056782
526.793815	2595.685074
527.155964	2597.154571
527.518057	2598.306474
527.880093	2600.577514
528.242072	2606.420211
528.603995	2604.539861
528.965860	2605.928699
529.327669	2609.160078
529.689421	2609.969184
530.051117	2616.689042
530.412755	2616.016048
530.774337	2618.677777
531.135862	2620.963940
531.497331	2619.068466
531.858743	2623.948303
532.220098	2630.519447
532.581396	2631.787297
532.942638	2634.295272
533.303824	2641.282311
533.664953	2647.137611
534.026025	2648.342447
534.387040	2655.899136
534.747999	2656.241935
535.108902	2666.253666
535.469748	2663.609581
535.830537	2668.945642
536.191270	2675.562157
536.551947	2681.523321
536.912567	2686.554393
537.273131	2690.955320
537.633638	2699.794983
537.994089	2703.376723
538.354483	2707.785212
538.714821	2719.946996
539.075103	2722.525546
539.435328	2732.731362
539.795497	2735.408215
540.155609	2747.038157
540.515665	2754.546955
540.875665	2756.202974
541.235609	2769.252001
541.595496	2776.133176
541.955328	2787.322017
542.315102	2793.905764
542.674821	2800.875159
543.034483	2807.978145
543.394090	2817.775627
543.753640	2827.063953
544.113134	2845.275122
544.472571	2848.304855
544.831953	2866.460571
545.191278	2872.618340
545.550548	2882.705689
545.909761	2901.859553
546.268918	2910.084196
546.628019	2926.155394
546.987064	2936.656118
547.346053	2944.187601
547.704986	2963.956486
548.063863	2974.409319
548.422684	2988.292656
548.781449	3002.107938
549.140158	3018.428674
549.498811	3027.853111
549.857408	3034.774615
550.215949	3063.536919
550.574434	3068.333577
550.932864	3095.613781
551.291237	3108.733383
551.649555	3129.699542
552.007817	3147.961122
552.366022	3158.938235
552.724173	3182.379600
553.082267	3195.814275
553.440305	3235.084863
553.798288	3232.367682
554.156215	3268.275820
554.514086	3288.057308
554.871902	3292.470838
555.229661	3319.362873
555.587365	3342.196780
555.945014	3345.990248
556.302606	3393.004049
556.660143	3397.273906
557.017625	3444.338118
557.375050	3456.782207
557.732421	3493.151611
558.089735	3512.923017
558.446994	3536.162736
558.804197	3564.088207
559.161345	3590.080397
559.518437	3587.103595
559.875474	3633.537663
560.232455	3668.200637
560.589381	3681.045497
560.946251	3726.725913
561.303065	3746.368769
561.659825	3779.252215
562.016528	3789.677322
562.373177	3791.431643
562.729770	3853.415150
563.086307	3864.074670
563.442789	3904.290475
563.799216	3929.415586
564.155587	3956.836942
564.511904	3983.320644
564.868164	4012.879449
565.224370	4040.462122
565.580520	4074.164757
565.936615	4086.077003
566.292654	4105.634159
566.648638	4156.907735
567.004567	4188.853527
567.360441	4209.121486
567.716260	4233.029158
568.072023	4278.192856
568.427732	4310.020180
568.783385	4308.233091
569.138982	4370.095611
569.494525	4405.015683
569.850013	4409.681271
570.205445	4469.673523
570.560823	4471.077484
570.916145	4493.548427
571.271412	4550.581521
571.626625	4567.204726
571.981782	4588.276749
572.336884	4626.897029
572.691931	4644.720028
573.046923	4678.475594
573.401860	4697.616856
573.756743	4720.118046
574.111570	4768.850880
574.466342	4789.330567
574.821059	4845.181511
575.175722	4839.671530
575.530330	4886.793715
575.884882	4910.426645
576.239380	4929.295683
576.593823	4947.746307
576.948211	4999.955016
577.302544	4974.887879
577.656823	5029.967526
578.011047	5058.792843
578.365216	5092.399696
578.719330	5096.830870
579.073389	5137.770080
579.427394	5145.205782
579.781344	5173.005225
580.135239	5191.765879
580.489080	5220.611361
580.842866	5228.712496
581.196597	5262.508391
581.550273	5310.298529
581.903895	5343.912943
582.257463	5394.614348
582.610975	5390.125201
582.964434	5423.759779
583.317837	5427.449904
583.671186	5442.961534
584.024481	5483.905786
584.377721	5478.292461
584.730906	5503.258775
585.084037	5552.220982
585.437113	5550.416249
585.790135	5599.746460
586.143103	5583.740796
586.496016	5600.931131
586.848874	5657.084544
587.201679	5686.789543
587.554428	5670.252037
587.907124	5721.195418
588.259765	5738.088324
588.612352	5779.100631
588.964884	5737.760649
589.317362	5786.044821
589.669786	5815.172608
590.022155	5865.516091
590.374470	5911.589716
590.726731	5897.328292
591.078937	5857.193146
591.431090	5957.121418
591.783188	5909.568213
592.135232	5943.875786
592.487222	5956.208969
592.839157	6021.716243
593.191038	6014.388925
593.542866	6011.969172
593.894639	5985.545964
594.246358	6041.764911
594.598022	6084.551705
594.949633	6053.858639
595.301190	6066.453962
595.652692	6112.330983
596.004141	6213.625408
596.355535	6095.944712
596.706876	6117.364575
597.058162	6102.457883
597.409395	6173.454973
597.760573	6237.281022
598.111698	6205.191557
598.462768	6232.817080
598.813785	6225.421708
599.164748	6244.709162
599.515657	6249.543629
599.866511	6232.065948
600.217312	6327.187480
600.568060	6261.735659
600.918753	6355.117993
601.269392	6357.293251
601.619978	6326.562377
601.970510	6396.455455
602.320988	6413.567652
602.671412	6480.342775
603.021783	6455.820082
603.372100	6466.885415
603.722363	6490.357027
604.072572	6488.186811
604.422728	6521.586976
604.772830	6492.744014
605.122878	6518.557242
605.472872	6538.096754
605.822813	6582.889927
606.172701	6562.874026
606.522534	6639.912939
606.872314	6655.149826
607.222041	6665.620303
607.571714	6723.049127
607.921333	6711.262910
608.270899	6737.066056
608.620411	6824.963614
608.969870	6773.874040
609.319276	6785.461132
609.668627	6821.407080
610.017926	6862.905858
610.367171	6927.074706
610.716362	6921.035403
611.065500	6934.845644
611.414585	6979.071687
611.763616	6978.698642
612.112594	6986.010835
612.461518	7016.794641
612.810389	7078.820998
613.159207	7053.915178
613.507971	7022.150867
613.856682	7143.022613
614.205340	7119.863552
614.553945	7200.108639
614.902496	7132.025336
615.250994	7196.007661
615.599439	7193.671086
615.947830	7223.003039
616.296169	7210.571554
616.644454	7237.025009
616.992686	7245.569765
617.340864	7312.982594
617.688990	7247.692090
618.037063	7336.096285
618.385082	7297.050028
618.733048	7393.373875
619.080961	7343.355546
619.428821	7380.261834
619.776628	7400.406284
620.124382	7370.156841
620.472083	7369.647684
620.819731	7411.106133
621.167326	7332.012950
621.514868	7351.189499
621.862357	7263.354955
622.209793	7291.585417
622.557176	7255.316836
622.904506	7246.983808
623.251783	7200.693413
623.599007	7176.470669
623.946179	7190.606064
624.293297	7165.843917
624.640363	7105.523990
624.987376	7102.032991
625.334336	7061.834830
625.681243	7033.647219
626.028097	7029.649584
626.374899	7016.224991
626.721647	7025.997268
627.068343	6969.342260
627.414987	6956.298275
627.761577	6922.434324
628.108115	6959.169212
628.454600	6876.383383
628.801032	6931.190808
629.147412	6897.853657
629.493739	6894.317288
629.840014	6841.730492
630.186236	6899.000520
630.532405	6803.785727
630.878521	6856.967379
631.224585	6821.354148
631.570597	6757.729745
631.916556	6798.298431
632.262462	6796.007226
632.608316	6768.202742
632.954117	6751.209013
633.299866	6748.643065
633.645562	6740.519246
633.991206	6677.378794
634.336797	6631.166537
634.682336	6595.921310
635.027823	6571.978349
635.373257	6569.881229
635.718639	6509.016858
636.063968	6523.789960
636.409245	6436.706548
636.754470	6439.055725
637.099642	6398.431587
637.444762	6355.947263
637.789829	6366.631989
638.134845	6318.483928
638.479808	6308.386497
638.824719	6315.791952
639.169577	6252.417087
639.514383	6276.443226
639.859137	6208.422937
640.203839	6219.989864
640.548489	6213.907712
640.893086	6193.659918
641.237632	6168.655795
641.582125	6192.263518
641.926566	6166.896432
642.270955	6179.201889
642.615292	6180.101735
642.959576	6198.910280
643.303809	6189.916861
643.647990	6198.718716
643.992118	6192.369382
644.336195	6142.267875
644.680219	6169.989180
645.024192	6162.659342
645.368112	6258.201811
645.711981	6281.847343
646.055797	6352.209247
646.399562	6312.931097
646.743274	6444.059071
647.086935	6491.208982
647.430544	6491.511452
647.774101	6510.259503
648.117606	6522.476739
648.461059	6513.758064
648.804460	6479.389997
649.147810	6393.829014
649.491108	6372.845211
649.834354	6344.619790
650.177548	6261.115597
650.520690	6183.154153
650.863781	6163.846534
651.206820	6183.907806
651.549807	6113.571107
651.892742	6060.989352
652.235626	6063.303241
652.578458	6049.402259
652.921238	5959.740297
653.263967	6000.803016
653.606644	5945.867042
653.949269	5945.856959
654.291843	5895.495833
654.634365	5941.650117
654.976836	5901.681328
655.319255	5893.920472
655.661622	5880.760540
656.003938	5872.616556
656.346203	5839.690259
656.688416	5868.863417
657.030577	5824.244164
657.372687	5794.156037
657.714746	5784.320746
658.056753	5822.242826
658.398708	5767.354743
658.740612	5761.199494
659.082465	5808.493079
659.424266	5802.300021
659.766016	5799.913035
660.107715	5779.072905
660.449362	5795.126459
660.790958	5786.372496
661.132503	5774.445126
661.473996	5812.278985
661.815438	5802.068128
662.156829	5800.913704
662.498168	5791.554802
662.839456	5772.305156
663.180693	5802.955371
663.521879	5806.590043
663.863013	5795.736439
664.204097	5813.871990
664.545129	5857.293969
664.886110	5851.047979
665.227040	5888.428135
665.567918	5851.393298
665.908746	5877.695518
666.249522	5881.577207
666.590248	5868.833170
666.930922	5895.780658
667.271545	5917.616416
667.612118	5916.726652
667.952639	5885.169029
668.293109	5914.664820
668.633528	5867.126739
668.973896	5871.187389
669.314213	5861.493250
669.654480	5849.550756
669.994695	5837.101627
670.334859	5829.590308
670.674973	5821.368186
671.015035	5830.248178
671.355047	5826.152241
671.695008	5810.910312
672.034918	5791.252333
672.374777	5795.396161
672.714585	5783.597341
673.054342	5783.622546
673.394049	5779.471156
673.733705	5813.529192
674.073310	5801.095186
674.412864	5759.853506
674.752368	5748.962093
675.091820	5758.079020
675.431223	5693.141397
675.770574	5691.646694
676.109875	5649.308564
676.449125	5651.030118
676.788324	5613.735662
677.127473	5564.503753
677.466571	5553.574532
677.805619	5539.383684
678.144616	5530.274319
678.483562	5512.045506
678.822458	5481.775898
679.161303	5473.273992
679.500098	5466.831397
679.838842	5449.144509
680.177535	5451.750786
680.516179	5466.281912
680.854771	5480.555939
681.193314	5556.896652
681.531805	5669.105175
681.870247	5819.117311
682.208638	5917.543319
682.546978	5922.710502
682.885268	5903.244086
683.223508	5819.253422
683.561697	5768.761225
683.899836	5742.441361
684.237925	5698.409402
684.575963	5658.218803
684.913951	5617.892093
685.251889	5681.420714
685.589776	5650.417618
685.927614	5621.178925
686.265401	5691.843299
686.603137	5677.191186
686.940824	5752.758082
687.278460	5775.539056
687.616046	5784.313184
687.953582	5850.390108
688.291068	5833.739177
688.628504	5898.485237
688.965889	5857.742631
689.303224	5804.296318
689.640510	5756.733032
689.977745	5682.827196
690.314930	5584.171815
690.652065	5527.985635
690.989150	5438.742088
691.326185	5360.384913
691.663170	5307.213343
692.000105	5234.845059
692.336990	5159.089120
692.673825	5131.995438
693.010610	5062.752670
693.347345	4999.322352
693.684030	4982.492459
694.020665	4942.054844
694.357251	4854.742059
694.693786	4863.460735
695.030272	4831.025951
695.366707	4795.316938
695.703093	4761.495837
696.039429	4784.589362
696.375716	4766.393317
696.711952	4738.737547
697.048139	4725.466710
697.384276	4710.083629
697.720363	4719.354311
698.056400	4729.116505
698.392388	4680.824772
698.728326	4664.378008
699.064214	4640.714832
699.400053	4630.877020
699.735842	4605.822485
700.071581	4572.560952
700.407270	4552.023291
700.742910	4533.733985
701.078501	4477.772136
701.414042	4476.370696
701.749533	4447.119400
702.084974	4383.464751
702.420366	4437.437864
702.755709	4379.729256
703.091002	4328.251513
703.426246	4375.028380
703.761440	4329.179086
704.096584	4293.921256
704.431679	4318.448990
704.766725	4300.376453
705.101721	4290.258857
705.436668	4320.404957
705.771565	4263.777676
706.106413	4292.655926
706.441212	4325.869568
706.775961	4334.409283
707.110661	4314.756344
707.445311	4339.916743
707.779913	4370.493862
708.114465	4376.810428
708.448967	4400.140888
708.783421	4461.945434
709.117825	4498.546731
709.452180	4503.965972
709.786485	4547.292168
710.120742	4636.213081
710.454949	4615.052838
710.789107	4685.011450
711.123216	4758.004837
711.457275	4748.938322
711.791286	4824.069159
712.125247	4834.978216
712.459159	4740.910285
712.793023	4818.496163
713.126837	4774.028145
713.460602	4765.984984
713.794318	4690.002193
714.127985	4699.086352
714.461602	4608.441365
714.795171	4586.807253
715.128691	4519.379300
715.462162	4462.517605
715.795584	4416.885080
716.128957	4398.099220
716.462281	4345.104091
716.795556	4322.560051
717.128782	4282.203093
717.461960	4218.208166
717.795088	4223.861820
718.128167	4183.809853
718.461198	4126.292808
718.794180	4120.278711
719.127113	4098.480762
719.459997	4081.343360
719.792833	4037.518089
720.125619	4028.736399
720.458357	3993.826408
720.791046	3997.266996
721.123686	3969.399497
721.456278	3931.091769
721.788821	3951.763021
722.121315	3921.309410
722.453761	3895.949886
722.786158	3906.271648
723.118506	3929.211419
723.450805	3879.389695
723.783056	3906.274169
724.115259	3917.768000
724.447412	3926.917694
724.779518	3916.815222
725.111574	3920.946447
725.443582	3950.651446
725.775542	3938.351031
726.107453	3987.318279
726.439315	3987.938341
726.771129	3999.785052
727.102895	4036.144374
727.434612	4087.231427
727.766281	4093.001028
728.097901	4094.231069
728.429473	4103.804221
728.760996	4109.949387
729.092471	4103.970579
729.423897	4087.491047
729.755276	4095.251903
730.086606	4090.724947
730.417887	4131.459991
730.749120	4196.049774
731.080305	4260.563941
731.411442	4284.380872
731.742530	4251.053804
732.073570	4255.505143
732.404562	4311.277948
732.735506	4304.495076
733.066401	4267.059467
733.397249	4203.949262
733.728048	4126.242396
734.058798	4045.709964
734.389501	3975.642966
734.720156	3913.576280
735.050762	3869.398128
735.381320	3864.535936
735.711831	3811.220693
736.042293	3784.827732
736.372707	3803.424548
736.703073	3780.593162
737.033391	3767.665123
737.363661	3786.418216
737.693883	3809.408398
738.024056	3818.306034
738.354182	3814.013492
738.684260	3876.317112
739.014290	3896.085997
739.344272	3892.358064
739.674207	3938.156946
740.004093	3940.987554
740.333931	3932.972120
740.663722	3934.698715
740.993464	3933.932459
741.323159	3909.795415
741.652806	3878.651166
741.982405	3850.040098
742.311956	3821.020696
742.641460	3814.328564
742.970915	3789.868885
743.300323	3749.096033
743.629683	3713.432390
743.958996	3706.132799
744.288260	3679.661701
744.617477	3648.366217
744.946647	3635.246615
745.275768	3604.775360
745.604842	3607.565639
745.933869	3557.882547
746.262847	3550.136814
746.591778	3587.864810
746.920662	3558.026220
747.249498	3527.275182
747.578286	3573.167326
747.907027	3592.346395
748.235720	3589.420006
748.564365	3614.872791
748.892963	3613.725929
749.221514	3596.281016
749.550017	3571.768405
749.878473	3570.510637
750.206881	3543.084240
750.535242	3537.097870
750.863555	3538.469064
751.191821	3532.681819
751.520039	3516.625744
751.848210	3494.850480
752.176334	3527.716282
752.504411	3534.927653
752.832440	3492.771004
753.160421	3476.417501
753.488356	3486.474603
753.816243	3498.233094
754.144082	3453.354222
754.471875	3440.814352
754.799620	3463.234884
755.127318	3451.889767
755.454969	3454.664922
755.782572	3458.367650
756.110129	3434.281017
756.437638	3424.768359
756.765100	3440.761420
757.092515	3446.715023
757.419882	3456.419244
757.747203	3427.926642
758.074477	3428.115685
758.401703	3445.731998
758.728882	3466.685553
759.056014	3474.154023
759.383099	3475.905824
759.710138	3469.632108
760.037129	3491.465345
760.364073	3520.020961
760.690970	3502.046727
761.017820	3481.700630
761.344623	3503.183507
761.671379	3545.647667
761.998088	3596.754884
762.324751	3720.636199
762.651366	3969.326401
762.977935	4435.209674
763.304456	4870.737640
763.630931	4957.185867
763.957359	4601.572792
764.283740	4260.478241
764.610074	4077.449068
764.936362	3880.927247
765.262602	3726.408320
765.588796	3617.900004
765.914943	3527.635624
766.241044	3442.747634
766.567097	3414.834766
766.893104	3366.858104
767.219064	3341.115452
767.544978	3308.484063
767.870845	3254.800816
768.196665	3237.338259
768.522438	3245.731780
768.848165	3242.591142
769.173846	3205.568908
769.499479	3189.575847
769.825066	3175.402643
770.150607	3156.241217
770.476101	3172.970286
770.801548	3170.311078
771.126949	3121.487503
771.452303	3105.010491
771.777611	3112.806636
772.102872	3115.445680
772.428087	3090.554983
772.753256	3083.197419
773.078378	3074.284659
773.403453	3040.561860
773.728482	3033.390819
774.053465	3053.598284
774.378401	3038.754606
774.703291	3007.116325
775.028135	3010.262005
775.352932	3004.487363
775.677683	2993.860611
776.002388	2989.540342
776.327046	2991.440857
776.651658	2981.678663
776.976224	2967.928915
777.300743	2969.587455
777.625216	2958.063377
777.949643	2955.094138
778.274024	2958.380970
778.598359	2947.124073
778.922647	2952.865948
779.246889	2951.744291
779.571086	2934.720314
779.895236	2929.432144
780.219339	2940.893207
780.543397	2952.119857
780.867409	2955.315948
781.191374	2950.962912
781.515294	2944.495112
781.839167	2944.981583
782.162995	2935.168977
782.486776	2943.723815
782.810511	2941.692230
783.134201	2929.306115
783.457844	2936.517486
783.781441	2927.299736
784.104993	2907.616551
784.428498	2908.448341
784.751958	2924.436361
785.075372	2914.240627
785.398739	2901.627660
785.722061	2915.339598
786.045337	2929.036413
786.368568	2914.127201
786.691752	2905.768968
787.014891	2954.274950
787.337983	2981.043477
787.661030	3009.021881
787.984031	3075.076120
788.306987	3124.071094
788.629897	3113.333436
788.952760	3096.311980
789.275579	3079.691296
789.598351	3023.179962
789.921078	2980.015082
790.243759	2971.608958
790.566395	2953.841411
790.888984	2929.812751
791.211529	2914.263312
791.534027	2903.876015
791.856480	2891.842780
792.178888	2879.789382
792.501249	2870.972403
792.823566	2869.296220
793.145836	2865.583410
793.468062	2863.942514
793.790241	2861.714324
794.112375	2868.146837
794.434464	2877.248640
794.756507	2882.083107
795.078505	2889.397821
795.400457	2903.119842
795.722364	2938.488577
796.044226	2962.028245
796.366042	2964.800879
796.687812	2954.809313
797.009538	2974.323619
797.331218	2960.609160
797.652852	2946.057869
797.974442	2929.830395
798.295986	2923.513829
798.617484	2921.270516
798.938938	2905.398443
799.260346	2890.655589
799.581709	2886.579816
799.903026	2876.822663
800.224299	2871.320243
800.545526	2862.687267
800.866708	2847.369721
801.187845	2838.323371
801.508936	2841.030470
801.829983	2846.575739
802.150984	2834.895386
802.471940	2821.402738
802.792851	2821.846359
803.113717	2823.048674
803.434538	2828.775425
803.755314	2820.155052
804.076045	2816.069197
804.396731	2813.546099
804.717372	2812.923517
805.037967	2808.114256
805.358518	2815.134063
805.679024	2827.946155
805.999485	2822.655464
806.319901	2826.721155
806.640272	2816.701862
806.960598	2823.825012
807.280879	2832.440344
807.601115	2838.222547
807.921306	2826.627894
808.241453	2822.282419
808.561554	2827.331135
808.881611	2830.907833
809.201623	2826.695949
809.521590	2823.547749
809.841513	2822.176555
810.161390	2827.583192
810.481223	2820.870896
810.801011	2809.503094
811.120755	2803.388174
811.440453	2808.144503
811.760107	2808.570481
812.079716	2807.363124
812.399281	2794.175466
812.718801	2791.977523
813.038276	2787.110289
813.357707	2792.791669
813.677093	2796.481794
813.996434	2792.345527
814.315731	2791.359981
814.634983	2785.630710
814.954191	2785.640792
815.273354	2798.112607
815.592473	2807.335398
815.911547	2810.982673
816.230577	2814.564412
816.549562	2825.659992
816.868502	2825.425578
817.187399	2835.361693
817.506250	2851.750484
817.825058	2846.371573
818.143821	2854.339116
818.462539	2873.404760
818.781213	2897.418297
819.099843	2934.967331
819.418429	2986.732419
819.736970	3048.877243
820.055466	3116.474075
820.373919	3223.275961
820.692327	3363.737630
821.010691	3523.789224
821.329011	3956.196715
821.647286	4838.093649
821.965517	6185.173135
822.283704	6892.767133
822.601847	6862.863009
822.919945	6250.052785
823.237999	5765.061018
823.556010	5196.184450
823.873976	4656.554137
824.191897	4258.547479
824.509775	3972.693891
824.827609	3710.334601
825.145398	3594.219184
825.463144	3582.498501
825.780845	3670.721214
826.098502	3776.479581
826.416116	4050.811611
826.733685	4359.960371
827.051210	4412.980707
827.368692	4301.891320
827.686129	4041.422462
828.003522	3726.360429
828.320872	3475.076554
828.638177	3286.812143
828.955439	3151.580671
829.272656	3071.385995
829.589830	3006.821417
829.906960	2957.841567
830.224046	2917.219949
830.541088	2881.223590
830.858086	2866.667258
831.175041	2848.166223
831.491952	2850.890967
831.808819	2864.257587
832.125642	2886.852038
832.442421	2932.262752
832.759157	3009.064731
833.075849	3182.588808
833.392497	3458.634831
833.709101	3654.783606
834.025662	3602.993312
834.342179	3447.710650
834.658653	3278.355608
834.975083	3132.285654
835.291469	3035.233360
835.607811	2956.046916
835.924110	2896.992319
836.240366	2848.176306
836.556578	2808.446972
836.872746	2785.219856
837.188871	2764.132709
837.504952	2748.822725
837.820990	2741.465161
838.136984	2726.916391
838.452935	2720.751060
838.768842	2716.894577
839.084706	2735.995509
839.400526	2816.207829
839.716303	2941.735080
840.032037	3017.753159
840.347727	3003.368227
840.663373	2946.985442
840.978977	2872.341077
841.294537	2803.975469
841.610054	2754.592326
841.925527	2734.064747
842.240957	2713.269988
842.556344	2692.321473
842.871687	2678.821263
843.186987	2668.307937
843.502244	2665.308450
843.817458	2658.759991
844.132629	2648.392858
844.447756	2640.926909
844.762840	2631.338635
845.077881	2636.233595
845.392879	2635.149747
845.707833	2630.529530
846.022745	2622.700618
846.337613	2627.169601
846.652438	2623.053498
846.967221	2624.497789
847.281960	2622.733385
847.596656	2623.262706
847.911309	2622.483848
848.225919	2616.137035
848.540485	2616.285749
848.855009	2614.854062
849.169490	2613.480347
849.483928	2614.395317
849.798323	2612.272991
850.112675	2611.534462
850.426984	2614.274329
850.741251	2610.145624
851.055474	2610.821139
851.369654	2616.003445
851.683792	2615.383383
851.997887	2614.085286
852.311938	2611.302569
852.625947	2614.425564
852.939914	2613.533279
853.253837	2614.780965
853.567718	2613.157713
853.881555	2611.123608
854.195350	2614.044957
854.509103	2615.080914
854.822812	2609.913731
855.136479	2610.896756
855.450103	2612.608228
855.763685	2616.991511
856.077224	2613.112343
856.390720	2610.042280
856.704173	2611.378186
857.017584	2620.144753
857.330953	2618.829012
857.644278	2620.023765
857.957561	2619.814557
858.270802	2614.659977
858.584000	2615.320368
858.897155	2619.678446
859.210268	2620.797582
859.523339	2614.634772
859.836367	2608.668566
860.149352	2609.553288
860.462295	2614.198712
860.775195	2608.650922
861.088054	2610.430449
861.400869	2610.498505
861.713642	2601.749582
862.026373	2606.057248
862.339062	2609.419698
862.651708	2614.670060
862.964312	2614.904473
863.276873	2613.182919
863.589392	2615.771552
863.901869	2622.146091
864.214303	2627.439302
864.526696	2626.446195
864.839045	2627.179683
865.151353	2632.379633
865.463619	2632.016670
865.775842	2630.131278
866.088023	2629.841412
866.400162	2631.386526
866.712258	2630.171608
867.024313	2631.041207
867.336325	2627.749333
867.648296	2628.888634
867.960224	2634.149078
868.272110	2630.796711
868.583954	2624.046606
868.895755	2627.013325
869.207515	2630.474077
869.519233	2638.862557
869.830909	2633.347535
870.142542	2631.247894
870.454134	2631.999026
870.765684	2634.701084
871.077191	2638.872639
871.388657	2640.871457
871.700081	2640.740387
872.011463	2641.907414
872.322803	2640.637043
872.634101	2645.292549
872.945357	2651.785555
873.256571	2657.040958
873.567744	2653.416368
873.878874	2651.510812
874.189963	2651.805719
874.501010	2662.946669
874.812015	2661.701504
875.122979	2664.237205
875.433900	2655.914260
875.744780	2651.286481
876.055618	2661.386432
876.366415	2662.984478
876.677169	2667.362720
876.987882	2657.547594
877.298554	2657.572799
877.609183	2669.434634
877.919771	2674.203566
878.230317	2681.616583
878.540822	2690.604960
878.851285	2703.152392
879.161707	2727.024776
879.472087	2761.155908
879.782425	2809.301448
880.092722	2917.023344
880.402977	3099.187959
880.713191	3348.594004
881.023363	3627.889051
881.333494	3806.184580
881.643583	3973.964262
881.953631	3968.764312
882.263637	3799.305925
882.573602	3584.300714
882.883526	3464.706901
883.193408	3356.357381
883.503248	3259.473966
883.813048	3149.740649
884.122806	3040.892056
884.432522	2960.352061
884.742197	2898.108935
885.051831	2858.553521
885.361424	2826.824499
885.670975	2795.508851
885.980485	2763.794952
886.289954	2743.849627
886.599382	2736.083729
886.908768	2724.368088
887.218113	2705.947712
887.527417	2691.018335
887.836680	2684.648837
888.145901	2678.738084
888.455082	2671.393123
888.764221	2659.851401
889.073319	2654.810247
889.382376	2653.988539
889.691392	2654.341420
890.000366	2652.627427
890.309300	2651.480565
890.618193	2652.342602
890.927044	2657.867707
891.235855	2656.557007
891.544625	2656.524239
891.853353	2654.843015
892.162041	2664.448933
892.470687	2683.287725
892.779293	2692.727286
893.087858	2700.810776
893.396381	2724.627707
893.704864	2762.406114
894.013306	2827.343737
894.321707	2921.512491
894.630068	2965.730972
894.938387	2982.898622
895.246665	2976.912252
895.554903	2936.583021
895.863100	2896.936866
896.171256	2837.829337
896.479371	2780.917231
896.787446	2744.232755
897.095480	2728.900085
897.403473	2720.662840
897.711425	2705.766230
898.019336	2689.137984
898.327207	2673.664162
898.635038	2676.943433
898.942827	2675.151303
899.250576	2664.688388
899.558284	2653.189516
899.865952	2650.245482
900.173579	2648.649957
900.481165	2642.950933
900.788711	2638.670993
901.096216	2631.741927
901.403681	2627.978706
901.711105	2626.915022
902.018489	2624.890999
902.325832	2629.722945
902.633135	2630.544653
902.940397	2645.070738
903.247619	2681.228414
903.554800	2745.903897
903.861941	2866.395036
904.169041	2984.995742
904.476101	3042.001109
904.783121	3037.695964
905.090100	2980.970380
905.397039	2914.469999
905.703938	2843.490553
906.010796	2781.701131
906.317614	2734.614233
906.624391	2700.341949
906.931129	2674.929492
907.237826	2652.594660
907.544483	2637.501445
907.851099	2626.415948
908.157675	2615.547220
908.464211	2608.207300
908.770707	2598.029211
909.077163	2594.500403
909.383578	2595.261617
909.689954	2589.867583
909.996289	2587.689804
910.302584	2588.856831
910.608839	2585.040678
910.915054	2590.112079
911.221229	2586.610997
911.527363	2589.718869
911.833458	2589.018148
912.139513	2588.481265
912.445527	2593.023345
912.751502	2597.003336
913.057436	2602.079778
913.363331	2607.395675
913.669186	2617.044443
913.975000	2630.610188
914.280775	2644.138124
914.586510	2661.610764
914.892205	2698.988399
915.197859	2760.742533
915.503475	2839.702126
915.809050	2900.357289
916.114585	2911.054618
916.420081	2921.424271
916.725536	2933.245777
917.030952	2912.892118
917.336328	2863.140971
917.641665	2820.487768
917.946961	2772.465737
918.252218	2742.523803
918.557435	2716.188816
918.862612	2696.629139
919.167750	2682.944927
919.472848	2663.791063
919.777906	2648.891932
920.082925	2638.918010
920.387904	2628.263531
920.692843	2625.415279
920.997743	2621.478138
921.302603	2614.102930
921.607423	2609.432301
921.912204	2601.857967
922.216946	2598.898810
922.521647	2598.830754
922.826310	2592.448653
923.130932	2592.252048
923.435516	2584.912128
923.740059	2582.656212
924.044564	2581.567323
924.349028	2581.456417
924.653454	2573.236816
924.957840	2570.663307
925.262186	2567.230281
925.566493	2570.910324
925.870761	2565.581824
926.174989	2562.947821
926.479178	2562.955383
926.783328	2561.493448
927.087438	2561.760629
927.391509	2563.124262
927.695541	2558.897254
927.999533	2559.096380
928.303486	2557.994888
928.607400	2559.993705
928.911275	2557.977243
929.215110	2556.716955
929.518906	2556.089331
929.822663	2558.246945
930.126381	2558.118396
930.430060	2558.372974
930.733699	2557.354661
931.037299	2560.893551
931.340861	2558.277192
931.644383	2558.965310
931.947866	2557.926832
932.251309	2556.376677
932.554714	2558.062943
932.858080	2560.631411
933.161407	2557.437840
933.464694	2557.115206
933.767943	2556.043961
934.071153	2556.517829
934.374323	2554.473642
934.677455	2554.642520
934.980548	2554.813919
935.283602	2554.642520
935.586617	2554.710576
935.889593	2555.323076
936.192530	2554.511450
936.495428	2555.872562
936.798287	2557.735268
937.101108	2554.932387
937.403890	2558.935063
937.706632	2562.365568
938.009336	2566.471588
938.312002	2568.757751
938.614628	2572.064748
938.917216	2573.372927
939.219765	2579.376942
939.522275	2574.015674
939.824747	2575.119687
940.127179	2570.958215
940.429573	2571.462330
940.731929	2565.450754
941.034246	2563.467060
941.336524	2568.014181
941.638763	2567.056362
941.940964	2567.704150
942.243126	2564.936556
942.545250	2563.880435
942.847335	2563.361196
943.149381	2562.783984
943.451389	2560.434806
943.753359	2559.517316
944.055290	2558.725855
944.357182	2558.105793
944.659036	2556.676626
944.960851	2559.229970
945.262628	2555.663354
945.564367	2555.930535
945.866067	2558.534291
946.167729	2558.330124
946.469352	2558.635114
946.770937	2558.788869
947.072484	2557.016904
947.373992	2558.662840
947.675462	2556.283416
947.976893	2554.413148
948.278286	2556.442212
948.579641	2554.718137
948.880958	2551.854762
949.182236	2557.145453
949.483476	2554.284598
949.784678	2553.571275
950.085841	2553.306614
950.386967	2553.351985
950.688054	2555.728889
950.989103	2555.950700
951.290114	2555.126471
951.591087	2559.993705
951.892021	2560.409600
952.192917	2561.289282
952.493776	2560.855742
952.794596	2560.966648
953.095378	2563.560321
953.396122	2558.055381
953.696828	2563.217523
953.997496	2558.816596
954.298126	2555.567572
954.598718	2557.359702
954.899272	2556.094372
955.199788	2555.509599
955.500266	2552.273178
955.800706	2550.821326
956.101108	2546.740512
956.401472	2545.966694
956.701798	2543.325130
957.002087	2544.139276
957.302337	2546.458207
957.602550	2546.682538
957.902724	2548.610780
958.202861	2547.567261
958.502960	2545.941489
958.803022	2545.260933
959.103045	2541.709440
959.403031	2543.909904
959.702979	2542.952084
960.002889	2543.395706
960.302762	2542.468134
960.602596	2544.603062
960.902393	2541.969059
961.202153	2542.006868
961.501875	2540.514687
961.801559	2542.205994
962.101205	2544.184647
962.400814	2538.755324
962.700385	2543.582229
962.999918	2543.181457
963.299414	2543.115922
963.598873	2542.233720
963.898293	2542.483257
964.197677	2540.640715
964.497022	2540.020653
964.796331	2539.188863
965.095601	2539.466127
965.394835	2541.122146
965.694030	2540.560057
965.993189	2541.704399
966.292309	2540.504604
966.591393	2543.083154
966.890439	2539.234233
967.189447	2542.256405
967.488419	2539.163657
967.787353	2542.256405
968.086249	2541.956457
968.385108	2541.144831
968.683930	2543.095757
968.982714	2539.728267
969.281462	2539.304810
969.580172	2540.015612
969.878844	2540.998637
970.177480	2544.338402
970.476078	2540.774306
970.774639	2542.178267
971.073162	2543.352856
971.371649	2540.905376
971.670098	2539.571991
971.968510	2538.737680
972.266885	2538.805735
972.565223	2541.628782
972.863524	2540.799512
973.161788	2542.584080
973.460014	2540.131559
973.758204	2542.498381
974.056356	2541.858154
974.354471	2541.101981
974.652550	2542.372352
974.950591	2542.516025
975.248595	2540.920499
975.546563	2541.714481
975.844493	2538.306661
976.142386	2541.996786
976.440243	2539.229192
976.738062	2542.160623
977.035845	2543.199101
977.333590	2541.533000
977.631299	2542.125335
977.928971	2539.143493
978.226606	2540.832279
978.524204	2538.898997
978.821765	2541.817825
979.119290	2537.636188
979.416777	2540.096271
979.714228	2538.097453
980.011642	2539.017464
980.309020	2543.957795
980.606360	2543.690613
980.903664	2539.851775
981.200931	2539.410674
981.498162	2541.772454
981.795356	2542.107691
982.092513	2546.959802
982.389633	2544.865202
982.686717	2550.594474
982.983764	2553.656975
983.280775	2554.672767
983.577749	2553.538508
983.874686	2553.142777
984.171587	2551.690925
984.468451	2549.934082
984.765279	2548.267981
985.062070	2544.713968
985.358824	2545.144986
985.655543	2543.196580
985.952224	2543.415871
986.248869	2541.114584
986.545478	2536.930426
986.842050	2541.250695
987.138586	2535.445806
987.435086	2537.679038
987.731549	2536.113759
988.027975	2542.110212
988.324366	2539.599717
988.620719	2536.610313
988.917037	2537.905889
989.213318	2537.084181
989.509563	2539.498894
989.805772	2539.090561
990.101944	2538.699871
990.398080	2535.932278
990.694180	2539.554347
990.990244	2538.478060
991.286271	2537.948739
991.582262	2537.474871
991.878217	2538.256250
992.174136	2538.740200
992.470019	2539.599717
992.765865	2536.353214
993.061676	2536.718698
993.357450	2534.573687
993.653188	2539.871939
993.948890	2539.176260
994.244556	2540.136600
994.540186	2541.568288
994.835780	2538.367155
995.131337	2541.636343
995.426859	2541.371683
995.722345	2540.141641
996.017795	2541.270860
996.313208	2543.680531
996.608586	2542.190870
996.903928	2538.268852
997.199234	2539.219110
997.494504	2540.983514
997.789738	2541.306148
998.084936	2540.562578
998.380099	2539.088040
998.675225	2539.057793
998.970316	2541.732125
999.265371	2539.403112
999.560390	2537.731970
999.855373	2541.134748
1000.150320	2538.614172
1000.445232	2537.517721
1000.740108	2537.437062
1001.034948	2537.976466
1001.329752	2537.154757
1001.624521	2536.423790
1001.919254	2532.968079
1002.213951	2535.730632
1002.508613	2533.893131
1002.803239	2536.960673
1003.097829	2534.387164
1003.392384	2539.302289
1003.686903	2535.085364
1003.981386	2540.093750
1004.275834	2533.620909
1004.570246	2539.599717
1004.864623	2535.770961
1005.158964	2537.202648
1005.453270	2535.634850
1005.747540	2535.425642
1006.041775	2536.053265
1006.335974	2535.682741
1006.630138	2534.735004
1006.924266	2538.818338
1007.218359	2537.174922
1007.512416	2537.391692
1007.806438	2533.084026
1008.100425	2535.518903
1008.394376	2536.136444
1008.688292	2535.889428
1008.982172	2535.523944
1009.276017	2535.770961
1009.569827	2535.813811
1009.863602	2537.202648
1010.157341	2534.687113
1010.451045	2536.885056
1010.744714	2535.740714
1011.038347	2533.404139
1011.331945	2534.750127
1011.625508	2535.370189
1011.919036	2536.227185
1012.212528	2538.294058
1012.505986	2536.234747
1012.799408	2535.087884
1013.092795	2535.891948
1013.386147	2537.134593
1013.679464	2537.893287
1013.972745	2534.077133
1014.265992	2535.188707
1014.559204	2534.982020
1014.852380	2533.270548
1015.145521	2537.593338
1015.438628	2535.690302
1015.731699	2536.267514
1016.024736	2536.375899
1016.317737	2533.653676
1016.610703	2536.033101
1016.903635	2533.399098
1017.196531	2533.139478
1017.489393	2533.187369
1017.782219	2527.838705
1018.075011	2535.526465
1018.367768	2534.435055
1018.660490	2535.503780
1018.953177	2535.503780
1019.245829	2535.503780
