Dividing Wavelength (nm)	Counts (n)	Blue Motor Position (mm): 32.500000	Red Motor Position (mm): 0.000000	
326.493990	2098.967583
326.888308	2098.967583
327.282561	2098.967583
327.676750	2077.151990
328.070874	2075.289283
328.464933	2081.928483
328.858929	2093.523137
329.252859	2106.241968
329.646726	2120.876438
330.040528	2137.338325
330.434265	2158.395225
330.827938	2177.027330
331.221547	2194.308405
331.615091	2215.771118
332.008571	2237.483367
332.401986	2256.801069
332.795338	2276.776641
333.188625	2296.812707
333.581847	2318.313228
333.975006	2334.326453
334.368100	2351.547035
334.761129	2371.535210
335.154095	2386.300749
335.546996	2429.223654
335.939833	2512.712723
336.332606	2524.345186
336.725315	2537.106867
337.117960	2546.397713
337.510540	2553.669577
337.903056	2564.142575
338.295508	2567.862946
338.687896	2577.146231
339.080220	2581.007755
339.472480	2585.237283
339.864676	2594.263469
340.256807	2595.289344
340.648875	2595.813624
341.040879	2595.324632
341.432818	2599.927205
341.824694	2600.837133
342.216506	2599.723038
342.608253	2599.667586
342.999937	2597.739344
343.391557	2598.777822
343.783113	2594.686926
344.174605	2592.879672
344.566033	2595.004518
344.957397	2590.228025
345.348697	2588.125864
345.739934	2588.047726
346.131106	2586.021182
346.522215	2584.987746
346.913260	2580.662436
347.304241	2581.751325
347.695159	2577.418453
348.086012	2580.085224
348.476802	2580.175964
348.867528	2574.875191
349.258191	2574.058524
349.648789	2573.889646
350.039324	2571.931157
350.429796	2572.518452
350.820203	2571.071641
351.210548	2571.429562
351.600828	2567.613409
351.991045	2568.994685
352.381198	2567.313460
352.771288	2566.965621
353.161314	2567.119376
353.551276	2569.836558
353.941175	2569.667679
354.331010	2569.213975
354.720782	2572.009295
355.110490	2571.046435
355.500135	2571.356466
355.889717	2567.661300
356.279235	2571.696744
356.668689	2571.510221
357.058080	2572.896538
357.447408	2566.519479
357.836672	2567.361351
358.225873	2568.679613
358.615010	2567.449572
359.004084	2571.958884
359.393095	2574.567681
359.782043	2573.274625
360.170927	2574.608010
360.559748	2576.392578
360.948505	2576.551375
361.337199	2577.312589
361.725830	2580.072621
362.114398	2576.979873
362.502903	2577.582291
362.891344	2577.181519
363.279722	2579.311407
363.668037	2581.683269
364.056289	2581.161510
364.444478	2580.649833
364.832603	2580.178485
365.220665	2581.839545
365.608665	2581.098496
365.996601	2585.441450
366.384474	2584.266861
366.772284	2586.361460
367.160031	2585.892633
367.547715	2583.571182
367.935336	2581.952971
368.322893	2585.272571
368.710388	2586.976481
369.097820	2589.575196
369.485189	2587.347006
369.872495	2587.228539
370.259738	2587.543611
370.646918	2587.745257
371.034035	2589.592840
371.421090	2589.693663
371.808081	2592.073087
372.195010	2588.937490
372.581875	2591.387491
372.968678	2590.747264
373.355418	2591.568972
373.742096	2591.286667
374.128710	2591.692480
374.515262	2592.579723
374.901751	2595.445619
375.288177	2592.826740
375.674540	2598.601382
376.060841	2598.004005
376.447079	2596.206834
376.833254	2594.263469
377.219367	2591.437902
377.605417	2596.632811
377.991404	2594.487800
378.377329	2592.599888
378.763191	2595.412852
379.148991	2597.767071
379.534727	2600.433841
379.920402	2602.084819
380.306013	2601.449634
380.691563	2601.008533
381.077049	2602.198245
381.462474	2604.013060
381.847835	2601.875611
382.233134	2601.673965
382.618371	2605.033894
383.003545	2603.813935
383.388657	2605.585900
383.773706	2602.546085
384.158693	2604.499532
384.543618	2606.959615
384.928480	2606.117742
385.313280	2605.724532
385.698017	2607.735952
386.082692	2607.569594
386.467305	2609.752414
386.851856	2611.415995
387.236344	2609.754935
387.620770	2613.745008
388.005133	2610.526231
388.389435	2612.943464
388.773674	2611.078237
389.157851	2614.508743
389.541965	2615.590070
389.926018	2614.465893
390.310008	2614.554113
390.693936	2615.774072
391.077802	2614.793568
391.461606	2618.130812
391.845348	2615.451438
392.229027	2617.475462
392.612645	2619.307921
392.996200	2623.156842
393.379694	2621.851183
393.763125	2621.142901
394.146494	2620.648868
394.529801	2624.903602
394.913047	2624.318828
395.296230	2625.458129
395.679351	2625.843777
396.062410	2626.330248
396.445408	2627.376288
396.828343	2625.253962
397.211217	2622.201543
397.594028	2626.037862
397.976778	2623.955865
398.359466	2628.134982
398.742092	2626.864611
399.124656	2628.293778
399.507158	2629.228912
399.889598	2635.104377
400.271977	2634.673358
400.654294	2637.940026
401.036549	2634.796866
401.418742	2635.805097
401.800874	2637.375417
402.182944	2637.496404
402.564952	2636.692340
402.946898	2638.713843
403.328783	2640.304327
403.710606	2642.179636
404.092367	2642.892959
404.474067	2644.629637
404.855705	2646.401602
405.237282	2644.478402
405.618797	2649.196922
406.000250	2646.905718
406.381642	2650.570637
406.762972	2649.514515
407.144240	2653.522232
407.525447	2657.013231
407.906593	2655.831081
408.287677	2656.851914
408.668700	2657.779487
409.049661	2660.368119
409.430560	2659.591782
409.811399	2663.390291
410.192176	2661.038593
410.572891	2662.815599
410.953545	2668.454130
411.334138	2668.769202
411.714669	2671.080571
412.095139	2674.793381
412.475547	2675.365552
412.855894	2679.096006
413.236180	2683.181861
413.616405	2684.326203
413.996568	2689.934487
414.376670	2692.112265
414.756711	2694.146371
415.136691	2702.103832
415.516609	2704.939481
415.896466	2717.202088
416.276262	2726.150136
416.655997	2731.173646
417.035670	2741.071951
417.415283	2755.802203
417.794834	2766.270159
418.174324	2782.127108
418.553753	2796.494397
418.933121	2814.660194
419.312428	2834.219871
419.691674	2849.061028
420.070859	2879.902808
420.449983	2898.842422
420.829045	2938.581838
421.208047	2966.517392
421.586988	3008.737056
421.965867	3055.602143
422.344686	3093.201588
422.723444	3161.481497
423.102141	3159.754902
423.480777	3253.953902
423.859352	3288.735343
424.237866	3403.431676
424.616319	3455.211887
424.994712	3559.604101
425.373044	3625.749081
425.751314	3759.737909
426.129524	3779.272380
426.507673	3950.490129
426.885762	4028.244886
427.263789	4146.984224
427.641756	4269.214561
428.019662	4386.799474
428.397508	4498.534128
428.775292	4659.326772
429.153016	4781.403353
429.530679	4920.143469
429.908282	5056.935178
430.285824	5146.967665
430.663305	5397.341612
431.040726	5477.508561
431.418086	5595.789154
431.795385	5861.641964
432.172624	6104.958295
432.549802	6177.810530
432.926920	6376.797475
433.303977	6526.355907
433.680974	6751.302274
434.057910	7004.350553
434.434786	7192.410797
434.811601	7357.211158
435.188355	7844.720982
435.565050	7949.521529
435.941683	8131.610526
436.318257	8604.274152
436.694770	8748.499043
437.071222	9157.268564
437.447614	9057.141167
437.823946	9268.809134
438.200218	9547.705930
438.576429	9673.984313
438.952580	10001.193006
439.328670	10200.401762
439.704700	10592.979097
440.080670	10619.412388
440.456580	11101.792837
440.832429	11404.899774
441.208218	11163.826756
441.583947	11585.693195
441.959616	11854.611027
442.335224	12195.105681
442.710773	12494.154489
443.086261	13015.359385
443.461689	12879.855690
443.837057	13183.534798
444.212365	13771.038429
444.587612	13999.836237
444.962800	13977.264471
445.337927	14450.407006
445.712995	13872.353018
446.088002	15240.761627
446.462949	15602.734117
446.837837	15950.374607
447.212664	16185.032757
447.587431	18426.720446
447.962139	20704.848116
448.336786	22549.219786
448.711374	21628.135443
449.085901	19224.573783
449.460369	19487.109513
449.834776	19721.810513
450.209124	21842.986899
450.583412	21662.180875
450.957640	22228.791444
451.331808	21422.814288
451.705917	20561.313863
452.079965	20796.491252
452.453954	21297.473559
452.827883	21427.331162
453.201752	21435.384405
453.575562	21751.028691
453.949311	22877.630794
454.323001	23118.688689
454.696632	23093.475358
455.070202	24626.215499
455.443713	24932.667242
455.817164	25607.662618
456.190556	26256.527174
456.563888	25907.328968
456.937160	26435.795646
457.310373	25087.075263
457.683526	25642.249975
458.056619	25785.055781
458.429653	25882.839042
458.802628	26566.361530
459.175542	26813.186505
459.548398	28188.259519
459.921194	29815.491048
460.293930	30581.925394
460.666607	32617.916363
461.039224	34413.434210
461.411782	34894.299793
461.784280	33829.441743
462.156719	33451.463589
462.529099	33045.849830
462.901419	31886.964178
463.273680	30979.634624
463.645882	31190.793435
464.018024	31267.572729
464.390106	32226.460684
464.762130	35078.264100
465.134094	39287.519177
465.505999	44650.341488
465.877845	49174.716571
466.249631	50306.886628
466.621358	48614.742681
466.993026	46569.349961
467.364634	44572.932050
467.736184	42704.834190
468.107674	41482.253559
468.479105	40758.628692
468.850477	40104.808682
469.221790	38695.012201
469.593043	36982.565007
469.964238	36128.790150
470.335373	36110.044619
470.706449	38015.784775
471.077467	40805.130816
471.448425	45395.338327
471.819324	48081.464222
472.190164	46093.694410
472.560945	42557.700553
472.931667	39473.167229
473.302330	38402.889938
473.672934	37576.954854
474.043479	38136.480081
474.413965	37348.366253
474.784393	36986.928125
475.154761	37917.540249
475.525070	37983.163469
475.895321	37504.382403
476.265513	38131.214596
476.635645	39141.141713
477.005719	39001.103500
477.375734	39504.218216
477.745691	40227.759904
478.115588	41612.285082
478.485427	43731.334101
478.855207	47186.319136
479.224928	49814.590229
479.594591	51386.248078
479.964194	50311.070786
480.333739	50466.537450
480.703226	50559.145967
481.072653	51205.028680
481.442022	51676.883200
481.811333	51881.478429
482.180584	50600.617019
482.549777	50076.306772
482.918912	49557.143543
483.287988	49255.669940
483.657005	48430.506152
484.025964	47754.487422
484.394864	47775.599774
484.763706	47362.431846
485.132489	46448.483256
485.501213	46292.330995
485.869879	46437.594364
486.238487	46029.323917
486.607036	46229.188023
486.975527	45673.073136
487.343959	45893.812660
487.712333	45953.744418
488.080648	45861.224121
488.448905	46326.086562
488.817104	46138.353992
489.185244	47160.316865
489.553326	48917.854659
489.921350	51673.422448
490.289315	54433.877636
490.657222	54933.040087
491.025070	55174.465986
491.392861	54269.919148
491.760593	53042.355337
492.128267	51375.265925
492.495883	49838.583601
492.863440	48455.530440
493.230939	47076.389215
493.598380	45970.201265
493.965763	45647.353169
494.333088	44812.265870
494.700354	44332.993292
495.067563	44020.358574
495.434713	43875.319537
495.801805	43937.809680
496.168839	43566.896703
496.535815	43215.467787
496.902733	43238.014347
497.269593	42799.953201
497.636395	42734.309817
498.003139	43140.140345
498.369825	42582.114861
498.736453	42899.180753
499.103023	42410.629931
499.469535	42298.239927
499.835989	42378.585837
500.202385	42039.593446
500.568723	42057.005592
500.935003	42244.445774
501.301226	42049.239694
501.667390	42672.875795
502.033497	42910.747681
502.399546	42343.731299
502.765537	41637.936993
503.131470	42020.893286
503.497345	42400.719023
503.863163	41035.861907
504.228923	41684.676051
504.594625	42078.380084
504.960269	41332.821156
505.325856	42039.303580
505.691385	41391.845506
506.056856	41531.813143
506.422270	41989.938081
506.787625	41535.977136
507.152924	41750.886565
507.518164	41840.848476
507.883347	41032.305373
508.248472	41291.710547
508.613540	41774.590071
508.978550	42070.641913
509.343503	41824.706702
509.708398	42023.791949
510.073236	42565.474012
510.438016	42563.190370
510.802738	42003.287056
511.167403	42650.067095
511.532010	42870.655384
511.896561	43178.914380
512.261053	44036.588569
512.625488	43564.030807
512.989866	43443.796768
513.354186	43292.050475
513.718449	43262.405970
514.082655	43966.783712
514.446803	43622.367040
514.810894	44162.766129
515.174927	44062.250563
515.538904	43961.803052
515.902822	44637.446217
516.266684	44075.223972
516.630488	44495.504968
516.994235	44352.615983
517.357925	44925.643941
517.721558	45106.528102
518.085133	45428.093224
518.448651	45536.722528
518.812112	45319.642881
519.175516	45400.281178
519.538863	45737.637714
519.902152	45704.673609
520.265385	46188.475664
520.628560	46194.230142
520.991678	45991.742115
521.354739	46218.135293
521.717743	46538.482976
522.080690	46435.134281
522.443580	46966.358470
522.806413	47016.724638
523.169189	46967.898543
523.531908	47148.434865
523.894569	46990.682038
524.257174	47152.404774
524.619722	47452.910475
524.982213	47422.739169
525.344647	47350.920371
525.707025	47394.266732
526.069345	47788.074109
526.431608	47699.367445
526.793815	48037.835556
527.155964	47571.276767
527.518057	47704.776603
527.880093	47498.122063
528.242072	48045.679591
528.603995	47726.685458
528.965860	47737.700379
529.327669	47822.333791
529.689421	47724.439624
530.051117	47671.441974
530.412755	47831.859051
530.774337	47889.023215
531.135862	47694.568267
531.497331	47880.173469
531.858743	47770.145245
532.220098	48122.209348
532.581396	47824.136003
532.942638	47469.319431
533.303824	47781.991957
533.664953	47783.625291
534.026025	47469.609297
534.387040	47954.946384
534.747999	47897.202487
535.108902	48060.780367
535.469748	47559.263698
535.830537	47680.863890
536.191270	47864.687045
536.551947	47523.930250
536.912567	47830.011468
537.273131	47952.309860
537.633638	47452.000547
537.994089	47764.526879
538.354483	47348.843416
538.714821	47941.851987
539.075103	48287.168504
539.435328	48046.339982
539.795497	47901.036284
540.155609	47903.347653
540.515665	48383.895644
540.875665	47810.736616
541.235609	48147.581475
541.595496	48119.098956
541.955328	48820.361264
542.315102	48154.697064
542.674821	47923.623174
543.034483	47968.751583
543.394090	47944.949776
543.753640	47897.557888
544.113134	48893.387419
544.472571	47880.480980
544.831953	49140.411519
545.191278	48327.825410
545.550548	48055.230057
545.909761	48519.840440
546.268918	48709.907063
546.628019	49019.068426
546.987064	48568.205270
547.346053	47830.026591
547.704986	48707.888081
548.063863	48257.546684
548.422684	48437.715002
548.781449	48262.088764
549.140158	48671.120425
549.498811	48501.656998
549.857408	47921.679809
550.215949	48772.586249
550.574434	48702.864571
550.932864	48444.684397
551.291237	49159.910702
551.649555	48771.270508
552.007817	48992.128499
552.366022	48648.699894
552.724173	48801.225044
553.082267	49202.684893
553.440305	49476.054063
553.798288	48752.076315
554.156215	49091.918140
554.514086	49287.507347
554.871902	49000.640488
555.229661	49037.766065
555.587365	48855.808138
555.945014	48950.463363
556.302606	48865.252739
556.660143	49084.011090
557.017625	49172.949647
557.375050	48942.561354
557.732421	49278.760945
558.089735	49246.873127
558.446994	49170.638278
558.804197	49625.304984
559.161345	49552.538449
559.518437	48787.629053
559.875474	49101.640005
560.232455	49269.185274
560.589381	49437.552250
560.946251	49112.672570
561.303065	49777.119332
561.659825	49572.662735
562.016528	49244.029916
562.373177	48952.767170
562.729770	49428.417680
563.086307	48936.043142
563.442789	49398.095139
563.799216	49423.656310
564.155587	49212.646213
564.511904	49227.492411
564.868164	49307.561057
565.224370	49543.625689
565.580520	49264.716291
565.936615	49471.141458
566.292654	49162.774078
566.648638	49431.840623
567.004567	49382.709538
567.360441	49418.206822
567.716260	49275.630389
568.072023	49563.571014
568.427732	49512.279794
568.783385	49035.941167
569.138982	49431.086971
569.494525	49389.588192
569.850013	49141.722219
570.205445	49110.167117
570.560823	49056.882121
570.916145	48918.628476
571.271412	48963.923244
571.626625	48674.167803
571.981782	48729.754086
572.336884	48396.004495
572.691931	48714.446622
573.046923	48325.476233
573.401860	48150.031476
573.756743	48110.186196
574.111570	48221.245336
574.466342	48061.367662
574.821059	48178.161114
575.175722	47662.569543
575.530330	47695.188329
575.884882	47390.218686
576.239380	47324.744180
576.593823	47299.208215
576.948211	47228.354797
577.302544	46723.984835
577.656823	46732.436329
578.011047	46967.649006
578.365216	46680.146961
578.719330	46453.710933
579.073389	46291.579863
579.427394	46364.117026
579.781344	46334.250710
580.135239	45967.910060
580.489080	46028.915583
580.842866	45509.502818
581.196597	45944.088088
581.550273	45883.455610
581.903895	45743.490494
582.257463	46135.173024
582.610975	45511.052972
582.964434	45796.513350
583.317837	45424.037616
583.671186	45245.243012
584.024481	45465.049923
584.377721	44977.444317
584.730906	45255.937820
585.084037	45305.021015
585.437113	45009.478329
585.790135	45009.390109
586.143103	44601.588489
586.496016	44713.950767
586.848874	44714.918669
587.201679	44732.461884
587.554428	44206.936719
587.907124	44399.627263
588.259765	44136.058096
588.612352	44362.068147
588.964884	43752.045681
589.317362	44038.670566
589.669786	43963.219616
590.022155	43730.976179
590.374470	44135.788394
590.726731	43660.510930
591.078937	43168.857278
591.431090	43279.137560
591.783188	42912.875047
592.135232	42578.142432
592.487222	42851.786345
592.839157	42910.732557
593.191038	42572.088006
593.542866	42329.167405
593.894639	41725.206928
594.246358	41996.325223
594.598022	41963.101498
594.949633	41566.869327
595.301190	41511.033507
595.652692	41357.336288
596.004141	41665.474296
596.355535	40682.277897
596.706876	40606.952976
597.058162	40442.099683
597.409395	40902.533470
597.760573	40982.405511
598.111698	40565.499568
598.462768	40570.502913
598.813785	40607.134457
599.164748	40054.434952
599.515657	40427.450090
599.866511	39911.790463
600.217312	40522.642198
600.568060	39491.895115
600.918753	40230.015820
601.269392	40179.581597
601.619978	39843.306388
601.970510	40064.693701
602.320988	40225.410726
602.671412	40545.546681
603.021783	40275.386205
603.372100	39930.934245
603.722363	40005.502993
604.072572	40097.761149
604.422728	40108.521492
604.772830	39924.257237
605.122878	40011.630515
605.472872	39946.176174
605.822813	40222.769162
606.172701	40030.139112
606.522534	40287.361466
606.872314	40538.118541
607.222041	40302.386625
607.571714	40665.432881
607.921333	40120.995827
608.270899	40404.336400
608.620411	40755.548547
608.969870	40525.513135
609.319276	40552.269059
609.668627	40582.263925
610.017926	41065.430795
610.367171	41213.794473
610.716362	41305.004069
611.065500	41233.908677
611.414585	41413.593044
611.763616	41714.988509
612.112594	41652.788232
612.461518	41872.804351
612.810389	42168.775534
613.159207	42042.522357
613.507971	42102.839762
613.856682	42578.434819
614.205340	42470.254178
614.553945	43149.655523
614.902496	42603.103705
615.250994	43086.777211
615.599439	43147.520594
615.947830	43347.417468
616.296169	43418.717027
616.644454	43508.550389
616.992686	43688.292729
617.340864	44211.816556
617.688990	43922.943317
618.037063	44527.337334
618.385082	44475.403367
618.733048	44777.008040
619.080961	44782.507939
619.428821	44812.255788
619.776628	44912.461323
620.124382	44759.101862
620.472083	44898.197379
620.819731	45018.025606
621.167326	44693.622314
621.514868	44672.457030
621.862357	44227.131582
622.209793	44279.756187
622.557176	43948.499447
622.904506	43678.089434
623.251783	43323.996267
623.599007	43107.866878
623.946179	42890.076429
624.293297	42834.964015
624.640363	42240.314548
624.987376	42220.475087
625.334336	41982.935918
625.681243	41623.037863
626.028097	41581.871800
626.374899	41447.830040
626.721647	41431.859665
627.068343	41307.761581
627.414987	41069.930024
627.761577	40842.314367
628.108115	41188.576101
628.454600	40618.494698
628.801032	40805.816413
629.147412	40770.571186
629.493739	40759.571388
629.840014	40411.822513
630.186236	40758.618610
630.532405	40326.332106
630.878521	40556.337271
631.224585	40418.408781
631.570597	40127.221652
631.916556	40297.592488
632.262462	40252.948029
632.608316	40259.486406
632.954117	40167.906284
633.299866	40153.937247
633.645562	40073.603940
633.991206	39595.468142
634.336797	39150.304010
634.682336	39155.874485
635.027823	38913.074872
635.373257	38720.757373
635.718639	38491.142898
636.063968	38344.634364
636.409245	37772.377703
636.754470	37812.124681
637.099642	37578.646161
637.444762	37095.514579
637.789829	37233.150682
638.134845	36896.036121
638.479808	36833.089754
638.824719	36722.685964
639.169577	36352.007401
639.514383	36421.739162
639.859137	36084.735507
640.203839	36345.297625
640.548489	35976.146532
640.893086	36047.902316
641.237632	35791.274818
641.582125	35915.045227
641.926566	35837.108988
642.270955	35790.158202
642.615292	35818.358417
642.959576	35782.659486
643.303809	35768.534173
643.647990	35927.259943
643.992118	35895.059573
644.336195	35872.301283
644.680219	35958.802442
645.024192	36261.072547
645.368112	36779.378780
645.711981	36763.272294
646.055797	37622.804148
646.399562	37565.173677
646.743274	38524.762353
647.086935	38946.379255
647.430544	38840.555353
647.774101	38954.170358
648.117606	39218.251202
648.461059	39523.556082
648.804460	39121.647571
649.147810	38512.376238
649.491108	38257.641693
649.834354	37897.733555
650.177548	37056.133085
650.520690	36613.804603
650.863781	36639.809395
651.206820	36478.094221
651.549807	36053.019087
651.892742	35562.214869
652.235626	35371.200509
652.578458	35240.760653
652.921238	34630.833970
653.263967	34945.522958
653.606644	34630.534021
653.949269	34586.313020
654.291843	34152.143645
654.634365	34560.572888
654.976836	34153.318233
655.319255	34156.657998
655.661622	34154.460055
656.003938	33945.229485
656.346203	33806.612878
656.688416	34018.268243
657.030577	33823.934282
657.372687	33662.317411
657.714746	33912.230092
658.056753	34040.318249
658.398708	33496.894468
658.740612	33545.662590
659.082465	33819.712316
659.424266	33644.915347
659.766016	33770.354379
660.107715	33634.394459
660.449362	33766.276085
660.790958	33734.199223
661.132503	33745.962756
661.473996	33782.337201
661.815438	33897.678801
662.156829	34090.283646
662.498168	33839.067826
662.839456	33874.998650
663.180693	34024.055487
663.521879	34192.533369
663.863013	34151.616844
664.204097	34128.868637
664.545129	34583.308492
664.886110	34546.263573
665.227040	34609.267914
665.567918	34740.882358
665.908746	34788.370027
666.249522	34954.508814
666.590248	34957.770441
666.930922	35061.101492
667.271545	35031.731729
667.612118	35100.666988
667.952639	34874.440168
668.293109	34942.959531
668.633528	34843.737020
668.973896	34775.608347
669.314213	34808.174200
669.654480	34547.259201
669.994695	34554.767999
670.334859	34447.777071
670.674973	34347.006926
671.015035	34501.475442
671.355047	34449.370075
671.695008	34399.318979
672.034918	34293.845438
672.374777	34370.511306
672.714585	34186.612534
673.054342	34433.719813
673.394049	34184.901062
673.733705	34462.126715
674.073310	34122.423522
674.412864	34199.041499
674.752368	33803.691529
675.091820	34112.162253
675.431223	33685.047973
675.770574	33393.366812
676.109875	33257.477469
676.449125	32968.944508
676.788324	32902.466812
677.127473	32358.004552
677.466571	32285.275826
677.805619	31937.892435
678.144616	31934.487136
678.483562	31849.236183
678.822458	31522.360206
679.161303	31444.721395
679.500098	31356.763343
679.838842	31237.827400
680.177535	31399.769427
680.516179	31669.387978
680.854771	31908.391603
681.193314	32756.283433
681.531805	33883.515680
681.870247	34621.132269
682.208638	35321.686296
682.546978	35536.930962
682.885268	35633.721116
683.223508	35132.668232
683.561697	34800.756142
683.899836	34620.837362
684.237925	34098.392342
684.575963	33959.410251
684.913951	33478.683299
685.251889	33642.815707
685.589776	33617.367962
685.927614	33605.899337
686.265401	33745.962756
686.603137	33844.005636
686.940824	34341.088611
687.278460	34706.292481
687.616046	34815.251980
687.953582	35435.008914
688.291068	35295.573119
688.628504	35575.825985
688.965889	35511.634452
689.303224	35135.914735
689.640510	34837.569168
689.977745	34075.475256
690.314930	33288.505771
690.652065	32796.859680
690.989150	32073.973342
691.326185	31160.072643
691.663170	30477.447481
692.000105	29702.818739
692.336990	29026.807570
692.673825	28567.157683
693.010610	28060.806547
693.347345	27451.051263
693.684030	26790.713041
694.020665	26515.952513
694.357251	25834.247360
694.693786	25782.719206
695.030272	25542.868668
695.366707	24994.297868
695.703093	24706.770617
696.039429	24701.870616
696.375716	24418.976185
696.711952	24384.182142
697.048139	24224.972421
697.384276	24045.966089
697.720363	24173.076262
698.056400	23965.821825
698.392388	23755.048662
698.728326	23714.916036
699.064214	23506.640765
699.400053	23449.811838
699.735842	23088.550150
700.071581	22803.498106
700.407270	22510.044979
700.742910	22335.747085
701.078501	22056.003376
701.414042	21785.479937
701.749533	21478.597176
702.084974	21121.174327
702.420366	21334.647028
702.755709	20878.304137
703.091002	20584.992163
703.426246	20598.993967
703.761440	20499.963021
704.096584	20224.342975
704.431679	20174.778351
704.766725	20072.019471
705.101721	20004.248719
705.436668	20101.979048
705.771565	19767.369941
706.106413	20118.831625
706.441212	20106.322002
706.775961	20233.099460
707.110661	20287.390166
707.445311	20649.788634
707.779913	20469.262394
708.114465	20723.893595
708.448967	20998.298723
708.783421	21676.331394
709.117825	21946.368362
709.452180	22150.822438
709.786485	22565.734606
710.120742	23348.550181
710.454949	23351.048072
710.789107	23814.781294
711.123216	24516.656103
711.457275	24638.548682
711.791286	25183.056312
712.125247	25251.699183
712.459159	24946.222904
712.793023	25623.811955
713.126837	24529.218658
713.460602	24811.225846
713.794318	24437.676346
714.127985	24066.581888
714.461602	23175.280682
714.795171	23129.171768
715.128691	22119.000155
715.462162	21580.191549
715.795584	21167.910864
716.128957	20898.380533
716.462281	20489.482462
716.795556	20259.767163
717.128782	19751.455018
717.461960	19202.536379
717.795088	19123.382702
718.128167	18714.648468
718.461198	18249.002129
718.794180	18112.079349
719.127113	17742.734172
719.459997	17540.803192
719.792833	17185.129624
720.125619	17150.476732
720.458357	16829.864389
720.791046	16657.983728
721.123686	16491.366032
721.456278	16245.163640
721.788821	16213.913527
722.121315	15942.117197
722.453761	16029.480393
722.786158	15942.454954
723.118506	15951.037518
723.450805	15806.870601
723.783056	15969.256248
724.115259	15856.757859
724.447412	15788.104906
724.779518	16026.362439
725.111574	16037.364758
725.443582	16246.728918
725.775542	16233.332052
726.107453	16694.327927
726.439315	16577.209320
726.771129	16963.984287
727.102895	17334.151173
727.434612	17533.927059
727.766281	17650.183628
728.097901	17909.059481
728.429473	17958.586297
728.760996	17945.970809
729.092471	18032.353501
729.423897	17916.981654
729.755276	17794.418601
730.086606	17913.072239
730.417887	18421.704498
730.749120	18936.986038
731.080305	19104.705227
731.411442	19427.639022
731.742530	19500.158540
732.073570	19597.127655
732.404562	19895.309384
732.735506	19714.566375
733.066401	19424.135420
733.397249	18901.826511
733.728048	18268.902084
734.058798	17438.815609
734.389501	16754.496618
734.720156	16295.587781
735.050762	15770.410456
735.381320	15417.602783
735.711831	15173.628581
736.042293	14818.988449
736.372707	14828.102855
736.703073	14606.652528
737.033391	14798.291992
737.363661	14756.483182
737.693883	14846.734960
738.024056	15007.877963
738.354182	15180.189643
738.684260	15449.535972
739.014290	15669.181566
739.344272	15847.802249
739.674207	16128.428161
740.004093	16247.737149
740.333931	16241.261787
740.663722	16289.145186
740.993464	16284.119156
741.323159	16120.160668
741.652806	15853.723085
741.982405	15637.558408
742.311956	15307.564477
742.641460	15197.405183
742.970915	14907.649742
743.300323	14562.885231
743.629683	14358.529457
743.958996	14082.087703
744.288260	13806.926403
744.617477	13509.843645
744.946647	13440.989045
745.275768	13162.936643
745.604842	12981.407214
745.933869	12804.182930
746.262847	12747.147315
746.591778	12676.235924
746.920662	12570.253227
747.249498	12567.467989
747.578286	12681.771111
747.907027	12824.841578
748.235720	13040.078683
748.564365	13074.053539
748.892963	12962.371817
749.221514	13024.786343
749.550017	12868.011499
749.878473	12838.382117
750.206881	12603.882764
750.535242	12515.738189
750.863555	12435.793051
751.191821	12332.076351
751.520039	12345.445491
751.848210	12264.257709
752.176334	12291.154785
752.504411	12197.598531
752.832440	12027.555371
753.160421	12093.221441
753.488356	11973.536887
753.816243	11889.485729
754.144082	11749.019018
754.471875	11684.071312
754.799620	11626.957560
755.127318	11596.408168
755.454969	11565.563868
755.782572	11514.444047
756.110129	11523.923937
756.437638	11446.874942
756.765100	11433.543610
757.092515	11425.747466
757.419882	11444.475352
757.747203	11447.580703
758.074477	11518.781960
758.401703	11469.514764
758.728882	11629.541151
759.056014	11672.877430
759.383099	11788.886983
759.710138	11884.923485
760.037129	11961.085237
760.364073	11983.737662
760.690970	11967.968932
761.017820	11964.666977
761.344623	12163.147286
761.671379	12496.912000
761.998088	13156.599913
762.324751	14752.694755
762.651366	17620.082898
762.977935	21183.951816
763.304456	23306.693480
763.630931	23705.592422
763.957359	22538.872817
764.283740	20675.027170
764.610074	18835.903342
764.936362	16738.327117
765.262602	15240.638118
765.588796	13778.819450
765.914943	12778.200823
766.241044	11928.779002
766.567097	11296.358691
766.893104	10751.230999
767.219064	10395.222194
767.544978	10019.943578
767.870845	9709.300116
768.196665	9516.596969
768.522438	9318.764448
768.848165	9155.960385
769.173846	8993.849480
769.499479	8869.262404
769.825066	8708.666366
770.150607	8526.910085
770.476101	8468.324315
770.801548	8358.616205
771.126949	8219.863486
771.452303	8128.555587
771.777611	7965.391081
772.102872	7945.602032
772.428087	7828.901841
772.753256	7704.486164
773.078378	7618.345448
773.403453	7473.306410
773.728482	7362.640480
774.053465	7300.556150
774.378401	7213.107254
774.703291	7119.500589
775.028135	7022.297061
775.352932	6980.135371
775.677683	6903.446818
776.002388	6811.665050
776.327046	6813.255534
776.651658	6733.779223
776.976224	6652.510782
777.300743	6632.905735
777.625216	6571.023051
777.949643	6523.295927
778.274024	6535.316558
778.598359	6461.730835
778.922647	6469.559747
779.246889	6424.786739
779.571086	6434.682524
779.895236	6434.518687
780.219339	6428.670948
780.543397	6426.485608
780.867409	6484.597509
781.191374	6476.395552
781.515294	6446.234328
781.839167	6490.611606
782.162995	6464.395085
782.486776	6415.790800
782.810511	6378.975254
783.134201	6301.500281
783.457844	6290.480319
783.781441	6245.185551
784.104993	6201.355239
784.428498	6172.129150
784.751958	6155.649618
785.075372	6128.989476
785.398739	6094.036636
785.722061	6114.793587
786.045337	6115.784173
786.368568	6225.061265
786.691752	6251.779381
787.014891	6496.938254
787.337983	6775.091479
787.661030	7205.941254
787.984031	7622.895089
788.306987	7868.389199
788.629897	7949.246786
788.952760	7862.380143
789.275579	7692.934360
789.598351	7392.690798
789.921078	7137.729402
790.243759	6862.668924
790.566395	6659.018912
790.888984	6475.838504
791.211529	6332.856258
791.534027	6177.016548
791.856480	6039.861876
792.178888	5983.088401
792.501249	5914.155663
792.823566	5809.957534
793.145836	5805.859076
793.468062	5789.049348
793.790241	5742.269961
794.112375	5782.730262
794.434464	5878.630652
794.756507	5910.881434
795.078505	6027.596748
795.400457	6240.749336
795.722364	6474.043854
796.044226	6662.570405
796.366042	6816.378529
796.687812	6763.199397
797.009538	6788.674868
797.331218	6704.374173
797.652852	6641.052239
797.974442	6515.305698
798.295986	6451.066274
798.617484	6324.644218
798.938938	6221.048507
799.260346	6152.488814
799.581709	6014.393967
799.903026	5960.935051
800.224299	5887.732456
800.545526	5771.622080
800.866708	5708.547163
801.187845	5663.091078
801.508936	5582.120065
801.829983	5559.127363
802.150984	5453.613492
802.471940	5426.643319
802.792851	5405.911574
803.113717	5384.703440
803.434538	5357.773596
803.755314	5326.770500
804.076045	5316.884797
804.396731	5280.225526
804.717372	5294.532321
805.037967	5291.953771
805.358518	5313.204755
805.679024	5370.603332
805.999485	5379.158170
806.319901	5400.436881
806.640272	5412.220578
806.960598	5457.835458
807.280879	5450.606444
807.601115	5485.445858
807.921306	5447.730466
808.241453	5442.205361
808.561554	5456.605417
808.881611	5422.668369
809.201623	5431.175316
809.521590	5377.245052
809.841513	5361.735943
810.161390	5384.035487
810.481223	5294.549965
810.801011	5285.629643
811.120755	5261.018730
811.440453	5210.340010
811.760107	5181.706257
812.079716	5152.298686
812.399281	5101.017548
812.718801	5095.699131
813.038276	5066.578906
813.357707	5028.404768
813.677093	5054.964087
813.996434	4993.872864
814.315731	5016.300958
814.634983	5009.800390
814.954191	5016.832799
815.273354	5076.686419
815.592473	5114.663952
815.911547	5191.730591
816.230577	5243.717490
816.549562	5328.804605
816.868502	5382.545826
817.187399	5437.640596
817.506250	5518.641856
817.825058	5545.778387
818.143821	5703.679929
818.462539	5873.687801
818.781213	6103.037616
819.099843	6468.412885
819.418429	7098.917558
819.736970	7705.363325
820.055466	8408.362311
820.373919	9333.913116
820.692327	10827.796044
821.010691	13641.959684
821.329011	19988.255658
821.647286	29438.730333
821.965517	39394.805013
822.283704	44364.117376
822.601847	45576.943374
822.919945	41053.780688
823.237999	36125.193287
823.556010	31118.611674
823.873976	26563.727528
824.191897	22483.662100
824.509775	19482.564913
824.827609	16771.510513
825.145398	15277.345280
825.463144	14563.906064
825.780845	14903.485749
826.098502	16183.636357
826.416116	18570.287466
826.733685	20666.926036
827.051210	21017.939058
827.368692	19530.276914
827.686129	17046.024025
828.003522	14673.929247
828.320872	12536.462372
828.638177	10950.417070
828.955439	9728.484227
829.272656	8700.308133
829.589830	7880.470324
829.906960	7160.028946
830.224046	6636.447145
830.541088	6236.315641
830.858086	5983.171580
831.175041	5783.733452
831.491952	5729.720009
831.808819	5766.336430
832.125642	6021.988465
832.442421	6588.435196
832.759157	7716.322793
833.075849	9457.605387
833.392497	11233.177910
833.709101	12247.528640
834.025662	11941.155035
834.342179	10888.466330
834.658653	9633.249269
834.975083	8572.396416
835.291469	7700.382665
835.607811	6984.463201
835.924110	6472.874306
836.240366	5991.625595
836.556578	5545.521288
836.872746	5204.590574
837.188871	4934.727527
837.504952	4716.763158
837.820990	4550.553795
838.136984	4435.219757
838.452935	4396.622162
838.768842	4436.810241
839.084706	4737.247887
839.400526	5487.356455
839.716303	6352.894844
840.032037	6876.975719
840.347727	6695.746238
840.663373	6106.929387
840.978977	5547.063882
841.294537	5124.295076
841.610054	4802.941683
841.925527	4566.380497
842.240957	4363.408520
842.556344	4182.945295
842.871687	4026.704814
843.186987	3875.187894
843.502244	3758.427209
843.817458	3668.578724
844.132629	3601.052468
844.447756	3557.297773
844.762840	3510.112573
845.077881	3464.104483
845.392879	3435.049793
845.707833	3410.113725
846.022745	3381.689179
846.337613	3372.980586
846.652438	3344.450176
846.967221	3338.478929
847.281960	3318.193326
847.596656	3307.034732
847.911309	3298.976447
848.225919	3281.884415
848.540485	3274.363014
848.855009	3266.796242
849.169490	3253.127153
849.483928	3247.566760
849.798323	3242.449989
850.112675	3230.472208
850.426984	3232.450861
850.741251	3223.054150
851.055474	3223.482648
851.369654	3225.393245
851.683792	3220.755384
851.997887	3222.739078
852.311938	3222.728995
852.625947	3223.764952
852.939914	3215.789847
853.253837	3223.820405
853.567718	3218.501988
853.881555	3214.721122
854.195350	3218.675908
854.509103	3215.172306
854.822812	3211.381358
855.136479	3208.878425
855.450103	3215.595763
855.763685	3207.240050
856.077224	3208.853219
856.390720	3215.648695
856.704173	3226.164542
857.017584	3232.720562
857.330953	3234.653845
857.644278	3246.122470
857.957561	3248.411154
858.270802	3243.927047
858.584000	3240.352869
858.897155	3237.290368
859.210268	3230.832650
859.523339	3216.009137
859.836367	3214.534600
860.149352	3212.261039
860.462295	3205.765513
860.775195	3193.883513
861.088054	3193.775128
861.400869	3191.919984
861.713642	3188.854962
862.026373	3197.787887
862.339062	3200.079091
862.651708	3209.049824
862.964312	3227.291240
863.276873	3232.496231
863.589392	3264.827671
863.901869	3287.374232
864.214303	3312.653098
864.526696	3328.946107
864.839045	3345.574353
865.151353	3356.589274
865.463619	3356.342258
865.775842	3358.693956
866.088023	3368.249463
866.400162	3360.438195
866.712258	3363.825850
867.024313	3361.451467
867.336325	3359.596322
867.648296	3361.327959
867.960224	3354.721527
868.272110	3361.060778
868.583954	3362.225284
868.895755	3370.253322
869.207515	3364.670244
869.519233	3382.659601
869.830909	3389.669326
870.142542	3399.549987
870.454134	3407.832603
870.765684	3422.250303
871.077191	3440.191769
871.388657	3451.783903
871.700081	3470.557160
872.011463	3490.270592
872.322803	3506.987058
872.634101	3523.280067
872.945357	3549.027760
873.256571	3573.686564
873.567744	3586.544027
873.878874	3592.041406
874.189963	3603.300823
874.501010	3607.578242
874.812015	3605.604630
875.122979	3622.454687
875.433900	3622.522742
875.744780	3623.777990
876.055618	3635.201244
876.366415	3629.471973
876.677169	3636.554794
876.987882	3653.672032
877.298554	3680.160775
877.609183	3717.064542
877.919771	3765.121861
878.230317	3832.872448
878.540822	3932.505813
878.851285	4093.608487
879.161707	4317.065193
879.472087	4704.397207
879.782425	5342.839178
880.092722	6554.029321
880.402977	8477.332857
880.713191	10794.418564
881.023363	13054.135940
881.333494	14270.026960
881.643583	14670.733156
881.953631	14247.205656
882.263637	13449.710241
882.573602	12463.274901
882.883526	11547.738348
883.193408	10633.288164
883.503248	9746.665149
883.813048	8943.032129
884.122806	8194.556894
884.432522	7440.332223
884.742197	6790.882893
885.051831	6241.593729
885.361424	5759.687148
885.670975	5369.942941
885.980485	5045.847160
886.289954	4785.975680
886.599382	4569.253955
886.908768	4393.297521
887.218113	4231.700814
887.527417	4101.911267
887.836680	3977.120024
888.145901	3879.530848
888.455082	3804.488232
888.764221	3736.699836
889.073319	3674.996113
889.382376	3642.135351
889.691392	3616.377576
890.000366	3612.243830
890.309300	3608.571349
890.618193	3609.463633
890.927044	3603.757047
891.235855	3609.244343
891.544625	3630.013897
891.853353	3657.941889
892.162041	3719.927917
892.470687	3814.787309
892.779293	3932.347017
893.087858	4110.876959
893.396381	4392.430443
893.704864	4810.382426
894.013306	5368.622159
894.321707	5907.271968
894.630068	6228.940433
894.938387	6243.837043
895.246665	6063.600669
895.554903	5754.756899
895.863100	5437.338127
896.171256	5175.916491
896.479371	4949.425011
896.787446	4733.366198
897.095480	4540.859656
897.403473	4392.042274
897.711425	4248.026591
898.019336	4134.499806
898.327207	4011.616640
898.635038	3912.653749
898.942827	3806.136689
899.250576	3725.694997
899.558284	3640.413797
899.865952	3585.281218
900.173579	3525.609080
900.481165	3480.999910
900.788711	3437.837551
901.096216	3411.681524
901.403681	3379.219014
901.711105	3370.631408
902.018489	3364.997919
902.325832	3402.367992
902.633135	3466.272179
902.940397	3641.137203
903.247619	4059.820153
903.554800	4814.911903
903.861941	5745.652576
904.169041	6407.258647
904.476101	6575.451704
904.783121	6301.091947
905.090100	5916.509882
905.397039	5518.793091
905.703938	5169.352909
906.010796	4863.944686
906.317614	4614.160554
906.624391	4379.217579
906.931129	4185.430584
907.237826	4010.991537
907.544483	3841.893593
907.851099	3671.772295
908.157675	3513.785054
908.464211	3375.186091
908.770707	3275.648508
909.077163	3200.527754
909.383578	3137.825882
909.689954	3095.288626
909.996289	3068.731828
910.302584	3045.124104
910.608839	3032.556508
910.915054	3020.361957
911.221229	3015.524969
911.527363	3022.207019
911.833458	3026.353368
912.139513	3041.335677
912.445527	3054.051988
912.751502	3088.198243
913.057436	3130.982516
913.363331	3190.304294
913.669186	3280.666977
913.975000	3402.168867
914.280775	3592.953854
914.586510	3867.190103
914.892205	4239.975868
915.197859	4726.921083
915.503475	5290.932937
915.809050	5754.850161
916.114585	6016.468401
916.420081	6062.095885
916.725536	5996.870916
917.030952	5767.291728
917.336328	5575.127985
917.641665	5372.347572
917.946961	5151.865146
918.252218	4953.946926
918.557435	4743.077981
918.862612	4548.048342
919.167750	4378.942836
919.472848	4193.377963
919.777906	4029.691697
920.082925	3876.022205
920.387904	3724.795151
920.692843	3616.793471
920.997743	3518.899304
921.302603	3426.084100
921.607423	3362.946169
921.912204	3300.503917
922.216946	3250.288983
922.521647	3202.960111
922.826310	3163.823113
923.130932	3124.524798
923.435516	3085.649940
923.740059	3056.554921
924.044564	3025.042668
924.349028	3002.475943
924.653454	2974.343784
924.957840	2945.006789
925.262186	2927.466094
925.566493	2907.729977
925.870761	2882.289794
926.174989	2871.045500
926.479178	2855.758201
926.783328	2838.593072
927.087438	2827.928511
927.391509	2815.335709
927.695541	2804.129224
927.999533	2792.988274
928.303486	2784.824125
928.607400	2778.116870
928.911275	2771.308792
929.215110	2767.462392
929.518906	2763.081629
929.822663	2763.991557
930.126381	2760.951741
930.430060	2764.626742
930.733699	2767.371651
931.037299	2768.006836
931.340861	2770.184615
931.644383	2773.257198
931.947866	2771.618823
932.251309	2769.932557
932.554714	2768.500869
932.858080	2765.758482
933.161407	2762.580034
933.464694	2760.455188
933.767943	2755.338417
934.071153	2751.681059
934.374323	2748.021182
934.677455	2748.114443
934.980548	2742.798546
935.283602	2739.418453
935.586617	2740.061200
935.889593	2743.799215
936.192530	2743.423649
936.495428	2746.987745
936.798287	2756.742378
937.101108	2768.634460
937.403890	2788.778911
937.706632	2819.146821
938.009336	2849.968436
938.312002	2878.496326
938.614628	2900.848802
938.917216	2916.509146
939.219765	2926.931732
939.522275	2938.980089
939.824747	2936.893052
940.127179	2930.599171
940.429573	2922.503078
940.731929	2926.707400
941.034246	2918.528128
941.336524	2913.963363
941.638763	2910.187539
941.940964	2903.777712
942.243126	2886.617624
942.545250	2877.921634
942.847335	2862.278934
943.149381	2849.809640
943.451389	2836.649707
943.753359	2826.272492
944.055290	2816.306131
944.357182	2809.656849
944.659036	2803.612506
944.960851	2801.843061
945.262628	2793.384005
945.564367	2795.433234
945.866067	2794.447688
946.167729	2790.560958
946.469352	2789.005762
946.770937	2790.336627
947.072484	2781.444032
947.373992	2782.018723
947.675462	2779.387241
947.976893	2774.409102
948.278286	2769.115890
948.579641	2765.289654
948.880958	2764.551125
949.182236	2765.781167
949.483476	2759.986360
949.784678	2760.039292
950.085841	2759.502410
950.386967	2764.611619
950.688054	2767.588420
950.989103	2775.747528
951.290114	2784.471245
951.591087	2795.919705
951.892021	2807.267342
952.192917	2821.455670
952.493776	2830.023111
952.794596	2831.737103
953.095378	2835.679285
953.396122	2833.408246
953.696828	2827.525219
953.997496	2827.532781
954.298126	2818.468786
954.598718	2809.861016
954.899272	2799.461116
955.199788	2788.536935
955.500266	2776.377672
955.800706	2759.585589
956.101108	2745.351891
956.401472	2734.599110
956.701798	2723.853890
957.002087	2708.216231
957.302337	2701.022504
957.602550	2690.360464
957.902724	2680.515091
958.202861	2671.020077
958.502960	2663.596978
958.803022	2654.739671
959.103045	2650.588281
959.403031	2644.407826
959.702979	2635.991620
960.002889	2633.395426
960.302762	2629.725466
960.602596	2624.278499
960.902393	2624.901081
961.202153	2617.714917
961.501875	2615.363218
961.801559	2612.620831
962.101205	2609.679317
962.400814	2608.348453
962.700385	2606.717639
962.999918	2605.059100
963.299414	2605.081785
963.598873	2604.217227
963.898293	2599.080291
964.197677	2599.173553
964.497022	2596.098449
964.796331	2596.655496
965.095601	2595.357399
965.394835	2597.802359
965.694030	2594.959148
965.993189	2593.111565
966.292309	2594.021493
966.591393	2592.562079
966.890439	2595.062492
967.189447	2593.666092
967.488419	2591.823550
967.787353	2592.738520
968.086249	2592.355392
968.385108	2593.703901
968.683930	2594.066864
968.982714	2595.964858
969.281462	2596.461412
969.580172	2599.775971
969.878844	2599.254211
970.177480	2604.239912
970.476078	2608.413988
970.774639	2608.545058
971.073162	2611.007661
971.371649	2610.057404
971.670098	2613.828187
971.968510	2614.039915
972.266885	2614.294494
972.565223	2619.759104
972.863524	2621.263889
973.161788	2621.014352
973.460014	2622.362860
973.758204	2622.672891
974.056356	2623.207254
974.354471	2624.218005
974.652550	2625.039713
974.950591	2624.071812
975.248595	2626.453757
975.546563	2623.713890
975.844493	2622.937552
976.142386	2617.949330
976.440243	2616.593260
976.738062	2616.222735
977.035845	2612.918259
977.333590	2609.129832
977.631299	2608.910541
977.928971	2607.577156
978.226606	2603.609768
978.524204	2601.510127
978.821765	2603.879470
979.119290	2602.160436
979.416777	2601.426948
979.714228	2603.508945
980.011642	2605.114552
980.309020	2607.161261
980.606360	2612.789709
980.903664	2618.975205
981.200931	2635.210241
981.498162	2649.678352
981.795356	2679.012827
982.092513	2716.758466
982.389633	2756.956627
982.686717	2799.211578
982.983764	2828.624191
983.280775	2844.133300
983.577749	2845.267560
983.874686	2834.870180
984.171587	2820.054229
984.468451	2806.669966
984.765279	2789.487193
985.062070	2770.875253
985.358824	2751.434043
985.655543	2730.099880
985.952224	2709.839482
986.248869	2685.218487
986.545478	2657.318221
986.842050	2641.864564
987.138586	2621.062243
987.435086	2608.789554
987.731549	2596.032914
988.027975	2591.180803
988.324366	2590.354054
988.620719	2584.672674
988.917037	2582.121850
989.213318	2578.799729
989.509563	2574.751683
989.805772	2573.851837
990.101944	2572.495767
990.398080	2569.667679
990.694180	2571.389233
990.990244	2571.202711
991.286271	2572.488205
991.582262	2573.783781
991.878217	2570.328070
992.174136	2570.451579
992.470019	2574.010633
992.765865	2575.989286
993.061676	2578.905594
993.357450	2580.158320
993.653188	2581.859710
993.948890	2588.932449
994.244556	2594.069384
994.540186	2601.807556
994.835780	2611.393310
995.131337	2633.012298
995.426859	2644.831283
995.722345	2660.907523
996.017795	2679.484175
996.313208	2693.380115
996.608586	2701.914789
996.903928	2702.570139
997.199234	2702.484439
997.494504	2698.950590
997.789738	2695.028572
998.084936	2683.930472
998.380099	2675.363031
998.675225	2662.208140
998.970316	2652.640030
999.265371	2639.114615
999.560390	2623.970988
999.855373	2613.815584
1000.150320	2603.672783
1000.445232	2597.847729
1000.740108	2588.458580
1001.034948	2585.068404
1001.329752	2579.248392
1001.624521	2571.507700
1001.919254	2567.845302
1002.213951	2567.071485
1002.508613	2559.895402
1002.803239	2563.146947
1003.097829	2559.396328
1003.392384	2560.041596
1003.686903	2558.173848
1003.981386	2557.180741
1004.275834	2557.614280
1004.570246	2556.805175
1004.864623	2558.496482
1005.158964	2555.751574
1005.453270	2553.394835
1005.747540	2553.044474
1006.041775	2551.907694
1006.335974	2550.649926
1006.630138	2554.027499
1006.924266	2551.327962
1007.218359	2551.282591
1007.512416	2551.033054
1007.806438	2548.930893
1008.100425	2549.878630
1008.394376	2549.626572
1008.688292	2549.671942
1008.982172	2550.261758
1009.276017	2547.975594
1009.569827	2546.632127
1009.863602	2549.881150
1010.157341	2548.270502
1010.451045	2547.690769
1010.744714	2548.472148
1011.038347	2544.464431
1011.331945	2547.426108
1011.625508	2548.567930
1011.919036	2545.366797
1012.212528	2547.468958
1012.505986	2543.567105
1012.799408	2547.363094
1013.092795	2541.694317
1013.386147	2545.676828
1013.679464	2545.986859
1013.972745	2543.257074
1014.265992	2545.991900
1014.559204	2546.153217
1014.852380	2545.087013
1015.145521	2544.371169
1015.438628	2544.673638
1015.731699	2545.134904
1016.024736	2544.144317
1016.317737	2545.891077
1016.610703	2543.970398
1016.903635	2544.905532
1017.196531	2541.676672
1017.489393	2542.505942
1017.782219	2540.950746
1018.075011	2545.611293
1018.367768	2547.284956
1018.660490	2547.897456
1018.953177	2547.897456
1019.245829	2547.897456
