Dividing Wavelength (nm)	Counts (n)	Blue Motor Position (mm): 2.700000	Red Motor Position (mm): 0.000000	
326.493990	2049.229038
326.888308	2049.229038
327.282561	2049.229038
327.676750	2094.599423
328.070874	2142.490385
328.464933	2071.914231
328.858929	2059.311346
329.252859	2069.393654
329.646726	2064.352500
330.040528	2119.805192
330.434265	2155.093269
330.827938	2192.901923
331.221547	2223.148846
331.615091	2124.846346
332.008571	2177.778462
332.401986	2245.834038
332.795338	2265.998654
333.188625	2185.340192
333.581847	2200.463654
333.975006	2323.971923
334.368100	2376.904038
334.761129	2381.945192
335.154095	2301.286731
335.546996	2334.054231
335.939833	2301.286731
336.332606	2291.204423
336.725315	2374.383462
337.117960	2444.959615
337.510540	2462.603654
337.903056	2429.836154
338.295508	2323.971923
338.687896	2407.150962
339.080220	2472.685962
339.472480	2414.712692
339.864676	2470.165385
340.256807	2447.480192
340.648875	2412.192115
341.040879	2565.947308
341.432818	2447.480192
341.824694	2480.247692
342.216506	2482.768269
342.608253	2545.782692
342.999937	2437.397885
343.391557	2507.974038
343.783113	2530.659231
344.174605	2495.371154
344.566033	2437.397885
344.957397	2417.233269
345.348697	2447.480192
345.739934	2510.494615
346.131106	2366.821731
346.522215	2472.685962
346.913260	2417.233269
347.304241	2442.439038
347.695159	2434.877308
348.086012	2397.068654
348.476802	2470.165385
348.867528	2492.850577
349.258191	2450.000769
349.648789	2442.439038
350.039324	2477.727115
350.429796	2414.712692
350.820203	2419.753846
351.210548	2455.041923
351.600828	2369.342308
351.991045	2482.768269
352.381198	2502.932885
352.771288	2505.453462
353.161314	2518.056346
353.551276	2480.247692
353.941175	2424.795000
354.331010	2490.330000
354.720782	2497.891731
355.110490	2513.015192
355.500135	2419.753846
355.889717	2442.439038
356.279235	2389.506923
356.668689	2407.150962
357.058080	2384.465769
357.447408	2450.000769
357.836672	2460.083077
358.225873	2465.124231
358.615010	2371.862885
359.004084	2492.850577
359.393095	2404.630385
359.782043	2525.618077
360.170927	2553.344423
360.559748	2455.041923
360.948505	2409.671538
361.337199	2392.027500
361.725830	2402.109808
362.114398	2485.288846
362.502903	2397.068654
362.891344	2490.330000
363.279722	2470.165385
363.668037	2419.753846
364.056289	2467.644808
364.444478	2462.603654
364.832603	2455.041923
365.220665	2399.589231
365.608665	2470.165385
365.996601	2346.657115
366.384474	2460.083077
366.772284	2467.644808
367.160031	2444.959615
367.547715	2465.124231
367.935336	2457.562500
368.322893	2429.836154
368.710388	2467.644808
369.097820	2477.727115
369.485189	2442.439038
369.872495	2497.891731
370.259738	2450.000769
370.646918	2452.521346
371.034035	2462.603654
371.421090	2354.218846
371.808081	2412.192115
372.195010	2480.247692
372.581875	2450.000769
372.968678	2465.124231
373.355418	2412.192115
373.742096	2429.836154
374.128710	2475.206538
374.515262	2394.548077
374.901751	2507.974038
375.288177	2379.424615
375.674540	2394.548077
376.060841	2472.685962
376.447079	2467.644808
376.833254	2523.097500
377.219367	2444.959615
377.605417	2447.480192
377.991404	2555.865000
378.377329	2457.562500
378.763191	2419.753846
379.148991	2457.562500
379.534727	2442.439038
379.920402	2452.521346
380.306013	2598.714808
380.691563	2434.877308
381.077049	2533.179808
381.462474	2439.918462
381.847835	2404.630385
382.233134	2467.644808
382.618371	2477.727115
383.003545	2520.576923
383.388657	2369.342308
383.773706	2452.521346
384.158693	2427.315577
384.543618	2533.179808
384.928480	2399.589231
385.313280	2470.165385
385.698017	2510.494615
386.082692	2487.809423
386.467305	2490.330000
386.851856	2525.618077
387.236344	2500.412308
387.620770	2515.535769
388.005133	2392.027500
388.389435	2505.453462
388.773674	2457.562500
389.157851	2500.412308
389.541965	2548.303269
389.926018	2480.247692
390.310008	2497.891731
390.693936	2432.356731
391.077802	2429.836154
391.461606	2472.685962
391.845348	2510.494615
392.229027	2563.426731
392.612645	2409.671538
392.996200	2475.206538
393.379694	2424.795000
393.763125	2460.083077
394.146494	2394.548077
394.529801	2550.823846
394.913047	2588.632500
395.296230	2593.673654
395.679351	2490.330000
396.062410	2452.521346
396.445408	2409.671538
396.828343	2563.426731
397.211217	2455.041923
397.594028	2455.041923
397.976778	2424.795000
398.359466	2409.671538
398.742092	2550.823846
399.124656	2452.521346
399.507158	2507.974038
399.889598	2442.439038
400.271977	2515.535769
400.654294	2475.206538
401.036549	2485.288846
401.418742	2422.274423
401.800874	2490.330000
402.182944	2497.891731
402.564952	2548.303269
402.946898	2492.850577
403.328783	2429.836154
403.710606	2480.247692
404.092367	2497.891731
404.474067	2482.768269
404.855705	2475.206538
405.237282	2545.782692
405.618797	2490.330000
406.000250	2482.768269
406.381642	2500.412308
406.762972	2623.920577
407.144240	2442.439038
407.525447	2490.330000
407.906593	2470.165385
408.287677	2495.371154
408.668700	2439.918462
409.049661	2525.618077
409.430560	2500.412308
409.811399	2520.576923
410.192176	2523.097500
410.572891	2515.535769
410.953545	2361.780577
411.334138	2414.712692
411.714669	2470.165385
412.095139	2540.741538
412.475547	2472.685962
412.855894	2414.712692
413.236180	2573.509038
413.616405	2455.041923
413.996568	2505.453462
414.376670	2470.165385
414.756711	2462.603654
415.136691	2455.041923
415.516609	2518.056346
415.896466	2467.644808
416.276262	2434.877308
416.655997	2439.918462
417.035670	2457.562500
417.415283	2613.838269
417.794834	2492.850577
418.174324	2487.809423
418.553753	2480.247692
418.933121	2412.192115
419.312428	2424.795000
419.691674	2308.848462
420.070859	2502.932885
420.449983	2414.712692
420.829045	2480.247692
421.208047	2402.109808
421.586988	2505.453462
421.965867	2520.576923
422.344686	2407.150962
422.723444	2465.124231
423.102141	2389.506923
423.480777	2467.644808
423.859352	2500.412308
424.237866	2482.768269
424.616319	2548.303269
424.994712	2480.247692
425.373044	2417.233269
425.751314	2500.412308
426.129524	2505.453462
426.507673	2407.150962
426.885762	2485.288846
427.263789	2558.385577
427.641756	2424.795000
428.019662	2427.315577
428.397508	2507.974038
428.775292	2447.480192
429.153016	2467.644808
429.530679	2457.562500
429.908282	2427.315577
430.285824	2487.809423
430.663305	2472.685962
431.040726	2386.986346
431.418086	2497.891731
431.795385	2467.644808
432.172624	2482.768269
432.549802	2485.288846
432.926920	2417.233269
433.303977	2487.809423
433.680974	2533.179808
434.057910	2510.494615
434.434786	2462.603654
434.811601	2427.315577
435.188355	2381.945192
435.565050	2576.029615
435.941683	2545.782692
436.318257	2475.206538
436.694770	2548.303269
437.071222	2444.959615
437.447614	2518.056346
437.823946	2497.891731
438.200218	2507.974038
438.576429	2397.068654
438.952580	2502.932885
439.328670	2467.644808
439.704700	2457.562500
440.080670	2452.521346
440.456580	2513.015192
440.832429	2555.865000
441.208218	2376.904038
441.583947	2543.262115
441.959616	2439.918462
442.335224	2500.412308
442.710773	2502.932885
443.086261	2513.015192
443.461689	2455.041923
443.837057	2450.000769
444.212365	2465.124231
444.587612	2480.247692
444.962800	2475.206538
445.337927	2477.727115
445.712995	2455.041923
446.088002	2558.385577
446.462949	2444.959615
446.837837	2487.809423
447.212664	2432.356731
447.587431	2518.056346
447.962139	2518.056346
448.336786	2497.891731
448.711374	2482.768269
449.085901	2455.041923
449.460369	2452.521346
449.834776	2467.644808
450.209124	2452.521346
450.583412	2560.906154
450.957640	2487.809423
451.331808	2485.288846
451.705917	2513.015192
452.079965	2495.371154
452.453954	2470.165385
452.827883	2513.015192
453.201752	2452.521346
453.575562	2525.618077
453.949311	2432.356731
454.323001	2555.865000
454.696632	2545.782692
455.070202	2525.618077
455.443713	2513.015192
455.817164	2505.453462
456.190556	2507.974038
456.563888	2472.685962
456.937160	2523.097500
457.310373	2424.795000
457.683526	2422.274423
458.056619	2543.262115
458.429653	2611.317692
458.802628	2485.288846
459.175542	2518.056346
459.548398	2520.576923
459.921194	2515.535769
460.293930	2485.288846
460.666607	2482.768269
461.039224	2497.891731
461.411782	2480.247692
461.784280	2513.015192
462.156719	2497.891731
462.529099	2520.576923
462.901419	2548.303269
463.273680	2520.576923
463.645882	2560.906154
464.018024	2538.220962
464.390106	2394.548077
464.762130	2487.809423
465.134094	2419.753846
465.505999	2525.618077
465.877845	2548.303269
466.249631	2447.480192
466.621358	2452.521346
466.993026	2460.083077
467.364634	2583.591346
467.736184	2457.562500
468.107674	2447.480192
468.479105	2495.371154
468.850477	2485.288846
469.221790	2465.124231
469.593043	2513.015192
469.964238	2507.974038
470.335373	2477.727115
470.706449	2467.644808
471.077467	2432.356731
471.448425	2429.836154
471.819324	2457.562500
472.190164	2457.562500
472.560945	2482.768269
472.931667	2581.070769
473.302330	2510.494615
473.672934	2518.056346
474.043479	2507.974038
474.413965	2591.153077
474.784393	2520.576923
475.154761	2480.247692
475.525070	2452.521346
475.895321	2492.850577
476.265513	2389.506923
476.635645	2520.576923
477.005719	2515.535769
477.375734	2495.371154
477.745691	2429.836154
478.115588	2515.535769
478.485427	2535.700385
478.855207	2573.509038
479.224928	2462.603654
479.594591	2470.165385
479.964194	2507.974038
480.333739	2543.262115
480.703226	2485.288846
481.072653	2480.247692
481.442022	2490.330000
481.811333	2553.344423
482.180584	2450.000769
482.549777	2467.644808
482.918912	2490.330000
483.287988	2460.083077
483.657005	2424.795000
484.025964	2424.795000
484.394864	2427.315577
484.763706	2485.288846
485.132489	2480.247692
485.501213	2462.603654
485.869879	2447.480192
486.238487	2457.562500
486.607036	2386.986346
486.975527	2475.206538
487.343959	2470.165385
487.712333	2502.932885
488.080648	2553.344423
488.448905	2457.562500
488.817104	2472.685962
489.185244	2429.836154
489.553326	2525.618077
489.921350	2480.247692
490.289315	2558.385577
490.657222	2490.330000
491.025070	2505.453462
491.392861	2487.809423
491.760593	2515.535769
492.128267	2412.192115
492.495883	2439.918462
492.863440	2457.562500
493.230939	2563.426731
493.598380	2462.603654
493.965763	2555.865000
494.333088	2520.576923
494.700354	2593.673654
495.067563	2485.288846
495.434713	2520.576923
495.801805	2492.850577
496.168839	2439.918462
496.535815	2460.083077
496.902733	2548.303269
497.269593	2475.206538
497.636395	2495.371154
498.003139	2616.358846
498.369825	2460.083077
498.736453	2502.932885
499.103023	2492.850577
499.469535	2528.138654
499.835989	2513.015192
500.202385	2591.153077
500.568723	2490.330000
500.935003	2444.959615
501.301226	2467.644808
501.667390	2455.041923
502.033497	2555.865000
502.399546	2576.029615
502.765537	2457.562500
503.131470	2538.220962
503.497345	2457.562500
503.863163	2507.974038
504.228923	2482.768269
504.594625	2507.974038
504.960269	2472.685962
505.325856	2482.768269
505.691385	2513.015192
506.056856	2475.206538
506.422270	2513.015192
506.787625	2510.494615
507.152924	2621.400000
507.518164	2520.576923
507.883347	2598.714808
508.248472	2545.782692
508.613540	2530.659231
508.978550	2510.494615
509.343503	2490.330000
509.708398	2513.015192
510.073236	2538.220962
510.438016	2475.206538
510.802738	2495.371154
511.167403	2475.206538
511.532010	2475.206538
511.896561	2397.068654
512.261053	2462.603654
512.625488	2518.056346
512.989866	2502.932885
513.354186	2487.809423
513.718449	2533.179808
514.082655	2450.000769
514.446803	2467.644808
514.810894	2465.124231
515.174927	2472.685962
515.538904	2444.959615
515.902822	2460.083077
516.266684	2452.521346
516.630488	2558.385577
516.994235	2480.247692
517.357925	2583.591346
517.721558	2495.371154
518.085133	2460.083077
518.448651	2523.097500
518.812112	2520.576923
519.175516	2596.194231
519.538863	2487.809423
519.902152	2535.700385
520.265385	2520.576923
520.628560	2424.795000
520.991678	2502.932885
521.354739	2492.850577
521.717743	2402.109808
522.080690	2505.453462
522.443580	2528.138654
522.806413	2520.576923
523.169189	2505.453462
523.531908	2505.453462
523.894569	2573.509038
524.257174	2568.467885
524.619722	2455.041923
524.982213	2588.632500
525.344647	2457.562500
525.707025	2515.535769
526.069345	2487.809423
526.431608	2407.150962
526.793815	2502.932885
527.155964	2472.685962
527.518057	2563.426731
527.880093	2492.850577
528.242072	2472.685962
528.603995	2465.124231
528.965860	2520.576923
529.327669	2455.041923
529.689421	2540.741538
530.051117	2490.330000
530.412755	2543.262115
530.774337	2565.947308
531.135862	2578.550192
531.497331	2525.618077
531.858743	2475.206538
532.220098	2475.206538
532.581396	2558.385577
532.942638	2492.850577
533.303824	2487.809423
533.664953	2457.562500
534.026025	2598.714808
534.387040	2528.138654
534.747999	2540.741538
535.108902	2573.509038
535.469748	2513.015192
535.830537	2558.385577
536.191270	2487.809423
536.551947	2530.659231
536.912567	2444.959615
537.273131	2520.576923
537.633638	2492.850577
537.994089	2427.315577
538.354483	2510.494615
538.714821	2472.685962
539.075103	2450.000769
539.435328	2470.165385
539.795497	2518.056346
540.155609	2465.124231
540.515665	2495.371154
540.875665	2540.741538
541.235609	2545.782692
541.595496	2417.233269
541.955328	2553.344423
542.315102	2518.056346
542.674821	2510.494615
543.034483	2523.097500
543.394090	2472.685962
543.753640	2540.741538
544.113134	2482.768269
544.472571	2555.865000
544.831953	2505.453462
545.191278	2540.741538
545.550548	2475.206538
545.909761	2525.618077
546.268918	2477.727115
546.628019	2376.904038
546.987064	2540.741538
547.346053	2507.974038
547.704986	2563.426731
548.063863	2563.426731
548.422684	2492.850577
548.781449	2490.330000
549.140158	2528.138654
549.498811	2505.453462
549.857408	2525.618077
550.215949	2434.877308
550.574434	2470.165385
550.932864	2497.891731
551.291237	2482.768269
551.649555	2518.056346
552.007817	2417.233269
552.366022	2520.576923
552.724173	2442.439038
553.082267	2545.782692
553.440305	2528.138654
553.798288	2528.138654
554.156215	2510.494615
554.514086	2545.782692
554.871902	2492.850577
555.229661	2427.315577
555.587365	2664.249808
555.945014	2485.288846
556.302606	2563.426731
556.660143	2465.124231
557.017625	2381.945192
557.375050	2460.083077
557.732421	2422.274423
558.089735	2495.371154
558.446994	2553.344423
558.804197	2535.700385
559.161345	2520.576923
559.518437	2480.247692
559.875474	2447.480192
560.232455	2455.041923
560.589381	2502.932885
560.946251	2525.618077
561.303065	2439.918462
561.659825	2442.439038
562.016528	2482.768269
562.373177	2434.877308
562.729770	2502.932885
563.086307	2490.330000
563.442789	2540.741538
563.799216	2460.083077
564.155587	2492.850577
564.511904	2480.247692
564.868164	2439.918462
565.224370	2545.782692
565.580520	2510.494615
565.936615	2480.247692
566.292654	2505.453462
566.648638	2550.823846
567.004567	2452.521346
567.360441	2475.206538
567.716260	2455.041923
568.072023	2573.509038
568.427732	2515.535769
568.783385	2404.630385
569.138982	2513.015192
569.494525	2467.644808
569.850013	2490.330000
570.205445	2513.015192
570.560823	2538.220962
570.916145	2515.535769
571.271412	2492.850577
571.626625	2485.288846
571.981782	2535.700385
572.336884	2457.562500
572.691931	2467.644808
573.046923	2490.330000
573.401860	2497.891731
573.756743	2467.644808
574.111570	2487.809423
574.466342	2417.233269
574.821059	2475.206538
575.175722	2528.138654
575.530330	2513.015192
575.884882	2477.727115
576.239380	2588.632500
576.593823	2568.467885
576.948211	2568.467885
577.302544	2565.947308
577.656823	2563.426731
578.011047	2477.727115
578.365216	2477.727115
578.719330	2412.192115
579.073389	2477.727115
579.427394	2545.782692
579.781344	2507.974038
580.135239	2412.192115
580.489080	2525.618077
580.842866	2462.603654
581.196597	2507.974038
581.550273	2427.315577
581.903895	2510.494615
582.257463	2558.385577
582.610975	2465.124231
582.964434	2457.562500
583.317837	2523.097500
583.671186	2505.453462
584.024481	2558.385577
584.377721	2452.521346
584.730906	2467.644808
585.084037	2525.618077
585.437113	2513.015192
585.790135	2578.550192
586.143103	2424.795000
586.496016	2346.657115
586.848874	2417.233269
587.201679	2404.630385
587.554428	2492.850577
587.907124	2543.262115
588.259765	2538.220962
588.612352	2543.262115
588.964884	2462.603654
589.317362	2455.041923
589.669786	2485.288846
590.022155	2528.138654
590.374470	2576.029615
590.726731	2540.741538
591.078937	2513.015192
591.431090	2538.220962
591.783188	2507.974038
592.135232	2558.385577
592.487222	2495.371154
592.839157	2535.700385
593.191038	2528.138654
593.542866	2548.303269
593.894639	2457.562500
594.246358	2452.521346
594.598022	2618.879423
594.949633	2447.480192
595.301190	2593.673654
595.652692	2502.932885
596.004141	2515.535769
596.355535	2518.056346
596.706876	2427.315577
597.058162	2596.194231
597.409395	2490.330000
597.760573	2563.426731
598.111698	2447.480192
598.462768	2583.591346
598.813785	2593.673654
599.164748	2505.453462
599.515657	2520.576923
599.866511	2472.685962
600.217312	2525.618077
600.568060	2555.865000
600.918753	2608.797115
601.269392	2565.947308
601.619978	2475.206538
601.970510	2502.932885
602.320988	2467.644808
602.671412	2538.220962
603.021783	2407.150962
603.372100	2523.097500
603.722363	2565.947308
604.072572	2472.685962
604.422728	2482.768269
604.772830	2528.138654
605.122878	2581.070769
605.472872	2472.685962
605.822813	2505.453462
606.172701	2455.041923
606.522534	2487.809423
606.872314	2424.795000
607.222041	2505.453462
607.571714	2487.809423
607.921333	2558.385577
608.270899	2553.344423
608.620411	2502.932885
608.969870	2528.138654
609.319276	2538.220962
609.668627	2513.015192
610.017926	2414.712692
610.367171	2455.041923
610.716362	2452.521346
611.065500	2472.685962
611.414585	2455.041923
611.763616	2492.850577
612.112594	2568.467885
612.461518	2505.453462
612.810389	2455.041923
613.159207	2497.891731
613.507971	2434.877308
613.856682	2523.097500
614.205340	2462.603654
614.553945	2548.303269
614.902496	2477.727115
615.250994	2518.056346
615.599439	2455.041923
615.947830	2500.412308
616.296169	2472.685962
616.644454	2568.467885
616.992686	2523.097500
617.340864	2588.632500
617.688990	2495.371154
618.037063	2444.959615
618.385082	2548.303269
618.733048	2520.576923
619.080961	2518.056346
619.428821	2518.056346
619.776628	2482.768269
620.124382	2487.809423
620.472083	2460.083077
620.819731	2518.056346
621.167326	2528.138654
621.514868	2540.741538
621.862357	2603.755962
622.209793	2424.795000
622.557176	2513.015192
622.904506	2543.262115
623.251783	2465.124231
623.599007	2450.000769
623.946179	2543.262115
624.293297	2495.371154
624.640363	2475.206538
624.987376	2422.274423
625.334336	2455.041923
625.681243	2490.330000
626.028097	2477.727115
626.374899	2563.426731
626.721647	2515.535769
627.068343	2568.467885
627.414987	2495.371154
627.761577	2447.480192
628.108115	2530.659231
628.454600	2523.097500
628.801032	2447.480192
629.147412	2417.233269
629.493739	2502.932885
629.840014	2505.453462
630.186236	2515.535769
630.532405	2467.644808
630.878521	2497.891731
631.224585	2545.782692
631.570597	2518.056346
631.916556	2518.056346
632.262462	2472.685962
632.608316	2578.550192
632.954117	2477.727115
633.299866	2513.015192
633.645562	2513.015192
633.991206	2510.494615
634.336797	2482.768269
634.682336	2518.056346
635.027823	2490.330000
635.373257	2565.947308
635.718639	2540.741538
636.063968	2540.741538
636.409245	2518.056346
636.754470	2470.165385
637.099642	2457.562500
637.444762	2495.371154
637.789829	2545.782692
638.134845	2492.850577
638.479808	2495.371154
638.824719	2467.644808
639.169577	2467.644808
639.514383	2457.562500
639.859137	2490.330000
640.203839	2407.150962
640.548489	2588.632500
640.893086	2457.562500
641.237632	2563.426731
641.582125	2460.083077
641.926566	2467.644808
642.270955	2482.768269
642.615292	2507.974038
642.959576	2470.165385
643.303809	2480.247692
643.647990	2538.220962
643.992118	2485.288846
644.336195	2528.138654
644.680219	2450.000769
645.024192	2465.124231
645.368112	2533.179808
645.711981	2563.426731
646.055797	2376.904038
646.399562	2495.371154
646.743274	2452.521346
647.086935	2525.618077
647.430544	2470.165385
647.774101	2447.480192
648.117606	2457.562500
648.461059	2460.083077
648.804460	2502.932885
649.147810	2570.988462
649.491108	2528.138654
649.834354	2507.974038
650.177548	2490.330000
650.520690	2480.247692
650.863781	2465.124231
651.206820	2487.809423
651.549807	2502.932885
651.892742	2460.083077
652.235626	2490.330000
652.578458	2467.644808
652.921238	2563.426731
653.263967	2565.947308
653.606644	2586.111923
653.949269	2540.741538
654.291843	2457.562500
654.634365	2505.453462
654.976836	2452.521346
655.319255	2533.179808
655.661622	2505.453462
656.003938	2477.727115
656.346203	2523.097500
656.688416	2470.165385
657.030577	2540.741538
657.372687	2472.685962
657.714746	2497.891731
658.056753	2490.330000
658.398708	2535.700385
658.740612	2530.659231
659.082465	2586.111923
659.424266	2452.521346
659.766016	2460.083077
660.107715	2573.509038
660.449362	2444.959615
660.790958	2442.439038
661.132503	2465.124231
661.473996	2485.288846
661.815438	2535.700385
662.156829	2417.233269
662.498168	2535.700385
662.839456	2472.685962
663.180693	2528.138654
663.521879	2603.755962
663.863013	2558.385577
664.204097	2482.768269
664.545129	2550.823846
664.886110	2447.480192
665.227040	2490.330000
665.567918	2558.385577
665.908746	2480.247692
666.249522	2550.823846
666.590248	2573.509038
666.930922	2419.753846
667.271545	2538.220962
667.612118	2490.330000
667.952639	2550.823846
668.293109	2444.959615
668.633528	2560.906154
668.973896	2477.727115
669.314213	2550.823846
669.654480	2515.535769
669.994695	2518.056346
670.334859	2460.083077
670.674973	2487.809423
671.015035	2520.576923
671.355047	2482.768269
671.695008	2462.603654
672.034918	2515.535769
672.374777	2568.467885
672.714585	2444.959615
673.054342	2500.412308
673.394049	2470.165385
673.733705	2477.727115
674.073310	2492.850577
674.412864	2538.220962
674.752368	2389.506923
675.091820	2545.782692
675.431223	2497.891731
675.770574	2535.700385
676.109875	2477.727115
676.449125	2550.823846
676.788324	2462.603654
677.127473	2452.521346
677.466571	2487.809423
677.805619	2507.974038
678.144616	2444.959615
678.483562	2510.494615
678.822458	2444.959615
679.161303	2583.591346
679.500098	2482.768269
679.838842	2492.850577
680.177535	2480.247692
680.516179	2593.673654
680.854771	2450.000769
681.193314	2495.371154
681.531805	2434.877308
681.870247	2450.000769
682.208638	2500.412308
682.546978	2520.576923
682.885268	2437.397885
683.223508	2492.850577
683.561697	2444.959615
683.899836	2480.247692
684.237925	2540.741538
684.575963	2492.850577
684.913951	2540.741538
685.251889	2452.521346
685.589776	2550.823846
685.927614	2500.412308
686.265401	2515.535769
686.603137	2450.000769
686.940824	2414.712692
687.278460	2500.412308
687.616046	2545.782692
687.953582	2447.480192
688.291068	2485.288846
688.628504	2482.768269
688.965889	2560.906154
689.303224	2548.303269
689.640510	2432.356731
689.977745	2573.509038
690.314930	2560.906154
690.652065	2545.782692
690.989150	2513.015192
691.326185	2520.576923
691.663170	2455.041923
692.000105	2550.823846
692.336990	2487.809423
692.673825	2505.453462
693.010610	2525.618077
693.347345	2447.480192
693.684030	2540.741538
694.020665	2477.727115
694.357251	2523.097500
694.693786	2452.521346
695.030272	2523.097500
695.366707	2525.618077
695.703093	2462.603654
696.039429	2520.576923
696.375716	2520.576923
696.711952	2515.535769
697.048139	2507.974038
697.384276	2495.371154
697.720363	2490.330000
698.056400	2439.918462
698.392388	2447.480192
698.728326	2467.644808
699.064214	2518.056346
699.400053	2535.700385
699.735842	2520.576923
700.071581	2538.220962
700.407270	2472.685962
700.742910	2507.974038
701.078501	2442.439038
701.414042	2545.782692
701.749533	2603.755962
702.084974	2586.111923
702.420366	2533.179808
702.755709	2490.330000
703.091002	2497.891731
703.426246	2444.959615
703.761440	2502.932885
704.096584	2439.918462
704.431679	2470.165385
704.766725	2492.850577
705.101721	2563.426731
705.436668	2500.412308
705.771565	2545.782692
706.106413	2490.330000
706.441212	2510.494615
706.775961	2495.371154
707.110661	2520.576923
707.445311	2477.727115
707.779913	2510.494615
708.114465	2530.659231
708.448967	2563.426731
708.783421	2409.671538
709.117825	2422.274423
709.452180	2490.330000
709.786485	2490.330000
710.120742	2414.712692
710.454949	2515.535769
710.789107	2490.330000
711.123216	2505.453462
711.457275	2470.165385
711.791286	2583.591346
712.125247	2598.714808
712.459159	2525.618077
712.793023	2528.138654
713.126837	2530.659231
713.460602	2576.029615
713.794318	2487.809423
714.127985	2528.138654
714.461602	2477.727115
714.795171	2540.741538
715.128691	2513.015192
715.462162	2477.727115
715.795584	2523.097500
716.128957	2507.974038
716.462281	2535.700385
716.795556	2545.782692
717.128782	2477.727115
717.461960	2439.918462
717.795088	2482.768269
718.128167	2588.632500
718.461198	2497.891731
718.794180	2482.768269
719.127113	2475.206538
719.459997	2455.041923
719.792833	2432.356731
720.125619	2502.932885
720.458357	2480.247692
720.791046	2518.056346
721.123686	2437.397885
721.456278	2490.330000
721.788821	2495.371154
722.121315	2480.247692
722.453761	2513.015192
722.786158	2457.562500
723.118506	2505.453462
723.450805	2502.932885
723.783056	2565.947308
724.115259	2450.000769
724.447412	2558.385577
724.779518	2523.097500
725.111574	2510.494615
725.443582	2447.480192
725.775542	2439.918462
726.107453	2467.644808
726.439315	2525.618077
726.771129	2444.959615
727.102895	2518.056346
727.434612	2490.330000
727.766281	2563.426731
728.097901	2502.932885
728.429473	2492.850577
728.760996	2528.138654
729.092471	2475.206538
729.423897	2560.906154
729.755276	2505.453462
730.086606	2515.535769
730.417887	2502.932885
730.749120	2558.385577
731.080305	2485.288846
731.411442	2472.685962
731.742530	2502.932885
732.073570	2570.988462
732.404562	2417.233269
732.735506	2477.727115
733.066401	2424.795000
733.397249	2510.494615
733.728048	2384.465769
734.058798	2543.262115
734.389501	2528.138654
734.720156	2472.685962
735.050762	2560.906154
735.381320	2513.015192
735.711831	2535.700385
736.042293	2533.179808
736.372707	2520.576923
736.703073	2495.371154
737.033391	2495.371154
737.363661	2518.056346
737.693883	2465.124231
738.024056	2545.782692
738.354182	2568.467885
738.684260	2518.056346
739.014290	2432.356731
739.344272	2482.768269
739.674207	2573.509038
740.004093	2492.850577
740.333931	2492.850577
740.663722	2480.247692
740.993464	2495.371154
741.323159	2480.247692
741.652806	2490.330000
741.982405	2540.741538
742.311956	2565.947308
742.641460	2482.768269
742.970915	2591.153077
743.300323	2545.782692
743.629683	2525.618077
743.958996	2457.562500
744.288260	2439.918462
744.617477	2399.589231
744.946647	2548.303269
745.275768	2538.220962
745.604842	2497.891731
745.933869	2424.795000
746.262847	2500.412308
746.591778	2472.685962
746.920662	2482.768269
747.249498	2528.138654
747.578286	2487.809423
747.907027	2485.288846
748.235720	2520.576923
748.564365	2434.877308
748.892963	2447.480192
749.221514	2492.850577
749.550017	2502.932885
749.878473	2485.288846
750.206881	2477.727115
750.535242	2487.809423
750.863555	2560.906154
751.191821	2530.659231
751.520039	2523.097500
751.848210	2442.439038
752.176334	2417.233269
752.504411	2510.494615
752.832440	2520.576923
753.160421	2455.041923
753.488356	2540.741538
753.816243	2523.097500
754.144082	2470.165385
754.471875	2460.083077
754.799620	2472.685962
755.127318	2520.576923
755.454969	2470.165385
755.782572	2505.453462
756.110129	2495.371154
756.437638	2555.865000
756.765100	2490.330000
757.092515	2444.959615
757.419882	2482.768269
757.747203	2563.426731
758.074477	2442.439038
758.401703	2500.412308
758.728882	2452.521346
759.056014	2495.371154
759.383099	2500.412308
759.710138	2535.700385
760.037129	2515.535769
760.364073	2535.700385
760.690970	2477.727115
761.017820	2505.453462
761.344623	2513.015192
761.671379	2548.303269
761.998088	2518.056346
762.324751	2538.220962
762.651366	2568.467885
762.977935	2500.412308
763.304456	2502.932885
763.630931	2482.768269
763.957359	2563.426731
764.283740	2518.056346
764.610074	2470.165385
764.936362	2535.700385
765.262602	2450.000769
765.588796	2505.453462
765.914943	2507.974038
766.241044	2490.330000
766.567097	2528.138654
766.893104	2470.165385
767.219064	2507.974038
767.544978	2462.603654
767.870845	2515.535769
768.196665	2417.233269
768.522438	2530.659231
768.848165	2457.562500
769.173846	2475.206538
769.499479	2472.685962
769.825066	2518.056346
770.150607	2530.659231
770.476101	2482.768269
770.801548	2502.932885
771.126949	2505.453462
771.452303	2543.262115
771.777611	2515.535769
772.102872	2470.165385
772.428087	2540.741538
772.753256	2452.521346
773.078378	2525.618077
773.403453	2447.480192
773.728482	2505.453462
774.053465	2530.659231
774.378401	2450.000769
774.703291	2563.426731
775.028135	2452.521346
775.352932	2467.644808
775.677683	2424.795000
776.002388	2535.700385
776.327046	2434.877308
776.651658	2495.371154
776.976224	2558.385577
777.300743	2543.262115
777.625216	2437.397885
777.949643	2462.603654
778.274024	2513.015192
778.598359	2487.809423
778.922647	2500.412308
779.246889	2492.850577
779.571086	2485.288846
779.895236	2450.000769
780.219339	2432.356731
780.543397	2500.412308
780.867409	2460.083077
781.191374	2432.356731
781.515294	2429.836154
781.839167	2500.412308
782.162995	2434.877308
782.486776	2480.247692
782.810511	2520.576923
783.134201	2510.494615
783.457844	2535.700385
783.781441	2608.797115
784.104993	2485.288846
784.428498	2540.741538
784.751958	2404.630385
785.075372	2482.768269
785.398739	2518.056346
785.722061	2427.315577
786.045337	2515.535769
786.368568	2528.138654
786.691752	2545.782692
787.014891	2457.562500
787.337983	2487.809423
787.661030	2472.685962
787.984031	2507.974038
788.306987	2507.974038
788.629897	2427.315577
788.952760	2518.056346
789.275579	2470.165385
789.598351	2538.220962
789.921078	2497.891731
790.243759	2462.603654
790.566395	2442.439038
790.888984	2520.576923
791.211529	2482.768269
791.534027	2482.768269
791.856480	2525.618077
792.178888	2490.330000
792.501249	2581.070769
792.823566	2465.124231
793.145836	2460.083077
793.468062	2457.562500
793.790241	2374.383462
794.112375	2515.535769
794.434464	2467.644808
794.756507	2520.576923
795.078505	2477.727115
795.400457	2447.480192
795.722364	2523.097500
796.044226	2477.727115
796.366042	2500.412308
796.687812	2386.986346
797.009538	2528.138654
797.331218	2434.877308
797.652852	2492.850577
797.974442	2470.165385
798.295986	2518.056346
798.617484	2487.809423
798.938938	2462.603654
799.260346	2515.535769
799.581709	2505.453462
799.903026	2518.056346
800.224299	2538.220962
800.545526	2591.153077
800.866708	2477.727115
801.187845	2523.097500
801.508936	2467.644808
801.829983	2502.932885
802.150984	2485.288846
802.471940	2437.397885
802.792851	2545.782692
803.113717	2417.233269
803.434538	2429.836154
803.755314	2573.509038
804.076045	2467.644808
804.396731	2563.426731
804.717372	2502.932885
805.037967	2530.659231
805.358518	2475.206538
805.679024	2502.932885
805.999485	2465.124231
806.319901	2475.206538
806.640272	2455.041923
806.960598	2513.015192
807.280879	2485.288846
807.601115	2553.344423
807.921306	2558.385577
808.241453	2513.015192
808.561554	2409.671538
808.881611	2513.015192
809.201623	2550.823846
809.521590	2437.397885
809.841513	2460.083077
810.161390	2455.041923
810.481223	2530.659231
810.801011	2480.247692
811.120755	2437.397885
811.440453	2475.206538
811.760107	2518.056346
812.079716	2510.494615
812.399281	2429.836154
812.718801	2548.303269
813.038276	2543.262115
813.357707	2437.397885
813.677093	2399.589231
813.996434	2470.165385
814.315731	2568.467885
814.634983	2520.576923
814.954191	2492.850577
815.273354	2530.659231
815.592473	2495.371154
815.911547	2613.838269
816.230577	2465.124231
816.549562	2570.988462
816.868502	2455.041923
817.187399	2533.179808
817.506250	2470.165385
817.825058	2507.974038
818.143821	2535.700385
818.462539	2442.439038
818.781213	2520.576923
819.099843	2500.412308
819.418429	2543.262115
819.736970	2457.562500
820.055466	2495.371154
820.373919	2530.659231
820.692327	2460.083077
821.010691	2414.712692
821.329011	2538.220962
821.647286	2467.644808
821.965517	2495.371154
822.283704	2490.330000
822.601847	2472.685962
822.919945	2487.809423
823.237999	2533.179808
823.556010	2563.426731
823.873976	2621.400000
824.191897	2520.576923
824.509775	2528.138654
824.827609	2525.618077
825.145398	2550.823846
825.463144	2465.124231
825.780845	2470.165385
826.098502	2492.850577
826.416116	2507.974038
826.733685	2500.412308
827.051210	2502.932885
827.368692	2505.453462
827.686129	2490.330000
828.003522	2558.385577
828.320872	2399.589231
828.638177	2500.412308
828.955439	2497.891731
829.272656	2500.412308
829.589830	2502.932885
829.906960	2455.041923
830.224046	2475.206538
830.541088	2407.150962
830.858086	2520.576923
831.175041	2475.206538
831.491952	2472.685962
831.808819	2472.685962
832.125642	2578.550192
832.442421	2444.959615
832.759157	2513.015192
833.075849	2495.371154
833.392497	2475.206538
833.709101	2558.385577
834.025662	2457.562500
834.342179	2465.124231
834.658653	2528.138654
834.975083	2502.932885
835.291469	2543.262115
835.607811	2507.974038
835.924110	2497.891731
836.240366	2427.315577
836.556578	2444.959615
836.872746	2555.865000
837.188871	2452.521346
837.504952	2492.850577
837.820990	2492.850577
838.136984	2588.632500
838.452935	2593.673654
838.768842	2485.288846
839.084706	2384.465769
839.400526	2530.659231
839.716303	2528.138654
840.032037	2515.535769
840.347727	2437.397885
840.663373	2513.015192
840.978977	2414.712692
841.294537	2538.220962
841.610054	2518.056346
841.925527	2533.179808
842.240957	2540.741538
842.556344	2548.303269
842.871687	2381.945192
843.186987	2513.015192
843.502244	2485.288846
843.817458	2434.877308
844.132629	2381.945192
844.447756	2439.918462
844.762840	2550.823846
845.077881	2432.356731
845.392879	2538.220962
845.707833	2480.247692
846.022745	2616.358846
846.337613	2596.194231
846.652438	2444.959615
846.967221	2497.891731
847.281960	2510.494615
847.596656	2472.685962
847.911309	2467.644808
848.225919	2417.233269
848.540485	2513.015192
848.855009	2399.589231
849.169490	2540.741538
849.483928	2477.727115
849.798323	2467.644808
850.112675	2505.453462
850.426984	2495.371154
850.741251	2510.494615
851.055474	2437.397885
851.369654	2462.603654
851.683792	2412.192115
851.997887	2417.233269
852.311938	2591.153077
852.625947	2407.150962
852.939914	2460.083077
853.253837	2485.288846
853.567718	2452.521346
853.881555	2596.194231
854.195350	2462.603654
854.509103	2520.576923
854.822812	2487.809423
855.136479	2500.412308
855.450103	2538.220962
855.763685	2470.165385
856.077224	2460.083077
856.390720	2482.768269
856.704173	2490.330000
857.017584	2472.685962
857.330953	2515.535769
857.644278	2470.165385
857.957561	2475.206538
858.270802	2510.494615
858.584000	2465.124231
858.897155	2548.303269
859.210268	2565.947308
859.523339	2523.097500
859.836367	2439.918462
860.149352	2563.426731
860.462295	2442.439038
860.775195	2482.768269
861.088054	2581.070769
861.400869	2444.959615
861.713642	2384.465769
862.026373	2465.124231
862.339062	2470.165385
862.651708	2419.753846
862.964312	2477.727115
863.276873	2533.179808
863.589392	2548.303269
863.901869	2525.618077
864.214303	2460.083077
864.526696	2457.562500
864.839045	2470.165385
865.151353	2492.850577
865.463619	2543.262115
865.775842	2444.959615
866.088023	2422.274423
866.400162	2470.165385
866.712258	2439.918462
867.024313	2450.000769
867.336325	2447.480192
867.648296	2444.959615
867.960224	2565.947308
868.272110	2540.741538
868.583954	2520.576923
868.895755	2513.015192
869.207515	2593.673654
869.519233	2452.521346
869.830909	2535.700385
870.142542	2495.371154
870.454134	2540.741538
870.765684	2465.124231
871.077191	2465.124231
871.388657	2558.385577
871.700081	2533.179808
872.011463	2535.700385
872.322803	2553.344423
872.634101	2472.685962
872.945357	2477.727115
873.256571	2545.782692
873.567744	2432.356731
873.878874	2505.453462
874.189963	2570.988462
874.501010	2502.932885
874.812015	2492.850577
875.122979	2450.000769
875.433900	2502.932885
875.744780	2470.165385
876.055618	2475.206538
876.366415	2465.124231
876.677169	2510.494615
876.987882	2379.424615
877.298554	2515.535769
877.609183	2497.891731
877.919771	2548.303269
878.230317	2520.576923
878.540822	2560.906154
878.851285	2477.727115
879.161707	2432.356731
879.472087	2437.397885
879.782425	2424.795000
880.092722	2570.988462
880.402977	2447.480192
880.713191	2394.548077
881.023363	2523.097500
881.333494	2518.056346
881.643583	2510.494615
881.953631	2477.727115
882.263637	2518.056346
882.573602	2475.206538
882.883526	2553.344423
883.193408	2460.083077
883.503248	2437.397885
883.813048	2513.015192
884.122806	2417.233269
884.432522	2480.247692
884.742197	2500.412308
885.051831	2543.262115
885.361424	2500.412308
885.670975	2588.632500
885.980485	2455.041923
886.289954	2530.659231
886.599382	2485.288846
886.908768	2535.700385
887.218113	2487.809423
887.527417	2437.397885
887.836680	2485.288846
888.145901	2467.644808
888.455082	2533.179808
888.764221	2432.356731
889.073319	2457.562500
889.382376	2361.780577
889.691392	2472.685962
890.000366	2490.330000
890.309300	2626.441154
890.618193	2477.727115
890.927044	2560.906154
891.235855	2480.247692
891.544625	2475.206538
891.853353	2482.768269
892.162041	2497.891731
892.470687	2490.330000
892.779293	2520.576923
893.087858	2477.727115
893.396381	2475.206538
893.704864	2457.562500
894.013306	2500.412308
894.321707	2515.535769
894.630068	2437.397885
894.938387	2487.809423
895.246665	2502.932885
895.554903	2460.083077
895.863100	2518.056346
896.171256	2477.727115
896.479371	2467.644808
896.787446	2480.247692
897.095480	2470.165385
897.403473	2472.685962
897.711425	2528.138654
898.019336	2452.521346
898.327207	2505.453462
898.635038	2495.371154
898.942827	2520.576923
899.250576	2543.262115
899.558284	2495.371154
899.865952	2427.315577
900.173579	2492.850577
900.481165	2480.247692
900.788711	2530.659231
901.096216	2417.233269
901.403681	2467.644808
901.711105	2530.659231
902.018489	2520.576923
902.325832	2399.589231
902.633135	2477.727115
902.940397	2472.685962
903.247619	2530.659231
903.554800	2560.906154
903.861941	2490.330000
904.169041	2452.521346
904.476101	2500.412308
904.783121	2424.795000
905.090100	2450.000769
905.397039	2535.700385
905.703938	2505.453462
906.010796	2460.083077
906.317614	2457.562500
906.624391	2530.659231
906.931129	2447.480192
907.237826	2492.850577
907.544483	2500.412308
907.851099	2543.262115
908.157675	2530.659231
908.464211	2568.467885
908.770707	2460.083077
909.077163	2460.083077
909.383578	2490.330000
909.689954	2495.371154
909.996289	2507.974038
910.302584	2510.494615
910.608839	2616.358846
910.915054	2515.535769
911.221229	2417.233269
911.527363	2361.780577
911.833458	2354.218846
912.139513	2472.685962
912.445527	2507.974038
912.751502	2467.644808
913.057436	2515.535769
913.363331	2452.521346
913.669186	2460.083077
913.975000	2392.027500
914.280775	2568.467885
914.586510	2462.603654
914.892205	2475.206538
915.197859	2520.576923
915.503475	2535.700385
915.809050	2477.727115
916.114585	2540.741538
916.420081	2422.274423
916.725536	2510.494615
917.030952	2497.891731
917.336328	2477.727115
917.641665	2525.618077
917.946961	2540.741538
918.252218	2601.235385
918.557435	2427.315577
918.862612	2432.356731
919.167750	2472.685962
919.472848	2576.029615
919.777906	2450.000769
920.082925	2492.850577
920.387904	2530.659231
920.692843	2429.836154
920.997743	2523.097500
921.302603	2505.453462
921.607423	2500.412308
921.912204	2510.494615
922.216946	2460.083077
922.521647	2565.947308
922.826310	2467.644808
923.130932	2450.000769
923.435516	2490.330000
923.740059	2520.576923
924.044564	2502.932885
924.349028	2492.850577
924.653454	2439.918462
924.957840	2520.576923
925.262186	2424.795000
925.566493	2455.041923
925.870761	2485.288846
926.174989	2515.535769
926.479178	2505.453462
926.783328	2487.809423
927.087438	2573.509038
927.391509	2548.303269
927.695541	2477.727115
927.999533	2573.509038
928.303486	2457.562500
928.607400	2495.371154
928.911275	2472.685962
929.215110	2513.015192
929.518906	2439.918462
929.822663	2578.550192
930.126381	2442.439038
930.430060	2560.906154
930.733699	2444.959615
931.037299	2485.288846
931.340861	2538.220962
931.644383	2485.288846
931.947866	2480.247692
932.251309	2523.097500
932.554714	2422.274423
932.858080	2457.562500
933.161407	2518.056346
933.464694	2515.535769
933.767943	2480.247692
934.071153	2505.453462
934.374323	2608.797115
934.677455	2457.562500
934.980548	2487.809423
935.283602	2495.371154
935.586617	2507.974038
935.889593	2492.850577
936.192530	2593.673654
936.495428	2492.850577
936.798287	2548.303269
937.101108	2518.056346
937.403890	2545.782692
937.706632	2460.083077
938.009336	2560.906154
938.312002	2558.385577
938.614628	2432.356731
938.917216	2543.262115
939.219765	2550.823846
939.522275	2540.741538
939.824747	2442.439038
940.127179	2480.247692
940.429573	2480.247692
940.731929	2525.618077
941.034246	2485.288846
941.336524	2490.330000
941.638763	2485.288846
941.940964	2475.206538
942.243126	2477.727115
942.545250	2492.850577
942.847335	2550.823846
943.149381	2523.097500
943.451389	2442.439038
943.753359	2492.850577
944.055290	2520.576923
944.357182	2490.330000
944.659036	2490.330000
944.960851	2495.371154
945.262628	2455.041923
945.564367	2414.712692
945.866067	2490.330000
946.167729	2505.453462
946.469352	2497.891731
946.770937	2487.809423
947.072484	2427.315577
947.373992	2419.753846
947.675462	2492.850577
947.976893	2366.821731
948.278286	2507.974038
948.579641	2447.480192
948.880958	2540.741538
949.182236	2480.247692
949.483476	2482.768269
949.784678	2462.603654
950.085841	2487.809423
950.386967	2505.453462
950.688054	2434.877308
950.989103	2434.877308
951.290114	2444.959615
951.591087	2563.426731
951.892021	2563.426731
952.192917	2452.521346
952.493776	2523.097500
952.794596	2477.727115
953.095378	2545.782692
953.396122	2429.836154
953.696828	2565.947308
953.997496	2530.659231
954.298126	2523.097500
954.598718	2518.056346
954.899272	2460.083077
955.199788	2492.850577
955.500266	2490.330000
955.800706	2510.494615
956.101108	2513.015192
956.401472	2465.124231
956.701798	2460.083077
957.002087	2570.988462
957.302337	2581.070769
957.602550	2515.535769
957.902724	2497.891731
958.202861	2490.330000
958.502960	2540.741538
958.803022	2450.000769
959.103045	2477.727115
959.403031	2442.439038
959.702979	2490.330000
960.002889	2525.618077
960.302762	2505.453462
960.602596	2492.850577
960.902393	2505.453462
961.202153	2465.124231
961.501875	2477.727115
961.801559	2467.644808
962.101205	2540.741538
962.400814	2497.891731
962.700385	2507.974038
962.999918	2482.768269
963.299414	2518.056346
963.598873	2525.618077
963.898293	2482.768269
964.197677	2452.521346
964.497022	2490.330000
964.796331	2487.809423
965.095601	2472.685962
965.394835	2550.823846
965.694030	2500.412308
965.993189	2465.124231
966.292309	2528.138654
966.591393	2525.618077
966.890439	2530.659231
967.189447	2565.947308
967.488419	2447.480192
967.787353	2487.809423
968.086249	2502.932885
968.385108	2535.700385
968.683930	2462.603654
968.982714	2467.644808
969.281462	2437.397885
969.580172	2495.371154
969.878844	2467.644808
970.177480	2475.206538
970.476078	2558.385577
970.774639	2472.685962
971.073162	2482.768269
971.371649	2502.932885
971.670098	2578.550192
971.968510	2548.303269
972.266885	2490.330000
972.565223	2520.576923
972.863524	2480.247692
973.161788	2502.932885
973.460014	2452.521346
973.758204	2495.371154
974.056356	2475.206538
974.354471	2450.000769
974.652550	2611.317692
974.950591	2515.535769
975.248595	2502.932885
975.546563	2472.685962
975.844493	2485.288846
976.142386	2500.412308
976.440243	2528.138654
976.738062	2596.194231
977.035845	2505.453462
977.333590	2523.097500
977.631299	2419.753846
977.928971	2553.344423
978.226606	2492.850577
978.524204	2341.615962
978.821765	2515.535769
979.119290	2570.988462
979.416777	2480.247692
979.714228	2485.288846
980.011642	2465.124231
980.309020	2543.262115
980.606360	2490.330000
980.903664	2475.206538
981.200931	2513.015192
981.498162	2568.467885
981.795356	2525.618077
982.092513	2465.124231
982.389633	2397.068654
982.686717	2475.206538
982.983764	2482.768269
983.280775	2427.315577
983.577749	2492.850577
983.874686	2482.768269
984.171587	2533.179808
984.468451	2490.330000
984.765279	2457.562500
985.062070	2565.947308
985.358824	2500.412308
985.655543	2444.959615
985.952224	2485.288846
986.248869	2497.891731
986.545478	2381.945192
986.842050	2495.371154
987.138586	2543.262115
987.435086	2518.056346
987.731549	2457.562500
988.027975	2510.494615
988.324366	2427.315577
988.620719	2530.659231
988.917037	2487.809423
989.213318	2487.809423
989.509563	2500.412308
989.805772	2487.809423
990.101944	2470.165385
990.398080	2457.562500
990.694180	2422.274423
990.990244	2555.865000
991.286271	2553.344423
991.582262	2480.247692
991.878217	2578.550192
992.174136	2535.700385
992.470019	2477.727115
992.765865	2510.494615
993.061676	2470.165385
993.357450	2518.056346
993.653188	2392.027500
993.948890	2492.850577
994.244556	2465.124231
994.540186	2465.124231
994.835780	2447.480192
995.131337	2460.083077
995.426859	2470.165385
995.722345	2497.891731
996.017795	2518.056346
996.313208	2487.809423
996.608586	2550.823846
996.903928	2450.000769
997.199234	2472.685962
997.494504	2462.603654
997.789738	2442.439038
998.084936	2475.206538
998.380099	2414.712692
998.675225	2460.083077
998.970316	2530.659231
999.265371	2510.494615
999.560390	2492.850577
999.855373	2548.303269
1000.150320	2525.618077
1000.445232	2465.124231
1000.740108	2414.712692
1001.034948	2540.741538
1001.329752	2492.850577
1001.624521	2523.097500
1001.919254	2482.768269
1002.213951	2507.974038
1002.508613	2480.247692
1002.803239	2540.741538
1003.097829	2409.671538
1003.392384	2500.412308
1003.686903	2563.426731
1003.981386	2586.111923
1004.275834	2576.029615
1004.570246	2520.576923
1004.864623	2399.589231
1005.158964	2495.371154
1005.453270	2472.685962
1005.747540	2442.439038
1006.041775	2485.288846
1006.335974	2490.330000
1006.630138	2442.439038
1006.924266	2500.412308
1007.218359	2444.959615
1007.512416	2492.850577
1007.806438	2470.165385
1008.100425	2480.247692
1008.394376	2576.029615
1008.688292	2583.591346
1008.982172	2505.453462
1009.276017	2455.041923
1009.569827	2520.576923
1009.863602	2497.891731
1010.157341	2565.947308
1010.451045	2513.015192
1010.744714	2452.521346
1011.038347	2394.548077
1011.331945	2523.097500
1011.625508	2427.315577
1011.919036	2475.206538
1012.212528	2495.371154
1012.505986	2497.891731
1012.799408	2455.041923
1013.092795	2588.632500
1013.386147	2462.603654
1013.679464	2513.015192
1013.972745	2558.385577
1014.265992	2477.727115
1014.559204	2502.932885
1014.852380	2510.494615
1015.145521	2545.782692
1015.438628	2472.685962
1015.731699	2487.809423
1016.024736	2515.535769
1016.317737	2414.712692
1016.610703	2487.809423
1016.903635	2414.712692
1017.196531	2432.356731
1017.489393	2417.233269
1017.782219	2477.727115
1018.075011	2492.850577
1018.367768	2558.385577
1018.660490	2490.330000
1018.953177	2490.330000
1019.245829	2490.330000
