Dividing Wavelength (nm)	Counts (n)	Blue Motor Position (mm): 14.600000	Red Motor Position (mm): 0.000000	
326.493990	2135.175670
326.888308	2135.175670
327.282561	2135.175670
327.676750	2100.858016
328.070874	2102.647625
328.464933	2104.502770
328.858929	2110.632813
329.252859	2121.327621
329.646726	2134.616102
330.040528	2143.607000
330.434265	2160.746923
330.827938	2177.843997
331.221547	2197.577593
331.615091	2216.479400
332.008571	2234.138562
332.401986	2253.819226
332.795338	2276.242278
333.188625	2294.879424
333.581847	2312.132773
333.975006	2331.609271
334.368100	2348.131653
334.761129	2367.832482
335.154095	2382.335882
335.546996	2402.913872
335.939833	2420.063877
336.332606	2434.037956
336.725315	2450.119236
337.117960	2460.256997
337.510540	2468.411063
337.903056	2477.916159
338.295508	2487.080976
338.687896	2492.558190
339.080220	2503.540344
339.472480	2508.931858
339.864676	2511.054183
340.256807	2521.259999
340.648875	2519.896367
341.040879	2525.081194
341.432818	2522.558097
341.824694	2526.485155
342.216506	2526.759898
342.608253	2527.347193
342.999937	2526.099507
343.391557	2527.105217
343.783113	2526.538088
344.174605	2524.398118
344.566033	2522.270751
344.957397	2519.321676
345.348697	2518.424350
345.739934	2516.886798
346.131106	2514.595594
346.522215	2513.751201
346.913260	2510.459327
347.304241	2511.674245
347.695159	2509.314985
348.086012	2505.138389
348.476802	2504.591424
348.867528	2504.167967
349.258191	2503.623523
349.648789	2499.633449
350.039324	2498.857112
350.429796	2499.706546
350.820203	2495.134220
351.210548	2497.599344
351.600828	2494.007522
351.991045	2494.965341
352.381198	2492.439723
352.771288	2494.209168
353.161314	2493.253869
353.551276	2494.511637
353.941175	2488.873107
354.331010	2491.938128
354.720782	2492.545587
355.110490	2493.082470
355.500135	2492.734630
355.889717	2495.328304
356.279235	2493.687408
356.668689	2492.419558
357.058080	2491.423930
357.447408	2491.872593
357.836672	2491.507109
358.225873	2495.076246
358.615010	2490.655154
359.004084	2497.049858
359.393095	2495.000629
359.782043	2497.153202
360.170927	2499.366268
360.559748	2497.133037
360.948505	2499.956083
361.337199	2498.153871
361.725830	2499.083964
362.114398	2498.849550
362.502903	2501.236536
362.891344	2502.524551
363.279722	2503.068996
363.668037	2499.459530
364.056289	2503.653770
364.444478	2503.931033
364.832603	2502.423728
365.220665	2504.604027
365.608665	2502.738800
365.996601	2503.820128
366.384474	2507.580828
366.772284	2505.163595
367.160031	2503.167298
367.547715	2507.139728
367.935336	2505.317350
368.322893	2504.808194
368.710388	2508.122753
369.097820	2509.254492
369.485189	2505.009840
369.872495	2506.423884
370.259738	2504.868688
370.646918	2507.628719
371.034035	2510.134173
371.421090	2507.961436
371.808081	2507.182577
372.195010	2510.739111
372.581875	2505.327433
372.968678	2508.442866
373.355418	2509.642660
373.742096	2509.730881
374.128710	2510.693741
374.515262	2510.232475
374.901751	2510.406395
375.288177	2509.148627
375.674540	2510.194667
376.060841	2509.740963
376.447079	2509.851868
376.833254	2512.256499
377.219367	2505.786178
377.605417	2511.195336
377.991404	2506.718791
378.377329	2510.857578
378.763191	2507.011178
379.148991	2512.942096
379.534727	2510.776920
379.920402	2514.177178
380.306013	2510.078720
380.691563	2513.554596
381.077049	2511.102074
381.462474	2515.969308
381.847835	2513.607528
382.233134	2513.622651
382.618371	2514.343536
383.003545	2516.891840
383.388657	2514.799761
383.773706	2518.991480
384.158693	2514.857734
384.543618	2514.930831
384.928480	2515.563496
385.313280	2516.937210
385.698017	2514.419154
386.082692	2519.283867
386.467305	2518.164731
386.851856	2515.666839
387.236344	2516.039885
387.620770	2517.322858
388.005133	2518.988960
388.389435	2517.766480
388.773674	2519.215812
389.157851	2515.833197
389.541965	2515.712210
389.926018	2518.205060
390.310008	2518.245389
390.693936	2521.731347
391.077802	2519.344361
391.461606	2517.695904
391.845348	2517.761439
392.229027	2520.995339
392.612645	2521.285205
392.996200	2518.076511
393.379694	2517.945441
393.763125	2522.318642
394.146494	2523.331914
394.529801	2523.450381
394.913047	2521.002901
395.296230	2522.424506
395.679351	2523.276461
396.062410	2522.815195
396.445408	2520.995339
396.828343	2518.648682
397.211217	2519.293949
397.594028	2517.547190
397.976778	2520.670184
398.359466	2520.665143
398.742092	2518.966274
399.124656	2521.060874
399.507158	2521.726306
399.889598	2524.090607
400.271977	2520.871831
400.654294	2523.931811
401.036549	2525.350896
401.418742	2524.435926
401.800874	2524.030113
402.182944	2523.324352
402.564952	2522.973992
402.946898	2526.994312
403.328783	2524.483817
403.710606	2523.107582
404.092367	2526.795186
404.474067	2524.546832
404.855705	2523.896523
405.237282	2525.028262
405.618797	2525.973478
406.000250	2525.527336
406.381642	2527.584127
406.762972	2525.058509
407.144240	2527.238808
407.525447	2528.161339
407.906593	2527.001874
408.287677	2528.604961
408.668700	2524.148581
409.049661	2527.143026
409.430560	2528.284847
409.811399	2527.921884
410.192176	2528.161339
410.572891	2527.074970
410.953545	2527.926925
411.334138	2526.661596
411.714669	2527.024559
412.095139	2528.841895
412.475547	2527.455577
412.855894	2528.196627
413.236180	2528.892306
413.616405	2529.714014
413.996568	2529.363654
414.376670	2530.026566
414.756711	2530.351720
415.136691	2528.715866
415.516609	2530.707122
415.896466	2530.576052
416.276262	2530.455064
416.655997	2526.530526
417.035670	2527.039682
417.415283	2529.167049
417.794834	2528.191586
418.174324	2528.438602
418.553753	2530.623943
418.933121	2529.504807
419.312428	2530.462626
419.691674	2531.125538
420.070859	2531.359951
420.449983	2530.197965
420.829045	2530.888603
421.208047	2530.707122
421.586988	2532.952956
421.965867	2530.850795
422.344686	2533.746938
422.723444	2531.491021
423.102141	2533.721732
423.480777	2530.283665
423.859352	2534.651825
424.237866	2532.647966
424.616319	2533.285672
424.994712	2532.441279
425.373044	2531.448171
425.751314	2531.685106
426.129524	2532.290044
426.507673	2535.889428
426.885762	2530.381967
427.263789	2530.858356
427.641756	2533.802390
428.019662	2533.545291
428.397508	2533.971269
428.775292	2533.268028
429.153016	2534.813142
429.530679	2534.553522
429.908282	2535.365148
430.285824	2533.741896
430.663305	2535.438245
431.040726	2535.649973
431.418086	2533.081505
431.795385	2534.243491
432.172624	2535.710467
432.549802	2536.648122
432.926920	2532.935312
433.303977	2536.993441
433.680974	2534.661907
434.057910	2535.072761
434.434786	2534.067051
434.811601	2537.424459
435.188355	2534.775333
435.565050	2534.586290
435.941683	2537.585776
436.318257	2535.864222
436.694770	2531.387677
437.071222	2533.084026
437.447614	2532.088398
437.823946	2535.329860
438.200218	2536.794315
438.576429	2537.537885
438.952580	2537.074099
439.328670	2536.842206
439.704700	2536.663245
440.080670	2537.545447
440.456580	2539.824048
440.832429	2536.086033
441.208218	2536.620395
441.583947	2537.210210
441.959616	2535.140817
442.335224	2538.437731
442.710773	2536.968235
443.086261	2541.190201
443.461689	2536.779192
443.837057	2537.404295
444.212365	2537.716846
444.587612	2538.261291
444.962800	2533.706608
445.337927	2539.526620
445.712995	2539.234233
446.088002	2537.994110
446.462949	2537.726928
446.837837	2542.057280
447.212664	2536.658204
447.587431	2537.643749
447.962139	2539.292207
448.336786	2540.769265
448.711374	2537.265663
449.085901	2539.887063
449.460369	2540.088709
449.834776	2536.776671
450.209124	2537.487474
450.583412	2540.234902
450.957640	2539.330015
451.331808	2539.783719
451.705917	2539.854295
452.079965	2540.204656
452.453954	2540.363452
452.827883	2541.487629
453.201752	2540.718853
453.575562	2540.302958
453.949311	2540.948226
454.323001	2540.068544
454.696632	2540.993596
455.070202	2541.018802
455.443713	2542.873947
455.817164	2539.387989
456.190556	2539.942516
456.563888	2540.083668
456.937160	2539.763555
457.310373	2540.484440
457.683526	2541.638864
458.056619	2544.759338
458.429653	2541.280942
458.802628	2542.304296
459.175542	2542.982331
459.548398	2540.234902
459.921194	2545.276056
460.293930	2542.190870
460.666607	2544.542568
461.039224	2541.386806
461.411782	2542.077444
461.784280	2545.213042
462.156719	2545.465100
462.529099	2541.346477
462.901419	2543.690613
463.273680	2541.164995
463.645882	2544.726571
464.018024	2542.362269
464.390106	2542.886549
464.762130	2543.683052
465.134094	2544.676159
465.505999	2543.834286
465.877845	2543.955274
466.249631	2545.349153
466.621358	2545.268495
466.993026	2547.012734
467.364634	2549.692107
467.736184	2545.452497
468.107674	2544.887887
468.479105	2545.576005
468.850477	2543.778834
469.221790	2545.886036
469.593043	2544.731612
469.964238	2545.021478
470.335373	2544.885367
470.706449	2546.836293
471.077467	2543.892260
471.448425	2545.621375
471.819324	2547.670604
472.190164	2547.191695
472.560945	2545.437373
472.931667	2543.650284
473.302330	2543.690613
473.672934	2545.586087
474.043479	2544.068700
474.413965	2546.480892
474.784393	2539.876981
475.154761	2545.271015
475.525070	2541.661549
475.895321	2544.066179
476.265513	2541.127187
476.635645	2547.302600
477.005719	2545.696993
477.375734	2549.563558
477.745691	2545.346633
478.115588	2547.040460
478.485427	2547.216901
478.855207	2548.189843
479.224928	2547.905018
479.594591	2548.852755
479.964194	2546.501057
480.333739	2551.380894
480.703226	2548.361242
481.072653	2545.392003
481.442022	2546.037271
481.811333	2549.792930
482.180584	2546.654812
482.549777	2551.058260
482.918912	2549.924000
483.287988	2548.144473
483.657005	2548.555327
484.025964	2548.968702
484.394864	2547.511808
484.763706	2549.422405
485.132489	2549.409802
485.501213	2549.429967
485.869879	2546.911911
486.238487	2547.509287
486.607036	2548.018444
486.975527	2552.421892
487.343959	2544.817311
487.712333	2549.561037
488.080648	2549.301418
488.448905	2551.275029
488.817104	2551.537169
489.185244	2548.973743
489.553326	2553.707386
489.921350	2548.832590
490.289315	2548.613300
490.657222	2551.726213
491.025070	2552.487427
491.392861	2549.394679
491.760593	2548.043650
492.128267	2551.612787
492.495883	2549.102292
492.863440	2551.907694
493.230939	2551.028013
493.598380	2551.940462
493.965763	2545.908721
494.333088	2550.788558
494.700354	2547.481561
495.067563	2552.789896
495.434713	2545.752445
495.801805	2550.798640
496.168839	2549.437529
496.535815	2550.309648
496.902733	2552.411810
497.269593	2551.917777
497.636395	2550.670091
498.003139	2551.940462
498.369825	2552.883158
498.736453	2552.880637
499.103023	2551.484237
499.469535	2552.245452
499.835989	2550.846531
500.202385	2550.145811
500.568723	2552.200081
500.935003	2553.150339
501.301226	2551.872406
501.667390	2552.699155
502.033497	2552.547921
502.399546	2553.709907
502.765537	2553.452808
503.131470	2553.198230
503.497345	2552.376522
503.863163	2555.638148
504.228923	2554.352654
504.594625	2552.074052
504.960269	2552.240410
505.325856	2553.092365
505.691385	2552.817623
506.056856	2555.202088
506.422270	2553.230997
506.787625	2552.812581
507.152924	2553.911553
507.518164	2555.756615
507.883347	2553.019269
508.248472	2555.227294
508.613540	2554.196378
508.978550	2556.701832
509.343503	2553.246121
509.708398	2554.206460
510.073236	2557.969682
510.438016	2558.907336
510.802738	2557.238714
511.167403	2555.814588
511.532010	2556.346430
511.896561	2559.229970
512.261053	2558.017573
512.625488	2555.315514
512.989866	2553.616645
513.354186	2555.965823
513.718449	2551.708569
514.082655	2557.193344
514.446803	2558.937583
514.810894	2558.970351
515.174927	2559.136709
515.538904	2560.593602
515.902822	2560.689384
516.266684	2558.572100
516.630488	2559.764332
516.994235	2559.653427
517.357925	2559.177038
517.721558	2563.537636
518.085133	2561.130485
518.448651	2563.194838
518.812112	2563.051165
519.175516	2562.496638
519.538863	2561.047306
519.902152	2563.028480
520.265385	2562.020249
520.628560	2566.297668
520.991678	2563.247770
521.354739	2564.510579
521.717743	2563.005794
522.080690	2563.288099
522.443580	2566.721125
522.806413	2565.818758
523.169189	2566.428738
523.531908	2567.709191
523.894569	2565.554098
524.257174	2566.179201
524.619722	2566.166598
524.982213	2569.644994
525.344647	2567.101732
525.707025	2569.161043
526.069345	2568.871177
526.431608	2568.115004
526.793815	2570.885118
527.155964	2570.186918
527.518057	2569.521486
527.880093	2569.801270
528.242072	2569.670200
528.603995	2571.404357
528.965860	2572.957032
529.327669	2572.082392
529.689421	2571.517783
530.051117	2573.816549
530.412755	2572.694892
530.774337	2574.557598
531.135862	2571.900910
531.497331	2569.239181
531.858743	2569.246743
532.220098	2572.533575
532.581396	2567.358831
532.942638	2572.730180
533.303824	2573.846796
533.664953	2574.083730
534.026025	2575.810325
534.387040	2576.448031
534.747999	2577.259657
535.108902	2577.985583
535.469748	2579.255954
535.830537	2577.788978
536.191270	2578.114133
536.551947	2580.543969
536.912567	2581.090934
537.273131	2579.883577
537.633638	2581.239648
537.994089	2583.382138
538.354483	2582.938517
538.714821	2584.569330
539.075103	2583.167889
539.435328	2585.862386
539.795497	2586.346337
540.155609	2589.386152
540.515665	2585.940524
540.875665	2587.674681
541.235609	2588.549321
541.595496	2590.820361
541.955328	2593.492172
542.315102	2592.075608
542.674821	2591.102665
543.034483	2595.087697
543.394090	2592.872110
543.753640	2596.486618
544.113134	2598.671958
544.472571	2597.285641
544.831953	2599.102977
545.191278	2603.322422
545.550548	2604.305447
545.909761	2605.381734
546.268918	2606.891559
546.628019	2609.908690
546.987064	2610.881632
547.346053	2611.100923
547.704986	2612.923300
548.063863	2617.651902
548.422684	2618.362705
548.781449	2619.446553
549.140158	2623.149280
549.498811	2621.420165
549.857408	2624.147429
550.215949	2626.337810
550.574434	2625.528705
550.932864	2634.655714
551.291237	2633.246712
551.649555	2639.109573
552.007817	2642.345994
552.366022	2641.935140
552.724173	2649.060811
553.082267	2649.033085
553.440305	2652.687921
553.798288	2654.669095
554.156215	2659.017090
554.514086	2664.247287
554.871902	2663.186124
555.229661	2673.081909
555.587365	2672.814728
555.945014	2673.858247
556.302606	2681.946778
556.660143	2685.402489
557.017625	2692.271061
557.375050	2695.890610
557.732421	2701.365303
558.089735	2705.806559
558.446994	2709.559698
558.804197	2716.463559
559.161345	2725.320866
559.518437	2722.112172
559.875474	2733.290930
560.232455	2741.543299
560.589381	2742.685120
560.946251	2756.777666
561.303065	2756.079466
561.659825	2763.467277
562.016528	2769.516662
562.373177	2769.806528
562.729770	2782.457304
563.086307	2785.398817
563.442789	2795.609674
563.799216	2804.827424
564.155587	2811.907724
564.511904	2818.005000
564.868164	2824.651761
565.224370	2831.858091
565.580520	2844.443331
565.936615	2845.469206
566.292654	2855.690146
566.648638	2868.477032
567.004567	2878.876933
567.360441	2885.596791
567.716260	2895.890827
568.072023	2906.628485
568.427732	2916.645257
568.783385	2919.725402
569.138982	2936.933381
569.494525	2948.563323
569.850013	2950.088272
570.205445	2973.721201
570.560823	2978.187663
570.916145	2990.067143
571.271412	3009.389885
571.626625	3018.277439
571.981782	3025.884541
572.336884	3039.677138
572.691931	3047.485885
573.046923	3062.841239
573.401860	3075.978486
573.756743	3088.914087
574.111570	3104.375306
574.466342	3111.080041
574.821059	3135.607775
575.175722	3137.868732
575.530330	3157.884633
575.884882	3169.096160
576.239380	3183.014785
576.593823	3191.856969
576.948211	3214.917727
577.302544	3212.104764
577.656823	3240.030235
578.011047	3253.059097
578.365216	3271.106428
578.719330	3278.194291
579.073389	3302.527940
579.427394	3306.152530
579.781344	3323.668019
580.135239	3337.994978
580.489080	3353.778831
580.842866	3370.248280
581.196597	3390.896847
581.550273	3410.708581
581.903895	3433.101387
582.257463	3457.379583
582.610975	3473.644866
582.964434	3485.458810
583.317837	3506.094774
583.671186	3512.282790
584.024481	3537.813714
584.377721	3546.789488
584.730906	3563.241294
585.084037	3589.329265
585.437113	3594.604832
585.790135	3624.932414
586.143103	3626.238073
586.496016	3644.131648
586.848874	3674.819672
587.201679	3693.623176
587.554428	3701.157181
587.907124	3729.780852
588.259765	3746.441866
588.612352	3782.418060
588.964884	3770.334414
589.317362	3799.275678
589.669786	3823.921880
590.022155	3848.351311
590.374470	3881.338101
590.726731	3883.105026
591.078937	3879.694685
591.431090	3935.838016
591.783188	3927.116819
592.135232	3949.217238
592.487222	3962.808189
592.839157	4003.810413
593.191038	4011.044469
593.542866	4019.243906
593.894639	4024.385883
594.246358	4054.602559
594.598022	4082.628854
594.949633	4081.650870
595.301190	4095.871965
595.652692	4129.504023
596.004141	4181.155685
596.355535	4143.241167
596.706876	4158.964526
597.058162	4165.276051
597.409395	4207.876321
597.760573	4250.670676
598.111698	4245.768154
598.462768	4268.097945
598.813785	4272.899644
599.164748	4294.987460
599.515657	4306.297288
599.866511	4314.295079
600.217312	4363.577399
600.568060	4346.192980
600.918753	4402.981578
601.269392	4415.072785
601.619978	4417.530348
601.970510	4462.900733
602.320988	4479.939832
602.671412	4531.092421
603.021783	4527.901370
603.372100	4541.451992
603.722363	4576.482970
604.072572	4579.825255
604.422728	4610.730048
604.772830	4611.365234
605.122878	4636.230725
605.472872	4651.071882
605.822813	4688.812480
606.172701	4690.692831
606.522534	4747.559567
606.872314	4772.795583
607.222041	4788.781082
607.571714	4829.569057
607.921333	4842.976006
608.270899	4871.705542
608.620411	4926.777627
608.969870	4915.951749
609.319276	4931.186116
609.668627	4966.096107
610.017926	5005.636397
610.367171	5060.753852
610.716362	5065.502619
611.065500	5090.254685
611.414585	5126.772803
611.763616	5136.048526
612.112594	5157.506198
612.461518	5191.896949
612.810389	5234.683742
613.159207	5239.848404
613.507971	5239.366974
613.856682	5323.319830
614.205340	5318.064427
614.553945	5382.407194
614.902496	5357.009861
615.250994	5405.236059
615.599439	5418.678296
615.947830	5451.435714
616.296169	5460.129183
616.644454	5486.232278
616.992686	5512.239591
617.340864	5570.946348
617.688990	5545.463315
618.037063	5608.818016
618.385082	5604.800217
618.733048	5674.133726
619.080961	5659.486653
619.428821	5696.060225
619.776628	5721.550819
620.124382	5722.191046
620.472083	5735.784517
620.819731	5773.361278
621.167326	5734.783848
621.514868	5760.312251
621.862357	5718.899172
622.209793	5748.223564
622.557176	5733.067335
622.904506	5741.501185
623.251783	5717.863215
623.599007	5721.064348
623.946179	5743.996557
624.293297	5739.628397
624.640363	5706.966761
624.987376	5721.984358
625.334336	5705.030958
625.681243	5700.193971
626.028097	5707.848963
626.374899	5709.353747
626.721647	5734.226800
627.068343	5697.123908
627.414987	5701.126584
627.761577	5690.144431
628.108115	5730.012396
628.454600	5683.192679
628.801032	5741.551597
629.147412	5719.574687
629.493739	5732.389300
629.840014	5707.685125
630.186236	5767.374908
630.532405	5701.098858
630.878521	5745.415641
631.224585	5736.081945
631.570597	5697.471748
631.916556	5738.857100
632.262462	5745.400518
632.608316	5739.250310
632.954117	5735.653447
633.299866	5742.683336
633.645562	5752.717753
633.991206	5710.440116
634.336797	5686.986148
634.682336	5671.870248
635.027823	5662.884391
635.373257	5669.354712
635.718639	5641.464528
636.063968	5664.132077
636.409245	5597.987097
636.754470	5611.129385
637.099642	5589.253298
637.444762	5566.679011
637.789829	5583.546712
638.134845	5549.211413
638.479808	5558.025871
638.824719	5571.243776
639.169577	5529.634092
639.514383	5561.254730
639.859137	5513.719169
640.203839	5529.654257
640.548489	5535.063415
640.893086	5520.623030
641.237632	5514.172873
641.582125	5545.095311
641.926566	5527.602507
642.270955	5548.029262
642.615292	5558.731632
642.959576	5580.932874
643.303809	5580.675775
643.647990	5588.363534
643.992118	5598.821408
644.336195	5562.275563
644.680219	5589.376806
645.024192	5590.657259
645.368112	5678.272513
645.711981	5707.549014
646.055797	5771.488489
646.399562	5747.154839
646.743274	5859.713723
647.086935	5905.462194
647.430544	5908.539818
647.774101	5940.152894
648.117606	5953.942970
648.461059	5955.954391
648.804460	5933.362460
649.147810	5863.189598
649.491108	5851.501683
649.834354	5838.724878
650.177548	5775.927225
650.520690	5716.421445
650.863781	5707.307039
651.206820	5731.247478
651.549807	5672.923849
651.892742	5632.324917
652.235626	5644.741278
652.578458	5640.312625
652.921238	5567.561213
653.263967	5614.874962
653.606644	5558.088885
653.949269	5572.098252
654.291843	5527.869688
654.634365	5573.010700
654.976836	5541.385022
655.319255	5547.389036
655.661622	5533.840935
656.003938	5538.642634
656.346203	5510.873438
656.688416	5549.218975
657.030577	5507.823540
657.372687	5486.912834
657.714746	5485.103060
658.056753	5521.225447
658.398708	5476.023942
658.740612	5475.565197
659.082465	5522.843658
659.424266	5519.493811
659.766016	5525.084451
660.107715	5509.043499
660.449362	5523.375500
660.790958	5527.229462
661.132503	5518.301578
661.473996	5558.688782
661.815438	5547.507503
662.156829	5550.698553
662.498168	5552.591507
662.839456	5530.060070
663.180693	5568.241769
663.521879	5571.810906
663.863013	5563.389658
664.204097	5589.916210
664.545129	5630.316017
664.886110	5635.218539
665.227040	5664.565616
665.567918	5635.286594
665.908746	5662.909597
666.249522	5670.194064
666.590248	5661.855996
666.930922	5689.668042
667.271545	5708.582451
667.612118	5713.585796
667.952639	5689.415984
668.293109	5719.231888
668.633528	5678.781670
668.973896	5685.120921
669.314213	5679.789901
669.654480	5667.524773
669.994695	5662.090409
670.334859	5666.519063
670.674973	5660.656201
671.015035	5661.530841
671.355047	5662.685266
671.695008	5656.928268
672.034918	5629.287621
672.374777	5641.129292
672.714585	5633.318024
673.054342	5637.280371
673.394049	5634.870699
673.733705	5669.067366
674.073310	5656.439276
674.412864	5624.435511
674.752368	5619.737155
675.091820	5623.908710
675.431223	5560.170882
675.770574	5575.105300
676.109875	5528.073855
676.449125	5534.884454
676.788324	5503.523436
677.127473	5455.400581
677.466571	5449.968738
677.805619	5437.728816
678.144616	5431.074493
678.483562	5411.013222
678.822458	5385.159664
679.161303	5383.627153
679.500098	5371.606522
679.838842	5362.668556
680.177535	5367.192992
680.516179	5380.899889
680.854771	5390.488164
681.193314	5472.931194
681.531805	5579.823820
681.870247	5723.479060
682.208638	5823.155275
682.546978	5836.421071
682.885268	5812.762936
683.223508	5736.144959
683.561697	5688.949677
683.899836	5656.104039
684.237925	5616.856136
684.575963	5581.258028
684.913951	5545.740579
685.251889	5607.504796
685.589776	5572.201595
685.927614	5549.546650
686.265401	5617.251867
686.603137	5601.649495
686.940824	5679.061454
687.278460	5697.035688
687.616046	5707.201175
687.953582	5777.195075
688.291068	5758.729329
688.628504	5820.425490
688.965889	5784.814779
689.303224	5729.067179
689.640510	5683.427093
689.977745	5612.298933
690.314930	5520.174367
690.652065	5468.310976
690.989150	5376.937542
691.326185	5305.950534
691.663170	5259.239203
692.000105	5182.964024
692.336990	5110.179845
692.673825	5087.315692
693.010610	5018.768603
693.347345	4953.846103
693.684030	4944.779588
694.020665	4898.501795
694.357251	4819.789219
694.693786	4826.246937
695.030272	4798.578564
695.366707	4762.244448
695.703093	4728.567020
696.039429	4750.037294
696.375716	4734.901229
696.711952	4710.721335
697.048139	4703.749419
697.384276	4678.914175
697.720363	4692.374056
698.056400	4699.605591
698.392388	4652.375020
698.728326	4631.161845
699.064214	4610.624184
699.400053	4603.198565
699.735842	4574.784101
700.071581	4551.451120
700.407270	4526.935989
700.742910	4508.250953
701.078501	4455.056697
701.414042	4457.342860
701.749533	4430.586936
702.084974	4362.866596
702.420366	4418.709978
702.755709	4360.618242
703.091002	4309.412721
703.426246	4358.939537
703.761440	4312.878515
704.096584	4277.333339
704.431679	4297.301349
704.766725	4280.519348
705.101721	4274.583389
705.436668	4302.972647
705.771565	4247.618258
706.106413	4275.546250
706.441212	4307.489521
706.775961	4319.411850
707.110661	4297.117347
707.445311	4323.041481
707.779913	4352.254967
708.114465	4362.700238
708.448967	4384.097416
708.783421	4446.922795
709.117825	4485.709433
709.452180	4488.282942
709.786485	4534.767422
710.120742	4617.835555
710.454949	4599.838636
710.789107	4667.742978
711.123216	4741.427003
711.457275	4730.031475
711.791286	4808.151715
712.125247	4822.342563
712.459159	4723.256164
712.793023	4797.656033
713.126837	4759.859982
713.460602	4751.509311
713.794318	4674.712373
714.127985	4680.844937
714.461602	4598.550621
714.795171	4565.591557
715.128691	4503.348430
715.462162	4447.585707
715.795584	4400.345054
716.128957	4385.793764
716.462281	4331.102286
716.795556	4305.089932
717.128782	4267.843367
717.461960	4204.803738
717.795088	4213.184656
718.128167	4172.588244
718.461198	4111.638174
718.794180	4109.014253
719.127113	4094.432716
719.459997	4071.876073
719.792833	4030.805792
720.125619	4021.167106
720.458357	3985.448011
720.791046	3987.560254
721.123686	3960.895071
721.456278	3921.271602
721.788821	3937.166360
722.121315	3913.936723
722.453761	3888.380593
722.786158	3898.462901
723.118506	3921.657250
723.450805	3876.556567
723.783056	3897.227818
724.115259	3911.035539
724.447412	3917.089964
724.779518	3912.149634
725.111574	3914.894542
725.443582	3946.006023
725.775542	3933.577058
726.107453	3980.207731
726.439315	3978.546671
726.771129	3995.464783
727.102895	4028.754043
727.434612	4079.702464
727.766281	4088.796706
728.097901	4087.516252
728.429473	4091.476079
728.760996	4099.957820
729.092471	4091.246706
729.423897	4078.918565
729.755276	4087.974997
730.086606	4084.950305
730.417887	4123.989001
730.749120	4188.893856
731.080305	4254.638064
731.411442	4277.681178
731.742530	4242.940067
732.073570	4252.490533
732.404562	4303.373419
732.735506	4297.487872
733.066401	4257.362808
733.397249	4195.490206
733.728048	4120.704689
734.058798	4035.718397
734.389501	3971.068119
734.720156	3904.353489
735.050762	3861.433105
735.381320	3858.637786
735.711831	3806.229950
736.042293	3778.238943
736.372707	3801.337510
736.703073	3771.282151
737.033391	3765.585647
737.363661	3781.853451
737.693883	3809.103408
738.024056	3815.770334
738.354182	3808.604334
738.684260	3873.257132
739.014290	3892.486613
739.344272	3886.971591
739.674207	3932.213426
740.004093	3936.190896
740.333931	3923.441818
740.663722	3930.514557
740.993464	3927.794855
741.323159	3905.215527
741.652806	3873.446175
741.982405	3848.860468
742.311956	3816.675221
742.641460	3808.800939
742.970915	3782.183646
743.300323	3740.742841
743.629683	3706.717573
743.958996	3696.988146
744.288260	3673.695495
744.617477	3639.642501
744.946647	3630.878455
745.275768	3603.613374
745.604842	3599.961058
745.933869	3550.167061
746.262847	3546.033315
746.591778	3584.837597
746.920662	3554.169737
747.249498	3523.738812
747.578286	3570.863518
747.907027	3585.218204
748.235720	3582.513625
748.564365	3608.717542
748.892963	3611.137296
749.221514	3591.751539
749.550017	3567.793456
749.878473	3566.144998
750.206881	3536.997047
750.535242	3534.446223
750.863555	3536.228271
751.191821	3532.291130
751.520039	3511.012419
751.848210	3488.491064
752.176334	3522.889378
752.504411	3528.737116
752.832440	3488.591888
753.160421	3471.154536
753.488356	3484.369921
753.816243	3496.146057
754.144082	3448.965898
754.471875	3439.763271
754.799620	3456.300777
755.127318	3449.903552
755.454969	3448.618058
755.782572	3454.606949
756.110129	3427.835901
756.437638	3421.605035
756.765100	3434.568362
757.092515	3442.427521
757.419882	3453.535704
757.747203	3424.360026
758.074477	3425.002773
758.401703	3442.430042
758.728882	3464.293526
759.056014	3470.998261
759.383099	3474.015391
759.710138	3470.264773
760.037129	3489.496775
760.364073	3515.325126
760.690970	3502.921367
761.017820	3481.136021
761.344623	3497.993639
761.671379	3542.048283
761.998088	3594.307404
762.324751	3716.933472
762.651366	3963.332469
762.977935	4430.387811
763.304456	4866.162793
763.630931	4949.659424
763.957359	4592.702882
764.283740	4257.947582
764.610074	4069.708377
764.936362	3876.778378
765.262602	3720.253071
765.588796	3614.058645
765.914943	3527.645706
766.241044	3440.854681
766.567097	3408.734969
766.893104	3364.977754
767.219064	3335.441634
767.544978	3306.449958
767.870845	3255.436002
768.196665	3236.957652
768.522438	3243.604413
768.848165	3236.876994
769.173846	3206.246943
769.499479	3189.041485
769.825066	3171.581448
770.150607	3155.303563
770.476101	3167.354441
770.801548	3165.915192
771.126949	3115.417953
771.452303	3102.956221
771.777611	3109.744135
772.102872	3113.729167
772.428087	3091.543049
772.753256	3080.225658
773.078378	3071.280131
773.403453	3041.340718
773.728482	3028.153060
774.053465	3051.138201
774.378401	3037.353166
774.703291	3003.504338
775.028135	3004.888135
775.352932	3003.201869
775.677683	2989.946155
776.002388	2987.970023
776.327046	2989.106803
776.651658	2979.495843
776.976224	2966.711477
777.300743	2969.085860
777.625216	2958.522122
777.949643	2952.770166
778.274024	2951.429219
778.598359	2944.787499
778.922647	2949.642130
779.246889	2948.127263
779.571086	2933.230653
779.895236	2927.748399
780.219339	2941.359514
780.543397	2953.231431
780.867409	2955.136988
781.191374	2948.386883
781.515294	2942.355142
781.839167	2941.873712
782.162995	2935.960438
782.486776	2942.836572
782.810511	2941.823300
783.134201	2929.273348
783.457844	2936.078905
783.781441	2927.524067
784.104993	2906.688978
784.428498	2907.145203
784.751958	2919.138108
785.075372	2914.096954
785.398739	2902.149419
785.722061	2915.805905
786.045337	2926.846032
786.368568	2914.507808
786.691752	2903.923906
787.014891	2952.563478
787.337983	2978.043991
787.661030	3005.412415
787.984031	3073.783064
788.306987	3120.449025
788.629897	3110.646501
788.952760	3092.395004
789.275579	3079.408992
789.598351	3019.341123
789.921078	2977.260091
790.243759	2970.351190
790.566395	2953.780917
790.888984	2929.230498
791.211529	2912.687952
791.534027	2905.567322
791.856480	2895.742113
792.178888	2878.647560
792.501249	2871.763865
792.823566	2867.665407
793.145836	2863.476208
793.468062	2860.554859
793.790241	2861.908409
794.112375	2867.814121
794.434464	2876.958774
794.756507	2881.165617
795.078505	2885.627038
795.400457	2901.851991
795.722364	2935.292485
796.044226	2963.533029
796.366042	2962.524798
796.687812	2950.607511
797.009538	2972.566777
797.331218	2959.411886
797.652852	2945.319340
797.974442	2926.568769
798.295986	2923.150866
798.617484	2918.727254
798.938938	2899.767474
799.260346	2888.240876
799.581709	2880.830380
799.903026	2878.173692
800.224299	2873.571118
800.545526	2863.226671
800.866708	2847.773013
801.187845	2835.636436
801.508936	2839.389575
801.829983	2843.760255
802.150984	2830.907833
802.471940	2819.471976
802.792851	2820.177737
803.113717	2821.745536
803.434538	2825.533963
803.755314	2818.539362
804.076045	2811.814463
804.396731	2812.729432
804.717372	2811.421253
805.037967	2806.836324
805.358518	2812.661377
805.679024	2827.074036
805.999485	2822.398366
806.319901	2824.775270
806.640272	2817.316882
806.960598	2823.749395
807.280879	2831.933708
807.601115	2837.988134
807.921306	2823.341061
808.241453	2824.054385
808.561554	2828.160404
808.881611	2829.372802
809.201623	2825.647389
809.521590	2821.911894
809.841513	2818.181440
810.161390	2825.226453
810.481223	2815.108857
810.801011	2809.324133
811.120755	2804.293062
811.440453	2808.895635
811.760107	2804.580407
812.079716	2805.450006
812.399281	2793.930970
812.718801	2789.552728
813.038276	2785.968467
813.357707	2790.979374
813.677093	2798.326856
813.996434	2791.574230
814.315731	2788.731020
814.634983	2782.795061
814.954191	2784.330092
815.273354	2798.495735
815.592473	2806.180974
815.911547	2808.847744
816.230577	2816.235555
816.549562	2827.555466
816.868502	2820.888540
817.187399	2830.121413
817.506250	2851.606811
817.825058	2841.708505
818.143821	2855.241483
818.462539	2870.485932
818.781213	2896.783111
819.099843	2930.737803
819.418429	2989.023624
819.736970	3045.164433
820.055466	3117.673870
820.373919	3220.614231
820.692327	3358.338554
821.010691	3519.557175
821.329011	3952.365438
821.647286	4835.479810
821.965517	6175.428585
822.283704	6887.461319
822.601847	6855.923860
822.919945	6235.400672
823.237999	5753.504173
823.556010	5181.585269
823.873976	4651.979290
824.191897	4251.918362
824.509775	3963.108137
824.827609	3704.688509
825.145398	3585.994542
825.463144	3576.421390
825.780845	3670.075947
826.098502	3772.839868
826.416116	4051.535017
826.733685	4353.243033
827.051210	4407.410232
827.368692	4295.763797
827.686129	4039.781567
828.003522	3721.306673
828.320872	3471.250318
828.638177	3281.017337
828.955439	3149.234013
829.272656	3068.348700
829.589830	3003.116169
829.906960	2957.662606
830.224046	2911.669638
830.541088	2881.236193
830.858086	2866.647093
831.175041	2848.078003
831.491952	2850.570854
831.808819	2865.868235
832.125642	2885.750546
832.442421	2928.708738
832.759157	3007.315450
833.075849	3182.188036
833.392497	3456.537711
833.709101	3656.374090
834.025662	3606.073457
834.342179	3446.621761
834.658653	3274.035339
834.975083	3128.209881
835.291469	3039.243598
835.607811	2953.939713
835.924110	2895.333779
836.240366	2850.240658
836.556578	2805.318936
836.872746	2784.987963
837.188871	2762.663213
837.504952	2748.124525
837.820990	2739.783936
838.136984	2725.104096
838.452935	2715.972046
838.768842	2717.607901
839.084706	2736.146744
839.400526	2812.021150
839.716303	2939.680810
840.032037	3018.252234
840.347727	3002.854029
840.663373	2944.830348
840.978977	2869.712115
841.294537	2800.643266
841.610054	2754.519229
841.925527	2735.246898
842.240957	2712.102961
842.556344	2691.136802
842.871687	2673.666683
843.186987	2668.111332
843.502244	2663.879283
843.817458	2656.985505
844.132629	2648.387817
844.447756	2638.965901
844.762840	2633.171094
845.077881	2635.986579
845.392879	2630.620270
845.707833	2627.419138
846.022745	2620.979064
846.337613	2624.575927
846.652438	2623.335803
846.967221	2625.158180
847.281960	2622.957717
847.596656	2621.558796
847.911309	2619.713734
848.225919	2617.432612
848.540485	2614.919597
848.855009	2614.284411
849.169490	2615.433794
849.483928	2614.483537
849.798323	2611.743670
850.112675	2609.797784
850.426984	2612.502363
850.741251	2608.540017
851.055474	2610.397682
851.369654	2614.165944
851.683792	2613.233331
851.997887	2612.068824
852.311938	2609.575974
852.625947	2614.584360
852.939914	2615.154010
853.253837	2614.357508
853.567718	2610.551437
853.881555	2613.752570
854.195350	2614.332302
854.509103	2613.639144
854.822812	2611.126128
855.136479	2610.490943
855.450103	2610.959770
855.763685	2614.085286
856.077224	2608.855089
856.390720	2606.672269
856.704173	2611.715943
857.017584	2614.377673
857.330953	2614.796088
857.644278	2616.542848
857.957561	2619.081069
858.270802	2614.780965
858.584000	2614.327261
858.897155	2618.156017
859.210268	2617.672067
859.523339	2612.608228
859.836367	2610.838783
860.149352	2611.773917
860.462295	2611.821808
860.775195	2608.540017
861.088054	2608.187136
861.400869	2607.574636
861.713642	2600.464088
862.026373	2605.338884
862.339062	2611.728546
862.651708	2614.493619
862.964312	2614.173506
863.276873	2610.659822
863.589392	2615.728702
863.901869	2618.629886
864.214303	2625.425361
864.526696	2626.801596
864.839045	2628.629015
865.151353	2629.521299
865.463619	2631.762092
865.775842	2630.975672
866.088023	2629.170939
866.400162	2632.193110
866.712258	2630.637914
867.024313	2629.072636
867.336325	2623.613067
867.648296	2624.984260
867.960224	2633.904582
868.272110	2630.537091
868.583954	2625.861421
868.895755	2626.486524
869.207515	2631.351238
869.519233	2637.294758
869.830909	2633.350055
870.142542	2631.356279
870.454134	2630.584982
870.765684	2634.007926
871.077191	2636.780560
871.388657	2640.342136
871.700081	2640.110242
872.011463	2637.443472
872.322803	2640.687455
872.634101	2644.531334
872.945357	2651.120122
873.256571	2656.529281
873.567744	2653.910401
873.878874	2653.096255
874.189963	2653.401245
874.501010	2658.086997
874.812015	2659.856442
875.122979	2660.925167
875.433900	2654.263282
875.744780	2654.870741
876.055618	2657.421565
876.366415	2661.698984
876.677169	2661.041113
876.987882	2657.096410
877.298554	2654.137253
877.609183	2666.379695
877.919771	2673.863288
878.230317	2677.797909
878.540822	2690.189065
878.851285	2701.561908
879.161707	2722.709548
879.472087	2760.727410
879.782425	2807.574853
880.092722	2915.876481
880.402977	3096.521188
880.713191	3346.469158
881.023363	3620.407978
881.333494	3803.921102
881.643583	3970.821103
881.953631	3970.848829
882.263637	3797.821306
882.573602	3580.696289
882.883526	3460.495017
883.193408	3353.017617
883.503248	3253.747215
883.813048	3142.889721
884.122806	3035.298895
884.432522	2954.282512
884.742197	2894.156670
885.051831	2858.664426
885.361424	2826.191834
885.670975	2787.604322
885.980485	2762.980806
886.289954	2744.300810
886.599382	2731.556773
886.908768	2722.893550
887.218113	2702.963349
887.527417	2690.499096
887.836680	2683.325534
888.145901	2678.037363
888.455082	2670.092505
888.764221	2658.255876
889.073319	2652.569454
889.382376	2651.112561
889.691392	2651.891419
890.000366	2651.649444
890.309300	2651.132725
890.618193	2654.472490
890.927044	2655.619352
891.235855	2656.037768
891.544625	2652.183806
891.853353	2655.773107
892.162041	2663.110507
892.470687	2683.751511
892.779293	2693.304498
893.087858	2702.328163
893.396381	2719.873899
893.704864	2765.269490
894.013306	2827.890703
894.321707	2915.962181
894.630068	2962.817185
894.938387	2980.342757
895.246665	2974.023670
895.554903	2933.270983
895.863100	2890.985784
896.171256	2836.445541
896.479371	2778.893208
896.787446	2742.939699
897.095480	2724.053016
897.403473	2719.586553
897.711425	2705.181456
898.019336	2685.009279
898.327207	2674.816066
898.635038	2674.339677
898.942827	2671.156188
899.250576	2660.862152
899.558284	2651.621717
899.865952	2648.781027
900.173579	2647.490492
900.481165	2643.266005
900.788711	2636.571352
901.096216	2631.752009
901.403681	2629.118007
901.711105	2625.904271
902.018489	2624.749847
902.325832	2628.119858
902.633135	2628.525671
902.940397	2645.688279
903.247619	2678.175995
903.554800	2746.629823
903.861941	2867.715818
904.169041	2984.431133
904.476101	3040.491284
904.783121	3032.687578
905.090100	2979.508446
905.397039	2908.150913
905.703938	2842.454596
906.010796	2784.103240
906.317614	2730.276320
906.624391	2698.728779
906.931129	2672.973524
907.237826	2650.479896
907.544483	2635.026239
907.851099	2620.855555
908.157675	2612.434308
908.464211	2607.380551
908.770707	2596.325301
909.077163	2593.018304
909.383578	2588.340113
909.689954	2588.942531
909.996289	2588.851790
910.302584	2588.385483
910.608839	2583.757704
910.915054	2584.649988
911.221229	2587.036975
911.527363	2589.126533
911.833458	2587.783066
912.139513	2589.035792
912.445527	2590.926225
912.751502	2597.257914
913.057436	2604.353338
913.363331	2606.596652
913.669186	2617.052005
913.975000	2627.086422
914.280775	2640.846251
914.586510	2657.729075
914.892205	2695.751978
915.197859	2758.020310
915.503475	2839.248422
915.809050	2899.714542
916.114585	2910.505132
916.420081	2916.773807
916.725536	2934.790891
917.030952	2910.802560
917.336328	2865.202803
917.641665	2818.289825
917.946961	2768.508431
918.252218	2737.598596
918.557435	2714.895760
918.862612	2695.033614
919.167750	2678.309586
919.472848	2664.070847
919.777906	2647.868578
920.082925	2634.988430
920.387904	2627.416617
920.692843	2623.696246
920.997743	2618.869341
921.302603	2612.739298
921.607423	2602.848554
921.912204	2601.348811
922.216946	2599.725559
922.521647	2597.835126
922.826310	2590.911102
923.130932	2587.036975
923.435516	2586.081676
923.740059	2583.394741
924.044564	2581.615214
924.349028	2579.417271
924.653454	2572.185736
924.957840	2569.725652
925.262186	2567.963769
925.566493	2570.791857
925.870761	2564.001422
926.174989	2567.323543
926.479178	2563.053685
926.783328	2562.093346
927.087438	2561.642162
927.391509	2562.302553
927.695541	2557.959599
927.999533	2557.188303
928.303486	2555.998591
928.607400	2560.485217
928.911275	2559.638304
929.215110	2554.697973
929.518906	2554.183775
929.822663	2554.231666
930.126381	2555.857438
930.430060	2556.706873
930.733699	2554.950031
931.037299	2556.762325
931.340861	2558.322563
931.644383	2557.137891
931.947866	2557.437840
932.251309	2558.519167
932.554714	2556.704352
932.858080	2558.209137
933.161407	2555.890206
933.464694	2555.938097
933.767943	2555.985988
934.071153	2554.962633
934.374323	2553.934238
934.677455	2553.316697
934.980548	2552.323589
935.283602	2553.586398
935.586617	2552.013558
935.889593	2552.724361
936.192530	2553.475493
936.495428	2550.912066
936.798287	2553.803168
937.101108	2556.769887
937.403890	2561.654765
937.706632	2563.328428
938.009336	2561.896741
938.312002	2565.952349
938.614628	2568.256156
938.917216	2573.463668
939.219765	2573.695561
939.522275	2576.679924
939.824747	2574.857547
940.127179	2570.504511
940.429573	2564.702143
940.731929	2567.943605
941.034246	2560.732234
941.336524	2566.136351
941.638763	2564.195507
941.940964	2568.583831
942.243126	2559.698797
942.545250	2565.269273
942.847335	2561.344734
943.149381	2559.224929
943.451389	2558.098231
943.753359	2559.260217
944.055290	2556.636297
944.357182	2558.776266
944.659036	2555.950700
944.960851	2557.924311
945.262628	2555.161759
945.564367	2556.316183
945.866067	2556.535473
946.167729	2557.619322
946.469352	2556.608570
946.770937	2557.190823
947.072484	2552.169834
947.373992	2554.239228
947.675462	2555.126471
947.976893	2554.652602
948.278286	2555.610422
948.579641	2554.461039
948.880958	2553.384752
949.182236	2549.366953
949.483476	2555.113868
949.784678	2555.522202
950.085841	2551.527087
950.386967	2554.556821
950.688054	2553.220915
950.989103	2553.251162
951.290114	2554.889537
951.591087	2554.047664
951.892021	2555.118909
952.192917	2557.712583
952.493776	2560.051678
952.794596	2559.693756
953.095378	2559.807182
953.396122	2560.255845
953.696828	2559.323232
953.997496	2562.221895
954.298126	2556.149825
954.598718	2555.640669
954.899272	2555.643189
955.199788	2553.288970
955.500266	2553.911553
955.800706	2546.692621
956.101108	2543.773792
956.401472	2548.782179
956.701798	2542.503422
957.002087	2544.222455
957.302337	2546.334699
957.602550	2545.419729
957.902724	2542.193391
958.202861	2542.637012
958.502960	2546.138094
958.803022	2544.562733
959.103045	2544.598021
959.403031	2542.407640
959.702979	2541.560726
960.002889	2543.551982
960.302762	2542.281611
960.602596	2540.529810
960.902393	2543.501570
961.202153	2543.360418
961.501875	2540.726415
961.801559	2541.903524
962.101205	2540.403781
962.400814	2542.140459
962.700385	2542.372352
962.999918	2542.458051
963.299414	2538.427649
963.598873	2542.974770
963.898293	2539.423277
964.197677	2542.548792
964.497022	2541.580891
964.796331	2539.997968
965.095601	2542.110212
965.394835	2540.272711
965.694030	2541.285983
965.993189	2540.761703
966.292309	2539.791281
966.591393	2539.267001
966.890439	2538.765406
967.189447	2541.596014
967.488419	2542.314378
967.787353	2540.681045
968.086249	2540.091230
968.385108	2538.841023
968.683930	2538.374717
968.982714	2539.987886
969.281462	2541.008720
969.580172	2539.962680
969.878844	2542.437887
970.177480	2540.446631
970.476078	2540.408822
970.774639	2542.604245
971.073162	2541.187681
971.371649	2538.977135
971.670098	2536.028060
971.968510	2536.101156
972.266885	2536.287679
972.565223	2540.628113
972.863524	2541.268339
973.161788	2542.432846
973.460014	2538.372196
973.758204	2540.580222
974.056356	2538.919161
974.354471	2540.948226
974.652550	2540.078627
974.950591	2541.164995
975.248595	2539.730787
975.546563	2539.342618
975.844493	2540.428987
976.142386	2539.733308
976.440243	2541.593493
976.738062	2541.469985
977.035845	2539.377906
977.333590	2539.990407
977.631299	2541.956457
977.928971	2538.594007
978.226606	2538.379758
978.524204	2538.805735
978.821765	2541.031405
979.119290	2537.084181
979.416777	2540.015612
979.714228	2541.583411
980.011642	2540.376055
980.309020	2542.745397
980.606360	2537.535365
980.903664	2540.862526
981.200931	2541.101981
981.498162	2541.525438
981.795356	2544.066179
982.092513	2548.308310
982.389633	2548.928372
982.686717	2552.247972
982.983764	2552.873075
983.280775	2558.181410
983.577749	2552.379042
983.874686	2553.394835
984.171587	2549.868547
984.468451	2547.993238
984.765279	2544.968546
985.062070	2544.754297
985.358824	2544.030891
985.655543	2540.701209
985.952224	2539.854295
986.248869	2540.769265
986.545478	2536.446475
986.842050	2536.580066
987.138586	2535.347504
987.435086	2534.568646
987.731549	2532.373223
988.027975	2538.576363
988.324366	2536.403626
988.620719	2536.827083
988.917037	2537.971424
989.213318	2538.044521
989.509563	2538.707433
989.805772	2538.803215
990.101944	2536.491846
990.398080	2540.169367
990.694180	2536.345652
990.990244	2540.318082
991.286271	2537.487474
991.582262	2539.372865
991.878217	2536.824562
992.174136	2537.220293
992.470019	2535.836496
992.765865	2537.525282
993.061676	2540.665921
993.357450	2536.237268
993.653188	2534.568646
993.948890	2537.321116
994.244556	2537.396733
994.540186	2537.396733
994.835780	2539.672814
995.131337	2537.996630
995.426859	2537.051414
995.722345	2537.951260
996.017795	2540.796991
996.313208	2542.798329
996.608586	2538.770447
996.903928	2543.544420
997.199234	2540.300438
997.494504	2540.549975
997.789738	2540.418905
998.084936	2540.436549
998.380099	2538.997299
998.675225	2540.181970
998.970316	2539.473688
999.265371	2540.670962
999.560390	2539.574511
999.855373	2539.912269
1000.150320	2538.349511
1000.445232	2537.391692
1000.740108	2535.559232
1001.034948	2537.943698
1001.329752	2535.839016
1001.624521	2536.290200
1001.919254	2533.383974
1002.213951	2535.168543
1002.508613	2533.580579
1002.803239	2535.826413
1003.097829	2530.092101
1003.392384	2536.138965
1003.686903	2536.746424
1003.981386	2535.665097
1004.275834	2536.869932
1004.570246	2538.145344
1004.864623	2535.402957
1005.158964	2535.241640
1005.453270	2532.695857
1005.747540	2537.701723
1006.041775	2536.963194
1006.335974	2537.369007
1006.630138	2536.156609
1006.924266	2536.960673
1007.218359	2534.523275
1007.512416	2535.793646
1007.806438	2538.578883
1008.100425	2533.769623
1008.394376	2536.559901
1008.688292	2536.310364
1008.982172	2534.634181
1009.276017	2535.556712
1009.569827	2535.891948
1009.863602	2536.640560
1010.157341	2536.181815
1010.451045	2536.897659
1010.744714	2533.804911
1011.038347	2537.941177
1011.331945	2534.611495
1011.625508	2536.602751
1011.919036	2534.782895
1012.212528	2534.631660
1012.505986	2534.195600
1012.799408	2536.380940
1013.092795	2532.975641
1013.386147	2536.605272
1013.679464	2532.587472
1013.972745	2536.300282
1014.265992	2536.315405
1014.559204	2535.833975
1014.852380	2535.105528
1015.145521	2536.925385
1015.438628	2534.402288
1015.731699	2534.989582
1016.024736	2536.320447
1016.317737	2534.903882
1016.610703	2538.099974
1016.903635	2530.878521
1017.196531	2532.325332
1017.489393	2533.129396
1017.782219	2532.421114
1018.075011	2532.837009
1018.367768	2539.115766
1018.660490	2536.451517
1018.953177	2536.451517
1019.245829	2536.451517
