Dividing Wavelength (nm)	Counts (n)	Blue Motor Position (mm): 6.200000	Red Motor Position (mm): 0.000000	
326.493990	2062.053734
326.888308	2062.053734
327.282561	2062.053734
327.676750	2038.962729
328.070874	2040.583460
328.464933	2045.944727
328.858929	2054.819678
329.252859	2065.138920
329.646726	2077.721640
330.040528	2097.964393
330.434265	2112.533328
330.827938	2135.213479
331.221547	2156.343475
331.615091	2174.867195
332.008571	2196.728159
332.401986	2214.707434
332.795338	2236.883470
333.188625	2253.509195
333.581847	2274.712288
333.975006	2291.411110
334.368100	2306.763944
334.761129	2327.092397
335.154095	2340.635457
335.546996	2357.102386
335.939833	2377.483771
336.332606	2391.087325
336.725315	2402.404715
337.117960	2411.156158
337.510540	2420.951120
337.903056	2430.889755
338.295508	2436.815631
338.687896	2445.476334
339.080220	2446.948351
339.472480	2451.450101
339.864676	2457.524691
340.256807	2461.358489
340.648875	2462.485187
341.040879	2462.162553
341.432818	2462.366720
341.824694	2463.584158
342.216506	2462.744806
342.608253	2464.945270
342.999937	2463.006946
343.391557	2461.658437
343.783113	2461.310598
344.174605	2459.692388
344.566033	2459.316822
344.957397	2458.863118
345.348697	2455.825823
345.739934	2454.081583
346.131106	2451.790379
346.522215	2448.682508
346.913260	2446.270315
347.304241	2448.911880
347.695159	2445.541869
348.086012	2443.774944
348.476802	2442.847372
348.867528	2440.616661
349.258191	2434.917637
349.648789	2437.609613
350.039324	2431.913109
350.429796	2433.783377
350.820203	2434.365631
351.210548	2438.252360
351.600828	2434.219437
351.991045	2435.091557
352.381198	2431.706422
352.771288	2432.661721
353.161314	2433.795980
353.551276	2434.592483
353.941175	2431.272883
354.331010	2434.572318
354.720782	2431.328335
355.110490	2434.368151
355.500135	2432.722214
355.889717	2435.351176
356.279235	2435.588110
356.668689	2434.584921
357.058080	2434.524427
357.447408	2435.003337
357.836672	2434.463933
358.225873	2435.320929
358.615010	2438.070879
359.004084	2434.332863
359.393095	2437.254212
359.782043	2437.677669
360.170927	2437.758327
360.559748	2439.535334
360.948505	2436.306475
361.337199	2442.302927
361.725830	2438.612803
362.114398	2442.305448
362.502903	2439.996599
362.891344	2441.904676
363.279722	2441.156065
363.668037	2440.472988
364.056289	2443.674121
364.444478	2444.611776
364.832603	2443.648915
365.220665	2444.397527
365.608665	2447.117229
365.996601	2441.854265
366.384474	2445.902311
366.772284	2444.692434
367.160031	2446.625717
367.547715	2445.035233
367.935336	2445.970367
368.322893	2443.512804
368.710388	2442.320571
369.097820	2445.723350
369.485189	2440.568770
369.872495	2449.882302
370.259738	2446.320727
370.646918	2447.777620
371.034035	2446.807198
371.421090	2448.871551
371.808081	2450.061263
372.195010	2448.380038
372.581875	2449.320213
372.968678	2447.845676
373.355418	2448.649740
373.742096	2448.279215
374.128710	2450.630913
374.515262	2448.795933
374.901751	2450.900615
375.288177	2449.758794
375.674540	2447.523042
376.060841	2452.087807
376.447079	2450.683846
376.833254	2450.966150
377.219367	2453.355657
377.605417	2457.073508
377.991404	2449.511777
378.377329	2452.914556
378.763191	2455.064608
379.148991	2453.015379
379.534727	2450.328444
379.920402	2451.800461
380.306013	2451.800461
380.691563	2455.495627
381.077049	2454.573096
381.462474	2455.583847
381.847835	2452.433126
382.233134	2453.990842
382.618371	2455.407407
383.003545	2454.583178
383.388657	2454.331120
383.773706	2458.439661
384.158693	2453.466562
384.543618	2453.441357
384.928480	2457.065946
385.313280	2456.493775
385.698017	2455.518312
386.082692	2456.108127
386.467305	2457.267593
386.851856	2456.773559
387.236344	2457.711214
387.620770	2455.601491
388.005133	2453.655606
388.389435	2457.111317
388.773674	2453.539659
389.157851	2458.651389
389.541965	2457.532253
389.926018	2457.882613
390.310008	2459.768005
390.693936	2456.702983
391.077802	2458.923612
391.461606	2457.323045
391.845348	2457.938066
392.229027	2461.658437
392.612645	2460.725824
392.996200	2460.020063
393.379694	2458.159877
393.763125	2459.974692
394.146494	2460.935032
394.529801	2461.222378
394.913047	2461.955866
395.296230	2460.672892
395.679351	2460.239353
396.062410	2461.981071
396.445408	2459.727676
396.828343	2462.260855
397.211217	2462.028962
397.594028	2461.479477
397.976778	2458.638786
398.359466	2461.537450
398.742092	2460.458643
399.124656	2463.528706
399.507158	2463.614405
399.889598	2464.080712
400.271977	2463.964765
400.654294	2462.717080
401.036549	2464.226905
401.418742	2463.143057
401.800874	2464.554580
402.182944	2462.679271
402.564952	2465.575414
402.946898	2465.257821
403.328783	2464.423510
403.710606	2466.807976
404.092367	2465.008284
404.474067	2466.560960
404.855705	2465.162039
405.237282	2466.248408
405.618797	2464.940229
406.000250	2467.521299
406.381642	2465.651031
406.762972	2464.496607
407.144240	2461.930660
407.525447	2463.405197
407.906593	2461.514765
408.287677	2465.141875
408.668700	2467.934674
409.049661	2466.046762
409.430560	2469.888121
409.811399	2471.551702
410.192176	2468.156485
410.572891	2469.217648
410.953545	2468.262349
411.334138	2470.339304
411.714669	2469.026084
412.095139	2468.136320
412.475547	2468.438789
412.855894	2469.051290
413.236180	2468.373254
413.616405	2470.629171
413.996568	2468.005250
414.376670	2467.750672
414.756711	2470.107411
415.136691	2468.184211
415.516609	2469.464664
415.896466	2469.915847
416.276262	2469.961218
416.655997	2467.775878
417.035670	2471.292083
417.415283	2469.106742
417.794834	2471.332412
418.174324	2469.260497
418.553753	2471.760910
418.933121	2470.477936
419.312428	2466.593727
419.691674	2472.126393
420.070859	2471.597072
420.449983	2472.282669
420.829045	2470.372072
421.208047	2474.430201
421.586988	2471.576908
421.965867	2474.649491
422.344686	2468.463995
422.723444	2473.348873
423.102141	2469.779736
423.480777	2471.418111
423.859352	2473.437093
424.237866	2471.607155
424.616319	2470.908955
424.994712	2473.638740
425.373044	2471.254274
425.751314	2471.221506
426.129524	2470.757720
426.507673	2471.965077
426.885762	2466.316464
427.263789	2472.481795
427.641756	2472.484315
428.019662	2475.476240
428.397508	2472.726291
428.775292	2475.430870
429.153016	2475.352732
429.530679	2474.566312
429.908282	2473.996662
430.285824	2474.785602
430.663305	2472.340643
431.040726	2476.176961
431.418086	2476.522280
431.795385	2474.344501
432.172624	2475.980356
432.549802	2476.595376
432.926920	2476.048411
433.303977	2475.972794
433.680974	2474.394913
434.057910	2475.690489
434.434786	2475.254429
434.811601	2473.386682
435.188355	2475.171250
435.565050	2474.818370
435.941683	2477.646457
436.318257	2475.478761
436.694770	2474.478092
437.071222	2475.224183
437.447614	2477.608648
437.823946	2476.718885
438.200218	2477.013792
438.576429	2478.097640
438.952580	2477.059162
439.328670	2477.210397
439.704700	2476.237454
440.080670	2476.726446
440.456580	2475.272073
440.832429	2477.714513
441.208218	2476.335757
441.583947	2475.975314
441.959616	2475.587146
442.335224	2476.582773
442.710773	2478.879019
443.086261	2478.594194
443.461689	2478.584112
443.837057	2478.606797
444.212365	2477.086889
444.587612	2475.307362
444.962800	2474.573874
445.337927	2475.723257
445.712995	2471.498770
446.088002	2476.670994
446.462949	2476.260140
446.837837	2477.656539
447.212664	2478.178299
447.587431	2478.538741
447.962139	2477.041518
448.336786	2480.298104
448.711374	2480.134266
449.085901	2479.078145
449.460369	2478.405151
449.834776	2478.868937
450.209124	2481.170223
450.583412	2476.643267
450.957640	2479.526807
451.331808	2479.897332
451.705917	2477.439770
452.079965	2479.793988
452.453954	2478.674852
452.827883	2477.449852
453.201752	2480.207363
453.575562	2482.347333
453.949311	2479.156282
454.323001	2478.911787
454.696632	2478.495891
455.070202	2479.368011
455.443713	2480.217445
455.817164	2479.330202
456.190556	2479.415902
456.563888	2483.053094
456.937160	2481.903711
457.310373	2481.926397
457.683526	2479.826756
458.056619	2480.005717
458.429653	2480.419092
458.802628	2478.747949
459.175542	2482.619555
459.548398	2482.110399
459.921194	2481.437405
460.293930	2480.978660
460.666607	2481.429843
461.039224	2477.661580
461.411782	2480.872795
461.784280	2479.433546
462.156719	2480.774493
462.529099	2481.356746
462.901419	2482.969915
463.273680	2479.501602
463.645882	2475.357773
464.018024	2480.134266
464.390106	2476.454224
464.762130	2483.098465
465.134094	2481.676859
465.505999	2481.654174
465.877845	2481.639051
466.249631	2481.056797
466.621358	2482.359936
466.993026	2482.294401
467.364634	2484.767087
467.736184	2483.073259
468.107674	2483.385811
468.479105	2481.611324
468.850477	2480.686273
469.221790	2485.384628
469.593043	2483.342961
469.964238	2485.530822
470.335373	2483.436222
470.706449	2481.981849
471.077467	2482.327168
471.448425	2483.869761
471.819324	2481.639051
472.190164	2483.824391
472.560945	2480.910604
472.931667	2483.224494
473.302330	2485.087200
473.672934	2480.799699
474.043479	2484.197436
474.413965	2482.768269
474.784393	2483.781541
475.154761	2484.804895
475.525070	2481.780203
475.895321	2483.542086
476.265513	2482.377580
476.635645	2483.529483
477.005719	2483.784062
477.375734	2485.266161
477.745691	2483.491675
478.115588	2481.250882
478.485427	2482.659884
478.855207	2484.255410
479.224928	2483.476551
479.594591	2483.015286
479.964194	2485.036788
480.333739	2483.968064
480.703226	2483.645430
481.072653	2486.954947
481.442022	2484.419247
481.811333	2481.190388
482.180584	2479.355408
482.549777	2480.928248
482.918912	2479.579739
483.287988	2488.245483
483.657005	2486.312200
484.025964	2484.363794
484.394864	2487.307828
484.763706	2484.774648
485.132489	2485.036788
485.501213	2485.248517
485.869879	2484.343630
486.238487	2483.617704
486.607036	2486.196254
486.975527	2484.625934
487.343959	2485.780359
487.712333	2483.753815
488.080648	2485.213229
488.448905	2485.755153
488.817104	2484.396562
489.185244	2484.187354
489.553326	2481.107209
489.921350	2487.335555
490.289315	2485.014103
490.657222	2486.531491
491.025070	2484.036119
491.392861	2488.583240
491.760593	2486.861686
492.128267	2488.489979
492.495883	2485.041830
492.863440	2485.727427
493.230939	2487.378404
493.598380	2487.529639
493.965763	2484.076449
494.333088	2488.885709
494.700354	2482.188537
495.067563	2488.066522
495.434713	2484.431850
495.801805	2486.546614
496.168839	2487.680874
496.535815	2486.034937
496.902733	2488.552993
497.269593	2487.126347
497.636395	2486.947386
498.003139	2486.927221
498.369825	2488.767242
498.736453	2486.413023
499.103023	2487.333034
499.469535	2486.478558
499.835989	2485.513177
500.202385	2485.351861
500.568723	2483.562251
500.935003	2481.397075
501.301226	2483.426140
501.667390	2486.612149
502.033497	2486.082828
502.399546	2486.317242
502.765537	2485.341778
503.131470	2488.426964
503.497345	2488.179948
503.863163	2488.426964
504.228923	2487.554845
504.594625	2488.847901
504.960269	2487.249855
505.325856	2485.520739
505.691385	2487.189361
506.056856	2486.470997
506.422270	2487.564927
506.787625	2489.992243
507.152924	2486.405462
507.518164	2489.069712
507.883347	2489.934269
508.248472	2486.750781
508.613540	2487.655668
508.978550	2487.640544
509.343503	2487.375884
509.708398	2486.629793
510.073236	2485.770276
510.438016	2485.165338
510.802738	2487.627942
511.167403	2487.975781
511.532010	2486.869248
511.896561	2487.920328
512.261053	2489.397387
512.625488	2485.835811
512.989866	2487.504433
513.354186	2487.393528
513.718449	2487.910246
514.082655	2487.010400
514.446803	2489.092397
514.810894	2490.214053
515.174927	2488.631131
515.538904	2488.855462
515.902822	2491.038282
516.266684	2487.580051
516.630488	2488.331183
516.994235	2487.461583
517.357925	2488.500061
517.721558	2486.833960
518.085133	2487.920328
518.448651	2487.065853
518.812112	2485.540904
519.175516	2485.130050
519.538863	2484.421768
519.902152	2487.123826
520.265385	2490.360247
520.628560	2488.268168
520.991678	2490.009887
521.354739	2487.958137
521.717743	2489.601553
522.080690	2488.439567
522.443580	2490.062819
522.806413	2486.866727
523.169189	2489.258755
523.531908	2490.309835
523.894569	2487.569968
524.257174	2486.657519
524.619722	2490.950062
524.982213	2487.958137
525.344647	2488.094248
525.707025	2490.077942
526.069345	2487.622900
526.431608	2488.013590
526.793815	2489.430154
527.155964	2491.310504
527.518057	2487.464104
527.880093	2489.049547
528.242072	2487.474186
528.603995	2489.830926
528.965860	2489.409989
529.327669	2488.124495
529.689421	2488.311018
530.051117	2488.910915
530.412755	2488.729434
530.774337	2490.927377
531.135862	2489.092397
531.497331	2487.693477
531.858743	2490.070381
532.220098	2487.446460
532.581396	2487.416213
532.942638	2490.012407
533.303824	2486.604587
533.664953	2488.671460
534.026025	2487.494351
534.387040	2489.725062
534.747999	2487.726244
535.108902	2490.957624
535.469748	2490.214053
535.830537	2489.904023
536.191270	2487.007880
536.551947	2486.133239
536.912567	2485.125009
537.273131	2487.537201
537.633638	2484.152066
537.994089	2490.566934
538.354483	2491.529795
538.714821	2488.656337
539.075103	2489.331852
539.435328	2487.353199
539.795497	2488.963847
540.155609	2489.324290
540.515665	2488.560555
540.875665	2489.425113
541.235609	2490.506440
541.595496	2490.224136
541.955328	2487.695997
542.315102	2487.416213
542.674821	2492.958962
543.034483	2489.745226
543.394090	2489.624238
543.753640	2490.632469
544.113134	2487.035606
544.472571	2491.703714
544.831953	2488.696666
545.191278	2490.849239
545.550548	2487.169197
545.909761	2492.016266
546.268918	2487.834629
546.628019	2490.241780
546.987064	2489.614156
547.346053	2489.107520
547.704986	2490.098107
548.063863	2491.103817
548.422684	2489.999804
548.781449	2490.196409
549.140158	2487.711121
549.498811	2488.474855
549.857408	2487.552324
550.215949	2490.244300
550.574434	2489.198261
550.932864	2489.939311
551.291237	2492.371667
551.649555	2489.687253
552.007817	2489.717500
552.366022	2488.613487
552.724173	2489.785555
553.082267	2489.752788
553.440305	2487.690956
553.798288	2490.387973
554.156215	2490.249342
554.514086	2486.062663
554.871902	2485.377066
555.229661	2489.566265
555.587365	2484.630976
555.945014	2491.481904
556.302606	2490.173724
556.660143	2490.166163
557.017625	2492.381750
557.375050	2487.857314
557.732421	2489.798158
558.089735	2491.532315
558.446994	2489.057109
558.804197	2491.819661
559.161345	2489.871255
559.518437	2488.464773
559.875474	2490.682881
560.232455	2490.745895
560.589381	2492.409476
560.946251	2490.571975
561.303065	2490.198930
561.659825	2489.813282
562.016528	2491.048364
562.373177	2489.800679
562.729770	2489.160452
563.086307	2491.340751
563.442789	2489.614156
563.799216	2491.555000
564.155587	2490.423261
564.511904	2490.763539
564.868164	2489.430154
565.224370	2491.123982
565.580520	2491.040803
565.936615	2492.837974
566.292654	2489.951913
566.648638	2489.755308
567.004567	2492.772439
567.360441	2491.446616
567.716260	2489.440236
568.072023	2491.996101
568.427732	2492.787563
568.783385	2490.481235
569.138982	2491.769249
569.494525	2492.643890
569.850013	2492.147336
570.205445	2491.378560
570.560823	2492.525423
570.916145	2493.208499
571.271412	2495.522388
571.626625	2493.652120
571.981782	2493.611791
572.336884	2490.813951
572.691931	2489.707418
573.046923	2487.930411
573.401860	2484.971253
573.756743	2491.812099
574.111570	2491.653303
574.466342	2492.154898
574.821059	2491.645741
575.175722	2491.965854
575.530330	2492.817809
575.884882	2492.659013
576.239380	2494.872080
576.593823	2493.730258
576.948211	2492.497696
577.302544	2492.626246
577.656823	2490.468632
578.011047	2494.627584
578.365216	2492.777480
578.719330	2494.400732
579.073389	2491.822182
579.427394	2494.688078
579.781344	2490.602222
580.135239	2492.956441
580.489080	2494.693119
580.842866	2492.538025
581.196597	2494.463746
581.550273	2493.745382
581.903895	2492.807727
582.257463	2494.625063
582.610975	2493.944507
582.964434	2494.549446
583.317837	2495.101452
583.671186	2495.537512
584.024481	2493.826040
584.377721	2494.509117
584.730906	2494.519199
585.084037	2495.439209
585.437113	2494.957779
585.790135	2495.076246
586.143103	2496.142450
586.496016	2498.360558
586.848874	2494.582213
587.201679	2496.177738
587.554428	2494.693119
587.907124	2495.527430
588.259765	2497.952225
588.612352	2497.241422
588.964884	2497.584220
589.317362	2495.426607
589.669786	2492.772439
590.022155	2496.817965
590.374470	2493.296719
590.726731	2493.820999
591.078937	2493.538694
591.431090	2496.565907
591.783188	2496.013901
592.135232	2496.628922
592.487222	2495.300578
592.839157	2495.018273
593.191038	2497.201093
593.542866	2499.265445
593.894639	2497.163284
594.246358	2497.206134
594.598022	2495.572800
594.949633	2496.616319
595.301190	2498.746206
595.652692	2496.664210
596.004141	2497.165805
596.355535	2497.319560
596.706876	2496.460043
597.058162	2497.443068
597.409395	2496.528099
597.760573	2497.548932
598.111698	2496.311329
598.462768	2497.740496
598.813785	2496.230671
599.164748	2495.227481
599.515657	2499.837616
599.866511	2497.236381
600.217312	2496.334014
600.568060	2498.625219
600.918753	2499.688902
601.269392	2498.771412
601.619978	2498.600013
601.970510	2497.916937
602.320988	2497.168325
602.671412	2499.169663
603.021783	2498.857112
603.372100	2499.547750
603.722363	2500.114880
604.072572	2501.501197
604.422728	2500.324088
604.772830	2497.503562
605.122878	2499.283089
605.472872	2500.049345
605.822813	2497.924498
606.172701	2499.502379
606.522534	2500.772750
606.872314	2499.242760
607.222041	2501.223933
607.571714	2497.778305
607.921333	2494.511637
608.270899	2498.136227
608.620411	2496.099601
608.969870	2500.576145
609.319276	2501.208810
609.668627	2498.342914
610.017926	2498.637822
610.367171	2501.647390
610.716362	2500.051865
611.065500	2501.899448
611.414585	2499.295692
611.763616	2499.804849
612.112594	2498.652945
612.461518	2500.503048
612.810389	2500.180415
613.159207	2499.804849
613.507971	2499.482215
613.856682	2502.073368
614.205340	2500.676968
614.553945	2501.614623
614.902496	2498.443737
615.250994	2503.951198
615.599439	2499.628408
615.947830	2501.115549
616.296169	2500.886176
616.644454	2499.978768
616.992686	2500.934067
617.340864	2501.788543
617.688990	2500.676968
618.037063	2501.970024
618.385082	2502.338028
618.733048	2503.421877
619.080961	2502.154026
619.428821	2501.138234
619.776628	2500.649242
620.124382	2503.459685
620.472083	2500.848367
620.819731	2502.406084
621.167326	2501.533964
621.514868	2502.718636
621.862357	2502.887514
622.209793	2501.647390
622.557176	2502.237205
622.904506	2500.787874
623.251783	2502.317864
623.599007	2501.526403
623.946179	2501.995230
624.293297	2506.242402
624.640363	2500.871053
624.987376	2503.331136
625.334336	2497.848881
625.681243	2503.943636
626.028097	2496.449961
626.374899	2505.461023
626.721647	2502.325426
627.068343	2505.196363
627.414987	2504.465395
627.761577	2500.976917
628.108115	2504.861126
628.454600	2503.036228
628.801032	2504.293996
629.147412	2504.021774
629.493739	2501.821310
629.840014	2502.476660
630.186236	2506.554954
630.532405	2504.593945
630.878521	2504.757782
631.224585	2505.786178
631.570597	2505.471106
631.916556	2505.773575
632.262462	2509.083092
632.608316	2503.734428
632.954117	2506.038235
633.299866	2506.156703
633.645562	2507.222907
633.991206	2507.021260
634.336797	2505.292145
634.682336	2507.197701
635.027823	2505.229130
635.373257	2505.340036
635.718639	2505.340036
636.063968	2506.988493
636.409245	2507.071672
636.754470	2506.786847
637.099642	2507.968997
637.444762	2508.299193
637.789829	2508.188288
638.134845	2507.394306
638.479808	2508.541168
638.824719	2509.529234
639.169577	2507.333812
639.514383	2506.660818
639.859137	2510.318175
640.203839	2508.410098
640.548489	2510.008144
640.893086	2509.267094
641.237632	2508.750376
641.582125	2513.030316
641.926566	2509.025119
642.270955	2508.720129
642.615292	2508.082423
642.959576	2511.727178
643.303809	2506.645694
643.647990	2514.305728
643.992118	2512.599297
644.336195	2513.549555
644.680219	2514.252796
645.024192	2516.173475
645.368112	2515.928979
645.711981	2517.738753
646.055797	2516.382683
646.399562	2519.730009
646.743274	2518.555420
647.086935	2520.521470
647.430544	2521.486851
647.774101	2523.331914
648.117606	2526.843077
648.461059	2526.729651
648.804460	2529.739220
649.147810	2527.395084
649.491108	2526.570855
649.834354	2528.118489
650.177548	2526.028931
650.520690	2528.047913
650.863781	2525.418951
651.206820	2527.450536
651.549807	2529.590506
651.892742	2528.362985
652.235626	2531.034797
652.578458	2531.501103
652.921238	2529.570342
653.263967	2529.582944
653.606644	2531.523789
653.949269	2530.865918
654.291843	2531.254087
654.634365	2532.574869
654.976836	2533.474715
655.319255	2538.183153
655.661622	2533.825075
656.003938	2535.055117
656.346203	2534.853471
656.688416	2534.452699
657.030577	2538.883873
657.372687	2536.685930
657.714746	2541.502753
658.056753	2540.565098
658.398708	2538.203318
658.740612	2542.863864
659.082465	2543.085675
659.424266	2542.072403
659.766016	2542.969728
660.107715	2545.908721
660.449362	2543.778834
660.790958	2548.126829
661.132503	2551.048178
661.473996	2552.961295
661.815438	2550.876778
662.156829	2553.674619
662.498168	2553.462890
662.839456	2554.602191
663.180693	2556.585885
663.521879	2557.652089
663.863013	2558.040258
664.204097	2558.771225
664.545129	2564.074519
664.886110	2561.770712
665.227040	2568.535940
665.567918	2568.409911
665.908746	2569.294634
666.249522	2572.142886
666.590248	2573.715726
666.930922	2575.336457
667.271545	2575.344018
667.612118	2580.042374
667.952639	2580.251582
668.293109	2581.121181
668.633528	2582.968764
668.973896	2583.649319
669.314213	2585.020513
669.654480	2585.995977
669.994695	2586.442119
670.334859	2589.282809
670.674973	2588.856831
671.015035	2590.412027
671.355047	2589.625607
671.695008	2591.790783
672.034918	2595.044848
672.374777	2597.691453
672.714585	2597.888058
673.054342	2602.772937
673.394049	2604.247474
673.733705	2606.783174
674.073310	2608.633278
674.412864	2609.344081
674.752368	2608.328288
675.091820	2610.748042
675.431223	2609.946498
675.770574	2609.422218
676.109875	2610.483381
676.449125	2607.662856
676.788324	2611.249637
677.127473	2610.775768
677.466571	2609.437342
677.805619	2612.943464
678.144616	2616.436984
678.483562	2616.048815
678.822458	2614.977570
679.161303	2616.948661
679.500098	2616.726850
679.838842	2619.645678
680.177535	2619.910339
680.516179	2627.862759
680.854771	2626.670526
681.193314	2635.734521
681.531805	2646.184833
681.870247	2656.894764
682.208638	2661.283089
682.546978	2663.733089
682.885268	2668.935560
683.223508	2664.728717
683.561697	2666.283913
683.899836	2670.495797
684.237925	2668.446568
684.575963	2671.125942
684.913951	2672.492094
685.251889	2676.202383
685.589776	2679.337981
685.927614	2684.225380
686.265401	2688.530525
686.603137	2690.057995
686.940824	2699.757175
687.278460	2707.800336
687.616046	2713.867364
687.953582	2725.847667
688.291068	2726.359344
688.628504	2731.947463
688.965889	2737.384347
689.303224	2737.520458
689.640510	2732.582648
689.977745	2734.533575
690.314930	2724.746174
690.652065	2722.346585
690.989150	2718.744681
691.326185	2710.177240
691.663170	2704.954604
692.000105	2700.387319
692.336990	2698.595189
692.673825	2695.381453
693.010610	2691.028417
693.347345	2687.048426
693.684030	2680.817560
694.020665	2682.491223
694.357251	2676.217507
694.693786	2679.466531
695.030272	2678.995183
695.366707	2678.211283
695.703093	2678.841427
696.039429	2681.775379
696.375716	2680.893177
696.711952	2683.466686
697.048139	2684.605987
697.384276	2687.945751
697.720363	2689.183355
698.056400	2690.325176
698.392388	2690.927594
698.728326	2691.401462
699.064214	2692.913808
699.400053	2694.035465
699.735842	2688.928776
700.071581	2689.329548
700.407270	2686.186389
700.742910	2689.236287
701.078501	2685.246213
701.414042	2684.139680
701.749533	2685.001717
702.084974	2681.848476
702.420366	2685.193281
702.755709	2680.031140
703.091002	2678.813701
703.426246	2682.390400
703.761440	2681.929134
704.096584	2680.036181
704.431679	2681.291428
704.766725	2680.235307
705.101721	2681.803105
705.436668	2684.663960
705.771565	2682.687828
706.106413	2690.322655
706.441212	2689.563962
706.775961	2695.870445
707.110661	2699.227854
707.445311	2705.168853
707.779913	2703.827907
708.114465	2710.764534
708.448967	2717.071018
708.783421	2728.438820
709.117825	2735.370406
709.452180	2744.746952
709.786485	2750.876995
710.120742	2763.399222
710.454949	2768.011877
710.789107	2779.203239
711.123216	2789.731689
711.457275	2801.225519
711.791286	2813.125163
712.125247	2815.998621
712.459159	2815.744042
712.793023	2831.227947
713.126837	2815.330668
713.460602	2819.789568
713.794318	2818.231852
714.127985	2813.301603
714.461602	2802.521096
714.795171	2799.451033
715.128691	2786.989301
715.462162	2778.056376
715.795584	2772.770727
716.128957	2772.806015
716.462281	2764.311670
716.795556	2763.968872
717.128782	2755.419075
717.461960	2748.744587
717.795088	2750.882037
718.128167	2744.373907
718.461198	2738.770664
718.794180	2736.739079
719.127113	2734.105077
719.459997	2735.055334
719.792833	2726.971844
720.125619	2732.260014
720.458357	2725.245249
720.791046	2725.583006
721.123686	2723.246431
721.456278	2721.645865
721.788821	2724.393294
722.121315	2719.236193
722.453761	2721.348437
722.786158	2722.636452
723.118506	2724.252141
723.450805	2725.204919
723.783056	2726.898747
724.115259	2731.473594
724.447412	2730.833368
724.779518	2734.896538
725.111574	2736.918040
725.443582	2743.375758
725.775542	2746.110584
726.107453	2758.965527
726.439315	2759.401587
726.771129	2768.616816
727.102895	2771.830551
727.434612	2785.348405
727.766281	2784.693055
728.097901	2797.056485
728.429473	2797.613533
728.760996	2804.378761
729.092471	2804.918165
729.423897	2806.271714
729.755276	2802.841209
730.086606	2811.408650
730.417887	2819.401400
730.749120	2834.676096
731.080305	2839.719770
731.411442	2847.341995
731.742530	2855.518746
732.073570	2859.803727
732.404562	2867.146168
732.735506	2864.963348
733.066401	2862.591485
733.397249	2852.917511
733.728048	2841.567353
734.058798	2823.925835
734.389501	2809.934113
734.720156	2798.077319
735.050762	2789.547687
735.381320	2783.710030
735.711831	2778.174843
736.042293	2771.903648
736.372707	2773.136210
736.703073	2772.072527
737.033391	2777.433794
737.363661	2781.428908
737.693883	2782.079217
738.024056	2789.169600
738.354182	2798.621763
738.684260	2807.259781
739.014290	2813.914104
739.344272	2822.920125
739.674207	2832.566373
740.004093	2839.583659
740.333931	2844.415605
740.663722	2846.217817
740.993464	2847.520956
741.323159	2848.831656
741.652806	2842.305882
741.982405	2837.685665
742.311956	2830.247442
742.641460	2830.209633
742.970915	2823.903150
743.300323	2813.634320
743.629683	2805.828093
743.958996	2803.519244
744.288260	2793.404169
744.617477	2789.598098
744.946647	2793.847791
745.275768	2786.074332
745.604842	2782.966460
745.933869	2780.841614
746.262847	2779.336829
746.591778	2777.237189
746.920662	2776.153341
747.249498	2777.852210
747.578286	2779.737601
747.907027	2788.000052
748.235720	2798.105045
748.564365	2802.392547
748.892963	2800.360962
749.221514	2804.686272
749.550017	2805.913792
749.878473	2804.164512
750.206881	2799.917340
750.535242	2799.365334
750.863555	2799.975313
751.191821	2795.811320
751.520039	2797.603450
751.848210	2798.941877
752.176334	2801.911116
752.504411	2799.806435
752.832440	2796.567493
753.160421	2802.810962
753.488356	2798.296609
753.816243	2802.258956
754.144082	2794.871145
754.471875	2794.581279
754.799620	2797.890796
755.127318	2800.799542
755.454969	2798.810807
755.782572	2802.357258
756.110129	2802.422793
756.437638	2800.736527
756.765100	2804.441776
757.092515	2806.886735
757.419882	2808.573001
757.747203	2810.760862
758.074477	2815.272695
758.401703	2815.471820
758.728882	2823.083962
759.056014	2825.541525
759.383099	2830.179387
759.710138	2838.220027
760.037129	2841.295131
760.364073	2845.078517
760.690970	2846.127077
761.017820	2853.303159
761.344623	2857.658716
761.671379	2872.520038
761.998088	2897.929974
762.324751	2955.749488
762.651366	3069.049420
762.977935	3209.959753
763.304456	3306.694454
763.630931	3339.744258
763.957359	3301.923002
764.283740	3234.820203
764.610074	3164.783452
764.936362	3080.439907
765.262602	3024.805734
765.588796	2963.948924
765.914943	2923.266813
766.241044	2887.169631
766.567097	2865.238091
766.893104	2841.559791
767.219064	2828.692246
767.544978	2815.653302
767.870845	2799.360292
768.196665	2795.970117
768.522438	2789.444343
768.848165	2782.250616
769.173846	2777.607714
769.499479	2773.688217
769.825066	2768.667227
770.150607	2761.526433
770.476101	2759.174735
770.801548	2756.689446
771.126949	2748.363980
771.452303	2750.113261
771.777611	2740.998854
772.102872	2744.444483
772.428087	2736.726477
772.753256	2733.555591
773.078378	2732.149109
773.403453	2727.160887
773.728482	2724.330279
774.053465	2722.137377
774.378401	2717.217211
774.703291	2713.854762
775.028135	2712.070193
775.352932	2709.433670
775.677683	2706.141796
776.002388	2702.986034
776.327046	2701.884542
776.651658	2700.190714
776.976224	2694.151412
777.300743	2698.176773
777.625216	2695.842719
777.949643	2697.783563
778.274024	2696.664427
778.598359	2695.507482
778.922647	2697.846577
779.246889	2696.359437
779.571086	2695.633511
779.895236	2700.478060
780.219339	2697.914633
780.543397	2701.687937
780.867409	2703.298585
781.191374	2706.378730
781.515294	2704.072402
781.839167	2706.126673
782.162995	2712.992724
782.486776	2707.891077
782.810511	2705.249512
783.134201	2702.739017
783.457844	2703.926209
783.781441	2703.164995
784.104993	2703.432176
784.428498	2700.488142
784.751958	2701.319932
785.075372	2700.241126
785.398739	2698.761547
785.722061	2701.491332
786.045337	2705.272197
786.368568	2710.015923
786.691752	2711.409802
787.014891	2729.144581
787.337983	2744.900707
787.661030	2771.318874
787.984031	2801.775005
788.306987	2821.528767
788.629897	2830.607885
788.952760	2828.838440
789.275579	2822.017758
789.598351	2804.345994
789.921078	2788.897378
790.243759	2771.807866
790.566395	2758.975609
790.888984	2749.321799
791.211529	2741.276118
791.534027	2730.349417
791.856480	2721.708879
792.178888	2716.178733
792.501249	2712.254195
792.823566	2707.639019
793.145836	2706.948381
793.468062	2708.790922
793.790241	2708.054914
794.112375	2712.511294
794.434464	2721.668550
794.756507	2723.765670
795.078505	2730.256156
795.400457	2746.997827
795.722364	2764.447782
796.044226	2780.350101
796.366042	2795.511372
796.687812	2793.704118
797.009538	2796.176804
797.331218	2792.930301
797.652852	2790.036678
797.974442	2786.490227
798.295986	2780.017385
798.617484	2772.803494
798.938938	2766.219747
799.260346	2761.410486
799.581709	2752.790113
799.903026	2748.381624
800.224299	2745.987076
800.545526	2737.623802
800.866708	2733.719428
801.187845	2730.548542
801.508936	2723.722820
801.829983	2725.260372
802.150984	2718.739640
802.471940	2715.798126
802.792851	2718.396841
803.113717	2712.271839
803.434538	2711.124977
803.755314	2709.839482
804.076045	2711.538351
804.396731	2710.451983
804.717372	2710.575491
805.037967	2711.840821
805.358518	2718.323744
805.679024	2721.187120
805.999485	2725.177193
806.319901	2726.346741
806.640272	2727.133161
806.960598	2733.346383
807.280879	2731.526526
807.601115	2736.582804
807.921306	2734.364696
808.241453	2737.510376
808.561554	2735.035169
808.881611	2736.318143
809.201623	2737.212948
809.521590	2738.601786
809.841513	2738.034656
810.161390	2739.786457
810.481223	2732.481825
810.801011	2731.702967
811.120755	2731.955024
811.440453	2731.627349
811.760107	2726.997050
812.079716	2726.951679
812.399281	2725.315825
812.718801	2723.347254
813.038276	2724.443705
813.357707	2718.207798
813.677093	2722.291132
813.996434	2718.858107
814.315731	2721.585371
814.634983	2722.457491
814.954191	2720.836760
815.273354	2727.420507
815.592473	2733.439644
815.911547	2743.272415
816.230577	2748.563106
816.549562	2755.013262
816.868502	2762.978285
817.187399	2768.533637
817.506250	2781.824639
817.825058	2783.074845
818.143821	2801.785087
818.462539	2818.294866
818.781213	2841.418639
819.099843	2874.957436
819.418429	2937.414811
819.736970	2997.268431
820.055466	3069.742579
820.373919	3161.055519
820.692327	3301.242446
821.010691	3540.518293
821.329011	4016.408257
821.647286	4684.547664
821.965517	5439.684784
822.283704	5914.788328
822.601847	6178.990160
822.919945	5941.839160
823.237999	5623.084482
823.556010	5239.097272
823.873976	4855.548644
824.191897	4489.175226
824.509775	4214.916293
824.827609	3972.245229
825.145398	3827.475893
825.463144	3756.357815
825.780845	3778.090229
826.098502	3885.368504
826.416116	4097.936317
826.733685	4309.291734
827.051210	4386.807036
827.368692	4297.986946
827.686129	4071.656782
828.003522	3838.135413
828.320872	3614.537555
828.638177	3443.307203
828.955439	3313.799960
829.272656	3201.115048
829.589830	3108.690534
829.906960	3031.180273
830.224046	2972.105511
830.541088	2925.976433
830.858086	2894.582648
831.175041	2871.862167
831.491952	2865.144830
831.808819	2872.290665
832.125642	2900.450551
832.442421	2961.894654
832.759157	3080.013930
833.075849	3267.575100
833.392497	3467.522385
833.709101	3603.593210
834.025662	3602.201851
834.342179	3505.998992
834.658653	3367.445399
834.975083	3246.137593
835.291469	3139.827220
835.607811	3049.666184
835.924110	2988.098572
836.240366	2931.801486
836.556578	2875.907693
836.872746	2832.334480
837.188871	2801.102011
837.504952	2773.862136
837.820990	2750.672829
838.136984	2733.343862
838.452935	2729.557956
838.768842	2732.033162
839.084706	2762.985847
839.400526	2845.065914
839.716303	2955.535239
840.032037	3031.817979
840.347727	3031.916281
840.663373	2964.632001
840.978977	2886.499157
841.294537	2837.305057
841.610054	2795.471042
841.925527	2761.118099
842.240957	2735.115828
842.556344	2712.533979
842.871687	2692.008921
843.186987	2672.333298
843.502244	2655.931904
843.817458	2644.793474
844.132629	2634.010446
844.447756	2628.147584
844.762840	2620.870679
845.077881	2614.438167
845.392879	2611.012702
845.707833	2608.960953
846.022745	2606.105139
846.337613	2601.275714
846.652438	2598.803028
846.967221	2597.315887
847.281960	2596.950404
847.596656	2597.446957
847.911309	2593.479569
848.225919	2590.822881
848.540485	2591.904209
848.855009	2589.204671
849.169490	2587.160483
849.483928	2589.000504
849.798323	2588.551842
850.112675	2585.164186
850.426984	2584.090420
850.741251	2585.214598
851.055474	2584.962540
851.369654	2586.058991
851.683792	2585.499423
851.997887	2587.001687
852.311938	2586.570668
852.625947	2588.927407
852.939914	2586.832808
853.253837	2584.743250
853.567718	2587.180648
853.881555	2585.746439
854.195350	2589.010587
854.509103	2586.394228
854.822812	2587.251224
855.136479	2588.337592
855.450103	2588.357757
855.763685	2587.079825
856.077224	2585.413723
856.390720	2589.549990
856.704173	2586.447160
857.017584	2590.316245
857.330953	2592.473859
857.644278	2594.157605
857.957561	2601.547936
858.270802	2597.300764
858.584000	2596.650455
858.897155	2598.475353
859.210268	2597.905702
859.523339	2595.407811
859.836367	2595.611977
860.149352	2593.948397
860.462295	2595.249014
860.775195	2592.612491
861.088054	2596.479056
861.400869	2594.661720
861.713642	2594.235742
862.026373	2598.969386
862.339062	2596.332862
862.651708	2597.605754
862.964312	2601.084150
863.276873	2602.750251
863.589392	2608.139245
863.901869	2613.306427
864.214303	2615.385903
864.526696	2620.691718
864.839045	2623.295474
865.151353	2625.667337
865.463619	2627.482152
865.775842	2628.485342
866.088023	2628.870990
866.400162	2626.852008
866.712258	2630.766464
867.024313	2630.040538
867.336325	2629.291926
867.648296	2632.858543
867.960224	2632.621608
868.272110	2632.457771
868.583954	2633.755868
868.895755	2635.883235
869.207515	2635.507669
869.519233	2641.693165
869.830909	2644.354894
870.142542	2644.508649
870.454134	2645.640388
870.765684	2647.934113
871.077191	2651.140287
871.388657	2652.650113
871.700081	2655.521050
872.011463	2660.834426
872.322803	2661.068840
872.634101	2669.525375
872.945357	2669.444717
873.256571	2675.173988
873.567744	2676.789678
873.878874	2679.726150
874.189963	2684.212777
874.501010	2687.681091
874.812015	2686.748477
875.122979	2691.724096
875.433900	2689.556400
875.744780	2693.760722
876.055618	2696.614015
876.366415	2696.838347
876.677169	2698.688450
876.987882	2703.341435
877.298554	2709.842003
877.609183	2716.269474
877.919771	2731.965107
878.230317	2747.290214
878.540822	2768.006836
878.851285	2798.420117
879.161707	2838.603155
879.472087	2910.908424
879.782425	3017.533869
880.092722	3191.942669
880.402977	3417.982966
880.713191	3635.934732
881.023363	3836.096266
881.333494	3957.338537
881.643583	4049.679872
881.953631	4092.575050
882.263637	4084.398299
882.573602	4016.297352
882.883526	3928.167900
883.193408	3824.534380
883.503248	3709.621278
883.813048	3601.977520
884.122806	3494.484996
884.432522	3383.135990
884.742197	3284.105043
885.051831	3206.030173
885.361424	3126.745426
885.670975	3058.863769
885.980485	3003.587517
886.289954	2953.329734
886.599382	2913.484454
886.908768	2878.226624
887.218113	2847.652026
887.527417	2818.047850
887.836680	2793.857873
888.145901	2779.987138
888.455082	2763.573141
888.764221	2750.216604
889.073319	2738.730335
889.382376	2728.978223
889.691392	2726.074518
890.000366	2722.739795
890.309300	2721.489589
890.618193	2722.134857
890.927044	2720.670402
891.235855	2723.932028
891.544625	2727.659961
891.853353	2731.861763
892.162041	2744.411716
892.470687	2760.901330
892.779293	2786.331430
893.087858	2822.385763
893.396381	2875.194370
893.704864	2947.398816
894.013306	3045.275339
894.321707	3150.365752
894.630068	3217.934858
894.938387	3247.246647
895.246665	3233.446488
895.554903	3183.483613
895.863100	3125.071763
896.171256	3073.704926
896.479371	3026.925539
896.787446	2984.322748
897.095480	2942.665173
897.403473	2913.683579
897.711425	2884.575957
898.019336	2858.790455
898.327207	2831.061588
898.635038	2808.063845
898.942827	2788.622635
899.250576	2767.936260
899.558284	2749.248703
899.865952	2738.417784
900.173579	2725.903119
900.481165	2713.116233
900.788711	2705.930068
901.096216	2696.901361
901.403681	2690.476411
901.711105	2686.493899
902.018489	2688.409537
902.325832	2692.646627
902.633135	2705.176415
902.940397	2742.778382
903.247619	2813.281439
903.554800	2940.691561
903.861941	3098.494800
904.169041	3229.169069
904.476101	3287.041516
904.783121	3271.703805
905.090100	3221.753532
905.397039	3148.011534
905.703938	3083.547779
906.010796	3018.753828
906.317614	2965.352886
906.624391	2914.280956
906.931129	2874.092878
907.237826	2834.971003
907.544483	2800.701239
907.851099	2763.535333
908.157675	2730.112483
908.464211	2700.185673
908.770707	2676.618279
909.077163	2658.112203
909.383578	2643.500418
909.689954	2631.048768
909.996289	2623.799589
910.302584	2615.045626
910.608839	2612.595625
910.915054	2609.621344
911.221229	2607.670417
911.527363	2612.245265
911.833458	2611.045470
912.139513	2612.940944
912.445527	2617.362036
912.751502	2628.218161
913.057436	2639.540592
913.363331	2657.509785
913.669186	2679.176664
913.975000	2707.480222
914.280775	2750.476224
914.586510	2809.193063
914.892205	2880.719474
915.197859	2971.734987
915.503475	3077.117787
915.809050	3165.554749
916.114585	3222.630693
916.420081	3253.906011
916.725536	3257.006321
917.030952	3226.109089
917.336328	3193.760005
917.641665	3161.113492
917.946961	3111.818570
918.252218	3076.684248
918.557435	3026.091228
918.862612	2991.166114
919.167750	2954.458952
919.472848	2914.162489
919.777906	2876.182436
920.082925	2842.106757
920.387904	2807.900007
920.692843	2780.463527
920.997743	2755.971081
921.302603	2734.745303
921.607423	2717.489433
921.912204	2699.610981
922.216946	2688.500278
922.521647	2676.222548
922.826310	2663.985147
923.130932	2652.115750
923.435516	2640.747948
923.740059	2633.952473
924.044564	2625.841257
924.349028	2620.658950
924.653454	2610.614451
924.957840	2605.217896
925.262186	2596.209354
925.566493	2589.023189
925.870761	2580.866602
926.174989	2578.671180
926.479178	2574.703792
926.783328	2568.493090
927.087438	2566.385888
927.391509	2562.990671
927.695541	2557.460525
927.999533	2552.822664
928.303486	2549.412323
928.607400	2550.859134
928.911275	2549.878630
929.215110	2545.187836
929.518906	2544.769420
929.822663	2545.845707
930.126381	2548.691438
930.430060	2545.139945
930.733699	2546.347302
931.037299	2548.278063
931.340861	2546.319575
931.644383	2546.594318
931.947866	2545.535676
932.251309	2545.233207
932.554714	2546.939637
932.858080	2546.745553
933.161407	2543.244471
933.464694	2543.098278
933.767943	2539.496373
934.071153	2544.136756
934.374323	2544.474513
934.677455	2542.906714
934.980548	2542.372352
935.283602	2541.051569
935.586617	2540.055942
935.889593	2540.686086
936.192530	2544.648433
936.495428	2545.092054
936.798287	2548.751932
937.101108	2550.962478
937.403890	2558.897254
937.706632	2568.165415
938.009336	2577.889801
938.312002	2585.325503
938.614628	2592.725917
938.917216	2601.081629
939.219765	2606.757969
939.522275	2609.603700
939.824747	2609.349122
940.127179	2609.684358
940.429573	2607.284769
940.731929	2607.693103
941.034246	2607.924996
941.336524	2603.980293
941.638763	2607.405757
941.940964	2602.556167
942.243126	2600.174222
942.545250	2597.467122
942.847335	2591.700042
943.149381	2584.594536
943.451389	2580.420460
943.753359	2576.591704
944.055290	2573.849316
944.357182	2570.529717
944.659036	2569.060220
944.960851	2567.779767
945.262628	2565.644838
945.564367	2567.598286
945.866067	2566.398491
946.167729	2562.887327
946.469352	2564.303892
946.770937	2563.444375
947.072484	2561.823644
947.373992	2564.392112
947.675462	2562.942780
947.976893	2557.929352
948.278286	2555.517160
948.579641	2559.303067
948.880958	2553.460370
949.182236	2557.747871
949.483476	2558.982954
949.784678	2558.004970
950.085841	2556.895916
950.386967	2563.083932
950.688054	2560.137378
950.989103	2565.085270
951.290114	2566.506876
951.591087	2570.771692
951.892021	2572.878894
952.192917	2575.026426
952.493776	2581.252251
952.794596	2581.635378
953.095378	2582.479772
953.396122	2581.705955
953.696828	2579.482806
953.997496	2576.042218
954.298126	2573.819069
954.598718	2571.974007
954.899272	2569.075344
955.199788	2564.671896
955.500266	2559.713921
955.800706	2557.601677
956.101108	2551.098589
956.401472	2549.041798
956.701798	2539.778678
957.002087	2535.092926
957.302337	2534.137627
957.602550	2532.637884
957.902724	2524.871986
958.202861	2525.731503
958.502960	2520.592047
958.803022	2518.041223
959.103045	2513.922600
959.403031	2515.288753
959.702979	2508.238699
960.002889	2511.386900
960.302762	2508.367248
960.602596	2502.761485
960.902393	2505.783657
961.202153	2500.984479
961.501875	2501.586897
961.801559	2497.521206
962.101205	2500.775271
962.400814	2500.654283
962.700385	2498.448778
962.999918	2496.364261
963.299414	2494.229333
963.598873	2498.935250
963.898293	2492.671616
964.197677	2497.062461
964.497022	2494.824189
964.796331	2495.131699
965.095601	2494.425938
965.394835	2493.480721
965.694030	2494.476349
965.993189	2494.383088
966.292309	2493.957110
966.591393	2495.552635
966.890439	2490.259424
967.189447	2493.523571
967.488419	2494.229332
967.787353	2494.677995
968.086249	2494.650269
968.385108	2497.599344
968.683930	2494.960300
968.982714	2494.549446
969.281462	2497.160763
969.580172	2495.966010
969.878844	2496.039107
970.177480	2497.904334
970.476078	2499.875425
970.774639	2501.818790
971.073162	2502.103615
971.371649	2505.478667
971.670098	2503.684017
971.968510	2504.689727
972.266885	2502.101094
972.565223	2503.429438
972.863524	2507.462361
973.161788	2505.340036
973.460014	2507.414470
973.758204	2509.244409
974.056356	2506.045797
974.354471	2509.322547
974.652550	2509.070489
974.950591	2511.575943
975.248595	2507.036384
975.546563	2508.387413
975.844493	2508.604183
976.142386	2503.005981
976.440243	2507.240551
976.738062	2504.251146
977.035845	2506.615447
977.333590	2503.878101
977.631299	2499.242760
977.928971	2497.843840
978.226606	2498.355517
978.524204	2501.581855
978.821765	2494.700680
979.119290	2502.264932
979.416777	2496.565907
979.714228	2501.846516
980.011642	2501.251660
980.309020	2502.466578
980.606360	2505.261898
980.903664	2509.060407
981.200931	2513.728516
981.498162	2520.662623
981.795356	2528.181504
982.092513	2538.127700
982.389633	2546.622044
982.686717	2558.327604
982.983764	2565.324725
983.280775	2571.621126
983.577749	2573.710685
983.874686	2574.401323
984.171587	2569.468554
984.468451	2565.876732
984.765279	2560.021431
985.062070	2553.525905
985.358824	2549.067004
985.655543	2540.416384
985.952224	2537.212731
986.248869	2527.747964
986.545478	2522.326203
986.842050	2515.795389
987.138586	2507.608555
987.435086	2509.088133
987.731549	2500.346773
988.027975	2498.859632
988.324366	2497.432986
988.620719	2491.570124
988.917037	2490.599702
989.213318	2492.941318
989.509563	2485.631645
989.805772	2489.024341
990.101944	2489.142808
990.398080	2487.690956
990.694180	2487.038127
990.990244	2487.658188
991.286271	2489.238590
991.582262	2489.233549
991.878217	2489.682212
992.174136	2487.164155
992.470019	2487.688435
992.765865	2488.832777
993.061676	2486.728096
993.357450	2489.218426
993.653188	2489.972078
993.948890	2496.686895
994.244556	2497.334683
994.540186	2497.889210
994.835780	2504.460354
995.131337	2508.185767
995.426859	2513.930162
995.722345	2521.701100
996.017795	2525.335772
996.313208	2533.837678
996.608586	2535.314736
996.903928	2534.326670
997.199234	2536.320447
997.494504	2534.674510
997.789738	2533.714170
998.084936	2529.698891
998.380099	2527.672347
998.675225	2526.371729
998.970316	2521.189423
999.265371	2514.182219
999.560390	2509.766169
999.855373	2508.707526
1000.150320	2505.105622
1000.445232	2502.370796
1000.740108	2497.639673
1001.034948	2494.032727
1001.329752	2492.719507
1001.624521	2490.438385
1001.919254	2491.771770
1002.213951	2490.198930
1002.508613	2487.194402
1002.803239	2483.040492
1003.097829	2485.059474
1003.392384	2489.198261
1003.686903	2486.188692
1003.981386	2486.039978
1004.275834	2483.844556
1004.570246	2484.661223
1004.864623	2485.036788
1005.158964	2480.673670
1005.453270	2483.453866
1005.747540	2482.869092
1006.041775	2482.763228
1006.335974	2482.375059
1006.630138	2479.211735
1006.924266	2482.692652
1007.218359	2479.468834
1007.512416	2480.598053
1007.806438	2479.736015
1008.100425	2480.235089
1008.394376	2476.615541
1008.688292	2483.151397
1008.982172	2481.974288
1009.276017	2482.128043
1009.569827	2480.068731
1009.863602	2480.920686
1010.157341	2478.248875
1010.451045	2476.751652
1010.744714	2478.160655
1011.038347	2478.942033
1011.331945	2478.679893
1011.625508	2481.220635
1011.919036	2479.942703
1012.212528	2477.117136
1012.505986	2478.425315
1012.799408	2478.034626
1013.092795	2478.390027
1013.386147	2478.644605
1013.679464	2477.608648
1013.972745	2479.249544
1014.265992	2476.731487
1014.559204	2480.832466
1014.852380	2480.076293
1015.145521	2480.703917
1015.438628	2478.059832
1015.731699	2481.172744
1016.024736	2481.006386
1016.317737	2480.025882
1016.610703	2479.725933
1016.903635	2479.042857
1017.196531	2479.216776
1017.489393	2479.564616
1017.782219	2482.579226
1018.075011	2479.405820
1018.367768	2481.429843
1018.660490	2479.995635
1018.953177	2479.995635
1019.245829	2479.995635
