Dividing Wavelength (nm)	Counts (n)	Blue Motor Position (mm): 47.500000	Red Motor Position (mm): 0.000000	
326.493990	2094.019690
326.888308	2094.019690
327.282561	2094.019690
327.676750	2070.439693
328.070874	2073.169478
328.464933	2078.734912
328.858929	2087.624987
329.252859	2102.498911
329.646726	2112.102309
330.040528	2130.895731
330.434265	2150.868782
330.827938	2168.994251
331.221547	2190.809844
331.615091	2210.455221
332.008571	2231.623026
332.401986	2254.099010
332.795338	2271.674993
333.188625	2292.716769
333.581847	2310.348205
333.975006	2330.021308
334.368100	2347.042764
334.761129	2364.336442
335.154095	2382.280429
335.546996	2425.654517
335.939833	2513.935203
336.332606	2525.373581
336.725315	2538.226003
337.117960	2548.094061
337.510540	2554.130843
337.903056	2561.082594
338.295508	2569.778585
338.687896	2576.536251
339.080220	2587.009248
339.472480	2589.053436
339.864676	2591.485793
340.256807	2594.157605
340.648875	2597.578027
341.040879	2599.135744
341.432818	2599.672627
341.824694	2602.576332
342.216506	2597.202462
342.608253	2600.620364
342.999937	2596.826896
343.391557	2597.930908
343.783113	2597.552822
344.174605	2595.438058
344.566033	2594.749940
344.957397	2591.475711
345.348697	2589.754157
345.739934	2589.066039
346.131106	2587.833477
346.522215	2587.241142
346.913260	2581.123701
347.304241	2582.625965
347.695159	2579.815522
348.086012	2582.142014
348.476802	2576.848803
348.867528	2579.114802
349.258191	2577.904925
349.648789	2578.613207
350.039324	2574.330747
350.429796	2576.299317
350.820203	2576.455593
351.210548	2572.465520
351.600828	2568.621640
351.991045	2572.533575
352.381198	2569.135837
352.771288	2568.016701
353.161314	2567.474777
353.551276	2570.133986
353.941175	2569.423183
354.331010	2570.940571
354.720782	2573.803946
355.110490	2576.082547
355.500135	2570.350756
355.889717	2574.013154
356.279235	2570.998544
356.668689	2574.804615
357.058080	2575.379307
357.447408	2573.070458
357.836672	2570.688513
358.225873	2573.383010
358.615010	2574.678586
359.004084	2576.526169
359.393095	2579.447518
359.782043	2581.710996
360.170927	2582.331058
360.559748	2581.322827
360.948505	2583.210739
361.337199	2583.147725
361.725830	2585.746439
362.114398	2588.093097
362.502903	2585.290215
362.891344	2588.962696
363.279722	2588.667788
363.668037	2587.089907
364.056289	2588.148549
364.444478	2590.253231
364.832603	2591.982347
365.220665	2592.698191
365.608665	2592.488983
365.996601	2593.189703
366.384474	2595.158274
366.772284	2595.221288
367.160031	2595.337235
367.547715	2595.115424
367.935336	2595.387646
368.322893	2598.750096
368.710388	2598.016608
369.097820	2602.576332
369.485189	2601.111876
369.872495	2601.850405
370.259738	2603.380396
370.646918	2601.419387
371.034035	2603.791250
371.421090	2605.626230
371.808081	2605.359048
372.195010	2606.921806
372.581875	2608.673607
372.968678	2606.934409
373.355418	2610.800974
373.742096	2614.092847
374.128710	2614.133177
374.515262	2616.442025
374.901751	2619.121398
375.288177	2621.949486
375.674540	2625.488376
376.060841	2630.128758
376.447079	2634.133955
376.833254	2643.898670
377.219367	2645.675676
377.605417	2655.452994
377.991404	2665.114366
378.377329	2678.503670
378.763191	2691.227542
379.148991	2709.620192
379.534727	2731.720611
379.920402	2750.687952
380.306013	2775.944133
380.691563	2806.314564
381.077049	2832.047134
381.462474	2864.562576
381.847835	2909.363311
382.233134	2951.545165
382.618371	2988.300218
383.003545	3044.393137
383.388657	3097.952876
383.773706	3156.188285
384.158693	3208.611244
384.543618	3274.630195
384.928480	3334.713187
385.313280	3410.204466
385.698017	3490.152125
386.082692	3582.314499
386.467305	3641.172491
386.851856	3738.570104
387.236344	3854.846838
387.620770	3921.526180
388.005133	4025.066439
388.389435	4142.356445
388.773674	4225.648909
389.157851	4345.267928
389.541965	4466.663954
389.926018	4517.246892
390.310008	4670.198020
390.693936	4790.575732
391.077802	4907.228032
391.461606	5035.878279
391.845348	5151.204755
392.229027	5283.782060
392.612645	5481.980065
392.996200	5615.447133
393.379694	5784.449296
393.763125	5991.640719
394.146494	6108.847546
394.529801	6254.267190
394.913047	6489.222768
395.296230	6526.948243
395.679351	6611.939576
396.062410	6865.517176
396.445408	6820.003119
396.828343	6981.269630
397.211217	7142.790720
397.594028	7079.420896
397.976778	7298.028012
398.359466	7473.659291
398.742092	7492.513206
399.124656	7661.154926
399.507158	7868.366514
399.889598	7918.589009
400.271977	8144.251220
400.654294	8205.163482
401.036549	8425.870238
401.418742	8473.436045
401.800874	8780.490205
402.182944	8888.733861
402.564952	9254.023430
402.946898	9114.343139
403.328783	9192.654944
403.710606	9397.575327
404.092367	9657.300614
404.474067	10027.482624
404.855705	9847.473102
405.237282	9810.745776
405.618797	10243.715356
406.000250	10495.465538
406.381642	10847.128869
406.762972	10816.377830
407.144240	10634.692125
407.525447	10887.216124
407.906593	10842.503610
408.287677	11106.460946
408.668700	11264.884247
409.049661	11253.299675
409.430560	11411.337328
409.811399	11395.414843
410.192176	11556.341077
410.572891	11628.238013
410.953545	12104.319541
411.334138	11597.912952
411.714669	12177.607836
412.095139	11534.991790
412.475547	12010.972495
412.855894	11875.988039
413.236180	12194.591483
413.616405	11900.997204
413.996568	12169.453769
414.376670	12156.145123
414.756711	12039.190354
415.136691	12321.399187
415.516609	12485.324908
415.896466	12571.624420
416.276262	12872.235986
416.655997	13322.148884
417.035670	13368.812325
417.415283	13985.993229
417.794834	14064.988109
418.174324	13817.112054
418.553753	13734.399323
418.933121	14209.268453
419.312428	14043.911045
419.691674	13959.824599
420.070859	14417.911728
420.449983	14075.264502
420.829045	14632.334687
421.208047	14378.361356
421.586988	14833.696015
421.965867	15081.572071
422.344686	15087.659264
422.723444	15664.218550
423.102141	14354.806565
423.480777	15551.173195
423.859352	15047.987904
424.237866	16150.095040
424.616319	15871.946856
424.994712	16512.911923
425.373044	16311.233002
425.751314	16996.542579
426.129524	16128.773480
426.507673	17211.578038
426.885762	16937.188034
427.263789	17121.858102
427.641756	17302.059188
428.019662	17363.105040
428.397508	17414.313081
428.775292	17704.126495
429.153016	17684.221499
429.530679	17756.105832
429.908282	17793.826266
430.285824	17531.938323
430.663305	18235.101147
431.040726	17849.931788
431.418086	17681.259821
431.795385	18333.592690
432.172624	18756.122041
432.549802	18320.478129
432.926920	18538.354277
433.303977	18415.632428
433.680974	18678.742850
434.057910	18980.145877
434.434786	19005.671759
434.811601	18949.803172
435.188355	19999.961218
435.565050	19667.025774
435.941683	19626.953642
436.318257	20519.472286
436.694770	20314.118364
437.071222	20903.774567
437.447614	19977.694441
437.823946	20005.060345
438.200218	20182.967705
438.576429	19968.075920
438.952580	20273.993300
439.328670	20241.873588
439.704700	20665.592651
440.080670	20234.584079
440.456580	20845.758448
440.832429	21007.027480
441.208218	20011.681900
441.583947	20466.928340
441.959616	20584.800599
442.335224	20836.691933
442.710773	20971.121862
443.086261	21528.305473
443.461689	20868.637725
443.837057	21019.630365
444.212365	21680.573525
444.587612	21683.202487
444.962800	21274.536309
445.337927	21710.316333
445.712995	20424.592730
446.088002	22331.268020
446.462949	22529.236652
446.837837	22729.887178
447.212664	22746.913675
447.587431	25751.065801
447.962139	28720.625530
448.336786	30995.279845
448.711374	29279.087073
449.085901	25557.498096
449.460369	25569.813635
449.834776	25604.708502
450.209124	28170.310491
450.583412	27640.969172
450.957640	28099.323483
451.331808	26750.003203
451.705917	25373.211156
452.079965	25431.660814
452.453954	25815.395965
452.827883	25738.538534
453.201752	25525.267479
453.575562	25696.505393
453.949311	26831.652252
454.323001	26905.207727
454.696632	26698.187703
455.070202	28310.817531
455.443713	28497.614966
455.817164	29079.021321
456.190556	29636.930859
456.563888	29024.473516
456.937160	29458.012747
457.310373	27741.363751
457.683526	28191.402678
458.056619	28203.488845
458.429653	28178.076388
458.802628	28798.531521
459.175542	28953.065572
459.548398	30327.014409
459.921194	31977.823415
460.293930	32735.917171
460.666607	34845.572000
461.039224	36621.986395
461.411782	36951.050233
461.784280	35628.380013
462.156719	35065.414199
462.529099	34473.693643
462.901419	33153.107940
463.273680	32095.599892
463.645882	32245.289394
464.018024	32263.871087
464.390106	33236.032400
464.762130	36201.783537
465.134094	40616.649635
465.505999	46136.309804
465.877845	50612.055397
466.249631	51541.460164
466.621358	49639.095061
466.993026	47369.416364
467.364634	45224.990177
467.736184	43262.879838
468.107674	42003.279494
468.479105	41208.292053
468.850477	40472.908695
469.221790	39026.359681
469.593043	37246.875223
469.964238	36339.245720
470.335373	36290.429707
470.706449	38204.412149
471.077467	41042.559080
471.448425	45716.298510
471.819324	48418.939225
472.190164	46367.895371
472.560945	42728.172212
472.931667	39580.523641
473.302330	38477.100764
473.672934	37642.255440
474.043479	38197.238588
474.413965	37396.287462
474.784393	37033.072327
475.154761	37967.533371
475.525070	38020.266361
475.895321	37527.304529
476.265513	38161.630397
476.635645	39170.922329
477.005719	39015.828711
477.375734	39522.008448
477.745691	40262.382549
478.115588	41656.150682
478.485427	43805.151717
478.855207	47325.626382
479.224928	49976.272636
479.594591	51470.871407
479.964194	50332.609116
480.333739	50470.325877
480.703226	50553.787220
481.072653	51210.130327
481.442022	51678.398067
481.811333	51882.907596
482.180584	50581.730336
482.549777	50061.934442
482.918912	49537.472961
483.287988	49215.181913
483.657005	48380.533194
484.025964	47687.004016
484.394864	47692.130869
484.763706	47239.112620
485.132489	46367.481996
485.501213	46194.187292
485.869879	46349.371651
486.238487	45955.271887
486.607036	46148.247257
486.975527	45588.548110
487.343959	45804.196068
487.712333	45880.604837
488.080648	45759.879285
488.448905	46225.697024
488.817104	46041.299178
489.185244	47069.548369
489.553326	48858.696719
489.921350	51654.540807
490.289315	54459.418642
490.657222	54959.942204
491.025070	55169.457599
491.392861	54221.907199
491.760593	52955.279487
492.128267	51230.909964
492.495883	49678.259785
492.863440	48264.972304
493.230939	46883.123979
493.598380	45791.683925
493.965763	45467.535212
494.333088	44636.075023
494.700354	44147.481351
495.067563	43847.772152
495.434713	43697.954101
495.801805	43782.196823
496.168839	43383.386101
496.535815	43038.876167
496.902733	43056.789907
497.269593	42632.612099
497.636395	42572.166144
498.003139	42971.901918
498.369825	42419.391456
498.736453	42726.584248
499.103023	42219.328225
499.469535	42109.814199
499.835989	42211.585012
500.202385	41849.864580
500.568723	41875.791234
500.935003	42069.122005
501.301226	41866.644061
501.667390	42480.520488
502.033497	42721.545615
502.399546	42150.332473
502.765537	41435.169182
503.131470	41806.631645
503.497345	42186.575848
503.863163	40824.244351
504.228923	41435.496857
504.594625	41856.743234
504.960269	41119.658487
505.325856	41831.222393
505.691385	41188.762623
506.056856	41329.204128
506.422270	41761.735128
506.787625	41317.359937
507.152924	41539.818495
507.518164	41629.737556
507.883347	40818.147075
508.248472	41067.369118
508.613540	41557.359190
508.978550	41846.784435
509.343503	41596.307144
509.708398	41809.426964
510.073236	42346.854294
510.438016	42342.337420
510.802738	41791.984572
511.167403	42431.578446
511.532010	42642.780107
511.896561	42947.190182
512.261053	43803.382272
512.625488	43337.776261
512.989866	43205.952609
513.354186	43048.151890
513.718449	43047.735995
514.082655	43717.128129
514.446803	43398.063420
514.810894	43920.092545
515.174927	43828.799769
515.538904	43725.829161
515.902822	44395.402776
516.266684	43847.620917
516.630488	44266.515596
516.994235	44121.201816
517.357925	44685.216190
517.721558	44865.240835
518.085133	45168.982958
518.448651	45282.804650
518.812112	45073.611888
519.175516	45154.711451
519.538863	45497.290622
519.902152	45445.830524
520.265385	45931.575944
520.628560	45948.315095
520.991678	45727.101703
521.354739	45953.545292
521.717743	46272.113448
522.080690	46179.653645
522.443580	46707.984212
522.806413	46744.467043
523.169189	46696.843262
523.531908	46882.307312
523.894569	46711.709625
524.257174	46895.280722
524.619722	47180.932663
524.982213	47156.009199
525.344647	47084.303826
525.707025	47117.646018
526.069345	47535.935758
526.431608	47414.396060
526.793815	47752.476001
527.155964	47281.914537
527.518057	47447.602140
527.880093	47236.982732
528.242072	47760.771220
528.603995	47449.021225
528.965860	47468.926221
529.327669	47548.500834
529.689421	47448.504507
530.051117	47389.570897
530.412755	47530.322433
530.774337	47602.670553
531.135862	47426.346115
531.497331	47593.241075
531.858743	47486.227461
532.220098	47844.020834
532.581396	47535.421561
532.942638	47194.523614
533.303824	47529.752783
533.664953	47495.699789
534.026025	47196.935806
534.387040	47670.055656
534.747999	47618.726628
535.108902	47778.238818
535.469748	47287.061555
535.830537	47386.815907
536.191270	47585.681864
536.551947	47243.513547
536.912567	47548.551246
537.273131	47675.651337
537.633638	47163.812905
537.994089	47492.344901
538.354483	47087.386492
538.714821	47665.155655
539.075103	48010.043675
539.435328	47768.889998
539.795497	47630.885891
540.155609	47641.807551
540.515665	48098.503322
540.875665	47532.381745
541.235609	47863.459524
541.595496	47836.388528
541.955328	48523.250780
542.315102	47862.184112
542.674821	47630.386817
543.034483	47670.716048
543.394090	47657.972011
543.753640	47603.441849
544.113134	48613.757136
544.472571	47586.286803
544.831953	48833.319550
545.191278	48032.764155
545.550548	47755.167977
545.909761	48231.453672
546.268918	48407.284077
546.628019	48723.805524
546.987064	48276.682904
547.346053	47539.305770
547.704986	48426.417777
548.063863	47958.215572
548.422684	48121.359913
548.781449	47952.841702
549.140158	48374.516577
549.498811	48206.331082
549.857408	47628.851785
550.215949	48472.504005
550.574434	48400.748221
550.932864	48147.591557
551.291237	48863.752996
551.649555	48457.511613
552.007817	48699.671000
552.366022	48330.298096
552.724173	48505.737812
553.082267	48886.856604
553.440305	49162.176701
553.798288	48453.128330
554.156215	48764.248181
554.514086	48964.863419
554.871902	48698.640084
555.229661	48725.769054
555.587365	48534.943737
555.945014	48636.792688
556.302606	48562.254188
556.660143	48775.023647
557.017625	48851.505513
557.375050	48618.528588
557.732421	48964.455085
558.089735	48939.529100
558.446994	48840.477989
558.804197	49304.521242
559.161345	49216.038909
559.518437	48461.025298
559.875474	48771.361249
560.232455	48934.969377
560.589381	49110.716603
560.946251	48786.817427
561.303065	49451.680084
561.659825	49228.535930
562.016528	48909.791334
562.373177	48610.331672
562.729770	49103.860633
563.086307	48601.683572
563.442789	49056.173838
563.799216	49074.954657
564.155587	48866.117297
564.511904	48905.942413
564.868164	48961.626998
565.224370	49186.533036
565.580520	48927.069888
565.936615	49127.627153
566.292654	48813.676694
566.648638	49071.892156
567.004567	49023.383653
567.360441	49076.701417
567.716260	48918.336089
568.072023	49201.948884
568.427732	49171.593576
568.783385	48707.119305
569.138982	49091.096432
569.494525	49032.588800
569.850013	48786.824988
570.205445	48741.394110
570.560823	48688.172128
570.916145	48556.784536
571.271412	48577.826312
571.626625	48329.925051
571.981782	48345.209829
572.336884	48034.175678
572.691931	48353.313484
573.046923	47943.455073
573.401860	47788.338770
573.756743	47746.028365
574.111570	47844.136781
574.466342	47684.838840
574.821059	47779.277296
575.175722	47296.561609
575.530330	47304.718196
575.884882	46996.038264
576.239380	46947.859956
576.593823	46917.582786
576.948211	46838.451794
577.302544	46351.625047
577.656823	46354.730398
578.011047	46580.410253
578.365216	46297.649413
578.719330	46067.210709
579.073389	45912.195228
579.427394	45985.014695
579.781344	45940.309743
580.135239	45581.208190
580.489080	45637.754813
580.842866	45137.493390
581.196597	45579.900010
581.550273	45498.044275
581.903895	45377.268311
582.257463	45783.986083
582.610975	45142.562270
582.964434	45421.602738
583.317837	45046.019133
583.671186	44885.173558
584.024481	45096.876813
584.377721	44603.151247
584.730906	44869.465322
585.084037	44914.686993
585.437113	44618.151200
585.790135	44621.828722
586.143103	44220.759563
586.496016	44317.895036
586.848874	44350.448287
587.201679	44349.437536
587.554428	43825.084439
587.907124	44008.960525
588.259765	43752.466618
588.612352	43973.987521
588.964884	43373.107188
589.317362	43667.356817
589.669786	43596.384933
590.022155	43336.712578
590.374470	43754.699849
590.726731	43265.896969
591.078937	42772.267184
591.431090	42861.793036
591.783188	42510.653985
592.135232	42187.755478
592.487222	42435.268570
592.839157	42504.294569
593.191038	42158.930161
593.542866	41904.712334
593.894639	41324.039466
594.246358	41589.262132
594.598022	41553.913561
594.949633	41153.870277
595.301190	41107.239604
595.652692	40939.921187
596.004141	41257.949939
596.355535	40267.857242
596.706876	40212.928829
597.058162	40039.702180
597.409395	40503.720227
597.760573	40563.324310
598.111698	40163.154997
598.462768	40157.922279
598.813785	40199.761336
599.164748	39643.449844
599.515657	40022.010251
599.866511	39516.097695
600.217312	40128.998659
600.568060	39101.268707
600.918753	39843.601296
601.269392	39778.167119
601.619978	39438.917630
601.970510	39638.489349
602.320988	39824.475158
602.671412	40122.825766
603.021783	39871.995595
603.372100	39515.154999
603.722363	39613.573446
604.072572	39679.204228
604.422728	39706.681037
604.772830	39509.536633
605.122878	39601.174728
605.472872	39537.925891
605.822813	39801.981530
606.172701	39628.454932
606.522534	39879.464064
606.872314	40137.205657
607.222041	39893.617104
607.571714	40280.616402
607.921333	39725.925642
608.270899	40021.508656
608.620411	40353.806394
608.969870	40131.463783
609.319276	40148.704529
609.668627	40208.134692
610.017926	40672.956803
610.367171	40831.259116
610.716362	40919.166757
611.065500	40859.862623
611.414585	41039.665457
611.763616	41345.439164
612.112594	41289.129476
612.461518	41492.625733
612.810389	41798.084368
613.159207	41648.397387
613.507971	41730.931158
613.856682	42206.528735
614.205340	42089.475663
614.553945	42794.609578
614.902496	42228.205697
615.250994	42707.871485
615.599439	42777.394038
615.947830	42955.689567
616.296169	43061.820979
616.644454	43163.001978
616.992686	43332.021784
617.340864	43847.015979
617.688990	43559.463522
618.037063	44187.490468
618.385082	44136.206810
618.733048	44421.941931
619.080961	44434.665803
619.428821	44447.624089
619.776628	44549.833483
620.124382	44381.368204
620.472083	44505.564591
620.819731	44622.353002
621.167326	44281.303821
621.514868	44255.266261
621.862357	43814.102285
622.209793	43851.288357
622.557176	43499.874563
622.904506	43223.934404
623.251783	42887.676840
623.599007	42674.315045
623.946179	42456.638022
624.293297	42396.804567
624.640363	41814.258910
624.987376	41790.908286
625.334336	41560.260374
625.681243	41211.926725
626.028097	41163.682883
626.374899	41021.121573
626.721647	41008.463236
627.068343	40913.263566
627.414987	40673.629797
627.761577	40455.720881
628.108115	40789.062138
628.454600	40233.501778
628.801032	40428.594432
629.147412	40388.247557
629.493739	40389.464996
629.840014	40032.079956
630.186236	40382.057020
630.532405	39970.048558
630.878521	40192.812105
631.224585	40060.638092
631.570597	39776.511100
631.916556	39918.911093
632.262462	39886.995548
632.608316	39886.194005
632.954117	39783.218355
633.299866	39768.961972
633.645562	39690.446001
633.991206	39187.800112
634.336797	38742.580528
634.682336	38750.754759
635.027823	38502.609002
635.373257	38314.337030
635.718639	38078.070752
636.063968	37935.625388
636.409245	37372.347022
636.754470	37408.030829
637.099642	37163.653335
637.444762	36698.785854
637.789829	36845.979984
638.134845	36508.426843
638.479808	36433.618641
638.824719	36350.278285
639.169577	35973.625955
639.514383	36043.478703
639.859137	35723.693109
640.203839	35975.445812
640.548489	35621.055217
640.893086	35676.119740
641.237632	35416.959062
641.582125	35547.119134
641.926566	35482.239484
642.270955	35444.589627
642.615292	35472.590716
642.959576	35432.377431
643.303809	35432.861382
643.647990	35586.593889
643.992118	35544.102003
644.336195	35534.110437
644.680219	35624.392461
645.024192	35943.621008
645.368112	36465.093085
645.711981	36462.486808
646.055797	37360.941411
646.399562	37278.571478
646.743274	38246.226000
647.086935	38673.690640
647.430544	38553.696055
647.774101	38654.216663
648.117606	38890.798013
648.461059	39178.778968
648.804460	38780.671487
649.147810	38148.011720
649.491108	37898.973679
649.834354	37534.193266
650.177548	36693.953908
650.520690	36247.448829
650.863781	36270.655781
651.206820	36113.366740
651.549807	35677.332138
651.892742	35190.694434
652.235626	35007.405642
652.578458	34877.467381
652.921238	34279.354641
653.263967	34597.708548
653.606644	34294.566323
653.949269	34229.719441
654.291843	33816.818694
654.634365	34221.704006
654.976836	33839.284596
655.319255	33830.054243
655.661622	33830.381918
656.003938	33615.699340
656.346203	33478.930316
656.688416	33700.715879
657.030577	33503.878986
657.372687	33332.797348
657.714746	33587.965432
658.056753	33717.669280
658.398708	33173.219623
658.740612	33217.581777
659.082465	33498.731968
659.424266	33333.223326
659.766016	33462.239056
660.107715	33332.043696
660.449362	33442.802887
660.790958	33425.680608
661.132503	33424.511060
661.473996	33472.399501
661.815438	33586.632047
662.156829	33785.634116
662.498168	33551.815318
662.839456	33571.712752
663.180693	33723.340578
663.521879	33893.819798
663.863013	33850.251626
664.204097	33835.773432
664.545129	34297.144873
664.886110	34261.708082
665.227040	34329.027651
665.567918	34450.847133
665.908746	34518.252402
666.249522	34669.376112
666.590248	34664.834032
666.930922	34773.543994
667.271545	34749.031383
667.612118	34809.668903
667.952639	34585.173719
668.293109	34648.026825
668.633528	34530.515008
668.973896	34446.930157
669.314213	34494.092672
669.654480	34242.249228
669.994695	34242.493724
670.334859	34158.961805
670.674973	34032.789286
671.015035	34186.289900
671.355047	34134.716376
671.695008	34083.094960
672.034918	34001.970192
672.374777	34088.849438
672.714585	33914.672531
673.054342	34152.453676
673.394049	33907.763630
673.733705	34176.028632
674.073310	33834.475335
674.412864	33895.228801
674.752368	33509.255377
675.091820	33811.580935
675.431223	33388.355905
675.770574	33087.628393
676.109875	32943.123718
676.449125	32667.206244
676.788324	32595.669751
677.127473	32066.787177
677.466571	31982.413385
677.805619	31632.680817
678.144616	31637.847999
678.483562	31544.082538
678.822458	31234.527965
679.161303	31157.244556
679.500098	31089.466243
679.838842	30975.911732
680.177535	31121.883382
680.516179	31420.453281
680.854771	31686.296008
681.193314	32571.149578
681.531805	33720.245309
681.870247	34473.670958
682.208638	35176.939645
682.546978	35372.574223
682.885268	35438.605777
683.223508	34910.605405
683.561697	34576.565949
683.899836	34380.313829
684.237925	33868.399780
684.575963	33714.755493
684.913951	33261.263375
685.251889	33414.186777
685.589776	33414.222065
685.927614	33426.068777
686.265401	33564.912236
686.603137	33661.583923
686.940824	34190.335426
687.278460	34572.127213
687.616046	34701.929362
687.953582	35295.366432
688.291068	35145.492928
688.628504	35411.328093
688.965889	35337.674315
689.303224	34932.584836
689.640510	34584.747741
689.977745	33806.829647
690.314930	32992.222036
690.652065	32468.730976
690.989150	31727.131875
691.326185	30821.874235
691.663170	30132.078031
692.000105	29374.052330
692.336990	28702.172386
692.673825	28252.687986
693.010610	27736.509120
693.347345	27161.368919
693.684030	26503.609247
694.020665	26223.721865
694.357251	25555.653034
694.693786	25510.443966
695.030272	25281.313442
695.366707	24742.971143
695.703093	24461.347083
696.039429	24459.156702
696.375716	24193.442524
696.711952	24161.191742
697.048139	24014.179093
697.384276	23829.960208
697.720363	23968.183606
698.056400	23749.029524
698.392388	23529.076420
698.728326	23490.723322
699.064214	23285.318988
699.400053	23216.434141
699.735842	22861.357949
700.071581	22584.195311
700.407270	22290.359056
700.742910	22097.303028
701.078501	21830.676402
701.414042	21546.902290
701.749533	21261.668764
702.084974	20899.426572
702.420366	21110.154365
702.755709	20670.830410
703.091002	20378.650174
703.426246	20394.986033
703.761440	20290.253541
704.096584	20023.735299
704.431679	19982.987653
704.766725	19884.942252
705.101721	19838.298976
705.436668	19924.424568
705.771565	19610.055694
706.106413	19954.754671
706.441212	19951.576223
706.775961	20084.546738
707.110661	20158.361833
707.445311	20511.925679
707.779913	20339.987045
708.114465	20597.365675
708.448967	20888.457021
708.783421	21579.644584
709.117825	21856.232531
709.452180	22081.703178
709.786485	22480.932316
710.120742	23288.411736
710.454949	23303.676350
710.789107	23768.107771
711.123216	24472.982067
711.457275	24581.223201
711.791286	25111.197185
712.125247	25153.994060
712.459159	24854.967937
712.793023	25492.313457
713.126837	24376.794331
713.460602	24636.501974
713.794318	24242.792900
714.127985	23848.274720
714.461602	22934.184978
714.795171	22890.936920
715.128691	21867.451619
715.462162	21335.604847
715.795584	20912.185732
716.128957	20657.748616
716.462281	20258.995867
716.795556	20016.586943
717.128782	19519.241828
717.461960	18980.138315
717.795088	18905.246934
718.128167	18499.993617
718.461198	18048.187765
718.794180	17916.127179
719.127113	17552.561684
719.459997	17350.489552
719.792833	17000.116757
720.125619	16974.316132
720.458357	16659.879202
720.791046	16486.082902
721.123686	16329.678584
721.456278	16095.027996
721.788821	16057.829322
722.121315	15798.104034
722.453761	15874.066661
722.786158	15809.023173
723.118506	15817.888042
723.450805	15676.841599
723.783056	15845.586662
724.115259	15745.345839
724.447412	15680.178843
724.779518	15908.568318
725.111574	15940.120900
725.443582	16152.938251
725.775542	16134.018800
726.107453	16593.245230
726.439315	16485.946791
726.771129	16886.844551
727.102895	17253.805263
727.434612	17460.046428
727.766281	17573.777380
728.097901	17817.280234
728.429473	17869.216722
728.760996	17842.216302
729.092471	17923.784691
729.423897	17796.291390
729.755276	17664.114857
730.086606	17788.795194
730.417887	18319.091811
730.749120	18831.552826
731.080305	19003.088168
731.411442	19325.636315
731.742530	19383.629748
732.073570	19485.337548
732.404562	19769.509911
732.735506	19572.279808
733.066401	19265.046687
733.397249	18719.117451
733.728048	18074.376560
734.058798	17252.592865
734.389501	16564.482927
734.720156	16126.512522
735.050762	15609.837103
735.381320	15255.121353
735.711831	15028.269430
736.042293	14685.165979
736.372707	14704.334967
736.703073	14498.262680
737.033391	14689.980281
737.363661	14660.655889
737.693883	14764.473411
738.024056	14949.110712
738.354182	15130.297343
738.684260	15414.278142
739.014290	15640.396577
739.344272	15809.832279
739.674207	16084.381079
740.004093	16196.657657
740.333931	16175.956159
740.663722	16217.591049
740.993464	16198.664037
741.323159	16014.001530
741.652806	15737.640435
741.982405	15509.480333
742.311956	15172.501883
742.641460	15058.387804
742.970915	14748.578653
743.300323	14421.402727
743.629683	14215.090986
743.958996	13941.401702
744.288260	13663.160257
744.617477	13370.004558
744.946647	13307.403509
745.275768	13027.047300
745.604842	12848.658509
745.933869	12680.094928
746.262847	12629.615334
746.591778	12559.734859
746.920662	12456.814662
747.249498	12463.743728
747.578286	12584.595309
747.907027	12736.291190
748.235720	12946.474538
748.564365	12976.441677
748.892963	12872.896377
749.221514	12929.019543
749.550017	12792.558029
749.878473	12745.440884
750.206881	12526.264118
750.535242	12424.873911
750.863555	12345.203516
751.191821	12241.764080
751.520039	12259.912234
751.848210	12172.634738
752.176334	12210.105634
752.504411	12123.365020
752.832440	11957.082561
753.160421	12019.822241
753.488356	11894.413457
753.816243	11810.440437
754.144082	11658.694144
754.471875	11604.521905
754.799620	11558.697816
755.127318	11522.454441
755.454969	11490.009575
755.782572	11436.742223
756.110129	11449.216558
756.437638	11361.291273
756.765100	11361.467713
757.092515	11363.824453
757.419882	11385.186342
757.747203	11384.178111
758.074477	11461.874895
758.401703	11418.412587
758.728882	11580.069788
759.056014	11620.459513
759.383099	11738.906463
759.710138	11842.141733
760.037129	11915.041858
760.364073	11929.910742
760.690970	11920.783732
761.017820	11914.958679
761.344623	12115.389915
761.671379	12450.344341
761.998088	13111.680711
762.324751	14735.784205
762.651366	17681.824430
762.977935	21270.639497
763.304456	23359.194577
763.630931	23691.232696
763.957359	22446.503755
764.283740	20545.288035
764.610074	18657.658224
764.936362	16562.443780
765.262602	15063.542384
765.588796	13627.373106
765.914943	12622.411525
766.241044	11789.544854
766.567097	11172.439568
766.893104	10630.949068
767.219064	10293.655547
767.544978	9914.437269
767.870845	9612.063820
768.196665	9426.708155
768.522438	9231.582734
768.848165	9071.579031
769.173846	8904.232888
769.499479	8783.517418
769.825066	8633.558215
770.150607	8447.514432
770.476101	8381.369453
770.801548	8281.894884
771.126949	8137.848954
771.452303	8048.665902
771.777611	7887.553145
772.102872	7873.122842
772.428087	7754.121365
772.753256	7628.299206
773.078378	7541.452728
773.403453	7399.753455
773.728482	7292.646580
774.053465	7233.350008
774.378401	7143.241903
774.703291	7056.095477
775.028135	6957.621578
775.352932	6920.748058
775.677683	6841.233938
776.002388	6754.084991
776.327046	6752.257573
776.651658	6665.088461
776.976224	6598.593121
777.300743	6578.655358
777.625216	6513.619432
777.949643	6471.795499
778.274024	6473.045705
778.598359	6404.939717
778.922647	6413.953300
779.246889	6373.682042
779.571086	6385.795935
779.895236	6396.016874
780.219339	6390.239712
780.543397	6389.788529
780.867409	6434.490961
781.191374	6432.474499
781.515294	6400.523666
781.839167	6447.640810
782.162995	6416.977992
782.486776	6373.114912
782.810511	6332.705023
783.134201	6251.812148
783.457844	6246.256797
783.781441	6195.338622
784.104993	6150.805069
784.428498	6125.591738
784.751958	6104.602894
785.075372	6084.317291
785.398739	6040.423964
785.722061	6070.509571
786.045337	6066.670732
786.368568	6181.329256
786.691752	6212.413010
787.014891	6469.106043
787.337983	6750.616677
787.661030	7191.205962
787.984031	7603.658046
788.306987	7850.488062
788.629897	7925.654186
788.952760	7831.429979
789.275579	7644.032647
789.598351	7349.614139
789.921078	7087.900116
790.243759	6808.368136
790.566395	6610.044102
790.888984	6417.479587
791.211529	6283.926819
791.534027	6124.059227
791.856480	5986.244163
792.178888	5926.198980
792.501249	5869.760742
792.823566	5765.577736
793.145836	5762.676552
793.468062	5743.386577
793.790241	5704.448705
794.112375	5747.343883
794.434464	5847.420869
794.756507	5884.823710
795.078505	6006.691083
795.400457	6218.981634
795.722364	6455.895700
796.044226	6648.946686
796.366042	6797.607793
796.687812	6741.199802
797.009538	6763.408605
797.331218	6668.808833
797.652852	6605.764163
797.974442	6482.512992
798.295986	6403.581126
798.617484	6277.549759
798.938938	6172.131670
799.260346	6105.313697
799.581709	5967.458304
799.903026	5917.457619
800.224299	5842.115054
800.545526	5732.722016
800.866708	5671.524929
801.187845	5622.078771
801.508936	5544.452564
801.829983	5514.782853
802.150984	5416.674437
802.471940	5387.690323
802.792851	5372.115678
803.113717	5347.744220
803.434538	5328.310572
803.755314	5296.407630
804.076045	5287.935971
804.396731	5246.986678
804.717372	5265.989308
805.037967	5269.813023
805.358518	5297.045336
805.679024	5353.418039
805.999485	5365.836921
806.319901	5383.632194
806.640272	5394.387496
806.960598	5445.161998
807.280879	5436.279485
807.601115	5474.047809
807.921306	5431.702117
808.241453	5426.660963
808.561554	5436.886944
808.881611	5404.215226
809.201623	5401.936624
809.521590	5351.262946
809.841513	5338.448332
810.161390	5351.988872
810.481223	5263.993011
810.801011	5250.860805
811.120755	5225.745777
811.440453	5173.085883
811.760107	5144.129496
812.079716	5113.514568
812.399281	5066.914142
812.718801	5061.883071
813.038276	5027.250344
813.357707	4988.902287
813.677093	5013.034290
813.996434	4951.781750
814.315731	4974.290502
814.634983	4972.952076
814.954191	4979.253518
815.273354	5039.253331
815.592473	5077.674485
815.911547	5151.250126
816.230577	5208.578127
816.549562	5293.942506
816.868502	5342.574517
817.187399	5397.170213
817.506250	5480.518130
817.825058	5508.385629
818.143821	5662.720554
818.462539	5829.817160
818.781213	6063.580505
819.099843	6434.044818
819.418429	7067.249030
819.736970	7687.295829
820.055466	8387.103765
820.373919	9310.295310
820.692327	10791.724067
821.010691	13598.278086
821.329011	19994.937708
821.647286	29496.945578
821.965517	39500.255869
822.283704	44439.175115
822.601847	45510.823600
822.919945	40839.362771
823.237999	35797.619110
823.556010	30746.574520
823.873976	26185.772059
824.191897	22134.655458
824.509775	19169.297531
824.827609	16512.095256
825.145398	15038.636563
825.463144	14361.856618
825.780845	14726.090066
826.098502	16053.481326
826.416116	18497.309203
826.733685	20671.876449
827.051210	21033.982530
827.368692	19533.417553
827.686129	16994.198443
828.003522	14571.114914
828.320872	12434.315993
828.638177	10832.844759
828.955439	9634.774218
829.272656	8599.573276
829.589830	7780.166486
829.906960	7068.786582
830.224046	6551.826337
830.541088	6156.604917
830.858086	5910.067288
831.175041	5715.135951
831.491952	5667.572664
831.808819	5707.579261
832.125642	5967.768335
832.442421	6542.036416
832.759157	7682.864655
833.075849	9464.206778
833.392497	11253.440827
833.709101	12276.250614
834.025662	11939.652771
834.342179	10858.292504
834.658653	9577.234488
834.975083	8512.676387
835.291469	7637.708519
835.607811	6925.159067
835.924110	6416.438589
836.240366	5936.198109
836.556578	5491.023895
836.872746	5151.202235
837.188871	4883.859764
837.504952	4671.362526
837.820990	4510.688350
838.136984	4398.079056
838.452935	4359.922562
838.768842	4401.023090
839.084706	4701.309501
839.400526	5466.097910
839.716303	6347.331931
840.032037	6864.811415
840.347727	6664.443193
840.663373	6064.046811
840.978977	5504.660216
841.294537	5077.840843
841.610054	4760.394344
841.925527	4530.817678
842.240957	4328.826205
842.556344	4148.824245
842.871687	3991.822550
843.186987	3847.650591
843.502244	3728.505440
843.817458	3645.144920
844.132629	3575.818972
844.447756	3529.100079
844.762840	3488.039881
845.077881	3447.014971
845.392879	3414.083634
845.707833	3390.160838
846.022745	3364.128320
846.337613	3352.896629
846.652438	3328.961230
846.967221	3319.670384
847.281960	3300.254380
847.596656	3290.282978
847.911309	3282.297790
848.225919	3264.812548
848.540485	3260.330962
848.855009	3250.478027
849.169490	3238.941346
849.483928	3231.856004
849.798323	3228.702763
850.112675	3220.105075
850.426984	3218.028119
850.741251	3211.247767
851.055474	3208.817931
851.369654	3209.564022
851.683792	3207.658466
851.997887	3211.489743
852.311938	3209.569063
852.625947	3210.731049
852.939914	3205.044628
853.253837	3207.880277
853.567718	3208.376830
853.881555	3203.224771
854.195350	3204.603527
854.509103	3203.433979
854.822812	3201.538505
855.136479	3198.281920
855.450103	3201.684699
855.763685	3194.740509
856.077224	3198.012218
856.390720	3203.232333
856.704173	3215.683983
857.017584	3221.763614
857.330953	3226.555231
857.644278	3234.658886
857.957561	3238.401943
858.270802	3235.039493
858.584000	3233.582600
858.897155	3226.963565
859.210268	3213.639795
859.523339	3205.672251
859.836367	3203.433979
860.149352	3196.489790
860.462295	3193.434850
860.775195	3184.547296
861.088054	3180.040505
861.400869	3180.456400
861.713642	3176.887263
862.026373	3188.630631
862.339062	3192.744212
862.651708	3197.228319
862.964312	3213.803632
863.276873	3224.926938
863.589392	3257.591095
863.901869	3278.975669
864.214303	3301.746561
864.526696	3322.800940
864.839045	3339.197293
865.151353	3348.823377
865.463619	3351.321268
865.775842	3352.175744
866.088023	3354.560210
866.400162	3350.035774
866.712258	3351.013758
867.024313	3348.349508
867.336325	3347.293386
867.648296	3349.027543
867.960224	3343.152078
868.272110	3348.664580
868.583954	3345.725588
868.895755	3357.216898
869.207515	3353.181454
869.519233	3371.387581
869.830909	3375.639794
870.142542	3387.907442
870.454134	3394.995305
870.765684	3411.953746
871.077191	3426.903288
871.388657	3441.598251
871.700081	3457.556024
872.011463	3482.608038
872.322803	3498.633866
872.634101	3514.916793
872.945357	3535.532592
873.256571	3561.847415
873.567744	3579.791402
873.878874	3582.138059
874.189963	3598.577262
874.501010	3598.859566
874.812015	3600.926439
875.122979	3611.336422
875.433900	3609.899693
875.744780	3611.719550
876.055618	3619.775313
876.366415	3615.150055
876.677169	3624.415696
876.987882	3641.409425
877.298554	3664.011438
877.609183	3704.035679
877.919771	3749.829521
878.230317	3820.234276
878.540822	3925.329730
878.851285	4078.792536
879.161707	4303.224705
879.472087	4693.543603
879.782425	5334.238969
880.092722	6546.046654
880.402977	8484.166141
880.713191	10815.765330
881.023363	13086.971496
881.333494	14295.676351
881.643583	14683.424260
881.953631	14232.694695
882.263637	13408.279518
882.573602	12402.095458
882.883526	11478.954324
883.193408	10552.382686
883.503248	9668.204630
883.813048	8861.499027
884.122806	8118.745502
884.432522	7369.138528
884.742197	6729.950467
885.051831	6185.039545
885.361424	5705.293098
885.670975	5326.480633
885.980485	5010.188559
886.289954	4749.893621
886.599382	4538.472670
886.908768	4363.776524
887.218113	4206.961352
887.527417	4072.937236
887.836680	3955.866520
888.145901	3858.662991
888.455082	3783.290180
888.764221	3717.941702
889.073319	3657.939369
889.382376	3629.096407
889.691392	3604.485494
890.000366	3597.894185
890.309300	3592.006117
890.618193	3594.012497
890.927044	3589.069645
891.235855	3596.830502
891.544625	3614.464458
891.853353	3645.364210
892.162041	3707.594734
892.470687	3798.128816
892.779293	3920.757404
893.087858	4097.762398
893.396381	4379.845202
893.704864	4798.366836
894.013306	5360.374831
894.321707	5928.044042
894.630068	6254.998157
894.938387	6270.993738
895.246665	6081.126241
895.554903	5768.362974
895.863100	5435.417447
896.171256	5169.728475
896.479371	4937.245583
896.787446	4716.916913
897.095480	4528.390362
897.403473	4380.356879
897.711425	4241.009305
898.019336	4123.840287
898.327207	4000.170700
898.635038	3898.188158
898.942827	3792.686890
899.250576	3709.089436
899.558284	3624.806385
899.865952	3574.553643
900.173579	3508.262470
900.481165	3465.818475
900.788711	3424.541507
901.096216	3396.820202
901.403681	3365.449102
901.711105	3356.753112
902.018489	3356.589274
902.325832	3390.359964
902.633135	3454.208698
902.940397	3631.493476
903.247619	4056.694638
903.554800	4825.498326
903.861941	5764.743425
904.169041	6415.868938
904.476101	6581.874134
904.783121	6296.343181
905.090100	5897.477006
905.397039	5492.899204
905.703938	5148.832892
906.010796	4835.792362
906.317614	4589.789095
906.624391	4357.666646
906.931129	4166.072553
907.237826	3991.736850
907.544483	3820.899708
907.851099	3656.391734
908.157675	3495.132785
908.464211	3360.886858
908.770707	3261.523195
909.077163	3183.067717
909.383578	3125.454891
909.689954	3079.610638
909.996289	3056.607853
910.302584	3032.737989
910.608839	3021.108047
910.915054	3010.778723
911.221229	3007.998527
911.527363	3014.912469
911.833458	3018.285001
912.139513	3027.550642
912.445527	3045.610576
912.751502	3083.333530
913.057436	3123.940024
913.363331	3181.268026
913.669186	3270.632560
913.975000	3389.586147
914.280775	3581.749890
914.586510	3854.839276
914.892205	4229.855752
915.197859	4726.598449
915.503475	5295.545593
915.809050	5773.585609
916.114585	6043.854470
916.420081	6090.260811
916.725536	6021.842271
917.030952	5786.412825
917.336328	5584.771712
917.641665	5374.414445
917.946961	5151.794570
918.252218	4956.759890
918.557435	4737.646138
918.862612	4540.126168
919.167750	4370.798852
919.472848	4184.014019
919.777906	4017.454296
920.082925	3860.989484
920.387904	3714.080178
920.692843	3608.349538
920.997743	3508.907737
921.302603	3417.188984
921.607423	3353.864530
921.912204	3285.861886
922.216946	3236.723238
922.521647	3189.908563
922.826310	3151.162255
923.130932	3112.768827
923.435516	3075.345822
923.740059	3046.707027
924.044564	3018.287522
924.349028	2989.739468
924.653454	2963.500262
924.957840	2936.351128
925.262186	2917.572830
925.566493	2896.198337
925.870761	2871.090871
926.174989	2862.016794
926.479178	2847.974660
926.783328	2828.901454
927.087438	2821.369970
927.391509	2804.666107
927.695541	2797.101856
927.999533	2784.846811
928.303486	2777.602672
928.607400	2773.405912
928.911275	2766.577669
929.215110	2761.042482
929.518906	2756.553335
929.822663	2756.223139
930.126381	2755.935793
930.430060	2761.813779
930.733699	2760.747575
931.037299	2762.736310
931.340861	2763.457195
931.644383	2766.895262
931.947866	2766.088677
932.251309	2762.368306
932.554714	2764.868718
932.858080	2761.637338
933.161407	2758.020310
933.464694	2753.372367
933.767943	2750.937489
934.071153	2748.220307
934.374323	2741.424832
934.677455	2739.196642
934.980548	2738.962228
935.283602	2734.692371
935.586617	2732.950652
935.889593	2735.395612
936.192530	2738.667321
936.495428	2742.972466
936.798287	2753.942017
937.101108	2766.930550
937.403890	2789.782100
937.706632	2814.859320
938.009336	2848.740915
938.312002	2876.822662
938.614628	2901.541960
938.917216	2920.506781
939.219765	2931.007505
939.522275	2940.016047
939.824747	2940.159719
940.127179	2929.618667
940.429573	2926.165476
940.731929	2924.504416
941.034246	2916.211718
941.336524	2912.123342
941.638763	2905.426169
941.940964	2900.581621
942.243126	2883.852552
942.545250	2873.006509
942.847335	2859.546628
943.149381	2846.225379
943.451389	2832.715087
943.753359	2817.261430
944.055290	2811.973259
944.357182	2800.930612
944.659036	2797.701753
944.960851	2791.196144
945.262628	2791.478448
945.564367	2788.146246
945.866067	2788.511729
946.167729	2790.213119
946.469352	2785.870165
946.770937	2785.577778
947.072484	2778.081582
947.373992	2779.437652
947.675462	2772.818617
947.976893	2769.042793
948.278286	2765.382916
948.579641	2761.465939
948.880958	2761.584406
949.182236	2761.105497
949.483476	2759.189858
949.784678	2757.672471
950.085841	2756.258427
950.386967	2760.571134
950.688054	2764.868718
950.989103	2771.616302
951.290114	2783.800771
951.591087	2793.462142
951.892021	2805.598720
952.192917	2816.873261
952.493776	2828.321721
952.794596	2831.318687
953.095378	2834.698781
953.396122	2830.678461
953.696828	2828.341886
953.997496	2822.632779
954.298126	2814.965184
954.598718	2805.376910
954.899272	2794.472894
955.199788	2784.405710
955.500266	2772.516148
955.800706	2754.141142
956.101108	2741.104719
956.401472	2730.853532
956.701798	2714.235369
957.002087	2703.338915
957.302337	2693.233922
957.602550	2684.013651
957.902724	2673.273473
958.202861	2665.162257
958.502960	2656.289826
958.803022	2649.219607
959.103045	2643.616365
959.403031	2636.946918
959.702979	2629.470887
960.002889	2627.361164
960.302762	2621.069804
960.602596	2620.616101
960.902393	2612.441870
961.202153	2612.474637
961.501875	2610.435490
961.801559	2607.713267
962.101205	2605.119594
962.400814	2604.333174
962.700385	2601.394181
962.999918	2599.110538
963.299414	2598.266145
963.598873	2596.065681
963.898293	2594.765064
964.197677	2593.713983
964.497022	2596.789087
964.796331	2593.061154
965.095601	2591.296750
965.394835	2592.511668
965.694030	2587.664598
965.993189	2591.173242
966.292309	2586.532859
966.591393	2588.110741
966.890439	2586.618559
967.189447	2587.949424
967.488419	2590.036461
967.787353	2590.931266
968.086249	2587.788107
968.385108	2592.443612
968.683930	2589.529825
968.982714	2588.524115
969.281462	2592.057964
969.580172	2594.828078
969.878844	2596.221957
970.177480	2599.193717
970.476078	2605.132197
970.774639	2606.876436
971.073162	2609.344081
971.371649	2607.093205
971.670098	2610.518669
971.968510	2609.807867
972.266885	2609.762496
972.565223	2615.353136
972.863524	2615.456480
973.161788	2616.507560
973.460014	2615.690893
973.758204	2619.116357
974.056356	2620.598457
974.354471	2620.384207
974.652550	2620.512757
974.950591	2619.098713
975.248595	2618.022427
975.546563	2618.244238
975.844493	2616.815071
976.142386	2611.579832
976.440243	2610.405243
976.738062	2610.836262
977.035845	2606.079933
977.333590	2603.027515
977.631299	2602.493152
977.928971	2602.349480
978.226606	2601.817638
978.524204	2597.499890
978.821765	2598.041814
979.119290	2597.943511
979.416777	2595.128027
979.714228	2596.481577
980.011642	2599.692792
980.309020	2606.856271
980.606360	2604.444079
980.903664	2617.367077
981.200931	2630.242184
981.498162	2644.067548
981.795356	2676.325892
982.092513	2714.031202
982.389633	2754.713313
982.686717	2795.289561
982.983764	2827.512616
983.280775	2843.861078
983.577749	2839.661797
983.874686	2832.556291
984.171587	2817.420226
984.468451	2800.446661
984.765279	2784.047788
985.062070	2766.678492
985.358824	2746.750811
985.655543	2725.749364
985.952224	2704.263966
986.248869	2678.246571
986.545478	2654.298570
986.842050	2634.373409
987.138586	2617.480503
987.435086	2603.448451
987.731549	2590.598550
988.027975	2587.533528
988.324366	2581.521952
988.620719	2576.679924
988.917037	2571.021229
989.213318	2572.503328
989.509563	2568.130127
989.805772	2569.884449
990.101944	2567.041238
990.398080	2561.039744
990.694180	2564.954200
990.990244	2563.371278
991.286271	2564.477811
991.582262	2563.146947
991.878217	2568.919068
992.174136	2568.505693
992.470019	2569.118193
992.765865	2568.190621
993.061676	2570.643142
993.357450	2574.466858
993.653188	2577.632702
993.948890	2581.171592
994.244556	2588.493868
994.540186	2597.018459
994.835780	2610.755604
995.131337	2626.607512
995.426859	2639.222999
995.722345	2656.768735
996.017795	2675.068124
996.313208	2691.484641
996.608586	2698.940508
996.903928	2701.148533
997.199234	2700.021835
997.494504	2695.888089
997.789738	2690.635207
998.084936	2681.190605
998.380099	2669.409429
998.675225	2658.432316
998.970316	2648.619710
999.265371	2635.053965
999.560390	2620.235493
999.855373	2610.526231
1000.150320	2599.586927
1000.445232	2590.893458
1000.740108	2585.070925
1001.034948	2577.988104
1001.329752	2570.743966
1001.624521	2570.809501
1001.919254	2564.329097
1002.213951	2561.357337
1002.508613	2556.888354
1002.803239	2554.014897
1003.097829	2551.254865
1003.392384	2552.419371
1003.686903	2554.158569
1003.981386	2551.436346
1004.275834	2552.716799
1004.570246	2549.732436
1004.864623	2551.567416
1005.158964	2550.919628
1005.453270	2549.109854
1005.747540	2549.876109
1006.041775	2544.325799
1006.335974	2545.956612
1006.630138	2547.347971
1006.924266	2545.084493
1007.218359	2548.512477
1007.512416	2545.412168
1007.806438	2544.799667
1008.100425	2545.157589
1008.394376	2545.613814
1008.688292	2542.243802
1008.982172	2542.785726
1009.276017	2543.201622
1009.569827	2541.003678
1009.863602	2546.828732
1010.157341	2540.925541
1010.451045	2542.637012
1010.744714	2541.840510
1011.038347	2541.805222
1011.331945	2541.694317
1011.625508	2543.254554
1011.919036	2540.255067
1012.212528	2539.629964
1012.505986	2539.612320
1012.799408	2542.422763
1013.092795	2538.556198
1013.386147	2540.607948
1013.679464	2540.091230
1013.972745	2539.380427
1014.265992	2540.597866
1014.559204	2540.713812
1014.852380	2539.844213
1015.145521	2540.418905
1015.438628	2539.065355
1015.731699	2540.779347
1016.024736	2538.846065
1016.317737	2540.519728
1016.610703	2540.592824
1016.903635	2539.002340
1017.196531	2538.223482
1017.489393	2539.786240
1017.782219	2538.382278
1018.075011	2542.942002
1018.367768	2544.051056
1018.660490	2540.562578
1018.953177	2540.562578
1019.245829	2540.562578
