Dividing Wavelength (nm)	Counts (n)	Blue Motor Position (mm): 7.400000	Red Motor Position (mm): 0.000000	
326.493990	2061.390822
326.888308	2061.390822
327.282561	2061.390822
327.676750	2037.147913
328.070874	2039.035825
328.464933	2047.749460
328.858929	2055.984185
329.252859	2063.011553
329.646726	2078.492937
330.040528	2094.090267
330.434265	2113.559203
330.827938	2134.638788
331.221547	2154.306849
331.615091	2174.060611
332.008571	2194.923426
332.401986	2217.598536
332.795338	2235.819786
333.188625	2255.424834
333.581847	2274.011568
333.975006	2288.948507
334.368100	2308.679583
334.761129	2326.190031
335.154095	2340.978256
335.546996	2363.673530
335.939833	2393.275186
336.332606	2406.908986
336.725315	2419.463980
337.117960	2428.870773
337.510540	2437.183636
337.903056	2447.853238
338.295508	2450.956068
338.687896	2459.296657
339.080220	2463.425362
339.472480	2471.927268
339.864676	2474.914152
340.256807	2477.326344
340.648875	2478.717702
341.040879	2479.052939
341.432818	2482.727940
341.824694	2484.383959
342.216506	2480.366159
342.608253	2479.194091
342.999937	2482.617035
343.391557	2479.811632
343.783113	2478.689976
344.174605	2475.690489
344.566033	2473.369038
344.957397	2476.741570
345.348697	2469.852833
345.739934	2468.350569
346.131106	2469.628502
346.522215	2467.879221
346.913260	2466.318984
347.304241	2465.671196
347.695159	2462.190279
348.086012	2459.185752
348.476802	2461.066102
348.867528	2454.459670
349.258191	2452.284412
349.648789	2454.900771
350.039324	2447.664194
350.429796	2452.158383
350.820203	2451.127467
351.210548	2451.850873
351.600828	2448.032199
351.991045	2451.820626
352.381198	2449.506736
352.771288	2450.555296
353.161314	2449.849535
353.551276	2447.971705
353.941175	2448.145625
354.331010	2448.637137
354.720782	2449.965481
355.110490	2450.305759
355.500135	2450.560337
355.889717	2450.096551
356.279235	2449.968002
356.668689	2451.997066
357.058080	2450.749381
357.447408	2452.211315
357.836672	2451.321552
358.225873	2452.566717
358.615010	2450.252827
359.004084	2453.630400
359.393095	2452.135698
359.782043	2454.620987
360.170927	2452.760801
360.559748	2456.581996
360.948505	2457.819599
361.337199	2457.101234
361.725830	2454.124433
362.114398	2456.879424
362.502903	2456.493775
362.891344	2458.250617
363.279722	2457.917901
363.668037	2461.048458
364.056289	2458.669033
364.444478	2462.437296
364.832603	2460.314970
365.220665	2462.049127
365.608665	2461.779425
365.996601	2460.607357
366.384474	2461.625670
366.772284	2460.937553
367.160031	2460.372943
367.547715	2462.447378
367.935336	2463.332101
368.322893	2462.001236
368.710388	2459.858746
369.097820	2459.533591
369.485189	2458.805144
369.872495	2463.516103
370.259738	2460.761112
370.646918	2465.116669
371.034035	2465.061216
371.421090	2464.698253
371.808081	2464.312605
372.195010	2462.888479
372.581875	2463.516103
372.968678	2463.266566
373.355418	2467.339818
373.742096	2464.143726
374.128710	2466.180353
374.515262	2463.596761
374.901751	2465.779581
375.288177	2466.550877
375.674540	2467.480970
376.060841	2468.597586
376.447079	2467.186063
376.833254	2466.409725
377.219367	2467.107925
377.605417	2468.368213
377.991404	2468.637915
378.377329	2468.005250
378.763191	2468.917699
379.148991	2469.696557
379.534727	2469.124386
379.920402	2468.884932
380.306013	2465.126751
380.691563	2468.718573
381.077049	2468.337966
381.462474	2469.452061
381.847835	2469.499952
382.233134	2472.154120
382.618371	2469.308388
383.003545	2471.927268
383.388657	2470.687144
383.773706	2473.520272
384.158693	2470.757720
384.543618	2472.665797
384.928480	2470.104891
385.313280	2472.885087
385.698017	2471.312247
386.082692	2469.376444
386.467305	2472.262505
386.851856	2473.129583
387.236344	2475.030098
387.620770	2470.361990
388.005133	2469.202524
388.389435	2470.309058
388.773674	2468.262349
389.157851	2474.825931
389.541965	2471.302165
389.926018	2474.137814
390.310008	2473.633698
390.693936	2474.551188
391.077802	2474.982207
391.461606	2475.642598
391.845348	2475.821559
392.229027	2474.220993
392.612645	2474.798205
392.996200	2475.410705
393.379694	2476.182002
393.763125	2476.562609
394.146494	2475.572022
394.529801	2476.146714
394.913047	2476.877681
395.296230	2479.166365
395.679351	2478.274081
396.062410	2474.415077
396.445408	2478.226190
396.828343	2477.245685
397.211217	2478.752990
397.594028	2479.625110
397.976778	2477.903556
398.359466	2480.643423
398.742092	2480.497229
399.124656	2476.429018
399.507158	2480.305666
399.889598	2478.475727
400.271977	2477.051601
400.654294	2476.638226
401.036549	2481.344143
401.418742	2479.206694
401.800874	2481.921355
402.182944	2478.755511
402.564952	2480.973618
402.946898	2481.921355
403.328783	2477.986735
403.710606	2481.271047
404.092367	2482.153248
404.474067	2480.648464
404.855705	2482.191057
405.237282	2481.371870
405.618797	2481.142497
406.000250	2482.659884
406.381642	2484.096613
406.762972	2481.961685
407.144240	2475.438432
407.525447	2480.749287
407.906593	2479.577219
408.287677	2484.779690
408.668700	2480.245172
409.049661	2484.394041
409.430560	2482.884216
409.811399	2484.096613
410.192176	2480.585450
410.572891	2483.426140
410.953545	2483.305152
411.334138	2484.724237
411.714669	2485.392190
412.095139	2484.457056
412.475547	2484.522591
412.855894	2484.734319
413.236180	2483.143835
413.616405	2485.868579
413.996568	2482.687611
414.376670	2485.127529
414.756711	2485.946717
415.136691	2484.817498
415.516609	2486.995277
415.896466	2485.258599
416.276262	2483.736171
416.655997	2486.065184
417.035670	2484.275574
417.415283	2484.812457
417.794834	2483.721047
418.174324	2486.710452
418.553753	2487.176758
418.933121	2487.136429
419.312428	2486.357571
419.691674	2487.511995
420.070859	2486.670122
420.449983	2486.491161
420.829045	2487.411172
421.208047	2486.506285
421.586988	2487.393528
421.965867	2487.945534
422.344686	2487.542242
422.723444	2486.919659
423.102141	2487.131388
423.480777	2486.350009
423.859352	2490.125833
424.237866	2487.474186
424.616319	2487.837149
424.994712	2485.951758
425.373044	2489.896461
425.751314	2487.353199
426.129524	2483.348002
426.507673	2487.879999
426.885762	2483.776500
427.263789	2486.929742
427.641756	2488.767242
428.019662	2488.724393
428.397508	2489.525936
428.775292	2487.317911
429.153016	2490.773622
429.530679	2490.927377
429.908282	2490.118272
430.285824	2490.098107
430.663305	2491.491986
431.040726	2487.023003
431.418086	2491.002994
431.795385	2488.462253
432.172624	2489.291522
432.549802	2489.417551
432.926920	2488.489979
433.303977	2491.237408
433.680974	2493.644559
434.057910	2489.372181
434.434786	2489.737664
434.811601	2490.743375
435.188355	2492.046513
435.565050	2490.135916
435.941683	2491.590288
436.318257	2493.382419
436.694770	2488.666419
437.071222	2489.253714
437.447614	2488.880668
437.823946	2492.074239
438.200218	2490.902171
438.576429	2493.006853
438.952580	2491.005515
439.328670	2492.689260
439.704700	2491.789414
440.080670	2492.311173
440.456580	2492.341420
440.832429	2491.129023
441.208218	2491.834784
441.583947	2490.854280
441.959616	2492.384270
442.335224	2493.803355
442.710773	2489.939311
443.086261	2492.364106
443.461689	2491.602891
443.837057	2491.076091
444.212365	2492.018787
444.587612	2488.404279
444.962800	2490.246821
445.337927	2488.346306
445.712995	2486.019813
446.088002	2493.395022
446.462949	2491.691112
446.837837	2492.167501
447.212664	2493.742861
447.587431	2494.012563
447.962139	2492.893427
448.336786	2491.499548
448.711374	2491.282778
449.085901	2490.803868
449.460369	2491.209681
449.834776	2491.444095
450.209124	2493.248828
450.583412	2491.749085
450.957640	2493.725217
451.331808	2492.487614
451.705917	2490.937459
452.079965	2493.412666
452.453954	2494.078098
452.827883	2493.306801
453.201752	2493.347131
453.575562	2495.741679
453.949311	2493.652120
454.323001	2493.805876
454.696632	2495.197234
455.070202	2492.898468
455.443713	2492.109527
455.817164	2494.309991
456.190556	2495.693788
456.563888	2495.371154
456.937160	2493.957110
457.310373	2492.646410
457.683526	2494.269662
458.056619	2494.650269
458.429653	2493.899137
458.802628	2494.574652
459.175542	2494.723366
459.548398	2493.531133
459.921194	2495.134220
460.293930	2495.139261
460.666607	2495.736637
461.039224	2495.587923
461.411782	2495.789570
461.784280	2495.028355
462.156719	2492.933756
462.529099	2494.236894
462.901419	2494.206647
463.273680	2493.851246
463.645882	2491.219764
464.018024	2490.687922
464.390106	2490.362768
464.762130	2493.536174
465.134094	2494.393170
465.505999	2495.464415
465.877845	2495.691267
466.249631	2496.276041
466.621358	2496.124806
466.993026	2493.291678
467.364634	2497.884169
467.736184	2495.230002
468.107674	2494.756133
468.479105	2495.645897
468.850477	2495.847543
469.221790	2495.809734
469.593043	2497.710249
469.964238	2495.000629
470.335373	2495.711432
470.706449	2496.384426
471.077467	2496.460043
471.448425	2499.454488
471.819324	2498.831906
472.190164	2495.910557
472.560945	2493.702532
472.931667	2495.469456
473.302330	2494.791421
473.672934	2498.602533
474.043479	2495.701349
474.413965	2494.884682
474.784393	2493.919302
475.154761	2498.647904
475.525070	2495.779487
475.895321	2497.319560
476.265513	2497.707729
476.635645	2498.300064
477.005719	2494.516678
477.375734	2497.100270
477.745691	2499.245281
478.115588	2495.829899
478.485427	2499.401556
478.855207	2497.765702
479.224928	2498.978099
479.594591	2497.420383
479.964194	2497.289313
480.333739	2496.661689
480.703226	2495.250166
481.072653	2496.999447
481.442022	2498.204282
481.811333	2496.535660
482.180584	2493.813437
482.549777	2497.410301
482.918912	2493.465598
483.287988	2497.218737
483.657005	2497.959786
484.025964	2498.262256
484.394864	2498.952894
484.763706	2498.577328
485.132489	2497.785867
485.501213	2497.143119
485.869879	2497.732934
486.238487	2498.766371
486.607036	2502.138903
486.975527	2500.102277
487.343959	2498.726042
487.712333	2498.325270
488.080648	2502.033039
488.448905	2497.052379
488.817104	2496.054230
489.185244	2501.644870
489.553326	2498.894920
489.921350	2500.765188
490.289315	2499.641011
490.657222	2499.688902
491.025070	2500.482884
491.392861	2501.130672
491.760593	2503.512617
492.128267	2502.673265
492.495883	2500.039262
492.863440	2499.633449
493.230939	2500.727380
493.598380	2499.832575
493.965763	2498.242091
494.333088	2498.705877
494.700354	2499.767040
495.067563	2499.772081
495.434713	2500.775271
495.801805	2502.214520
496.168839	2498.723521
496.535815	2500.634118
496.902733	2499.421721
497.269593	2500.190497
497.636395	2501.569252
498.003139	2498.206803
498.369825	2503.409274
498.736453	2499.572956
499.103023	2503.840292
499.469535	2501.342401
499.835989	2499.487256
500.202385	2500.868532
500.568723	2498.383243
500.935003	2499.048676
501.301226	2495.401401
501.667390	2501.047493
502.033497	2499.358707
502.399546	2502.383399
502.765537	2499.464571
503.131470	2502.138903
503.497345	2501.614623
503.863163	2500.757627
504.228923	2502.766527
504.594625	2504.167967
504.960269	2501.415497
505.325856	2501.637308
505.691385	2501.896927
506.056856	2501.904489
506.422270	2501.831393
506.787625	2501.949860
507.152924	2501.387771
507.518164	2501.561691
507.883347	2500.906341
508.248472	2499.416680
508.613540	2503.850375
508.978550	2503.381547
509.343503	2502.320384
509.708398	2501.397853
510.073236	2502.587566
510.438016	2502.030518
510.802738	2499.247801
511.167403	2499.512462
511.532010	2500.616474
511.896561	2502.769047
512.261053	2502.416166
512.625488	2501.473471
512.989866	2501.775940
513.354186	2502.443893
513.718449	2503.767196
514.082655	2502.479181
514.446803	2500.419869
514.810894	2502.874911
515.174927	2502.335508
515.538904	2504.780468
515.902822	2502.106135
516.266684	2500.230826
516.630488	2501.667555
516.994235	2503.099243
517.357925	2500.704695
517.721558	2506.449089
518.085133	2502.779129
518.448651	2502.002792
518.812112	2498.358038
519.175516	2497.785867
519.538863	2497.541371
519.902152	2502.728718
520.265385	2501.269304
520.628560	2503.366424
520.991678	2501.899448
521.354739	2500.424911
521.717743	2504.041938
522.080690	2501.614623
522.443580	2504.553616
522.806413	2504.183091
523.169189	2503.787360
523.531908	2505.110663
523.894569	2502.516989
524.257174	2503.646208
524.619722	2506.212155
524.982213	2502.978255
525.344647	2504.309120
525.707025	2504.387258
526.069345	2503.101763
526.431608	2503.550426
526.793815	2503.084119
527.155964	2501.392812
527.518057	2504.299037
527.880093	2505.211486
528.242072	2504.208297
528.603995	2506.050838
528.965860	2504.528410
529.327669	2504.735097
529.689421	2506.905314
530.051117	2506.665859
530.412755	2505.171157
530.774337	2506.764162
531.135862	2504.551095
531.497331	2504.543533
531.858743	2505.697958
532.220098	2505.735766
532.581396	2506.872546
532.942638	2506.096209
533.303824	2508.021929
533.664953	2506.683503
534.026025	2509.700634
534.387040	2506.993534
534.747999	2506.227279
535.108902	2507.661487
535.469748	2507.099398
535.830537	2509.743483
536.191270	2507.694254
536.551947	2507.805160
536.912567	2507.573267
537.273131	2506.963287
537.633638	2505.939933
537.994089	2510.524862
538.354483	2510.144255
538.714821	2511.472599
539.075103	2511.596107
539.435328	2508.778103
539.795497	2513.572240
540.155609	2511.563340
540.515665	2512.284225
540.875665	2514.285563
541.235609	2512.992507
541.595496	2514.590553
541.955328	2513.635254
542.315102	2513.277332
542.674821	2513.879750
543.034483	2513.894874
543.394090	2513.862106
543.753640	2514.489730
544.113134	2516.561644
544.472571	2517.048115
544.831953	2515.926459
545.191278	2517.769000
545.550548	2516.508712
545.909761	2518.789834
546.268918	2517.653054
546.628019	2518.991480
546.987064	2519.238497
547.346053	2515.293794
547.704986	2520.155987
548.063863	2517.756397
548.422684	2519.551048
548.781449	2521.330576
549.140158	2518.270595
549.498811	2518.205060
549.857408	2520.834022
550.215949	2522.671523
550.574434	2521.847294
550.932864	2524.874507
551.291237	2522.280833
551.649555	2521.464166
552.007817	2521.242355
552.366022	2521.580113
552.724173	2522.774866
553.082267	2523.442819
553.440305	2525.083715
553.798288	2524.675381
554.156215	2522.749660
554.514086	2522.918539
554.871902	2520.219001
555.229661	2521.171779
555.587365	2521.887623
555.945014	2525.915505
556.302606	2525.161853
556.660143	2526.354085
557.017625	2523.334434
557.375050	2525.970958
557.732421	2529.149405
558.089735	2525.935670
558.446994	2526.286030
558.804197	2527.289219
559.161345	2526.013808
559.518437	2528.168901
559.875474	2528.362985
560.232455	2530.548325
560.589381	2529.459436
560.946251	2529.124199
561.303065	2529.822399
561.659825	2528.960362
562.016528	2529.219981
562.373177	2529.547656
562.729770	2528.950280
563.086307	2530.497914
563.442789	2531.352389
563.799216	2531.808614
564.155587	2530.893644
564.511904	2532.569828
564.868164	2530.059333
565.224370	2533.797349
565.580520	2532.269879
565.936615	2534.475384
566.292654	2530.238294
566.648638	2534.067051
567.004567	2533.318439
567.360441	2532.153933
567.716260	2533.381454
568.072023	2532.910106
568.427732	2532.458923
568.783385	2533.830117
569.138982	2531.480939
569.494525	2535.292051
569.850013	2535.100487
570.205445	2534.825744
570.560823	2533.573018
570.916145	2533.262987
571.271412	2536.975797
571.626625	2532.988244
571.981782	2537.986548
572.336884	2531.579241
572.691931	2531.647297
573.046923	2537.172402
573.401860	2530.923891
573.756743	2535.055117
574.111570	2532.020342
574.466342	2536.660724
574.821059	2535.980169
575.175722	2538.669624
575.530330	2535.498738
575.884882	2537.076620
576.239380	2536.932947
576.593823	2537.842875
576.948211	2535.042514
577.302544	2535.392874
577.656823	2537.016126
578.011047	2539.715664
578.365216	2540.691127
578.719330	2539.735828
579.073389	2537.820190
579.427394	2539.617361
579.781344	2539.103163
580.135239	2537.512679
580.489080	2537.338760
580.842866	2537.260622
581.196597	2543.499050
581.550273	2540.348328
581.903895	2538.901517
582.257463	2542.047197
582.610975	2536.494366
582.964434	2535.927237
583.317837	2538.611651
583.671186	2539.398071
584.024481	2539.670293
584.377721	2538.694830
584.730906	2537.240457
585.084037	2541.948895
585.437113	2540.282793
585.790135	2539.995448
586.143103	2538.261291
586.496016	2538.551157
586.848874	2540.993596
587.201679	2538.684748
587.554428	2539.483771
587.907124	2540.060983
588.259765	2537.242978
588.612352	2539.423277
588.964884	2538.193235
589.317362	2542.949564
589.669786	2541.364121
590.022155	2538.261291
590.374470	2537.290869
590.726731	2536.093595
591.078937	2534.155271
591.431090	2538.699871
591.783188	2537.800025
592.135232	2536.373379
592.487222	2535.846578
592.839157	2537.863040
593.191038	2539.410674
593.542866	2538.455375
593.894639	2537.134593
594.246358	2537.951260
594.598022	2536.627957
594.949633	2540.212217
595.301190	2536.945550
595.652692	2539.884542
596.004141	2537.560570
596.355535	2536.275076
596.706876	2536.701054
597.058162	2536.789274
597.409395	2539.319933
597.760573	2536.897659
598.111698	2535.854140
598.462768	2535.324819
598.813785	2539.907227
599.164748	2536.005374
599.515657	2536.459078
599.866511	2536.527134
600.217312	2534.792977
600.568060	2537.084181
600.918753	2537.618544
601.269392	2538.394881
601.619978	2536.413708
601.970510	2537.351363
602.320988	2534.699716
602.671412	2538.601569
603.021783	2535.254242
603.372100	2540.761703
603.722363	2538.029398
604.072572	2536.612833
604.422728	2540.522248
604.772830	2536.638039
605.122878	2538.402443
605.472872	2539.622402
605.822813	2537.280786
606.172701	2539.614841
606.522534	2539.027546
606.872314	2538.019315
607.222041	2535.917154
607.571714	2540.123997
607.921333	2536.454037
608.270899	2535.423121
608.620411	2534.442617
608.969870	2540.668442
609.319276	2538.432690
609.668627	2539.098122
610.017926	2541.719522
610.367171	2541.825387
610.716362	2541.563247
611.065500	2541.061652
611.414585	2540.028215
611.763616	2544.212373
612.112594	2543.057949
612.461518	2542.243802
612.810389	2543.201622
613.159207	2543.572146
613.507971	2546.536345
613.856682	2546.874102
614.205340	2545.243289
614.553945	2545.528114
614.902496	2543.481406
615.250994	2545.835624
615.599439	2546.138094
615.947830	2546.750594
616.296169	2548.172199
616.644454	2550.571788
616.992686	2549.896274
617.340864	2550.438198
617.688990	2554.143446
618.037063	2551.973229
618.385082	2555.386090
618.733048	2554.168652
619.080961	2553.583878
619.428821	2556.411965
619.776628	2557.916750
620.124382	2553.382232
620.472083	2560.560835
620.819731	2556.918601
621.167326	2556.790052
621.514868	2561.342214
621.862357	2560.747357
622.209793	2560.190310
622.557176	2561.319528
622.904506	2560.596123
623.251783	2558.546894
623.599007	2561.553942
623.946179	2559.996226
624.293297	2560.258366
624.640363	2561.909343
624.987376	2560.454971
625.334336	2554.647561
625.681243	2560.452450
626.028097	2557.299208
626.374899	2562.927657
626.721647	2567.099211
627.068343	2565.531412
627.414987	2565.712894
627.761577	2567.232802
628.108115	2569.652556
628.454600	2567.782288
628.801032	2569.244222
629.147412	2572.309244
629.493739	2572.130283
629.840014	2578.124215
630.186236	2576.742939
630.532405	2577.602455
630.878521	2576.770665
631.224585	2580.901891
631.570597	2583.016655
631.916556	2585.358271
632.262462	2591.044692
632.608316	2591.359764
632.954117	2594.702049
633.299866	2593.618201
633.645562	2596.481577
633.991206	2597.462081
634.336797	2595.717842
634.682336	2598.351845
635.027823	2597.290682
635.373257	2601.041300
635.718639	2601.963831
636.063968	2604.711260
636.409245	2600.015425
636.754470	2603.640015
637.099642	2604.741507
637.444762	2604.595314
637.789829	2607.211672
638.134845	2611.148814
638.479808	2610.478340
638.824719	2613.349277
639.169577	2613.752570
639.514383	2618.312293
639.859137	2618.072838
640.203839	2619.867489
640.548489	2620.974022
640.893086	2624.890999
641.237632	2625.901750
641.582125	2628.722276
641.926566	2630.174128
642.270955	2630.378295
642.615292	2631.951135
642.959576	2640.112763
643.303809	2639.434728
643.647990	2645.264822
643.992118	2650.893271
644.336195	2650.580719
644.680219	2658.427275
645.024192	2662.442554
645.368112	2668.809531
645.711981	2673.535613
646.055797	2683.794361
646.399562	2690.310052
646.743274	2701.703060
647.086935	2710.008361
647.430544	2716.753425
647.774101	2721.053529
648.117606	2724.975547
648.461059	2732.529716
648.804460	2734.785632
649.147810	2732.985940
649.491108	2734.659603
649.834354	2735.451065
650.177548	2736.673544
650.520690	2736.739079
650.863781	2739.420973
651.206820	2744.187384
651.549807	2745.737539
651.892742	2744.878022
652.235626	2749.914135
652.578458	2755.116606
652.921238	2754.289857
653.263967	2763.580703
653.606644	2764.450302
653.949269	2767.396857
654.291843	2773.035387
654.634365	2779.989659
654.976836	2781.474279
655.319255	2787.594239
655.661622	2792.148922
656.003938	2793.240332
656.346203	2799.130920
656.688416	2807.373207
657.030577	2812.114412
657.372687	2814.874443
657.714746	2821.052377
658.056753	2828.094869
658.398708	2827.298367
658.740612	2837.163905
659.082465	2843.533403
659.424266	2846.686645
659.766016	2852.536904
660.107715	2857.620908
660.449362	2866.405118
660.790958	2878.156048
661.132503	2884.601163
661.473996	2890.360681
661.815438	2900.697567
662.156829	2910.850451
662.498168	2911.349525
662.839456	2920.017789
663.180693	2927.680343
663.521879	2936.865325
663.863013	2943.612910
664.204097	2952.215639
664.545129	2965.055458
664.886110	2974.311016
665.227040	2983.075062
665.567918	2996.149295
665.908746	3006.002230
666.249522	3017.281812
666.590248	3026.993594
666.930922	3041.902807
667.271545	3048.973025
667.612118	3061.701939
667.952639	3063.224367
668.293109	3068.257959
668.633528	3076.752303
668.973896	3083.245310
669.314213	3090.451639
669.654480	3094.008173
669.994695	3104.728187
670.334859	3113.827469
670.674973	3116.327882
671.015035	3125.669140
671.355047	3133.266159
671.695008	3144.318888
672.034918	3153.907163
672.374777	3166.104235
672.714585	3181.343643
673.054342	3191.428471
673.394049	3196.371323
673.733705	3213.874209
674.073310	3215.946123
674.412864	3228.095304
674.752368	3228.750654
675.091820	3243.271697
675.431223	3241.620719
675.770574	3246.324116
676.109875	3247.347470
676.449125	3245.673807
676.788324	3250.568767
677.127473	3250.258737
677.466571	3249.560537
677.805619	3255.945158
678.144616	3261.780294
678.483562	3273.594238
678.822458	3270.105759
679.161303	3279.888118
679.500098	3284.475568
679.838842	3295.568627
680.177535	3307.937098
680.516179	3324.832525
680.854771	3340.041687
681.193314	3380.265053
681.531805	3433.734051
681.870247	3481.022595
682.208638	3516.255219
682.546978	3539.860422
682.885268	3558.762228
683.223508	3552.324675
683.561697	3552.922052
683.899836	3561.302970
684.237925	3557.567475
684.575963	3567.259093
684.913951	3568.995771
685.251889	3592.943772
685.589776	3606.504476
685.927614	3624.934934
686.265401	3648.474602
686.603137	3673.766071
686.940824	3712.141855
687.278460	3752.100561
687.616046	3776.867750
687.953582	3827.407838
688.291068	3848.371476
688.628504	3875.268552
688.965889	3889.308166
689.303224	3887.510994
689.640510	3887.581570
689.977745	3864.997201
690.314930	3836.232377
690.652065	3819.893998
690.989150	3792.399545
691.326185	3761.053650
691.663170	3733.367633
692.000105	3704.088612
692.336990	3682.784695
692.673825	3672.704908
693.010610	3655.673370
693.347345	3634.382057
693.684030	3609.070423
694.020665	3606.973303
694.357251	3583.010178
694.693786	3592.114502
695.030272	3592.169955
695.366707	3576.678489
695.703093	3571.980134
696.039429	3584.449428
696.375716	3582.798450
696.711952	3593.974688
697.048139	3596.074329
697.384276	3604.634208
697.720363	3615.349180
698.056400	3619.533338
698.392388	3620.597022
698.728326	3631.586737
699.064214	3627.926859
699.400053	3637.933550
699.735842	3620.788585
700.071581	3619.031743
700.407270	3609.209055
700.742910	3605.718056
701.078501	3599.943414
701.414042	3593.286571
701.749533	3579.473809
702.084974	3570.510637
702.420366	3589.364553
702.755709	3575.035073
703.091002	3559.835994
703.426246	3573.923499
703.761440	3574.974579
704.096584	3568.007705
704.431679	3568.088363
704.766725	3575.345104
705.101721	3575.786205
705.436668	3593.755398
705.771565	3582.221238
706.106413	3613.080661
706.441212	3626.464925
706.775961	3643.609889
707.110661	3657.105058
707.445311	3691.720141
707.779913	3694.984288
708.114465	3726.599884
708.448967	3759.624483
708.783421	3816.135818
709.117825	3855.716437
709.452180	3884.912279
709.786485	3932.795679
710.120742	3996.896471
710.454949	4026.125081
710.789107	4078.429573
711.123216	4147.629492
711.457275	4185.493598
711.791286	4238.947473
712.125247	4268.554169
712.459159	4262.840022
712.793023	4329.405938
713.126837	4260.178292
713.460602	4283.745687
713.794318	4272.692957
714.127985	4251.711674
714.461602	4190.333106
714.795171	4190.582643
715.128691	4118.869709
715.462162	4079.208431
715.795584	4045.304151
716.128957	4032.411400
716.462281	4007.150178
716.795556	3991.600739
717.128782	3959.128146
717.461960	3915.522166
717.795088	3915.287752
718.128167	3896.252355
718.461198	3868.342007
718.794180	3863.406717
719.127113	3840.625743
719.459997	3832.328004
719.792833	3808.042245
720.125619	3817.328050
720.458357	3797.473466
720.791046	3789.979791
721.123686	3784.091723
721.456278	3773.548150
721.788821	3777.906227
722.121315	3762.273609
722.453761	3781.024181
722.786158	3776.109056
723.118506	3788.051549
723.450805	3788.822846
723.783056	3811.530723
724.115259	3812.831341
724.447412	3821.461797
724.779518	3845.760158
725.111574	3861.428064
725.443582	3899.743354
725.775542	3902.377357
726.107453	3964.053354
726.439315	3963.886996
726.771129	4016.297352
727.102895	4063.732089
727.434612	4106.067699
727.766281	4128.236173
728.097901	4175.965817
728.429473	4194.643292
728.760996	4205.995971
729.092471	4222.057087
729.423897	4221.109350
729.755276	4218.573650
730.086606	4239.703646
730.417887	4310.809121
730.749120	4379.769585
731.080305	4409.908123
731.411442	4464.292091
731.742530	4489.165144
732.073570	4517.488867
732.404562	4560.580650
732.735506	4550.828538
733.066401	4540.864697
733.397249	4490.677490
733.728048	4431.501906
734.058798	4340.398173
734.389501	4263.218108
734.720156	4207.367165
735.050762	4148.889780
735.381320	4113.831076
735.711831	4091.508846
736.042293	4051.862692
736.372707	4065.589754
736.703073	4048.782547
737.033391	4081.247578
737.363661	4090.258640
737.693883	4111.668421
738.024056	4147.563957
738.354182	4185.135676
738.684260	4238.839088
739.014290	4283.591931
739.344272	4321.642561
739.674207	4372.487638
740.004093	4405.499634
740.333931	4423.441101
740.663722	4442.010191
740.993464	4454.129125
741.323159	4442.718473
741.652806	4414.924071
741.982405	4399.162904
742.311956	4360.577912
742.641460	4355.156151
742.970915	4319.484947
743.300323	4279.001961
743.629683	4255.598404
743.958996	4224.439032
744.288260	4189.576933
744.617477	4154.341788
744.946647	4157.835308
745.275768	4123.200060
745.604842	4103.466463
745.933869	4082.218000
746.262847	4085.832507
746.591778	4082.550716
746.920662	4071.651741
747.249498	4083.311930
747.578286	4111.113894
747.907027	4145.678565
748.235720	4187.396634
748.564365	4207.175601
748.892963	4199.790310
749.221514	4226.026996
749.550017	4212.816652
749.878473	4216.315213
750.206881	4189.050132
750.535242	4187.777241
750.863555	4183.204914
751.191821	4172.769726
751.520039	4183.824976
751.848210	4179.812218
752.176334	4194.386193
752.504411	4194.401317
752.832440	4173.112524
753.160421	4194.663457
753.488356	4186.842107
753.816243	4178.073020
754.144082	4163.181451
754.471875	4161.996780
754.799620	4158.034433
755.127318	4165.487779
755.454969	4167.007687
755.782572	4170.276875
756.110129	4179.298020
756.437638	4173.999767
756.765100	4183.799770
757.092515	4192.072304
757.419882	4201.519426
757.747203	4211.218606
758.074477	4230.339703
758.401703	4235.564859
758.728882	4275.029532
759.056014	4283.725522
759.383099	4319.855472
759.710138	4347.975028
760.037129	4371.381105
760.364073	4383.313516
760.690970	4397.980753
761.017820	4413.343670
761.344623	4454.539979
761.671379	4528.808778
761.998088	4657.597656
762.324751	4958.481444
762.651366	5527.307600
762.977935	6273.773935
763.304456	6766.551764
763.630931	6952.547656
763.957359	6775.071314
764.283740	6412.428351
764.610074	6045.008894
764.936362	5620.669769
765.262602	5308.944980
765.588796	4997.767156
765.914943	4781.166419
766.241044	4597.950723
766.567097	4464.271926
766.893104	4352.365873
767.219064	4275.876445
767.544978	4198.030948
767.870845	4138.114314
768.196665	4101.578551
768.522438	4065.060433
768.848165	4030.407541
769.173846	4000.180783
769.499479	3979.549861
769.825066	3954.071869
770.150607	3918.783792
770.476101	3903.804003
770.801548	3889.461921
771.126949	3863.943600
771.452303	3848.389120
771.777611	3816.758400
772.102872	3818.348884
772.428087	3796.492962
772.753256	3769.303498
773.078378	3757.928135
773.403453	3726.783886
773.728482	3707.506514
774.053465	3696.360523
774.378401	3681.655477
774.703291	3662.289884
775.028135	3639.080412
775.352932	3641.260711
775.677683	3621.892598
776.002388	3601.695215
776.327046	3608.457923
776.651658	3591.728854
776.976224	3574.825865
777.300743	3581.223089
777.625216	3569.502407
777.949643	3561.582754
778.274024	3563.710121
778.598359	3554.671332
778.922647	3560.960172
779.246889	3552.780899
779.571086	3558.210222
779.895236	3563.165676
780.219339	3568.277406
780.543397	3568.128692
780.867409	3593.044595
781.191374	3594.388063
781.515294	3589.992177
781.839167	3613.345322
782.162995	3612.221144
782.486776	3599.923250
782.810511	3595.398814
783.134201	3584.013368
783.457844	3581.633943
783.781441	3578.440372
784.104993	3566.621387
784.428498	3566.729772
784.751958	3562.921180
785.075372	3562.568300
785.398739	3555.777865
785.722061	3567.443095
786.045337	3570.848395
786.368568	3612.057307
786.691752	3619.049387
787.014891	3692.960264
787.337983	3770.495731
787.661030	3901.840474
787.984031	4037.223181
788.306987	4131.656596
788.629897	4184.213145
788.952760	4180.472609
789.275579	4140.655055
789.598351	4056.692117
789.921078	3988.540758
790.243759	3899.612284
790.566395	3839.504086
790.888984	3786.662712
791.211529	3739.900968
791.534027	3696.292467
791.856480	3653.175478
792.178888	3637.837768
792.501249	3616.475878
792.823566	3582.874067
793.145836	3585.508070
793.468062	3589.851024
793.790241	3576.915423
794.112375	3592.911005
794.434464	3634.248466
794.756507	3646.117863
795.078505	3684.879295
795.400457	3759.538783
795.722364	3839.194055
796.044226	3906.682502
796.366042	3973.699602
796.687812	3968.618118
797.009538	3988.555882
797.331218	3971.294971
797.652852	3955.954740
797.974442	3926.358126
798.295986	3908.237698
798.617484	3869.541801
798.938938	3837.434692
799.260346	3818.789985
799.581709	3771.498921
799.903026	3757.003083
800.224299	3734.045668
800.545526	3696.030327
800.866708	3673.337573
801.187845	3660.313752
801.508936	3635.942294
801.829983	3627.047178
802.150984	3595.287909
802.471940	3586.758276
802.792851	3583.040425
803.113717	3577.270825
803.434538	3571.458374
803.755314	3557.433884
804.076045	3559.780542
804.396731	3549.667987
804.717372	3558.081673
805.037967	3559.755336
805.358518	3568.070719
805.679024	3592.162393
805.999485	3598.206737
806.319901	3607.996657
806.640272	3614.242647
806.960598	3638.422542
807.280879	3638.772902
807.601115	3664.059329
807.921306	3653.750170
808.241453	3659.131602
808.561554	3665.859021
808.881611	3662.118485
809.201623	3665.044875
809.521590	3658.776200
809.841513	3653.659429
810.161390	3667.716687
810.481223	3638.800628
810.801011	3634.674444
811.120755	3634.780308
811.440453	3613.728449
811.760107	3611.318778
812.079716	3607.263170
812.399281	3595.489555
812.718801	3592.469904
813.038276	3584.212494
813.357707	3570.372006
813.677093	3584.114191
813.996434	3563.911767
814.315731	3578.326947
814.634983	3576.381061
814.954191	3585.150148
815.273354	3613.703244
815.592473	3636.184269
815.911547	3671.351358
816.230577	3693.108978
816.549562	3739.311153
816.868502	3770.490690
817.187399	3800.389773
817.506250	3851.267619
817.825058	3863.464690
818.143821	3945.038121
818.462539	4021.209956
818.781213	4126.134012
819.099843	4279.548926
819.418429	4557.782810
819.736970	4827.202236
820.055466	5159.497453
820.373919	5584.552422
820.692327	6236.600466
821.010691	7297.987682
821.329011	9425.394935
821.647286	12316.496665
821.965517	15657.612118
822.283704	17709.883493
822.601847	18961.176015
822.919945	17931.180064
823.237999	16545.039197
823.556010	14853.013717
823.873976	13174.375021
824.191897	11514.418842
824.509775	10314.510800
824.827609	9208.090957
825.145398	8569.399450
825.463144	8242.846107
825.780845	8327.456833
826.098502	8784.865927
826.416116	9735.972861
826.733685	10669.592033
827.051210	11009.890082
827.368692	10607.366551
827.686129	9622.647723
828.003522	8550.671563
828.320872	7559.893269
828.638177	6789.100846
828.955439	6205.494027
829.272656	5691.389596
829.589830	5290.368328
829.906960	4928.300056
830.224046	4666.333975
830.541088	4453.214155
830.858086	4326.527439
831.175041	4219.251685
831.491952	4194.822253
831.808819	4214.974266
832.125642	4344.877239
832.442421	4619.841934
832.759157	5142.410462
833.075849	5955.324246
833.392497	6835.842424
833.709101	7437.088240
834.025662	7426.940398
834.342179	6993.149109
834.658653	6395.971504
834.975083	5841.736968
835.291469	5383.821238
835.607811	4987.097553
835.924110	4711.384247
836.240366	4456.465700
836.556578	4214.820511
836.872746	4022.031664
837.188871	3874.290568
837.504952	3746.086464
837.820990	3649.770179
838.136984	3583.678131
838.452935	3553.436249
838.768842	3569.154567
839.084706	3699.803631
839.400526	4059.933579
839.716303	4535.359757
840.032037	4870.868710
840.347727	4862.772617
840.663373	4586.764403
840.978977	4266.189868
841.294537	4018.739791
841.610054	3832.922860
841.925527	3693.035882
842.240957	3581.482709
842.556344	3473.619661
842.871687	3385.371742
843.186987	3297.358237
843.502244	3227.828122
843.817458	3176.990607
844.132629	3133.442599
844.447756	3102.081581
844.762840	3078.272211
845.077881	3053.179868
845.392879	3032.130530
845.707833	3018.166534
846.022745	3003.900069
846.337613	2991.604694
846.652438	2979.470637
846.967221	2975.989720
847.281960	2967.565952
847.596656	2959.041361
847.911309	2951.174641
848.225919	2945.669701
848.540485	2940.618464
848.855009	2940.268104
849.169490	2929.134716
849.483928	2928.668409
849.798323	2925.404262
850.112675	2921.893098
850.426984	2922.608942
850.741251	2917.643406
851.055474	2917.343457
851.369654	2920.824374
851.683792	2915.906728
851.997887	2921.799837
852.311938	2924.403593
852.625947	2926.268820
852.939914	2919.415371
853.253837	2923.823860
853.567718	2926.263779
853.881555	2924.285126
854.195350	2928.781835
854.509103	2928.882658
854.822812	2927.299736
855.136479	2924.234714
855.450103	2927.521547
855.763685	2924.753953
856.077224	2925.558017
856.390720	2934.503545
856.704173	2938.944801
857.017584	2946.572067
857.330953	2950.516770
857.644278	2958.322997
857.957561	2963.273410
858.270802	2961.299798
858.584000	2964.790797
858.897155	2962.378605
859.210268	2956.888788
859.523339	2949.359825
859.836367	2952.376956
860.149352	2950.889815
860.462295	2949.412757
860.775195	2945.435287
861.088054	2943.224741
861.400869	2944.464865
861.713642	2944.285904
862.026373	2950.506688
862.339062	2951.323355
862.651708	2960.488172
862.964312	2970.336066
863.276873	2977.401243
863.589392	2995.120899
863.901869	3012.263343
864.214303	3027.628780
864.526696	3039.901469
864.839045	3057.051474
865.151353	3068.963721
865.463619	3071.443968
865.775842	3074.824062
866.088023	3084.792944
866.400162	3082.625248
866.712258	3086.668253
867.024313	3087.338727
867.336325	3087.603387
867.648296	3092.284098
867.960224	3092.886516
868.272110	3101.975717
868.583954	3103.364555
868.895755	3106.477467
869.207515	3107.001747
869.519233	3121.089252
869.830909	3131.300109
870.142542	3140.820328
870.454134	3144.848210
870.765684	3155.812719
871.077191	3170.323681
871.388657	3182.001513
871.700081	3192.338399
872.011463	3211.086451
872.322803	3217.652553
872.634101	3230.383987
872.945357	3245.767068
873.256571	3265.457815
873.567744	3278.925258
873.878874	3282.345681
874.189963	3294.633493
874.501010	3303.311840
874.812015	3307.579176
875.122979	3322.579130
875.433900	3324.187258
875.744780	3330.776046
876.055618	3346.726257
876.366415	3349.745908
876.677169	3357.962988
876.987882	3381.064076
877.298554	3398.700553
877.609183	3435.942077
877.919771	3480.510918
878.230317	3540.997202
878.540822	3630.339051
878.851285	3755.866303
879.161707	3932.805762
879.472087	4216.017785
879.782425	4656.924662
880.092722	5376.803952
880.402977	6325.337377
880.713191	7251.372133
881.023363	8103.616999
881.333494	8611.830842
881.643583	9010.500411
881.953631	9177.690279
882.263637	9111.678890
882.573602	8818.124939
882.883526	8443.751211
883.193408	7990.828743
883.503248	7503.737335
883.813048	7043.815226
884.122806	6601.476661
884.432522	6139.805271
884.742197	5751.391929
885.051831	5400.658692
885.361424	5073.785235
885.670975	4799.649809
885.980485	4567.744130
886.289954	4371.348338
886.599382	4206.432031
886.908768	4070.782142
887.218113	3937.216771
887.527417	3836.098787
887.836680	3736.586410
888.145901	3658.640089
888.455082	3597.097683
888.764221	3540.165412
889.073319	3492.962568
889.382376	3463.675985
889.691392	3441.678910
890.000366	3435.359823
890.309300	3425.874893
890.618193	3425.063267
890.927044	3422.600663
891.235855	3432.952673
891.544625	3442.268725
891.853353	3468.344093
892.162041	3512.139117
892.470687	3585.795416
892.779293	3683.732432
893.087858	3822.124708
893.396381	4033.759908
893.704864	4322.612983
894.013306	4727.440322
894.321707	5139.521881
894.630068	5432.707827
894.938387	5530.072672
895.246665	5468.139577
895.554903	5269.525677
895.863100	5022.239437
896.171256	4820.792409
896.479371	4640.263648
896.787446	4456.579126
897.095480	4293.870844
897.403473	4175.648225
897.711425	4050.804050
898.019336	3951.921817
898.327207	3850.776106
898.635038	3762.873507
898.942827	3672.253725
899.250576	3596.661623
899.558284	3522.793596
899.865952	3475.114363
900.173579	3416.871392
900.481165	3372.632746
900.788711	3340.823065
901.096216	3314.775423
901.403681	3287.535549
901.711105	3277.939712
902.018489	3274.592386
902.325832	3301.456695
902.633135	3351.472503
902.940397	3487.679439
903.247619	3783.879995
903.554800	4284.196870
903.861941	4930.661836
904.169041	5450.266166
904.476101	5688.369944
904.783121	5613.735662
905.090100	5381.991299
905.397039	5098.088638
905.703938	4826.919931
906.010796	4570.441147
906.317614	4370.443450
906.624391	4168.283099
906.931129	4003.112214
907.237826	3854.219214
907.544483	3709.447358
907.851099	3567.783373
908.157675	3434.838064
908.464211	3313.051349
908.770707	3223.157493
909.077163	3143.973569
909.383578	3087.885692
909.689954	3043.911707
909.996289	3011.625637
910.302584	2988.471617
910.608839	2974.227837
910.915054	2961.261989
911.221229	2957.856690
911.527363	2964.377423
911.833458	2969.791622
912.139513	2982.641523
912.445527	2994.155518
912.751502	3032.425438
913.057436	3073.934298
913.363331	3128.640900
913.669186	3216.677090
913.975000	3323.975529
914.280775	3495.072291
914.586510	3717.982032
914.892205	4013.381044
915.197859	4387.855596
915.503475	4806.505779
915.809050	5172.738044
916.114585	5401.931583
916.420081	5513.240260
916.725536	5522.188308
917.030952	5386.304006
917.336328	5253.673769
917.641665	5108.541470
917.946961	4936.398669
918.252218	4785.406029
918.557435	4593.126339
918.862612	4436.127164
919.167750	4294.231287
919.472848	4133.698263
919.777906	3988.079493
920.082925	3853.929348
920.387904	3716.900704
920.692843	3614.144345
920.997743	3517.918800
921.302603	3422.981270
921.607423	3362.351313
921.912204	3293.894964
922.216946	3242.074423
922.521647	3194.848894
922.826310	3148.999600
923.130932	3112.736060
923.435516	3071.471695
923.740059	3043.006820
924.044564	3011.350894
924.349028	2986.702172
924.653454	2955.484827
924.957840	2923.970054
925.262186	2906.439441
925.566493	2879.620503
925.870761	2855.884230
926.174989	2839.402177
926.479178	2824.533294
926.783328	2805.318936
927.087438	2797.366516
927.391509	2780.647529
927.695541	2764.626742
927.999533	2756.018972
928.303486	2748.323651
928.607400	2738.969790
928.911275	2735.440982
929.215110	2728.776577
929.518906	2723.914384
929.822663	2721.313149
930.126381	2722.994373
930.430060	2727.241546
930.733699	2726.157697
931.037299	2729.157184
931.340861	2727.327245
931.644383	2733.053996
931.947866	2732.081053
932.251309	2733.212792
932.554714	2730.067112
932.858080	2728.101062
933.161407	2721.166955
933.464694	2722.412120
933.767943	2715.268805
934.071153	2714.063969
934.374323	2711.959288
934.677455	2712.508773
934.980548	2706.565253
935.283602	2704.536189
935.586617	2706.333360
935.889593	2707.505428
936.192530	2712.294524
936.495428	2720.078066
936.798287	2728.025445
937.101108	2744.227713
937.403890	2764.508275
937.706632	2793.144550
938.009336	2824.734940
938.312002	2857.401617
938.614628	2885.979918
938.917216	2910.235430
939.219765	2923.750764
939.522275	2939.504369
939.824747	2943.118877
940.127179	2943.905297
940.429573	2943.159206
940.731929	2941.770368
941.034246	2932.754264
941.336524	2929.064140
941.638763	2922.475352
941.940964	2918.215577
942.243126	2896.606671
942.545250	2887.086452
942.847335	2871.587424
943.149381	2853.703931
943.451389	2842.890656
943.753359	2824.445074
944.055290	2816.606080
944.357182	2805.742393
944.659036	2798.762916
944.960851	2794.971968
945.262628	2787.029630
945.564367	2786.031482
945.866067	2783.888991
946.167729	2782.326234
946.469352	2780.912190
946.770937	2776.672580
947.072484	2772.876591
947.373992	2777.663166
947.675462	2770.971035
947.976893	2761.806217
948.278286	2762.262441
948.579641	2759.542739
948.880958	2756.087028
949.182236	2757.838829
949.483476	2757.301946
949.784678	2757.322111
950.085841	2757.667430
950.386967	2764.984664
950.688054	2769.927516
950.989103	2779.949330
951.290114	2788.869651
951.591087	2800.771816
951.892021	2809.273722
952.192917	2821.082624
952.493776	2834.713904
952.794596	2838.119204
953.095378	2834.537464
953.396122	2836.543843
953.696828	2831.185097
953.997496	2825.644869
954.298126	2817.853765
954.598718	2805.981848
954.899272	2795.849129
955.199788	2783.730195
955.500266	2769.027670
955.800706	2753.027047
956.101108	2737.515417
956.401472	2721.406410
956.701798	2709.403423
957.002087	2689.006914
957.302337	2680.726819
957.602550	2663.700322
957.902724	2650.230359
958.202861	2639.283493
958.502960	2630.831999
958.803022	2621.571399
959.103045	2608.534975
959.403031	2601.235385
959.702979	2595.352358
960.002889	2592.927563
960.302762	2583.074628
960.602596	2577.990624
960.902393	2574.514749
961.202153	2570.416291
961.501875	2562.778942
961.801559	2563.799776
962.101205	2558.705690
962.400814	2557.833571
962.700385	2555.595298
962.999918	2552.484906
963.299414	2545.366797
963.598873	2545.336550
963.898293	2543.032743
964.197677	2544.829914
964.497022	2543.741025
964.796331	2540.822197
965.095601	2539.859337
965.394835	2539.516538
965.694030	2537.845396
965.993189	2538.946888
966.292309	2534.545960
966.591393	2537.782381
966.890439	2537.638708
967.189447	2537.701723
967.488419	2537.270704
967.787353	2537.515200
968.086249	2538.309182
968.385108	2538.833462
968.683930	2539.294727
968.982714	2541.578370
969.281462	2544.807229
969.580172	2549.724875
969.878844	2553.077242
970.177480	2555.386090
970.476078	2559.030845
970.774639	2561.180897
971.073162	2565.682647
971.371649	2569.317319
971.670098	2571.825293
971.968510	2572.929306
972.266885	2576.072465
972.565223	2580.289390
972.863524	2579.452559
973.161788	2580.866603
973.460014	2584.561768
973.758204	2587.684763
974.056356	2587.374732
974.354471	2585.322982
974.652550	2585.338106
974.950591	2585.895153
975.248595	2586.001018
975.546563	2583.462797
975.844493	2583.672005
976.142386	2576.599266
976.440243	2577.360480
976.738062	2575.200346
977.035845	2572.047104
977.333590	2567.507545
977.631299	2566.479149
977.928971	2560.601164
978.226606	2557.339538
978.524204	2559.996226
978.821765	2556.192675
979.119290	2559.474466
979.416777	2558.587223
979.714228	2560.694425
980.011642	2562.184086
980.309020	2567.137020
980.606360	2573.156158
980.903664	2585.537232
981.200931	2601.757144
981.498162	2622.572068
981.795356	2660.738644
982.092513	2691.603108
982.389633	2730.833368
982.686717	2769.413318
982.983764	2795.075312
983.280775	2811.615337
983.577749	2816.951399
983.874686	2817.059784
984.171587	2802.589152
984.468451	2787.044754
984.765279	2771.016405
985.062070	2753.851276
985.358824	2734.067268
985.655543	2708.165819
985.952224	2686.650175
986.248869	2661.920795
986.545478	2635.300982
986.842050	2613.974380
987.138586	2593.134250
987.435086	2576.919379
987.731549	2560.238201
988.027975	2548.487271
988.324366	2541.308668
988.620719	2533.923378
988.917037	2532.627801
989.213318	2527.122861
989.509563	2524.496420
989.805772	2520.609691
990.101944	2518.197498
990.398080	2518.494927
990.694180	2515.699607
990.990244	2516.823784
991.286271	2514.091479
991.582262	2518.731861
991.878217	2518.903260
992.174136	2522.863086
992.470019	2524.052799
992.765865	2523.462984
993.061676	2522.598426
993.357450	2527.803417
993.653188	2530.613860
993.948890	2543.499050
994.244556	2551.340564
994.540186	2561.760629
994.835780	2575.112125
995.131337	2592.791452
995.426859	2611.715943
995.722345	2633.302164
996.017795	2652.246820
996.313208	2669.709377
996.608586	2680.681449
996.903928	2683.857376
997.199234	2687.529856
997.494504	2689.256451
997.789738	2680.051304
998.084936	2670.079902
998.380099	2655.642037
998.675225	2644.886736
998.970316	2630.395939
999.265371	2615.267436
999.560390	2598.641711
999.855373	2585.113775
1000.150320	2573.113308
1000.445232	2562.141237
1000.740108	2551.912735
1001.034948	2541.943854
1001.329752	2533.865405
1001.624521	2528.544467
1001.919254	2525.247552
1002.213951	2518.757067
1002.508613	2515.888650
1002.803239	2513.831859
1003.097829	2511.908659
1003.392384	2505.385406
1003.686903	2506.068482
1003.981386	2505.791219
1004.275834	2502.978255
1004.570246	2500.470281
1004.864623	2501.889366
1005.158964	2500.495487
1005.453270	2498.980620
1005.747540	2496.359220
1006.041775	2497.425424
1006.335974	2494.677995
1006.630138	2496.691936
1006.924266	2495.787049
1007.218359	2490.445947
1007.512416	2493.949548
1007.806438	2489.493168
1008.100425	2491.486945
1008.394376	2489.785555
1008.688292	2494.221771
1008.982172	2493.387460
1009.276017	2494.027686
1009.569827	2494.708242
1009.863602	2486.985194
1010.157341	2493.722697
1010.451045	2491.139105
1010.744714	2489.657006
1011.038347	2491.713797
1011.331945	2489.392345
1011.625508	2490.030051
1011.919036	2489.929228
1012.212528	2487.254896
1012.505986	2488.948724
1012.799408	2491.421410
1013.092795	2487.643065
1013.386147	2488.399238
1013.679464	2485.815647
1013.972745	2485.505616
1014.265992	2488.195071
1014.559204	2488.184989
1014.852380	2488.399238
1015.145521	2488.716831
1015.438628	2489.210864
1015.731699	2488.774804
1016.024736	2486.355050
1016.317737	2488.167345
1016.610703	2488.467294
1016.903635	2493.208499
1017.196531	2491.307984
1017.489393	2494.582213
1017.782219	2493.180773
1018.075011	2494.131030
1018.367768	2493.223622
1018.660490	2494.080618
1018.953177	2494.080618
1019.245829	2494.080618
