Dividing Wavelength (nm)	Counts (n)	Blue Motor Position (mm): 7.500000	Red Motor Position (mm): 0.000000	
326.493990	2158.425472
326.888308	2158.425472
327.282561	2158.425472
327.676750	2118.441560
328.070874	2113.987701
328.464933	2114.796806
328.858929	2119.038937
329.252859	2121.975409
329.646726	2131.616616
330.040528	2144.423667
330.434265	2157.051758
330.827938	2175.779644
331.221547	2192.919567
331.615091	2208.416074
332.008571	2226.569269
332.401986	2246.960736
332.795338	2264.655186
333.188625	2281.669081
333.581847	2302.877215
333.975006	2319.142498
334.368100	2338.530775
334.761129	2354.407889
335.154095	2371.837679
335.546996	2391.094887
335.939833	2409.817732
336.332606	2425.604105
336.725315	2436.742535
337.117960	2447.470110
337.510540	2461.814713
337.903056	2471.206383
338.295508	2478.384986
338.687896	2491.804537
339.080220	2496.374343
339.472480	2502.098574
339.864676	2510.066117
340.256807	2513.720954
340.648875	2518.827643
341.040879	2519.820750
341.432818	2525.093797
341.824694	2525.779394
342.216506	2528.259642
342.608253	2528.771319
342.999937	2529.603109
343.391557	2532.423635
343.783113	2531.289375
344.174605	2527.745444
344.566033	2526.396935
344.957397	2530.031607
345.348697	2523.601615
345.739934	2523.112623
346.131106	2518.999042
346.522215	2519.641789
346.913260	2518.482324
347.304241	2517.617766
347.695159	2513.718433
348.086012	2511.770027
348.476802	2511.081910
348.867528	2506.113853
349.258191	2502.239726
349.648789	2503.431959
350.039324	2499.898110
350.429796	2502.282576
350.820203	2501.213851
351.210548	2502.254849
351.600828	2497.259066
351.991045	2496.369302
352.381198	2497.324601
352.771288	2496.507934
353.161314	2496.023983
353.551276	2494.375526
353.941175	2493.425268
354.331010	2492.575834
354.720782	2496.160094
355.110490	2494.758654
355.500135	2492.429641
355.889717	2495.209837
356.279235	2495.174549
356.668689	2494.103304
357.058080	2495.343427
357.447408	2495.968531
357.836672	2495.166987
358.225873	2498.121103
358.615010	2495.406442
359.004084	2494.052892
359.393095	2495.698829
359.782043	2497.470794
360.170927	2494.884683
360.559748	2498.360558
360.948505	2497.957266
361.337199	2500.084633
361.725830	2498.867194
362.114398	2499.459530
362.502903	2500.636639
362.891344	2501.178563
363.279722	2501.657473
363.668037	2506.050838
364.056289	2502.958090
364.444478	2503.777278
364.832603	2503.651249
365.220665	2503.250477
365.608665	2504.951867
365.996601	2504.407422
366.384474	2503.240395
366.772284	2501.410456
367.160031	2504.472957
367.547715	2506.638133
367.935336	2505.763493
368.322893	2504.004130
368.710388	2502.554798
369.097820	2505.534120
369.485189	2500.999602
369.872495	2508.223576
370.259738	2509.105778
370.646918	2509.390603
371.034035	2510.497136
371.421090	2509.887156
371.808081	2510.156858
372.195010	2508.997393
372.581875	2509.899759
372.968678	2512.306910
373.355418	2511.719616
373.742096	2511.759945
374.128710	2509.435973
374.515262	2509.829183
374.901751	2507.575787
375.288177	2512.332116
375.674540	2511.386900
376.060841	2510.968484
376.447079	2511.207939
376.833254	2513.554596
377.219367	2514.270440
377.605417	2513.491581
377.991404	2513.393279
378.377329	2511.535614
378.763191	2513.204236
379.148991	2513.315141
379.534727	2514.341016
379.920402	2512.415295
380.306013	2515.767662
380.691563	2514.726664
381.077049	2515.770183
381.462474	2514.101561
381.847835	2513.005110
382.233134	2517.476613
382.618371	2512.997548
383.003545	2516.453259
383.388657	2514.139370
383.773706	2517.045595
384.158693	2515.026613
384.543618	2517.547190
384.928480	2517.264885
385.313280	2515.339164
385.698017	2519.145235
386.082692	2517.345543
386.467305	2515.208094
386.851856	2520.397962
387.236344	2516.992663
387.620770	2515.855883
388.005133	2512.811026
388.389435	2517.237159
388.773674	2514.676252
389.157851	2519.712365
389.541965	2518.608352
389.926018	2520.075328
390.310008	2517.731192
390.693936	2520.589526
391.077802	2519.009124
391.461606	2517.527025
391.845348	2520.430730
392.229027	2519.674557
392.612645	2519.755215
392.996200	2521.867458
393.379694	2519.374608
393.763125	2522.164887
394.146494	2520.087931
394.529801	2517.799247
394.913047	2521.751512
395.296230	2521.577592
395.679351	2522.452232
396.062410	2522.449712
396.445408	2521.333096
396.828343	2520.523991
397.211217	2524.544311
397.594028	2519.372087
397.976778	2522.875689
398.359466	2525.849970
398.742092	2523.364681
399.124656	2521.766635
399.507158	2524.239321
399.889598	2523.664630
400.271977	2522.666481
400.654294	2522.331245
401.036549	2523.349558
401.418742	2526.979188
401.800874	2523.654548
402.182944	2525.003056
402.564952	2525.310567
402.946898	2523.987264
403.328783	2524.478776
403.710606	2525.494569
404.092367	2523.309228
404.474067	2525.035824
404.855705	2527.596730
405.237282	2526.084384
405.618797	2525.303005
406.000250	2528.138654
406.381642	2529.169570
406.762972	2521.196985
407.144240	2523.525998
407.525447	2526.117151
407.906593	2526.099507
408.287677	2525.464322
408.668700	2526.805269
409.049661	2527.632018
409.430560	2529.451874
409.811399	2528.141174
410.192176	2525.363499
410.572891	2528.345341
410.953545	2526.016328
411.334138	2529.247708
411.714669	2527.911802
412.095139	2528.030269
412.475547	2528.065557
412.855894	2529.880372
413.236180	2530.760054
413.616405	2529.598068
413.996568	2527.931967
414.376670	2531.886752
414.756711	2527.231246
415.136691	2529.855167
415.516609	2529.590506
415.896466	2531.614529
416.276262	2530.263500
416.655997	2531.695188
417.035670	2528.499096
417.415283	2529.600588
417.794834	2532.221988
418.174324	2531.798532
418.553753	2529.555218
418.933121	2532.829447
419.312428	2533.227699
419.691674	2530.571011
420.070859	2533.930940
420.449983	2531.589324
420.829045	2532.098480
421.208047	2531.735517
421.586988	2532.214427
421.965867	2533.073943
422.344686	2531.296937
422.723444	2535.178625
423.102141	2532.103521
423.480777	2531.337266
423.859352	2530.046731
424.237866	2532.617719
424.616319	2533.164684
424.994712	2536.746424
425.373044	2532.574869
425.751314	2530.344159
426.129524	2529.845084
426.507673	2528.438603
426.885762	2527.478263
427.263789	2535.788605
427.641756	2532.214427
428.019662	2533.827596
428.397508	2532.647966
428.775292	2532.126207
429.153016	2531.969931
429.530679	2538.132741
429.908282	2532.196783
430.285824	2535.294572
430.663305	2534.661907
431.040726	2533.386495
431.418086	2535.501259
431.795385	2535.700385
432.172624	2536.935467
432.549802	2537.026208
432.926920	2534.220806
433.303977	2534.430014
433.680974	2536.136444
434.057910	2536.217103
434.434786	2537.293389
434.811601	2535.032432
435.188355	2536.075951
435.565050	2536.012936
435.941683	2538.069727
436.318257	2535.289531
436.694770	2535.801208
437.071222	2538.702392
437.447614	2537.099305
437.823946	2539.249357
438.200218	2536.290200
438.576429	2539.680376
438.952580	2538.475540
439.328670	2539.365303
439.704700	2539.713143
440.080670	2536.103677
440.456580	2538.341949
440.832429	2536.025539
441.208218	2540.829759
441.583947	2536.945550
441.959616	2538.369676
442.335224	2539.713143
442.710773	2537.303472
443.086261	2538.896476
443.461689	2539.299768
443.837057	2541.124666
444.212365	2540.219779
444.587612	2537.091743
444.962800	2532.332894
445.337927	2539.171219
445.712995	2536.138965
446.088002	2539.269522
446.462949	2539.493853
446.837837	2539.027546
447.212664	2541.464944
447.587431	2538.609130
447.962139	2536.655683
448.336786	2541.878319
448.711374	2539.501415
449.085901	2538.339429
449.460369	2540.910417
449.834776	2541.291024
450.209124	2539.612320
450.583412	2542.165664
450.957640	2537.404295
451.331808	2539.796322
451.705917	2540.711292
452.079965	2542.183308
452.453954	2540.199614
452.827883	2542.027033
453.201752	2539.430838
453.575562	2540.529810
453.949311	2540.060983
454.323001	2541.386806
454.696632	2542.929399
455.070202	2541.734646
455.443713	2540.779347
455.817164	2539.730787
456.190556	2539.025026
456.563888	2541.724563
456.937160	2541.890922
457.310373	2541.527958
457.683526	2538.906558
458.056619	2541.119625
458.429653	2543.667928
458.802628	2540.262629
459.175542	2540.418905
459.548398	2541.822866
459.921194	2539.796322
460.293930	2544.078782
460.666607	2542.223638
461.039224	2543.831766
461.411782	2541.790098
461.784280	2541.434697
462.156719	2544.315717
462.529099	2543.801519
462.901419	2542.021992
463.273680	2538.886394
463.645882	2538.178112
464.018024	2537.593338
464.390106	2537.986548
464.762130	2543.057949
465.134094	2542.009389
465.505999	2544.167003
465.877845	2539.647608
466.249631	2543.544420
466.621358	2543.773793
466.993026	2543.262115
467.364634	2547.370656
467.736184	2544.224976
468.107674	2542.725233
468.479105	2543.085675
468.850477	2542.755479
469.221790	2544.192208
469.593043	2544.739173
469.964238	2545.880995
470.335373	2545.944009
470.706449	2542.571477
471.077467	2544.464431
471.448425	2543.342774
471.819324	2546.581715
472.190164	2544.610624
472.560945	2544.605583
472.931667	2548.681356
473.302330	2546.251520
473.672934	2546.125491
474.043479	2544.222455
474.413965	2546.662374
474.784393	2547.108516
475.154761	2546.846376
475.525070	2541.109543
475.895321	2544.540048
476.265513	2547.645399
476.635645	2545.515511
477.005719	2545.074410
477.375734	2544.628268
477.745691	2546.221273
478.115588	2545.611293
478.485427	2543.562064
478.855207	2546.841335
479.224928	2545.586087
479.594591	2546.866540
479.964194	2546.309493
480.333739	2546.503577
480.703226	2544.998793
481.072653	2544.035933
481.442022	2544.958464
481.811333	2544.101468
482.180584	2544.192208
482.549777	2543.945192
482.918912	2538.447813
483.287988	2545.886036
483.657005	2547.252189
484.025964	2547.267312
484.394864	2547.277394
484.763706	2546.685059
485.132489	2546.337219
485.501213	2544.499719
485.869879	2547.466438
486.238487	2548.648588
486.607036	2546.506098
486.975527	2545.233207
487.343959	2548.691438
487.712333	2545.674308
488.080648	2550.261758
488.448905	2546.493495
488.817104	2548.578012
489.185244	2545.949050
489.553326	2549.707231
489.921350	2549.084648
490.289315	2547.088351
490.657222	2547.663043
491.025070	2547.322765
491.392861	2548.409133
491.760593	2547.708413
492.128267	2546.516180
492.495883	2548.590615
492.863440	2546.672456
493.230939	2548.270502
493.598380	2550.828887
493.965763	2549.029195
494.333088	2547.226983
494.700354	2546.765717
495.067563	2547.874771
495.434713	2548.421736
495.801805	2549.679504
496.168839	2548.613300
496.535815	2547.511808
496.902733	2546.059956
497.269593	2549.424926
497.636395	2546.904349
498.003139	2546.642209
498.369825	2549.049360
498.736453	2547.751263
499.103023	2549.167827
499.469535	2546.992569
499.835989	2548.338557
500.202385	2546.251520
500.568723	2542.687424
500.935003	2545.437373
501.301226	2542.415202
501.667390	2551.065822
502.033497	2548.366284
502.399546	2549.311500
502.765537	2548.792261
503.131470	2549.014072
503.497345	2549.160265
503.863163	2549.074566
504.228923	2549.934082
504.594625	2546.838814
504.960269	2548.913249
505.325856	2549.729916
505.691385	2550.569268
506.056856	2549.177909
506.422270	2548.779658
506.787625	2550.662529
507.152924	2547.703372
507.518164	2549.487940
507.883347	2549.898794
508.248472	2551.885009
508.613540	2551.297715
508.978550	2550.412992
509.343503	2550.929710
509.708398	2550.481048
510.073236	2548.197405
510.438016	2550.385266
510.802738	2551.625390
511.167403	2550.407951
511.532010	2547.673125
511.896561	2549.281253
512.261053	2551.330482
512.625488	2551.491799
512.989866	2548.893084
513.354186	2549.374514
513.718449	2550.339895
514.082655	2552.217725
514.446803	2549.671943
514.810894	2551.829556
515.174927	2550.236552
515.538904	2551.627910
515.902822	2548.809905
516.266684	2550.922149
516.630488	2550.975081
516.994235	2550.223949
517.357925	2550.665050
517.721558	2552.910884
518.085133	2547.579864
518.448651	2548.857796
518.812112	2550.067673
519.175516	2547.297559
519.538863	2545.334030
519.902152	2552.210163
520.265385	2552.976419
520.628560	2552.852911
520.991678	2550.481048
521.354739	2549.669422
521.717743	2553.044474
522.080690	2550.685214
522.443580	2547.592467
522.806413	2553.926676
523.169189	2552.220246
523.531908	2554.196378
523.894569	2553.662016
524.257174	2550.450801
524.619722	2553.064639
524.982213	2550.861655
525.344647	2549.719833
525.707025	2553.248641
526.069345	2551.360729
526.431608	2552.963816
526.793815	2552.421892
527.155964	2553.687222
527.518057	2550.607077
527.880093	2553.359547
528.242072	2551.007848
528.603995	2551.169165
528.965860	2550.783517
529.327669	2550.733105
529.689421	2552.991542
530.051117	2551.300235
530.412755	2554.362736
530.774337	2553.636810
531.135862	2553.296532
531.497331	2552.663867
531.858743	2551.577499
532.220098	2552.099258
532.581396	2551.254865
532.942638	2550.760832
533.303824	2554.166131
533.664953	2552.348795
534.026025	2554.448436
534.387040	2551.678322
534.747999	2552.936090
535.108902	2554.229146
535.469748	2553.931717
535.830537	2555.975905
536.191270	2555.519681
536.551947	2550.448280
536.912567	2551.474155
537.273131	2550.508774
537.633638	2551.723692
537.994089	2554.753426
538.354483	2553.329300
538.714821	2556.197716
539.075103	2555.870041
539.435328	2554.634958
539.795497	2558.045299
540.155609	2556.371636
540.515665	2557.344579
540.875665	2556.530432
541.235609	2558.471277
541.595496	2559.348437
541.955328	2560.520506
542.315102	2560.575958
542.674821	2559.194682
543.034483	2561.291802
543.394090	2562.504200
543.753640	2557.775597
544.113134	2561.203582
544.472571	2562.887327
544.831953	2560.805331
545.191278	2562.025290
545.550548	2563.043603
545.909761	2562.148798
546.268918	2563.898079
546.628019	2562.320198
546.987064	2564.961762
547.346053	2565.256670
547.704986	2565.365054
548.063863	2563.212482
548.422684	2564.442523
548.781449	2566.640466
549.140158	2563.555280
549.498811	2570.275138
549.857408	2566.201886
550.215949	2566.640466
550.574434	2565.082750
550.932864	2570.338153
551.291237	2567.139541
551.649555	2570.154151
552.007817	2568.319171
552.366022	2571.507700
552.724173	2568.513255
553.082267	2568.422514
553.440305	2568.810683
553.798288	2572.336970
554.156215	2571.515262
554.514086	2567.678944
554.871902	2567.857905
555.229661	2563.479663
555.587365	2565.559139
555.945014	2569.566856
556.302606	2572.977197
556.660143	2570.817062
557.017625	2573.403174
557.375050	2571.724470
557.732421	2568.956877
558.089735	2574.759245
558.446994	2572.208421
558.804197	2574.550037
559.161345	2575.696899
559.518437	2571.507700
559.875474	2571.994172
560.232455	2571.797567
560.589381	2571.243040
560.946251	2572.205900
561.303065	2571.437124
561.659825	2571.515262
562.016528	2571.822772
562.373177	2574.101374
562.729770	2573.627506
563.086307	2573.897207
563.442789	2572.357135
563.799216	2575.525500
564.155587	2575.152455
564.511904	2575.989286
564.868164	2573.564491
565.224370	2574.252609
565.580520	2573.065417
565.936615	2575.162537
566.292654	2573.473750
566.648638	2573.178843
567.004567	2573.115828
567.360441	2574.134142
567.716260	2572.006775
568.072023	2571.873184
568.427732	2574.146744
568.783385	2572.687330
569.138982	2574.227403
569.494525	2573.020047
569.850013	2573.075499
570.205445	2571.530386
570.560823	2573.115828
570.916145	2573.355283
571.271412	2570.000395
571.626625	2575.437280
571.981782	2570.842268
572.336884	2571.671538
572.691931	2568.972000
573.046923	2571.006106
573.401860	2567.414283
573.756743	2570.338153
574.111570	2572.599110
574.466342	2572.271435
574.821059	2571.200190
575.175722	2570.025601
575.530330	2570.194480
575.884882	2569.811352
576.239380	2570.799418
576.593823	2572.294120
576.948211	2571.099367
577.302544	2574.736559
577.656823	2571.356466
578.011047	2572.399985
578.365216	2569.128276
578.719330	2569.760941
579.073389	2567.981413
579.427394	2570.980900
579.781344	2567.774726
580.135239	2567.522668
580.489080	2568.520817
580.842866	2568.752710
581.196597	2574.353432
581.550273	2570.832186
581.903895	2565.695250
582.257463	2568.228430
582.610975	2566.038048
582.964434	2568.026784
583.317837	2570.655745
583.671186	2569.438307
584.024481	2568.717422
584.377721	2566.222051
584.730906	2567.568039
585.084037	2567.142061
585.437113	2563.940928
585.790135	2568.598955
586.143103	2568.198183
586.496016	2569.226578
586.848874	2565.188614
587.201679	2566.363203
587.554428	2565.065106
587.907124	2566.300188
588.259765	2565.412945
588.612352	2570.398647
588.964884	2566.239695
589.317362	2564.699622
589.669786	2566.363203
590.022155	2562.010167
590.374470	2563.134344
590.726731	2561.947152
591.078937	2562.789025
591.431090	2568.374623
591.783188	2567.242884
592.135232	2565.581824
592.487222	2566.945456
592.839157	2564.245918
593.191038	2565.163408
593.542866	2564.024107
593.894639	2562.012687
594.246358	2564.805486
594.598022	2565.813717
594.949633	2563.406566
595.301190	2562.748696
595.652692	2563.141906
596.004141	2562.763819
596.355535	2565.377657
596.706876	2562.216854
597.058162	2563.157029
597.409395	2561.029662
597.760573	2564.485373
598.111698	2563.232646
598.462768	2563.119220
598.813785	2563.000753
599.164748	2562.068140
599.515657	2562.899930
599.866511	2562.736093
600.217312	2562.516802
600.568060	2561.695094
600.918753	2560.074363
601.269392	2562.879766
601.619978	2560.270968
601.970510	2563.719118
602.320988	2561.359858
602.671412	2563.489745
603.021783	2562.156360
603.372100	2562.322718
603.722363	2561.538819
604.072572	2564.034190
604.422728	2561.861452
604.772830	2565.770867
605.122878	2559.834909
605.472872	2561.344734
605.822813	2562.499158
606.172701	2561.775753
606.522534	2564.674416
606.872314	2564.611402
607.222041	2562.274827
607.571714	2560.394477
607.921333	2558.471277
608.270899	2559.736606
608.620411	2558.335165
608.969870	2564.313974
609.319276	2565.400342
609.668627	2572.289079
610.017926	2575.633885
610.367171	2576.798391
610.716362	2578.101530
611.065500	2574.885273
611.414585	2572.294120
611.763616	2570.960735
612.112594	2570.416291
612.461518	2567.447051
612.810389	2569.193811
613.159207	2566.358162
613.507971	2569.813873
613.856682	2569.874367
614.205340	2566.151474
614.553945	2567.999057
614.902496	2567.419325
615.250994	2567.787329
615.599439	2568.780436
615.947830	2567.043759
616.296169	2567.815055
616.644454	2568.543502
616.992686	2566.317832
617.340864	2568.891342
617.688990	2568.082236
618.037063	2566.648028
618.385082	2567.373954
618.733048	2568.072154
619.080961	2566.882442
619.428821	2571.122052
619.776628	2569.372772
620.124382	2570.164233
620.472083	2570.638101
620.819731	2569.395457
621.167326	2568.198183
621.514868	2571.043914
621.862357	2573.816549
622.209793	2567.787329
622.557176	2570.806980
622.904506	2570.154151
623.251783	2569.939902
623.599007	2567.310940
623.946179	2568.082236
624.293297	2568.064592
624.640363	2568.457802
624.987376	2566.978224
625.334336	2564.699622
625.681243	2568.127607
626.028097	2563.663665
626.374899	2570.282700
626.721647	2567.169787
627.068343	2567.250446
627.414987	2568.654407
627.761577	2570.539799
628.108115	2569.682803
628.454600	2568.908986
628.801032	2570.212124
629.147412	2570.900241
629.493739	2570.272618
629.840014	2569.876887
630.186236	2570.156671
630.532405	2572.200859
630.878521	2571.532906
631.224585	2570.910324
631.570597	2571.563153
631.916556	2571.048955
632.262462	2569.055179
632.608316	2574.360993
632.954117	2569.871846
633.299866	2570.890159
633.645562	2572.135324
633.991206	2571.232957
634.336797	2570.776733
634.682336	2572.871333
635.027823	2572.062227
635.373257	2571.550550
635.718639	2569.513924
636.063968	2572.518452
636.409245	2571.164902
636.754470	2571.666497
637.099642	2571.459809
637.444762	2570.582649
637.789829	2575.588514
638.134845	2569.085426
638.479808	2571.081723
638.824719	2571.853019
639.169577	2572.815880
639.514383	2570.000395
639.859137	2569.975190
640.203839	2574.456775
640.548489	2570.476784
640.893086	2572.848647
641.237632	2570.834706
641.582125	2574.204718
641.926566	2571.222875
642.270955	2574.159347
642.615292	2568.520817
642.959576	2569.685323
643.303809	2572.163050
643.647990	2574.539954
643.992118	2578.487178
644.336195	2575.344018
644.680219	2574.628175
645.024192	2577.967939
645.368112	2576.483319
645.711981	2576.332085
646.055797	2577.027764
646.399562	2576.755542
646.743274	2580.944740
647.086935	2579.631520
647.430544	2582.494895
647.774101	2582.731829
648.117606	2583.845924
648.461059	2582.053794
648.804460	2590.278437
649.147810	2585.302818
649.491108	2584.511357
649.834354	2586.179979
650.177548	2585.791810
650.520690	2585.375915
650.863781	2587.271388
651.206820	2585.229721
651.549807	2583.828280
651.892742	2583.994638
652.235626	2583.689649
652.578458	2585.723754
652.921238	2586.863055
653.263967	2587.231059
653.606644	2586.119485
653.949269	2587.180648
654.291843	2586.928590
654.634365	2587.893971
654.976836	2587.369691
655.319255	2589.446646
655.661622	2592.453695
656.003938	2589.159301
656.346203	2591.692480
656.688416	2590.442274
657.030577	2591.876482
657.372687	2594.213057
657.714746	2592.594847
658.056753	2593.953438
658.398708	2594.734817
658.740612	2593.015783
659.082465	2597.121803
659.424266	2592.055443
659.766016	2593.217429
660.107715	2593.719024
660.449362	2595.438058
660.790958	2600.597679
661.132503	2604.076075
661.473996	2604.834768
661.815438	2603.589603
662.156829	2606.246292
662.498168	2607.514142
662.839456	2607.962804
663.180693	2608.774430
663.521879	2608.978597
663.863013	2613.901284
664.204097	2612.920779
664.545129	2612.356170
664.886110	2614.579319
665.227040	2614.513784
665.567918	2616.641151
665.908746	2622.093159
666.249522	2622.057871
666.590248	2623.701287
666.930922	2627.245218
667.271545	2628.729838
667.612118	2632.223357
667.952639	2629.869138
668.293109	2629.365023
668.633528	2631.777215
668.973896	2635.711836
669.314213	2641.330202
669.654480	2636.228554
669.994695	2635.931126
670.334859	2638.527320
670.674973	2643.003865
671.015035	2643.336581
671.355047	2645.143835
671.695008	2644.924544
672.034918	2643.727270
672.374777	2648.937303
672.714585	2649.292704
673.054342	2657.177069
673.394049	2653.852428
673.733705	2658.258396
674.073310	2659.090187
674.412864	2667.874397
674.752368	2665.028666
675.091820	2658.253355
675.431223	2668.310457
675.770574	2665.031187
676.109875	2667.922288
676.449125	2667.692916
676.788324	2666.223419
677.127473	2666.215858
677.466571	2666.616629
677.805619	2671.887156
678.144616	2670.238698
678.483562	2676.192301
678.822458	2672.676096
679.161303	2674.821107
679.500098	2680.454597
679.838842	2682.934844
680.177535	2683.272602
680.516179	2687.423992
680.854771	2689.440453
681.193314	2697.927236
681.531805	2696.888758
681.870247	2714.805019
682.208638	2722.097048
682.546978	2733.560632
682.885268	2739.597414
683.223508	2732.333111
683.561697	2730.752709
683.899836	2733.583317
684.237925	2734.001733
684.575963	2735.241857
684.913951	2750.667787
685.251889	2743.660584
685.589776	2754.325145
685.927614	2757.538880
686.265401	2752.618714
686.603137	2765.113214
686.940824	2772.243926
687.278460	2786.437295
687.616046	2795.009777
687.953582	2806.685089
688.291068	2803.262146
688.628504	2815.111378
688.965889	2824.384580
689.303224	2836.770695
689.640510	2834.461847
689.977745	2823.981288
690.314930	2818.972902
690.652065	2821.707727
690.989150	2809.606438
691.326185	2809.036787
691.663170	2804.686272
692.000105	2796.426341
692.336990	2802.735345
692.673825	2791.675053
693.010610	2791.380146
693.347345	2780.942437
693.684030	2777.448917
694.020665	2777.116201
694.357251	2780.433280
694.693786	2791.506175
695.030272	2774.532610
695.366707	2777.106119
695.703093	2775.540841
696.039429	2779.200718
696.375716	2787.087603
696.711952	2777.000255
697.048139	2785.507202
697.384276	2794.477935
697.720363	2794.016669
698.056400	2792.779066
698.392388	2800.635704
698.728326	2796.882565
699.064214	2797.661424
699.400053	2816.475010
699.735842	2804.958494
700.071581	2803.592341
700.407270	2799.221661
700.742910	2800.078657
701.078501	2802.957156
701.414042	2795.206382
701.749533	2796.907771
702.084974	2793.300826
702.420366	2798.936836
702.755709	2801.883390
703.091002	2794.271248
703.426246	2797.628656
703.761440	2804.167033
704.096584	2802.833647
704.431679	2801.681744
704.766725	2804.938329
705.101721	2800.131589
705.436668	2804.048566
705.771565	2807.879842
706.106413	2816.994249
706.441212	2827.011021
706.775961	2817.934424
707.110661	2819.572799
707.445311	2842.497446
707.779913	2835.454954
708.114465	2849.411388
708.448967	2856.101000
708.783421	2855.780886
709.117825	2883.136708
709.452180	2890.579971
709.786485	2893.834036
710.120742	2922.195568
710.454949	2923.372677
710.789107	2934.780808
711.123216	2951.867799
711.457275	2979.334526
711.791286	2998.437978
712.125247	2989.883140
712.459159	3014.907428
712.793023	3035.492980
713.126837	3004.121879
713.460602	3017.866585
713.794318	2991.571927
714.127985	3015.585463
714.461602	3002.987620
714.795171	2985.693942
715.128691	2980.564568
715.462162	2953.677573
715.795584	2970.527630
716.128957	2958.759057
716.462281	2927.392997
716.795556	2959.003553
717.128782	2935.471446
717.461960	2905.035480
717.795088	2927.448450
718.128167	2925.802513
718.461198	2912.501429
718.794180	2906.492373
719.127113	2922.314035
719.459997	2917.915628
719.792833	2886.637789
720.125619	2898.792011
720.458357	2881.889022
720.791046	2888.505537
721.123686	2910.608476
721.456278	2890.653068
721.788821	2887.797254
722.121315	2878.302241
722.453761	2894.559962
722.786158	2901.715880
723.118506	2901.731004
723.450805	2903.066909
723.783056	2905.448855
724.115259	2894.489386
724.447412	2907.573701
724.779518	2909.128897
725.111574	2912.524114
725.443582	2929.832916
725.775542	2925.431988
726.107453	2950.899898
726.439315	2943.590225
726.771129	2952.417285
727.102895	2968.763226
727.434612	2985.139415
727.766281	2991.201402
728.097901	3002.826303
728.429473	2995.776249
728.760996	2999.932681
729.092471	3004.288238
729.423897	3008.593383
729.755276	3015.945906
730.086606	3015.119157
730.417887	3014.380628
730.749120	3026.590302
731.080305	3073.841037
731.411442	3093.879624
731.742530	3075.688620
732.073570	3113.421657
732.404562	3128.703914
732.735506	3091.328800
733.066401	3128.575365
733.397249	3121.994139
733.728048	3096.851384
734.058798	3062.022052
734.389501	3052.466545
734.720156	3037.809390
735.050762	2997.255828
735.381320	2988.864827
735.711831	2993.537977
736.042293	2986.964312
736.372707	2998.437978
736.703073	2981.290494
737.033391	2978.734629
737.363661	2980.030205
737.693883	2992.721310
738.024056	3015.277953
738.354182	3024.387318
738.684260	3022.690970
739.014290	3041.123949
739.344272	3058.389901
739.674207	3060.056002
740.004093	3071.391036
740.333931	3079.444280
740.663722	3081.778334
740.993464	3105.943105
741.323159	3128.041003
741.652806	3065.409707
741.982405	3059.556928
742.311956	3113.020885
742.641460	3085.506267
742.970915	3043.994886
743.300323	3059.090621
743.629683	3047.276677
743.958996	3029.035262
744.288260	3021.382790
744.617477	3035.906354
744.946647	3045.736604
745.275768	3003.317815
745.604842	3006.362672
745.933869	3009.246212
746.262847	2997.439830
746.591778	3010.607324
746.920662	3006.211438
747.249498	3003.196828
747.578286	3013.720236
747.907027	3035.500542
748.235720	3047.977397
748.564365	3025.917308
748.892963	3028.957124
749.221514	3085.692790
749.550017	3057.215312
749.878473	3021.443284
750.206881	3045.608055
750.535242	3037.733773
750.863555	3021.377749
751.191821	3040.962632
751.520039	3051.647357
751.848210	3026.287833
752.176334	3021.304652
752.504411	3056.988460
752.832440	3042.419525
753.160421	3008.598424
753.488356	3035.394677
753.816243	3065.984399
754.144082	3025.660209
754.471875	3012.684279
754.799620	3036.198741
755.127318	3040.163609
755.454969	3026.103831
755.782572	3023.187523
756.110129	3044.166285
756.437638	3056.449056
756.765100	3027.941331
757.092515	3026.595343
757.419882	3040.619833
757.747203	3040.826521
758.074477	3063.670509
758.401703	3071.401119
758.728882	3034.603216
759.056014	3038.847868
759.383099	3093.869541
759.710138	3094.106476
760.037129	3074.125862
760.364073	3073.891449
760.690970	3109.507201
761.017820	3120.648151
761.344623	3089.675301
761.671379	3113.003241
761.998088	3139.587766
762.324751	3177.681245
762.651366	3286.993625
762.977935	3498.056654
763.304456	3756.592229
763.630931	3901.608581
763.957359	3849.450283
764.283740	3746.698964
764.610074	3657.921725
764.936362	3476.924137
765.262602	3357.980633
765.588796	3247.728077
765.914943	3179.009589
766.241044	3182.591328
766.567097	3156.311793
766.893104	3094.519850
767.219064	3047.785833
767.544978	3050.316493
767.870845	3044.438507
768.196665	3017.511184
768.522438	2999.673061
768.848165	3001.964266
769.173846	3000.061230
769.499479	2991.695435
769.825066	2972.879328
770.150607	2962.713842
770.476101	2957.423151
770.801548	2971.077116
771.126949	2964.082515
771.452303	2946.597273
771.777611	2935.431117
772.102872	2942.904628
772.428087	2937.999585
772.753256	2939.375820
773.078378	2933.132351
773.403453	2916.057963
773.728482	2918.727254
774.053465	2903.513052
774.378401	2901.904923
774.703291	2918.500402
775.028135	2902.346024
775.352932	2883.507233
775.677683	2878.715616
776.002388	2896.347051
776.327046	2903.026580
776.651658	2876.696634
776.976224	2852.579754
777.300743	2861.401773
777.625216	2880.215359
777.949643	2886.194168
778.274024	2865.409490
778.598359	2847.841069
778.922647	2856.413551
779.246889	2863.662730
779.571086	2868.141796
779.895236	2863.201465
780.219339	2853.013293
780.543397	2847.972139
780.867409	2865.109542
781.191374	2881.168137
781.515294	2862.258769
781.839167	2856.615197
782.162995	2863.871938
782.486776	2862.520909
782.810511	2867.126003
783.134201	2879.507077
783.457844	2865.341435
783.781441	2846.454752
784.104993	2848.907273
784.428498	2856.882378
784.751958	2863.007380
785.075372	2856.499251
785.398739	2840.155830
785.722061	2844.949967
786.045337	2863.146012
786.368568	2881.621841
786.691752	2845.670852
787.014891	2852.231914
787.337983	2885.301883
787.661030	2922.457708
787.984031	2957.622276
788.306987	2999.471415
788.629897	3013.974815
788.952760	3001.991992
789.275579	2998.453102
789.598351	3005.929133
789.921078	2979.407623
790.243759	2913.108888
790.566395	2911.934299
790.888984	2927.476176
791.211529	2891.873027
791.534027	2881.488250
791.856480	2888.654251
792.178888	2861.953779
792.501249	2837.685665
792.823566	2848.246882
793.145836	2872.346118
793.468062	2853.033457
793.790241	2832.548729
794.112375	2842.131962
794.434464	2864.101311
794.756507	2880.832900
795.078505	2868.860160
795.400457	2859.889427
795.722364	2900.871487
796.044226	2927.425765
796.366042	2943.131480
796.687812	2949.478292
797.009538	2950.350412
797.331218	2933.812907
797.652852	2930.878955
797.974442	2938.027311
798.295986	2946.743466
798.617484	2921.744384
798.938938	2890.965620
799.260346	2910.187539
799.581709	2920.133736
799.903026	2895.616084
800.224299	2881.768034
800.545526	2888.195506
800.866708	2878.004813
801.187845	2851.228724
801.508936	2874.347456
801.829983	2880.888353
802.150984	2845.171778
802.471940	2841.610203
802.792851	2849.103878
803.113717	2851.682428
803.434538	2859.143336
803.755314	2838.063751
804.076045	2818.093220
804.396731	2831.452278
804.717372	2846.308558
805.037967	2842.618434
805.358518	2834.509738
805.679024	2840.503670
805.999485	2843.591376
806.319901	2843.505677
806.640272	2853.623272
806.960598	2856.925228
807.280879	2844.161027
807.601115	2845.547344
807.921306	2855.614528
808.241453	2876.900800
808.561554	2871.385778
808.881611	2842.157168
809.201623	2856.915146
809.521590	2869.969214
809.841513	2858.803058
810.161390	2872.361241
810.481223	2874.813763
810.801011	2846.840400
811.120755	2840.382682
811.440453	2860.814478
811.760107	2872.497353
812.079716	2857.053778
812.399281	2842.305882
812.718801	2850.064218
813.038276	2841.436283
813.357707	2849.963395
813.677093	2858.840867
813.996434	2837.458813
814.315731	2839.535768
814.634983	2840.791015
814.954191	2847.773013
815.273354	2866.064840
815.592473	2865.001157
815.911547	2856.153932
816.230577	2869.452496
816.549562	2890.839591
816.868502	2912.965215
817.187399	2924.050712
817.506250	2915.939496
817.825058	2901.264697
818.143821	2941.293979
818.462539	2991.370281
818.781213	3003.451406
819.099843	3013.203518
819.418429	3085.486102
819.736970	3159.679284
820.055466	3226.887947
820.373919	3369.673589
820.692327	3509.217768
821.010691	3612.364817
821.329011	3989.753156
821.647286	4666.709541
821.965517	5608.455053
822.283704	6335.749880
822.601847	6774.995697
822.919945	6633.369521
823.237999	6317.533671
823.556010	5897.900463
823.873976	5492.470706
824.191897	4862.301269
824.509775	4446.055717
824.827609	4102.007049
825.145398	3918.037701
825.463144	3909.999582
825.780845	3945.209521
826.098502	3936.301802
826.416116	4133.547028
826.733685	4485.399402
827.051210	4842.991130
827.368692	4961.198626
827.686129	4647.313702
828.003522	4176.923637
828.320872	3885.073596
828.638177	3685.327958
828.955439	3507.317253
829.272656	3324.232628
829.589830	3212.969322
829.906960	3161.481497
830.224046	3087.618511
830.541088	3049.343550
830.858086	3036.957435
831.175041	3013.327026
831.491952	3000.809841
831.808819	3009.954494
832.125642	3035.147661
832.442421	3090.716300
832.759157	3180.199301
833.075849	3355.427288
833.392497	3608.344497
833.709101	3803.293478
834.025662	3942.245322
834.342179	3894.674474
834.658653	3713.281156
834.975083	3519.799150
835.291469	3317.109478
835.607811	3152.634272
835.924110	3114.379476
836.240366	3038.825183
836.556578	2951.996349
836.872746	2910.396747
837.188871	2905.421128
837.504952	2882.088148
837.820990	2844.685307
838.136984	2821.619507
838.452935	2837.239522
838.768842	2839.860922
839.084706	2848.425843
839.400526	2896.810838
839.716303	2987.236535
840.032037	3149.183602
840.347727	3266.624842
840.663373	3209.029660
840.978977	3092.689911
841.294537	2982.117243
841.610054	2885.437994
841.925527	2840.975017
842.240957	2817.823518
842.556344	2799.403142
842.871687	2777.892539
843.186987	2754.126019
843.502244	2740.335943
843.817458	2725.940928
844.132629	2709.584904
844.447756	2719.432798
844.762840	2714.822663
845.077881	2699.928574
845.392879	2690.461287
845.707833	2689.863910
846.022745	2688.999352
846.337613	2691.356092
846.652438	2687.325689
846.967221	2687.391224
847.281960	2678.985100
847.596656	2677.177847
847.911309	2678.609534
848.225919	2677.548372
848.540485	2670.032011
848.855009	2673.984276
849.169490	2670.291631
849.483928	2665.885662
849.798323	2662.341731
850.112675	2661.943480
850.426984	2669.018739
850.741251	2668.527227
851.055474	2664.645538
851.369654	2660.088335
851.683792	2663.400373
851.997887	2667.307267
852.311938	2667.889521
852.625947	2663.811227
852.939914	2667.818945
853.253837	2671.430931
853.567718	2658.838129
853.881555	2659.087666
854.195350	2667.304747
854.509103	2667.128307
854.822812	2664.219561
855.136479	2663.493635
855.450103	2661.313336
855.763685	2658.081956
856.077224	2654.205309
856.390720	2662.659324
856.704173	2668.481856
857.017584	2666.765343
857.330953	2661.424241
857.644278	2667.546722
857.957561	2672.018226
858.270802	2671.612413
858.584000	2674.962260
858.897155	2672.557629
859.210268	2669.762309
859.523339	2668.875066
859.836367	2669.162412
860.149352	2665.447082
860.462295	2663.173521
860.775195	2672.300530
861.088054	2672.010664
861.400869	2661.701504
861.713642	2658.492810
862.026373	2667.455982
862.339062	2668.491939
862.651708	2673.548216
862.964312	2674.354801
863.276873	2670.450427
863.589392	2672.925633
863.901869	2676.088957
864.214303	2685.417613
864.526696	2694.741227
864.839045	2695.333562
865.151353	2692.016483
865.463619	2690.287367
865.775842	2690.075639
866.088023	2701.221630
866.400162	2706.643391
866.712258	2691.222501
867.024313	2687.938190
867.336325	2691.441792
867.648296	2705.393185
867.960224	2702.446630
868.272110	2695.227698
868.583954	2697.103007
868.895755	2709.537013
869.207515	2699.608461
869.519233	2700.412525
869.830909	2706.345963
870.142542	2714.154710
870.454134	2709.421067
870.765684	2714.590770
871.077191	2712.770913
871.388657	2711.558516
871.700081	2720.844321
872.011463	2723.039744
872.322803	2723.874055
872.634101	2724.794065
872.945357	2729.789849
873.256571	2745.732498
873.567744	2741.790316
873.878874	2732.738924
874.189963	2748.570667
874.501010	2752.560741
874.812015	2748.986563
875.122979	2748.381624
875.433900	2746.034967
875.744780	2748.086717
876.055618	2753.659712
876.366415	2752.981677
876.677169	2764.281423
876.987882	2766.350817
877.298554	2757.738006
877.609183	2765.594644
877.919771	2783.490740
878.230317	2800.224850
878.540822	2831.104438
878.851285	2849.451718
879.161707	2866.132896
879.472087	2911.052097
879.782425	3009.760410
880.092722	3221.151114
880.402977	3430.144750
880.713191	3575.251843
881.023363	3836.096266
881.333494	4140.226557
881.643583	4276.335190
881.953631	4270.762195
882.263637	4209.552505
882.573602	4129.095689
882.883526	3987.093947
883.193408	3771.569497
883.503248	3591.325562
883.813048	3497.746623
884.122806	3398.819020
884.432522	3265.293978
884.742197	3158.555107
885.051831	3063.499110
885.361424	2997.969151
885.670975	2970.144503
885.980485	2929.011208
886.289954	2891.242883
886.599382	2869.429810
886.908768	2849.229907
887.218113	2830.844819
887.527417	2803.940181
887.836680	2772.790891
888.145901	2775.906324
888.455082	2780.765997
888.764221	2752.633837
889.073319	2737.044069
889.382376	2737.616240
889.691392	2739.783936
890.000366	2738.478277
890.309300	2730.188100
890.618193	2736.693709
890.927044	2746.917169
891.235855	2747.912797
891.544625	2737.202866
891.853353	2741.205542
892.162041	2748.847931
892.470687	2767.636311
892.779293	2794.079684
893.087858	2813.578867
893.396381	2844.241685
893.704864	2892.084756
894.013306	2991.365240
894.321707	3124.033285
894.630068	3216.871175
894.938387	3215.182388
895.246665	3208.109649
895.554903	3175.364834
895.863100	3092.238728
896.171256	3020.339271
896.479371	2961.708132
896.787446	2903.984399
897.095480	2849.423991
897.403473	2811.970739
897.711425	2788.100875
898.019336	2788.312604
898.327207	2776.995213
898.635038	2755.091400
898.942827	2748.106881
899.250576	2742.876684
899.558284	2725.613253
899.865952	2711.452652
900.173579	2703.807742
900.481165	2704.836137
900.788711	2697.682740
901.096216	2686.110771
901.403681	2677.845800
901.711105	2683.698579
902.018489	2684.303518
902.325832	2682.123219
902.633135	2684.847962
902.940397	2701.798842
903.247619	2737.192783
903.554800	2822.705876
903.861941	2959.696711
904.169041	3130.566621
904.476101	3264.835233
904.783121	3279.641102
905.090100	3199.726210
905.397039	3090.776793
905.703938	2969.877321
906.010796	2883.272819
906.317614	2826.688387
906.624391	2782.162396
906.931129	2747.126377
907.237826	2713.317879
907.544483	2686.176306
907.851099	2672.101405
908.157675	2663.039931
908.464211	2649.872437
908.770707	2644.087713
909.077163	2638.466826
909.383578	2629.324694
909.689954	2622.309928
909.996289	2619.796913
910.302584	2621.447891
910.608839	2621.135339
910.915054	2621.558796
911.221229	2616.444546
911.527363	2614.768362
911.833458	2617.795575
912.139513	2619.708693
912.445527	2623.688684
912.751502	2626.985598
913.057436	2634.242339
913.363331	2641.567136
913.669186	2649.902684
913.975000	2664.179232
914.280775	2698.698532
914.586510	2730.064592
914.892205	2764.969541
915.197859	2815.567602
915.503475	2896.647000
915.809050	2985.116729
916.114585	3048.683159
916.420081	3071.106211
916.725536	3058.405024
917.030952	3014.103364
917.336328	2960.483131
917.641665	2894.068450
917.946961	2848.919876
918.252218	2820.107161
918.557435	2783.742798
918.862612	2756.016452
919.167750	2726.974364
919.472848	2707.331508
919.777906	2698.328008
920.082925	2683.867458
920.387904	2667.894562
920.692843	2660.375681
920.997743	2652.377890
921.302603	2644.722898
921.607423	2638.996147
921.912204	2635.227885
922.216946	2627.608181
922.521647	2621.415123
922.826310	2618.256841
923.130932	2615.340533
923.435516	2609.674276
923.740059	2607.524224
924.044564	2598.729931
924.349028	2596.345465
924.653454	2592.231884
924.957840	2589.499578
925.262186	2586.610997
925.566493	2583.334247
925.870761	2583.397262
926.174989	2582.202508
926.479178	2580.186047
926.783328	2573.549368
927.087438	2572.158009
927.391509	2575.134811
927.695541	2570.381002
927.999533	2570.355797
928.303486	2567.726835
928.607400	2568.190621
928.911275	2567.046279
929.215110	2566.075857
929.518906	2566.257339
929.822663	2568.440158
930.126381	2565.917061
930.430060	2565.488563
930.733699	2564.868501
931.037299	2569.859243
931.340861	2566.877401
931.644383	2567.736917
931.947866	2565.680127
932.251309	2566.592575
932.554714	2566.156516
932.858080	2563.741803
933.161407	2563.131823
933.464694	2563.071329
933.767943	2558.937583
934.071153	2561.904302
934.374323	2564.175342
934.677455	2564.644169
934.980548	2562.496638
935.283602	2562.607543
935.586617	2562.017728
935.889593	2565.395301
936.192530	2562.799107
936.495428	2564.558470
936.798287	2564.946639
937.101108	2567.905796
937.403890	2569.614747
937.706632	2572.677248
938.009336	2574.303020
938.312002	2582.109247
938.614628	2587.720051
938.917216	2588.498909
939.219765	2590.248190
939.522275	2588.569486
939.824747	2587.011769
940.127179	2586.852973
940.429573	2585.985894
940.731929	2582.530183
941.034246	2582.184864
941.336524	2579.981880
941.638763	2577.841910
941.940964	2576.377455
942.243126	2577.168916
942.545250	2577.007599
942.847335	2573.882084
943.149381	2570.731363
943.451389	2567.409242
943.753359	2567.837740
944.055290	2565.927143
944.357182	2567.931002
944.659036	2564.394632
944.960851	2563.600651
945.262628	2562.862122
945.564367	2566.017884
945.866067	2565.385219
946.167729	2564.417318
946.469352	2563.663665
946.770937	2564.906309
947.072484	2564.936556
947.373992	2561.465722
947.675462	2561.294323
947.976893	2559.207285
948.278286	2558.007490
948.579641	2561.289282
948.880958	2559.565207
949.182236	2563.530074
949.483476	2558.350289
949.784678	2557.831050
950.085841	2559.338355
950.386967	2561.047306
950.688054	2562.151319
950.989103	2559.865156
951.290114	2560.008828
951.591087	2562.219374
951.892021	2564.210630
952.192917	2563.835064
952.493776	2566.537123
952.794596	2569.115673
953.095378	2567.131979
953.396122	2565.675085
953.696828	2564.515620
953.997496	2563.290620
954.298126	2560.959086
954.598718	2562.269786
954.899272	2557.820968
955.199788	2559.746688
955.500266	2557.286605
955.800706	2553.926676
956.101108	2556.404403
956.401472	2552.689073
956.701798	2551.643034
957.002087	2550.566747
957.302337	2549.755122
957.602550	2552.721841
957.902724	2550.763352
958.202861	2551.804351
958.502960	2548.086500
958.803022	2547.894936
959.103045	2545.875954
959.403031	2545.938968
959.702979	2546.543907
960.002889	2545.737322
960.302762	2545.749925
960.602596	2545.001313
960.902393	2546.632127
961.202153	2544.963505
961.501875	2545.621375
961.801559	2544.419060
962.101205	2544.414019
962.400814	2548.330996
962.700385	2543.110881
962.999918	2541.084337
963.299414	2540.323123
963.598873	2539.420756
963.898293	2539.854295
964.197677	2543.090716
964.497022	2542.692465
964.796331	2540.144162
965.095601	2544.257743
965.394835	2540.338246
965.694030	2544.078782
965.993189	2541.845551
966.292309	2542.546272
966.591393	2542.271529
966.890439	2543.698175
967.189447	2543.267157
967.488419	2540.809594
967.787353	2541.840510
968.086249	2540.454193
968.385108	2543.554502
968.683930	2542.677342
968.982714	2543.068031
969.281462	2541.011240
969.580172	2541.505273
969.878844	2543.345294
970.177480	2545.051725
970.476078	2543.418391
970.774639	2542.601724
971.073162	2544.446787
971.371649	2545.543238
971.670098	2542.906714
971.968510	2542.657177
972.266885	2542.412681
972.565223	2544.827394
972.863524	2541.401930
973.161788	2543.788916
973.460014	2543.703216
973.758204	2543.786395
974.056356	2539.637526
974.354471	2542.493339
974.652550	2542.142979
974.950591	2544.746735
975.248595	2541.966539
975.546563	2543.809081
975.844493	2543.375541
976.142386	2541.399409
976.440243	2542.329502
976.738062	2541.570808
977.035845	2541.182639
977.333590	2542.548792
977.631299	2541.396888
977.928971	2540.421425
978.226606	2539.272042
978.524204	2541.422094
978.821765	2537.348842
979.119290	2543.136087
979.416777	2540.973432
979.714228	2541.815304
980.011642	2543.050387
980.309020	2542.793288
980.606360	2543.294883
980.903664	2541.472506
981.200931	2540.998637
981.498162	2544.464431
981.795356	2543.093237
982.092513	2542.548792
982.389633	2547.234545
982.686717	2549.041798
982.983764	2549.858465
983.280775	2550.496171
983.577749	2548.373845
983.874686	2551.728733
984.171587	2550.695297
984.468451	2549.634134
984.765279	2547.395862
985.062070	2547.486602
985.358824	2544.832435
985.655543	2544.655994
985.952224	2543.695655
986.248869	2544.305634
986.545478	2539.829090
986.842050	2542.127856
987.138586	2540.658359
987.435086	2542.586601
987.731549	2541.432177
988.027975	2541.457382
988.324366	2538.047042
988.620719	2539.962680
988.917037	2540.376055
989.213318	2541.870757
989.509563	2538.155427
989.805772	2540.716333
990.101944	2541.137269
990.398080	2541.190201
990.694180	2541.207845
990.990244	2540.943185
991.286271	2538.334388
991.582262	2541.283463
991.878217	2538.536034
992.174136	2539.619882
992.470019	2538.891435
992.765865	2537.492515
993.061676	2535.108049
993.357450	2538.896476
993.653188	2534.891279
993.948890	2539.274563
994.244556	2542.460572
994.540186	2540.088709
994.835780	2539.085519
995.131337	2543.849410
995.426859	2539.690458
995.722345	2542.100129
996.017795	2540.623071
996.313208	2544.237579
996.608586	2543.123484
996.903928	2544.401416
997.199234	2543.002496
997.494504	2544.126673
997.789738	2543.128525
998.084936	2544.769420
998.380099	2543.158772
998.675225	2544.103988
998.970316	2541.691796
999.265371	2540.363452
999.560390	2542.556354
999.855373	2540.101312
1000.150320	2540.403781
1000.445232	2539.710623
1000.740108	2540.333205
1001.034948	2539.526620
1001.329752	2540.224820
1001.624521	2538.193235
1001.919254	2541.356559
1002.213951	2538.392361
1002.508613	2541.326312
1002.803239	2540.434028
1003.097829	2538.074768
1003.392384	2539.856816
1003.686903	2536.753986
1003.981386	2540.711292
1004.275834	2537.820190
1004.570246	2540.134079
1004.864623	2539.677855
1005.158964	2536.741383
1005.453270	2540.053421
1005.747540	2538.329346
1006.041775	2540.060983
1006.335974	2538.359593
1006.630138	2539.536703
1006.924266	2539.806404
1007.218359	2539.778678
1007.512416	2535.367668
1007.806438	2536.431352
1008.100425	2537.779861
1008.394376	2535.377751
1008.688292	2541.167516
1008.982172	2538.858668
1009.276017	2537.923533
1009.569827	2537.237937
1009.863602	2538.853626
1010.157341	2540.469316
1010.451045	2540.504604
1010.744714	2540.373534
1011.038347	2539.186342
1011.331945	2541.729605
1011.625508	2538.674665
1011.919036	2539.259439
1012.212528	2538.934285
1012.505986	2540.093750
1012.799408	2539.511497
1013.092795	2535.531506
1013.386147	2539.075437
1013.679464	2539.791281
1013.972745	2537.666435
1014.265992	2541.631302
1014.559204	2537.946219
1014.852380	2541.099460
1015.145521	2542.332023
1015.438628	2537.474871
1015.731699	2540.681045
1016.024736	2537.779861
1016.317737	2541.422094
1016.610703	2536.920344
1016.903635	2538.084850
1017.196531	2538.737680
1017.489393	2535.728111
1017.782219	2539.440921
1018.075011	2538.402443
1018.367768	2539.544264
1018.660490	2537.855478
1018.953177	2537.855478
1019.245829	2537.855478
