Dividing Wavelength (nm)	Counts (n)	Blue Motor Position (mm): 11.500000	Red Motor Position (mm): 0.000000	
326.493990	2102.234251
326.888308	2102.234251
327.282561	2102.234251
327.676750	2079.392783
328.070874	2081.900757
328.464933	2090.687488
328.858929	2097.377099
329.252859	2112.714809
329.646726	2123.439864
330.040528	2141.709006
330.434265	2161.757675
330.827938	2180.046981
331.221547	2198.235464
331.615091	2222.904350
332.008571	2242.892525
332.401986	2262.137130
332.795338	2280.776796
333.188625	2301.327060
333.581847	2319.976809
333.975006	2337.835096
334.368100	2356.933508
334.761129	2374.113760
335.154095	2388.171017
335.546996	2420.663774
335.939833	2472.330560
336.332606	2484.416727
336.725315	2494.851915
337.117960	2504.316681
337.510540	2510.683659
337.903056	2518.673888
338.295508	2523.894002
338.687896	2537.036290
339.080220	2541.364121
339.472480	2544.814791
339.864676	2548.681356
340.256807	2554.990360
340.648875	2554.148487
341.040879	2557.079918
341.432818	2555.411296
341.824694	2557.591595
342.216506	2554.587067
342.608253	2555.630586
342.999937	2555.575134
343.391557	2551.096068
343.783113	2551.277550
344.174605	2552.189999
344.566033	2547.748742
344.957397	2547.501726
345.348697	2547.388300
345.739934	2545.404606
346.131106	2542.453010
346.522215	2540.774306
346.913260	2536.675848
347.304241	2539.352701
347.695159	2537.308513
348.086012	2535.539068
348.476802	2532.892462
348.867528	2533.850281
349.258191	2528.811648
349.648789	2531.964890
350.039324	2527.122861
350.429796	2527.957172
350.820203	2524.637573
351.210548	2525.822244
351.600828	2525.522295
351.991045	2526.825433
352.381198	2525.590351
352.771288	2523.573889
353.161314	2524.347706
353.551276	2522.331245
353.941175	2522.853004
354.331010	2524.191430
354.720782	2525.978519
355.110490	2527.750485
355.500135	2525.141688
355.889717	2523.833508
356.279235	2524.874507
356.668689	2527.485824
357.058080	2527.339631
357.447408	2523.989784
357.836672	2524.718231
358.225873	2523.505833
358.615010	2525.050947
359.004084	2528.433561
359.393095	2532.965559
359.782043	2528.582275
360.170927	2527.110258
360.559748	2529.499765
360.948505	2530.729807
361.337199	2532.915147
361.725830	2532.642925
362.114398	2535.597041
362.502903	2533.366330
362.891344	2531.985054
363.279722	2533.600744
363.668037	2534.997144
364.056289	2534.709798
364.444478	2533.570497
364.832603	2535.677699
365.220665	2536.703574
365.608665	2534.493028
365.996601	2534.966897
366.384474	2536.532175
366.772284	2537.668955
367.160031	2536.282638
367.547715	2538.846065
367.935336	2536.504449
368.322893	2538.314223
368.710388	2536.111239
369.097820	2539.579553
369.485189	2538.765406
369.872495	2536.701054
370.259738	2537.845396
370.646918	2540.764224
371.034035	2539.715664
371.421090	2542.841179
371.808081	2538.699871
372.195010	2540.643236
372.581875	2540.058462
372.968678	2542.465613
373.355418	2538.755324
373.742096	2541.621220
374.128710	2543.171375
374.515262	2542.389996
374.901751	2543.695655
375.288177	2542.117773
375.674540	2541.391847
376.060841	2545.989380
376.447079	2545.369318
376.833254	2542.495860
377.219367	2538.057124
377.605417	2543.499050
377.991404	2540.219779
378.377329	2541.936292
378.763191	2540.272711
379.148991	2543.365459
379.534727	2545.394523
379.920402	2544.411498
380.306013	2547.554658
380.691563	2547.794113
381.077049	2546.286808
381.462474	2547.461397
381.847835	2545.497867
382.233134	2546.362425
382.618371	2547.103475
383.003545	2548.424257
383.388657	2544.595501
383.773706	2551.101110
384.158693	2548.933413
384.543618	2549.619010
384.928480	2547.300080
385.313280	2550.990204
385.698017	2548.038609
386.082692	2547.325285
386.467305	2549.445091
386.851856	2549.571119
387.236344	2550.637323
387.620770	2552.467262
388.005133	2550.692776
388.389435	2549.866027
388.773674	2550.702858
389.157851	2546.836293
389.541965	2551.408620
389.926018	2552.772252
390.310008	2549.535831
390.693936	2552.159752
391.077802	2551.968188
391.461606	2552.580688
391.845348	2554.496327
392.229027	2552.300904
392.612645	2555.249979
392.996200	2552.232849
393.379694	2551.776624
393.763125	2555.123950
394.146494	2553.145297
394.529801	2553.818292
394.913047	2553.815771
395.296230	2556.081770
395.679351	2554.554300
396.062410	2555.554969
396.445408	2557.228632
396.828343	2557.679815
397.211217	2554.161090
397.594028	2551.262427
397.976778	2553.233518
398.359466	2557.384908
398.742092	2551.426264
399.124656	2556.132181
399.507158	2557.894064
399.889598	2554.937428
400.271977	2555.887685
400.654294	2558.551935
401.036549	2559.214847
401.418742	2556.676626
401.800874	2558.592264
402.182944	2557.820968
402.564952	2557.770556
402.946898	2556.283416
403.328783	2559.789538
403.710606	2559.648386
404.092367	2558.491441
404.474067	2562.131154
404.855705	2561.115362
405.237282	2557.624363
405.618797	2558.856925
406.000250	2560.228119
406.381642	2561.153170
406.762972	2561.306926
407.144240	2560.202913
407.525447	2563.487225
407.906593	2559.348437
408.287677	2563.192317
408.668700	2562.783984
409.049661	2560.202913
409.430560	2563.177194
409.811399	2562.128634
410.192176	2559.575289
410.572891	2561.664847
410.953545	2564.087122
411.334138	2564.873542
411.714669	2562.002605
412.095139	2567.593244
412.475547	2562.075702
412.855894	2560.717111
413.236180	2561.460681
413.616405	2565.276834
413.996568	2565.133161
414.376670	2564.636608
414.756711	2564.888665
415.136691	2562.675599
415.516609	2563.431772
415.896466	2563.275496
416.276262	2566.600137
416.655997	2563.467060
417.035670	2561.599312
417.415283	2563.348593
417.794834	2561.218705
418.174324	2562.080743
418.553753	2562.330280
418.933121	2565.120558
419.312428	2563.908161
419.691674	2566.839592
420.070859	2563.940928
420.449983	2564.850857
420.829045	2565.352452
421.208047	2568.230950
421.586988	2565.990158
421.965867	2567.787329
422.344686	2566.547205
422.723444	2569.748338
423.102141	2567.051320
423.480777	2568.419994
423.859352	2566.375806
424.237866	2566.975703
424.616319	2568.157854
424.994712	2569.692885
425.373044	2567.507545
425.751314	2567.177349
426.129524	2567.026115
426.507673	2567.023594
426.885762	2566.829510
427.263789	2570.171795
427.641756	2569.881928
428.019662	2566.998388
428.397508	2570.948132
428.775292	2572.465520
429.153016	2569.738255
429.530679	2571.270766
429.908282	2567.953687
430.285824	2569.788667
430.663305	2569.496280
431.040726	2568.661969
431.418086	2568.619119
431.795385	2568.908986
432.172624	2571.270766
432.549802	2568.054510
432.926920	2567.983934
433.303977	2568.120045
433.680974	2571.167423
434.057910	2570.149109
434.434786	2571.477453
434.811601	2568.830848
435.188355	2569.949984
435.565050	2570.696075
435.941683	2570.711198
436.318257	2571.096846
436.694770	2565.554098
437.071222	2566.252297
437.447614	2564.175342
437.823946	2566.869839
438.200218	2569.002247
438.576429	2572.137845
438.952580	2568.649366
439.328670	2572.150448
439.704700	2570.948132
440.080670	2571.167422
440.456580	2570.728842
440.832429	2569.405539
441.208218	2572.422670
441.583947	2572.515931
441.959616	2573.607341
442.335224	2571.999213
442.710773	2572.077351
443.086261	2574.792012
443.461689	2573.284707
443.837057	2575.112125
444.212365	2574.759245
444.587612	2573.597259
444.962800	2571.941240
445.337927	2572.236147
445.712995	2572.712536
446.088002	2575.757393
446.462949	2573.420818
446.837837	2575.230592
447.212664	2574.406364
447.587431	2572.573904
447.962139	2575.107084
448.336786	2575.396951
448.711374	2574.371076
449.085901	2575.621282
449.460369	2574.119018
449.834776	2575.018864
450.209124	2575.845613
450.583412	2575.591035
450.957640	2574.875191
451.331808	2577.874678
451.705917	2576.024574
452.079965	2576.422825
452.453954	2577.846951
452.827883	2576.513566
453.201752	2577.552044
453.575562	2579.903742
453.949311	2579.656726
454.323001	2578.454410
454.696632	2578.661098
455.070202	2581.960533
455.443713	2578.943402
455.817164	2576.770665
456.190556	2574.600448
456.563888	2575.654049
456.937160	2573.319995
457.310373	2579.916345
457.683526	2578.618248
458.056619	2578.482137
458.429653	2579.843248
458.802628	2580.712847
459.175542	2579.339133
459.548398	2584.385328
459.921194	2580.279308
460.293930	2585.123857
460.666607	2584.037488
461.039224	2586.747108
461.411782	2586.328693
461.784280	2584.871799
462.156719	2586.452201
462.529099	2583.329206
462.901419	2583.321644
463.273680	2584.171079
463.645882	2586.812643
464.018024	2584.327355
464.390106	2589.570155
464.762130	2585.514546
465.134094	2586.658888
465.505999	2591.579054
465.877845	2593.209868
466.249631	2597.842688
466.621358	2595.143150
466.993026	2595.233891
467.364634	2594.893613
467.736184	2593.719024
468.107674	2594.611308
468.479105	2592.496544
468.850477	2589.232397
469.221790	2592.705752
469.593043	2589.902871
469.964238	2589.436564
470.335373	2590.086873
470.706449	2593.381267
471.077467	2590.515371
471.448425	2599.155909
471.819324	2597.267997
472.190164	2595.299426
472.560945	2596.537029
472.931667	2593.943356
473.302330	2594.840681
473.672934	2591.936976
474.043479	2593.575351
474.413965	2591.926894
474.784393	2586.116964
475.154761	2593.817327
475.525070	2588.521595
475.895321	2591.321956
476.265513	2592.143664
476.635645	2595.188521
477.005719	2591.153077
477.375734	2596.854622
477.745691	2596.791607
478.115588	2596.111052
478.485427	2597.235229
478.855207	2601.099273
479.224928	2600.600199
479.594591	2601.174891
479.964194	2600.690940
480.333739	2604.718822
480.703226	2599.841506
481.072653	2602.523399
481.442022	2606.175715
481.811333	2604.560026
482.180584	2605.671600
482.549777	2606.185798
482.918912	2604.151692
483.287988	2604.149172
483.657005	2604.696137
484.025964	2603.007350
484.394864	2605.091867
484.763706	2604.035746
485.132489	2601.792432
485.501213	2601.863008
485.869879	2603.392998
486.238487	2601.883173
486.607036	2603.385437
486.975527	2605.563215
487.343959	2604.121445
487.712333	2608.557661
488.080648	2602.399891
488.448905	2603.392998
488.817104	2605.129676
489.185244	2608.648401
489.553326	2610.627054
489.921350	2613.334154
490.289315	2617.425050
490.657222	2618.420678
491.025070	2618.052674
491.392861	2619.822119
491.760593	2618.231635
492.128267	2618.309773
492.495883	2618.713065
492.863440	2615.960595
493.230939	2615.537138
493.598380	2615.211984
493.965763	2613.931531
494.333088	2615.219545
494.700354	2613.066973
495.067563	2616.381531
495.434713	2615.698455
495.801805	2620.094341
496.168839	2622.909826
496.535815	2624.951493
496.902733	2623.129116
497.269593	2623.610546
497.636395	2625.654734
498.003139	2626.594909
498.369825	2625.997532
498.736453	2632.112452
499.103023	2630.277472
499.469535	2636.813328
499.835989	2636.304171
500.202385	2635.510190
500.568723	2637.718215
500.935003	2642.832466
501.301226	2640.127887
501.667390	2642.494708
502.033497	2648.821356
502.399546	2648.183650
502.765537	2649.849752
503.131470	2651.011738
503.497345	2657.383756
503.863163	2658.669250
504.228923	2658.497851
504.594625	2660.874755
504.960269	2661.734272
505.325856	2667.995385
505.691385	2663.843995
506.056856	2671.224244
506.422270	2675.680624
506.787625	2676.177178
507.152924	2678.730522
507.518164	2680.812519
507.883347	2680.252951
508.248472	2687.731502
508.613540	2687.113961
508.978550	2689.742923
509.343503	2693.382636
509.708398	2695.099149
510.073236	2701.670293
510.438016	2702.038297
510.802738	2702.587783
511.167403	2707.263453
511.532010	2713.108671
511.896561	2715.939279
512.261053	2722.701987
512.625488	2718.258209
512.989866	2719.843652
513.354186	2722.923797
513.718449	2724.037892
514.082655	2729.353789
514.446803	2737.217989
514.810894	2742.909452
515.174927	2743.718557
515.538904	2744.777199
515.902822	2751.963364
516.266684	2749.105030
516.630488	2752.596029
516.994235	2755.250196
517.357925	2760.818151
517.721558	2765.566918
518.085133	2770.996240
518.448651	2774.973711
518.812112	2773.968001
519.175516	2778.469751
519.538863	2777.842127
519.902152	2786.928807
520.265385	2791.062553
520.628560	2792.121196
520.991678	2793.300826
521.354739	2797.326187
521.717743	2801.064202
522.080690	2805.006385
522.443580	2807.809266
522.806413	2810.516366
523.169189	2816.601039
523.531908	2821.143118
523.894569	2820.107161
524.257174	2823.260403
524.619722	2826.877431
524.982213	2829.483707
525.344647	2835.979234
525.707025	2834.328256
526.069345	2838.913186
526.431608	2842.121880
526.793815	2845.113805
527.155964	2848.753518
527.518057	2851.206039
527.880093	2851.241327
528.242072	2857.008407
528.603995	2858.704756
528.965860	2859.256762
529.327669	2861.210209
529.689421	2864.701208
530.051117	2866.102649
530.412755	2869.805376
530.774337	2870.427959
531.135862	2875.433825
531.497331	2874.934750
531.858743	2876.111860
532.220098	2881.175699
532.581396	2882.246944
532.942638	2880.530431
533.303824	2889.080228
533.664953	2892.891340
534.026025	2892.223388
534.387040	2898.590365
534.747999	2896.165570
535.108902	2901.950294
535.469748	2898.381157
535.830537	2902.865263
536.191270	2907.578742
536.551947	2908.778537
536.912567	2912.728281
537.273131	2916.632654
537.633638	2911.893970
537.994089	2921.399065
538.354483	2920.864703
538.714821	2928.048347
539.075103	2932.832402
539.435328	2933.903648
539.795497	2935.783998
540.155609	2938.554112
540.515665	2946.340174
540.875665	2944.600976
541.235609	2949.337140
541.595496	2953.296966
541.955328	2962.849953
542.315102	2960.122689
542.674821	2959.467339
543.034483	2965.274748
543.394090	2971.127528
543.753640	2973.575008
544.113134	2983.317038
544.472571	2979.324444
544.831953	2996.247597
545.191278	2991.839108
545.550548	2993.290960
545.909761	3005.102384
546.268918	3009.626819
546.628019	3015.207377
546.987064	3019.661236
547.346053	3017.803571
547.704986	3030.598019
548.063863	3030.953421
548.422684	3039.200748
548.781449	3043.485729
549.140158	3053.431926
549.498811	3060.424006
549.857408	3056.486865
550.215949	3070.055131
550.574434	3074.745924
550.932864	3082.000145
551.291237	3095.122268
551.649555	3102.958742
552.007817	3109.812190
552.366022	3116.068262
552.724173	3123.355250
553.082267	3138.332518
553.440305	3150.280053
553.798288	3149.821308
554.156215	3160.901764
554.514086	3173.696212
554.871902	3178.558405
555.229661	3191.554500
555.587365	3194.599357
555.945014	3207.892880
556.302606	3216.944271
556.660143	3231.140161
557.017625	3241.784557
557.375050	3250.777975
557.732421	3264.469749
558.089735	3274.186573
558.446994	3285.561937
558.804197	3302.782518
559.161345	3317.343891
559.518437	3316.839776
559.875474	3329.581292
560.232455	3342.607634
560.589381	3361.854759
560.946251	3368.733414
561.303065	3394.528998
561.659825	3405.309505
562.016528	3409.155906
562.373177	3417.070517
562.729770	3442.263684
563.086307	3450.213583
563.442789	3471.618323
563.799216	3490.131960
564.155587	3504.254752
564.511904	3520.502391
564.868164	3535.482180
565.224370	3561.794482
565.580520	3573.368972
565.936615	3597.737909
566.292654	3609.259467
566.648638	3636.148981
567.004567	3656.358967
567.360441	3679.681865
567.716260	3697.782128
568.072023	3726.811612
568.427732	3748.322216
568.783385	3757.870161
569.138982	3798.622849
569.494525	3819.773010
569.850013	3840.489632
570.205445	3870.998695
570.560823	3898.871234
570.916145	3925.861572
571.271412	3956.985656
571.626625	3976.842761
571.981782	4009.164119
572.336884	4033.553221
572.691931	4077.174325
573.046923	4096.607973
573.401860	4123.436994
573.756743	4154.291376
574.111570	4195.124723
574.466342	4226.853745
574.821059	4266.683901
575.175722	4278.888535
575.530330	4321.019978
575.884882	4350.467878
576.239380	4382.048187
576.593823	4423.196605
576.948211	4455.507880
577.302544	4482.420080
577.656823	4522.625803
578.011047	4576.752672
578.365216	4609.462198
578.719330	4649.083147
579.073389	4688.762069
579.427394	4739.571858
579.781344	4786.043735
580.135239	4820.621009
580.489080	4872.711252
580.842866	4899.865427
581.196597	4979.903827
581.550273	5029.919635
581.903895	5077.402263
582.257463	5165.521632
582.610975	5185.623233
582.964434	5264.144245
583.317837	5300.725378
583.671186	5353.564232
584.024481	5423.754738
584.377721	5449.056289
584.730906	5527.118556
585.084037	5592.436787
585.437113	5630.613445
585.790135	5690.978742
586.143103	5718.538730
586.496016	5795.028157
586.848874	5863.300503
587.201679	5934.998314
587.554428	5960.637622
587.907124	6049.351848
588.259765	6096.839517
588.612352	6196.629158
588.964884	6211.455191
589.317362	6311.040665
589.669786	6376.996601
590.022155	6422.699702
590.374470	6532.410333
590.726731	6556.683489
591.078937	6582.395894
591.431090	6656.011863
591.783188	6690.460588
592.135232	6728.705302
592.487222	6825.568553
592.839157	6904.641571
593.191038	6937.857734
593.542866	6988.871690
593.894639	6997.542475
594.246358	7100.901252
594.598022	7174.544948
594.949633	7201.946140
595.301190	7258.845643
595.652692	7323.679923
596.004141	7434.487005
596.355535	7384.695528
596.706876	7449.101310
597.058162	7502.676173
597.409395	7633.068137
597.760573	7723.082980
598.111698	7746.506702
598.462768	7821.461098
598.813785	7915.037516
599.164748	7915.052639
599.515657	8043.902011
599.866511	8052.940800
600.217312	8224.297181
600.568060	8149.652816
600.918753	8346.613217
601.269392	8424.030217
601.619978	8453.866286
601.970510	8568.305519
602.320988	8680.269546
602.671412	8818.535793
603.021783	8861.909881
603.372100	8887.939879
603.722363	8989.952668
604.072572	9090.649716
604.422728	9185.579684
604.772830	9238.592458
605.122878	9335.485956
605.472872	9418.286908
605.822813	9551.751456
606.172701	9623.552610
606.522534	9753.359801
606.872314	9901.053006
607.222041	9946.730901
607.571714	10120.587694
607.921333	10105.396177
608.270899	10255.534341
608.620411	10429.320558
608.969870	10479.548095
609.319276	10581.316388
609.668627	10694.497854
610.017926	10898.926724
610.367171	11040.920905
610.716362	11156.811991
611.065500	11256.135324
611.414585	11401.232335
611.763616	11583.459964
612.112594	11673.265599
612.461518	11832.868530
612.810389	12018.975327
613.159207	12108.722989
613.507971	12233.673028
613.856682	12467.312865
614.205340	12561.221999
614.553945	12859.983462
614.902496	12838.926562
615.250994	13084.148450
615.599439	13220.410838
615.947830	13410.530394
616.296169	13560.136716
616.644454	13721.937590
616.992686	13895.257501
617.340864	14169.975179
617.688990	14236.415067
618.037063	14536.789698
618.385082	14672.691644
618.733048	14881.962543
619.080961	15020.012020
619.428821	15156.476055
619.776628	15308.245033
620.124382	15372.058479
620.472083	15522.811664
620.819731	15687.216294
621.167326	15686.011458
621.514868	15793.811492
621.862357	15756.348157
622.209793	15872.216558
622.557176	15871.578852
622.904506	15895.239507
623.251783	15875.702515
623.599007	15911.809780
623.946179	15942.091991
624.293297	16046.121242
624.640363	15956.975998
624.987376	16060.541462
625.334336	16097.178048
625.681243	16081.759679
626.028097	16180.997313
626.374899	16253.080772
626.721647	16355.864857
627.068343	16447.913806
627.414987	16470.490614
627.761577	16508.354720
628.108115	16751.592914
628.454600	16658.374418
628.801032	16844.955083
629.147412	16953.266794
629.493739	17066.657467
629.840014	17052.595169
630.186236	17302.144887
630.532405	17258.982528
630.878521	17475.343810
631.224585	17545.370478
631.570597	17550.888021
631.916556	17732.971977
632.262462	17835.710693
632.608316	17955.458261
632.954117	18022.049383
633.299866	18115.683774
633.645562	18198.754428
633.991206	18100.716588
634.336797	18000.929469
634.682336	18099.060569
635.027823	18100.943440
635.373257	18117.700236
635.718639	18117.065050
636.063968	18155.045103
636.409245	17987.434300
636.754470	18113.720245
637.099642	18112.346530
637.444762	17989.206265
637.789829	18163.932658
638.134845	18107.512064
638.479808	18179.487138
638.824719	18226.251402
639.169577	18141.895254
639.514383	18272.660264
639.859137	18220.040700
640.203839	18445.544114
640.548489	18362.057566
640.893086	18485.853181
641.237632	18474.649216
641.582125	18614.274054
641.926566	18673.928548
642.270955	18765.256612
642.615292	18865.157158
642.959576	18931.198794
643.303809	19041.514363
643.647990	19210.390497
643.992118	19288.873700
644.336195	19376.010044
644.680219	19516.761580
645.024192	19770.934037
645.368112	20131.129520
645.711981	20243.131356
646.055797	20805.237654
646.399562	20863.636900
646.743274	21464.035803
647.086935	21801.450312
647.430544	21833.408707
647.774101	21982.566367
648.117606	22211.018856
648.461059	22477.569866
648.804460	22328.608811
649.147810	22096.574582
649.491108	22041.240357
649.834354	21928.757091
650.177548	21543.587731
650.520690	21395.917212
650.863781	21491.651244
651.206820	21494.562510
651.549807	21326.429947
651.892742	21151.476703
652.235626	21137.860546
652.578458	21137.416925
652.921238	20869.439268
653.263967	21156.502733
653.606644	21046.822349
653.949269	21095.053588
654.291843	20929.552508
654.634365	21241.350393
654.976836	21099.613312
655.319255	21182.073986
655.661622	21242.323336
656.003938	21218.929862
656.346203	21198.987057
656.688416	21400.958365
657.030577	21359.552848
657.372687	21332.991009
657.714746	21573.322977
658.056753	21729.177810
658.398708	21459.680246
658.740612	21578.275911
659.082465	21814.816932
659.424266	21785.550513
659.766016	21942.625305
660.107715	21940.170263
660.449362	22073.100449
660.790958	22130.085652
661.132503	22228.105847
661.473996	22319.010454
661.815438	22451.275208
662.156829	22650.126042
662.498168	22570.891706
662.839456	22667.029030
663.180693	22833.573630
663.521879	23011.579293
663.863013	23059.729874
664.204097	23116.952011
664.545129	23501.828984
664.886110	23535.120764
665.227040	23661.479806
665.567918	23802.400220
665.908746	23906.069028
666.249522	24078.947838
666.590248	24162.704088
666.930922	24295.422546
667.271545	24337.238917
667.612118	24446.586585
667.952639	24376.824577
668.293109	24478.673529
668.633528	24470.874864
668.973896	24490.381609
669.314213	24592.817855
669.654480	24470.022909
669.994695	24566.616458
670.334859	24551.994591
670.674973	24543.512850
671.015035	24728.790377
671.355047	24759.591827
671.695008	24771.373004
672.034918	24773.523056
672.374777	24898.934361
672.714585	24829.726880
673.054342	25050.262237
673.394049	24934.761841
673.733705	25185.544122
674.073310	25014.369222
674.412864	25125.529185
674.752368	24907.320320
675.091820	25188.442785
675.431223	24942.603356
675.770574	24806.167048
676.109875	24770.233703
676.449125	24620.219047
676.788324	24624.108297
677.127473	24277.123157
677.466571	24299.755417
677.805619	24096.876702
678.144616	24158.449355
678.483562	24167.251209
678.822458	23973.456653
679.161303	23966.905673
679.500098	23956.478046
679.838842	23933.387041
680.177535	24107.127888
680.516179	24373.943558
680.854771	24617.809375
681.193314	25315.905839
681.531805	26211.247530
681.870247	26812.208521
682.208638	27398.714004
682.546978	27595.903777
682.885268	27732.398059
683.223508	27356.086007
683.561697	27159.846490
683.899836	27052.220376
684.237925	26709.099281
684.575963	26640.078323
684.913951	26331.405953
685.251889	26484.062173
685.589776	26525.054316
685.927614	26566.404380
686.265401	26699.803393
686.603137	26809.244323
686.940824	27237.507986
687.278460	27551.203866
687.616046	27676.113576
687.953582	28167.716817
688.291068	28074.634432
688.628504	28329.868051
688.965889	28309.617736
689.303224	28044.548826
689.640510	27831.353388
689.977745	27295.713148
690.314930	26711.312348
690.652065	26374.706943
690.989150	25857.693767
691.326185	25182.262330
691.663170	24684.065260
692.000105	24134.957578
692.336990	23645.063288
692.673825	23329.103930
693.010610	22967.925421
693.347345	22548.269528
693.684030	22046.387375
694.020665	21863.116227
694.357251	21358.990760
694.693786	21350.405675
695.030272	21199.380267
695.366707	20784.364756
695.703093	20577.044784
696.039429	20596.790983
696.375716	20414.694424
696.711952	20405.814432
697.048139	20300.101435
697.384276	20176.973773
697.720363	20297.558173
698.056400	20155.546349
698.392388	19999.235292
698.728326	19995.018366
699.064214	19846.700058
699.400053	19824.329938
699.735842	19552.523526
700.071581	19358.232415
700.407270	19139.537079
700.742910	19008.709055
701.078501	18817.961875
701.414042	18606.944217
701.749533	18378.907622
702.084974	18104.124408
702.420366	18309.992529
702.755709	17950.016335
703.091002	17725.894197
703.426246	17767.536648
703.761440	17709.712093
704.096584	17500.715937
704.431679	17471.547821
704.766725	17416.137978
705.101721	17384.386271
705.436668	17479.444788
705.771565	17216.732618
706.106413	17544.304274
706.441212	17559.558805
706.775961	17692.511676
707.110661	17759.135566
707.445311	18094.858768
707.779913	17954.540771
708.114465	18187.071554
708.448967	18444.971943
708.783421	19057.915757
709.117825	19303.329209
709.452180	19499.798098
709.786485	19858.120793
710.120742	20531.172804
710.454949	20535.596417
710.789107	20928.403124
711.123216	21537.374509
711.457275	21631.344137
711.791286	22082.761820
712.125247	22142.600316
712.459159	21882.363352
712.793023	22469.100728
713.126837	21526.616687
713.460602	21782.082199
713.794318	21477.220941
714.127985	21176.702637
714.461602	20426.228584
714.795171	20424.587688
715.128691	19582.276416
715.462162	19124.481673
715.795584	18787.049520
716.128957	18594.212782
716.462281	18255.923633
716.795556	18063.512873
717.128782	17629.895504
717.461960	17158.131725
717.795088	17117.028677
718.128167	16767.432219
718.461198	16378.378651
718.794180	16269.736744
719.127113	15976.334028
719.459997	15814.245809
719.792833	15515.996024
720.125619	15503.257028
720.458357	15234.366923
720.791046	15089.637917
721.123686	14953.320076
721.456278	14759.764974
721.788821	14739.002982
722.121315	14505.935316
722.453761	14585.565382
722.786158	14526.271330
723.118506	14535.219378
723.450805	14431.817751
723.783056	14581.787037
724.115259	14490.307739
724.447412	14437.622640
724.779518	14652.627852
725.111574	14682.000134
725.443582	14869.047107
725.775542	14864.605850
726.107453	15281.451300
726.439315	15192.031313
726.771129	15547.399892
727.102895	15873.164294
727.434612	16049.632405
727.766281	16162.589540
728.097901	16386.605814
728.429473	16417.840803
728.760996	16417.558498
729.092471	16506.197106
729.423897	16400.655509
729.755276	16317.179043
730.086606	16427.915549
730.417887	16909.562511
730.749120	17382.243781
731.080305	17548.536323
731.411442	17855.867746
731.742530	17923.169671
732.073570	18028.227317
732.404562	18293.427297
732.735506	18122.789281
733.066401	17848.671499
733.397249	17372.756329
733.728048	16807.179197
734.058798	16088.933241
734.389501	15487.818494
734.720156	15081.872019
735.050762	14626.527278
735.381320	14312.899453
735.711831	14102.953039
736.042293	13796.445844
736.372707	13816.859997
736.703073	13623.355306
737.033391	13809.363801
737.363661	13777.203760
737.693883	13875.672618
738.024056	14031.391340
738.354182	14190.573334
738.684260	14447.644454
739.014290	14644.289783
739.344272	14812.568540
739.674207	15065.097580
740.004093	15160.060315
740.333931	15157.806920
740.663722	15195.474421
740.993464	15187.000242
741.323159	15028.639955
741.652806	14781.343633
741.982405	14604.230254
742.311956	14295.570486
742.641460	14209.245768
742.970915	13936.907514
743.300323	13640.767452
743.629683	13451.406590
743.958996	13197.118187
744.288260	12952.229015
744.617477	12667.010613
744.946647	12616.029424
745.275768	12367.901311
745.604842	12211.116385
745.933869	12054.278528
746.262847	12016.900892
746.591778	11956.071809
746.920662	11870.725075
747.249498	11875.083152
747.578286	11978.794810
747.907027	12110.134512
748.235720	12316.501707
748.564365	12338.352588
748.892963	12248.395718
749.221514	12304.183647
749.550017	12178.979030
749.878473	12141.303966
750.206881	11945.281220
750.535242	11864.670649
750.863555	11792.264556
751.191821	11711.200282
751.520039	11726.669062
751.848210	11650.930767
752.176334	11675.614777
752.504411	11586.308216
752.832440	11442.272368
753.160421	11497.546100
753.488356	11383.404294
753.816243	11304.376646
754.144082	11171.070894
754.471875	11110.133427
754.799620	11065.592312
755.127318	11040.026100
755.454969	11009.234732
755.782572	10968.287960
756.110129	10979.922943
756.437638	10902.485779
756.765100	10902.531149
757.092515	10907.592468
757.419882	10918.763665
757.747203	10924.460169
758.074477	10991.540282
758.401703	10954.578542
758.728882	11108.444640
759.056014	11144.246915
759.383099	11259.462486
759.710138	11353.525375
760.037129	11428.537745
760.364073	11438.569641
760.690970	11435.880185
761.017820	11438.070567
761.344623	11626.024947
761.671379	11950.579472
761.998088	12588.517327
762.324751	14145.190347
762.651366	16896.516005
762.977935	20306.019750
763.304456	22257.533583
763.630931	22583.040887
763.957359	21437.718459
764.283740	19638.298758
764.610074	17866.544910
764.936362	15889.958898
765.262602	14477.016737
765.588796	13118.093059
765.914943	12154.950370
766.241044	11378.065712
766.567097	10795.157093
766.893104	10282.058372
767.219064	9947.048493
767.544978	9596.148898
767.870845	9306.794229
768.196665	9131.137743
768.522438	8946.041698
768.848165	8793.080487
769.173846	8637.477712
769.499479	8527.731793
769.825066	8383.610245
770.150607	8204.830765
770.476101	8149.879668
770.801548	8048.144142
771.126949	7910.618945
771.452303	7832.972572
771.777611	7676.071700
772.102872	7661.838002
772.428087	7546.443470
772.753256	7432.725122
773.078378	7346.158428
773.403453	7215.411062
773.728482	7114.678726
774.053465	7055.157822
774.378401	6977.844166
774.703291	6889.180352
775.028135	6793.627802
775.352932	6760.434324
775.677683	6679.765780
776.002388	6596.687565
776.327046	6598.547751
776.651658	6518.373240
776.976224	6448.248269
777.300743	6433.616320
777.625216	6372.711620
777.949643	6327.290824
778.274024	6334.053532
778.598359	6270.731598
778.922647	6272.208657
779.246889	6237.570888
779.571086	6242.037351
779.895236	6252.578403
780.219339	6246.914667
780.543397	6247.431385
780.867409	6300.217307
781.191374	6294.379651
781.515294	6262.219610
781.839167	6309.984543
782.162995	6282.341376
782.486776	6239.884778
782.810511	6198.209559
783.134201	6126.471419
783.457844	6116.865501
783.781441	6074.126598
784.104993	6026.812849
784.428498	5999.946020
784.751958	5985.898844
785.075372	5965.590556
785.398739	5929.964722
785.722061	5949.965500
786.045337	5954.633608
786.368568	6065.067645
786.691752	6089.154278
787.014891	6334.885322
787.337983	6609.771880
787.661030	7031.159409
787.984031	7422.892351
788.306987	7666.039804
788.629897	7738.662666
788.952760	7646.338975
789.275579	7477.906463
789.598351	7187.992226
789.921078	6943.350071
790.243759	6675.957189
790.566395	6482.969217
790.888984	6299.098171
791.211529	6168.663357
791.534027	6013.698287
791.856480	5886.109204
792.178888	5824.828938
792.501249	5766.333909
792.823566	5664.210215
793.145836	5664.953785
793.468062	5644.615250
793.790241	5613.816320
794.112375	5650.747813
794.434464	5745.823975
794.756507	5774.369508
795.078505	5900.922635
795.400457	6104.181958
795.722364	6331.258212
796.044226	6521.057654
796.366042	6662.436814
796.687812	6607.773062
797.009538	6630.402802
797.331218	6543.626900
797.652852	6473.706096
797.974442	6358.515731
798.295986	6291.856554
798.617484	6171.037740
798.938938	6066.965639
799.260346	6001.970043
799.581709	5865.906780
799.903026	5821.249719
800.224299	5750.983596
800.545526	5643.218850
800.866708	5577.464560
801.187845	5532.479823
801.508936	5453.053924
801.829983	5429.153814
802.150984	5329.192774
802.471940	5300.160769
802.792851	5288.394716
803.113717	5265.361684
803.434538	5240.957458
803.755314	5209.808169
804.076045	5200.441705
804.396731	5166.885264
804.717372	5182.621226
805.037967	5183.458057
805.358518	5211.433941
805.679024	5263.693062
805.999485	5274.695380
806.319901	5291.668945
806.640272	5311.984795
806.960598	5354.663204
807.280879	5344.976627
807.601115	5379.077512
807.921306	5346.264642
808.241453	5334.397765
808.561554	5345.062326
808.881611	5316.794056
809.201623	5311.568900
809.521590	5263.075521
809.841513	5250.901134
810.161390	5263.458648
810.481223	5181.302964
810.801011	5170.565307
811.120755	5144.391636
811.440453	5093.589408
811.760107	5065.371549
812.079716	5040.483373
812.399281	4993.550230
812.718801	4987.747862
813.038276	4952.956339
813.357707	4918.190022
813.677093	4942.929484
813.996434	4885.241040
814.315731	4904.525974
814.634983	4905.214092
814.954191	4910.628291
815.273354	4967.338751
815.592473	5005.797714
815.911547	5078.413014
816.230577	5132.522239
816.549562	5213.145413
816.868502	5262.586529
817.187399	5313.550074
817.506250	5399.065687
817.825058	5427.512918
818.143821	5576.776442
818.462539	5744.578810
818.781213	5977.901054
819.099843	6338.267937
819.418429	6952.056144
819.736970	7551.608132
820.055466	8237.938543
820.373919	9142.596286
820.692327	10612.795873
821.010691	13379.476886
821.329011	19604.142421
821.647286	28805.281626
821.965517	38426.180069
822.283704	43151.127540
822.601847	44183.780179
822.919945	39691.348367
823.237999	34823.065769
823.556010	29931.790468
823.873976	25498.478788
824.191897	21592.068508
824.509775	18706.413744
824.827609	16127.528315
825.145398	14715.266709
825.463144	14067.357452
825.780845	14435.097022
826.098502	15740.549181
826.416116	18100.030992
826.733685	20191.948521
827.051210	20521.103099
827.368692	19035.268374
827.686129	16575.215544
828.003522	14228.132451
828.320872	12147.580203
828.638177	10606.864956
828.955439	9438.696019
829.272656	8425.686236
829.589830	7627.719473
829.906960	6941.638599
830.224046	6441.425068
830.541088	6060.195370
830.858086	5817.264687
831.175041	5624.667404
831.491952	5583.791208
831.808819	5627.576150
832.125642	5886.794801
832.442421	6455.081553
832.759157	7572.927172
833.075849	9296.323752
833.392497	11041.273786
833.709101	12017.334432
834.025662	11681.883452
834.342179	10635.037444
834.658653	9386.041167
834.975083	8346.081376
835.291469	7492.253587
835.607811	6798.104346
835.924110	6304.817360
836.240366	5836.143808
836.556578	5409.687398
836.872746	5074.523764
837.188871	4818.523889
837.504952	4604.854584
837.820990	4451.026295
838.136984	4339.944470
838.452935	4305.301660
838.768842	4342.964121
839.084706	4648.082478
839.400526	5393.689296
839.716303	6248.384163
840.032037	6738.832980
840.347727	6546.470111
840.663373	5957.832220
840.978977	5413.579169
841.294537	4999.977702
841.610054	4692.459755
841.925527	4465.373418
842.240957	4268.720528
842.556344	4098.241307
842.871687	3941.758851
843.186987	3799.109320
843.502244	3684.919624
843.817458	3603.351234
844.132629	3537.223899
844.447756	3493.552383
844.762840	3446.972121
845.077881	3408.644229
845.392879	3378.997203
845.707833	3354.580374
846.022745	3327.990808
846.337613	3317.474961
846.652438	3295.608957
846.967221	3285.781227
847.281960	3269.737755
847.596656	3257.785179
847.911309	3247.642378
848.225919	3231.039337
848.540485	3225.867114
848.855009	3218.781772
849.169490	3207.890359
849.483928	3198.286961
849.798323	3193.636497
850.112675	3186.208356
850.426984	3186.525949
850.741251	3179.218797
851.055474	3172.970286
851.369654	3176.834331
851.683792	3177.678724
851.997887	3175.856347
852.311938	3176.753672
852.625947	3178.127387
852.939914	3170.462312
853.253837	3178.810463
853.567718	3173.860050
853.881555	3173.880215
854.195350	3171.911644
854.509103	3169.317970
854.822812	3170.046417
855.136479	3161.975530
855.450103	3166.860408
855.763685	3162.940911
856.077224	3167.125068
856.390720	3172.040193
856.704173	3183.251720
857.017584	3188.489478
857.330953	3196.378884
857.644278	3200.457178
857.957561	3200.820141
858.270802	3200.071529
858.584000	3198.942311
858.897155	3194.390149
859.210268	3183.392872
859.523339	3168.637415
859.836367	3171.082374
860.149352	3165.698422
860.462295	3162.625839
860.775195	3149.102943
861.088054	3149.105464
861.400869	3149.450783
861.713642	3144.376862
862.026373	3154.401196
862.339062	3157.236845
862.651708	3167.818227
862.964312	3184.448994
863.276873	3192.802186
863.589392	3222.083728
863.901869	3246.034250
864.214303	3266.461005
864.526696	3285.496402
864.839045	3297.297743
865.151353	3312.978252
865.463619	3311.914569
865.775842	3312.640495
866.088023	3319.561999
866.400162	3312.736277
866.712258	3313.850372
867.024313	3310.949188
867.336325	3310.281235
867.648296	3309.144455
867.960224	3309.182263
868.272110	3311.949857
868.583954	3309.015905
868.895755	3315.110660
869.207515	3317.480003
869.519233	3335.701253
869.830909	3341.712829
870.142542	3348.410002
870.454134	3355.696990
870.765684	3369.565204
871.077191	3389.044223
871.388657	3400.091911
871.700081	3418.885333
872.011463	3438.860905
872.322803	3456.550314
872.634101	3474.239723
872.945357	3493.660768
873.256571	3521.896270
873.567744	3534.055533
873.878874	3538.257335
874.189963	3552.712844
874.501010	3553.279974
874.812015	3548.611865
875.122979	3565.335893
875.433900	3562.449832
875.744780	3566.011408
876.055618	3572.781677
876.366415	3571.085329
876.677169	3578.644539
876.987882	3594.652723
877.298554	3612.150568
877.609183	3650.430570
877.919771	3697.996377
878.230317	3765.774691
878.540822	3865.927294
878.851285	4018.969163
879.161707	4238.261876
879.472087	4616.368579
879.782425	5247.299230
880.092722	6437.162772
880.402977	8330.726021
880.713191	10588.593294
881.023363	12781.573355
881.333494	13949.338999
881.643583	14299.016115
881.953631	13872.282442
882.263637	13059.628277
882.573602	12094.814446
882.883526	11195.777589
883.193408	10295.966916
883.503248	9434.675699
883.813048	8648.757294
884.122806	7928.167201
884.432522	7201.570574
884.742197	6577.879020
885.051831	6049.833278
885.361424	5590.561477
885.670975	5226.202001
885.980485	4916.087860
886.289954	4668.133667
886.599382	4456.836224
886.908768	4291.559475
887.218113	4136.458295
887.527417	4011.609078
887.836680	3898.135226
888.145901	3803.006132
888.455082	3729.765729
888.764221	3661.742919
889.073319	3609.337604
889.382376	3577.986669
889.691392	3557.239800
890.000366	3549.975497
890.309300	3545.239333
890.618193	3546.474416
890.927044	3544.152965
891.235855	3549.491547
891.544625	3565.615677
891.853353	3597.402673
892.162041	3655.907784
892.470687	3745.912544
892.779293	3866.106255
893.087858	4036.197306
893.396381	4313.589317
893.704864	4722.285742
894.013306	5276.081698
894.321707	5813.657741
894.630068	6126.194156
894.938387	6131.414271
895.246665	5945.534326
895.554903	5643.226412
895.863100	5321.792360
896.171256	5064.756528
896.479371	4838.524667
896.787446	4630.715703
897.095480	4445.344914
897.403473	4302.103048
897.711425	4166.029703
898.019336	4053.281777
898.327207	3932.387346
898.635038	3836.575176
898.942827	3736.798138
899.250576	3653.016682
899.558284	3574.626740
899.865952	3522.395345
900.173579	3461.606591
900.481165	3416.873912
900.788711	3380.771689
901.096216	3347.232893
901.403681	3322.949654
901.711105	3314.140238
902.018489	3312.249805
902.325832	3343.983869
902.633135	3408.392171
902.940397	3583.199222
903.247619	4001.781349
903.554800	4744.920523
903.861941	5658.947250
904.169041	6283.508403
904.476101	6434.949706
904.783121	6147.709801
905.090100	5767.415237
905.397039	5376.824116
905.703938	5039.848187
906.010796	4740.217126
906.317614	4502.204088
906.624391	4276.988020
906.931129	4097.442284
907.237826	3922.567178
907.544483	3762.376953
907.851099	3598.168928
908.157675	3443.846606
908.464211	3310.437511
908.770707	3220.896536
909.077163	3143.958446
909.383578	3089.826536
909.689954	3047.647202
909.996289	3015.540093
910.302584	2998.889162
910.608839	2987.012203
910.915054	2974.779843
911.221229	2969.766416
911.527363	2977.423929
911.833458	2985.477172
912.139513	2997.407063
912.445527	3010.418281
912.751502	3044.330123
913.057436	3084.707244
913.363331	3145.359887
913.669186	3231.679564
913.975000	3346.252388
914.280775	3532.422200
914.586510	3796.344248
914.892205	4161.369156
915.197859	4646.834792
915.503475	5193.631106
915.809050	5652.867618
916.114585	5907.879427
916.420081	5956.375327
916.725536	5879.633842
917.030952	5649.469881
917.336328	5455.491322
917.641665	5253.217544
917.946961	5038.799627
918.252218	4847.492880
918.557435	4638.158967
918.862612	4452.165595
919.167750	4286.281387
919.472848	4106.304633
919.777906	3945.396043
920.082925	3796.462715
920.387904	3648.484685
920.692843	3548.236299
920.997743	3454.251548
921.302603	3368.317518
921.607423	3303.163126
921.912204	3241.592993
922.216946	3193.727237
922.521647	3151.605876
922.826310	3110.326388
923.130932	3078.126018
923.435516	3039.094884
923.740059	3011.383662
924.044564	2981.867706
924.349028	2958.721248
924.653454	2932.827361
924.957840	2906.310892
925.262186	2887.721637
925.566493	2866.546270
925.870761	2839.394616
926.174989	2832.359686
926.479178	2820.023982
926.783328	2804.182156
927.087438	2792.988274
927.391509	2778.379010
927.695541	2769.436003
927.999533	2761.140785
928.303486	2751.030751
928.607400	2747.406161
928.911275	2741.515573
929.215110	2736.232443
929.518906	2733.777402
929.822663	2732.106259
930.126381	2731.092987
930.430060	2736.383678
930.733699	2739.017681
931.037299	2740.782085
931.340861	2739.075654
931.644383	2745.800553
931.947866	2742.518762
932.251309	2740.925758
932.554714	2738.395098
932.858080	2737.875860
933.161407	2733.568194
933.464694	2729.724314
933.767943	2726.734910
934.071153	2724.864642
934.374323	2716.811398
934.677455	2715.818291
934.980548	2714.126984
935.283602	2716.410627
935.586617	2711.646736
935.889593	2715.178064
936.192530	2716.090513
936.495428	2720.062942
936.798287	2729.394118
937.101108	2744.293248
937.403890	2764.790580
937.706632	2787.309414
938.009336	2821.710248
938.312002	2851.586646
938.614628	2867.819162
938.917216	2888.500495
939.219765	2896.541136
939.522275	2908.564288
939.824747	2906.202507
940.127179	2902.247722
940.429573	2893.844118
940.731929	2892.798079
941.034246	2883.114022
941.336524	2879.731408
941.638763	2874.239071
941.940964	2871.005171
942.243126	2853.955989
942.545250	2844.776047
942.847335	2830.640652
943.149381	2819.056081
943.451389	2804.545119
943.753359	2792.831998
944.055290	2786.298663
944.357182	2776.181067
944.659036	2770.219903
944.960851	2771.230654
945.262628	2765.221599
945.564367	2764.563728
945.866067	2763.396701
946.167729	2764.485590
946.469352	2763.437030
946.770937	2760.293871
947.072484	2753.236255
947.373992	2753.952099
947.675462	2751.101327
947.976893	2745.520769
948.278286	2741.145048
948.579641	2742.478433
948.880958	2734.972155
949.182236	2737.777557
949.483476	2733.767319
949.784678	2733.474932
950.085841	2733.144737
950.386967	2740.083885
950.688054	2742.760738
950.989103	2750.758528
951.290114	2757.175917
951.591087	2770.114038
951.892021	2779.651902
952.192917	2794.160342
952.493776	2803.673000
952.794596	2806.541416
953.095378	2805.450006
953.396122	2803.620067
953.696828	2802.808442
953.997496	2796.295271
954.298126	2787.876544
954.598718	2780.687859
954.899272	2771.129831
955.199788	2762.514499
955.500266	2749.311717
955.800706	2734.841085
956.101108	2718.815257
956.401472	2708.939637
956.701798	2696.694674
957.002087	2680.668846
957.302337	2674.720284
957.602550	2665.968841
957.902724	2656.690597
958.202861	2645.416057
958.502960	2640.372382
958.803022	2630.738737
959.103045	2626.723458
959.403031	2616.958743
959.702979	2616.058897
960.002889	2611.587394
960.302762	2609.505397
960.602596	2605.948863
960.902393	2599.208841
961.202153	2597.162132
961.501875	2593.214909
961.801559	2593.729107
962.101205	2589.882706
962.400814	2589.285329
962.700385	2590.409507
962.999918	2586.361460
963.299414	2582.739391
963.598873	2582.421798
963.898293	2580.400296
964.197677	2582.179823
964.497022	2577.857034
964.796331	2577.093299
965.095601	2576.304358
965.394835	2577.788978
965.694030	2576.100192
965.993189	2574.418967
966.292309	2573.060376
966.591393	2575.855696
966.890439	2574.570201
967.189447	2575.734708
967.488419	2573.002402
967.787353	2578.235120
968.086249	2574.855027
968.385108	2576.145562
968.683930	2575.686817
968.982714	2577.347877
969.281462	2579.939030
969.580172	2582.862899
969.878844	2584.239134
970.177480	2585.938003
970.476078	2588.876996
970.774639	2590.235587
971.073162	2596.106011
971.371649	2594.555856
971.670098	2594.916298
971.968510	2599.256732
972.266885	2597.222626
972.565223	2601.134562
972.863524	2601.714294
973.161788	2601.963831
973.460014	2603.478698
973.758204	2604.353338
974.056356	2606.155551
974.354471	2604.950715
974.652550	2607.998092
974.950591	2607.236878
975.248595	2608.366097
975.546563	2604.232351
975.844493	2601.832761
976.142386	2601.565580
976.440243	2596.622729
976.738062	2597.862853
977.035845	2595.271700
977.333590	2595.551484
977.631299	2588.748447
977.928971	2589.139136
978.226606	2588.075452
978.524204	2587.009248
978.821765	2586.404310
979.119290	2584.612180
979.416777	2584.597056
979.714228	2584.158476
980.011642	2586.298446
980.309020	2594.054261
980.606360	2594.795311
980.903664	2604.280242
981.200931	2615.814402
981.498162	2633.818882
981.795356	2660.980619
982.092513	2698.338090
982.389633	2735.945098
982.686717	2776.677621
982.983764	2806.039821
983.280775	2819.151862
983.577749	2817.700010
983.874686	2809.608958
984.171587	2792.446350
984.468451	2778.570574
984.765279	2762.905188
985.062070	2746.430698
985.358824	2729.646176
985.655543	2706.141796
985.952224	2688.918694
986.248869	2660.930208
986.545478	2638.139151
986.842050	2620.250617
987.138586	2605.560695
987.435086	2591.223653
987.731549	2582.706624
988.027975	2579.472723
988.324366	2572.246229
988.620719	2570.862433
988.917037	2566.806824
989.213318	2563.686350
989.509563	2558.559497
989.805772	2559.517316
990.101944	2559.955896
990.398080	2557.513457
990.694180	2558.685526
990.990244	2558.738458
991.286271	2559.028324
991.582262	2559.247614
991.878217	2559.262738
992.174136	2558.289795
992.470019	2559.038406
992.765865	2561.057388
993.061676	2564.855898
993.357450	2568.031825
993.653188	2567.951166
993.948890	2574.514749
994.244556	2579.011458
994.540186	2588.501430
994.835780	2600.683378
995.131337	2617.767849
995.426859	2627.769498
995.722345	2643.374390
996.017795	2663.319715
996.313208	2676.162054
996.608586	2683.839732
996.903928	2688.913653
997.199234	2685.704958
997.494504	2683.106244
997.789738	2674.581652
998.084936	2664.801814
998.380099	2657.797131
998.675225	2646.119298
998.970316	2634.806949
999.265371	2621.052160
999.560390	2607.584718
999.855373	2598.326639
1000.150320	2592.546956
1000.445232	2581.630337
1000.740108	2574.144224
1001.034948	2570.527196
1001.329752	2566.290106
1001.624521	2562.549570
1001.919254	2556.089331
1002.213951	2554.345092
1002.508613	2551.973229
1002.803239	2548.799823
1003.097829	2546.357384
1003.392384	2549.835780
1003.686903	2548.444422
1003.981386	2549.419885
1004.275834	2545.949050
1004.570246	2545.986859
1004.864623	2545.104657
1005.158964	2544.749256
1005.453270	2545.933927
1005.747540	2545.182795
1006.041775	2539.370345
1006.335974	2542.982331
1006.630138	2542.573998
1006.924266	2542.029553
1007.218359	2540.030736
1007.512416	2543.473844
1007.806438	2540.454193
1008.100425	2540.933102
1008.394376	2541.003678
1008.688292	2538.979655
1008.982172	2541.109543
1009.276017	2539.864378
1009.569827	2542.584080
1009.863602	2540.005530
1010.157341	2541.212886
1010.451045	2539.040149
1010.744714	2537.540406
1011.038347	2540.991076
1011.331945	2539.067875
1011.625508	2539.466127
1011.919036	2537.900848
1012.212528	2536.806918
1012.505986	2534.969417
1012.799408	2538.646939
1013.092795	2539.614841
1013.386147	2538.404964
1013.679464	2534.835827
1013.972745	2536.731301
1014.265992	2535.718029
1014.559204	2538.185673
1014.852380	2538.049562
1015.145521	2538.258770
1015.438628	2536.728780
1015.731699	2539.536703
1016.024736	2538.261291
1016.317737	2538.568801
1016.610703	2539.599717
1016.903635	2533.487318
1017.196531	2532.489170
1017.489393	2535.770961
1017.782219	2531.241484
1018.075011	2540.086188
1018.367768	2541.069213
1018.660490	2541.989224
1018.953177	2541.989224
1019.245829	2541.989224
