Dividing Wavelength (nm)	Counts (n)	Blue Motor Position (mm): 41.600000	Red Motor Position (mm): 0.000000	
326.493990	2253.179000
326.888308	2253.179000
327.282561	2253.179000
327.676750	2214.430171
328.070874	2211.755838
328.464933	2212.196939
328.858929	2215.398072
329.252859	2221.089535
329.646726	2228.376523
330.040528	2238.925137
330.434265	2256.183527
330.827938	2273.459562
331.221547	2289.538322
331.615091	2307.252936
332.008571	2324.196254
332.401986	2344.386076
332.795338	2363.522296
333.188625	2383.084493
333.581847	2403.281876
333.975006	2422.667633
334.368100	2442.242433
334.761129	2460.254476
335.154095	2476.781899
335.546996	2501.518841
335.939833	2541.099460
336.332606	2555.393652
336.725315	2569.108111
337.117960	2584.768456
337.510540	2596.078284
337.903056	2608.093874
338.295508	2614.163424
338.687896	2625.160701
339.080220	2631.106742
339.472480	2635.787453
339.864676	2642.456900
340.256807	2646.567961
340.648875	2650.484937
341.040879	2653.633138
341.432818	2656.430978
341.824694	2660.410969
342.216506	2661.507420
342.608253	2661.968686
342.999937	2662.687050
343.391557	2662.160249
343.783113	2660.768891
344.174605	2658.923829
344.566033	2659.082625
344.957397	2658.795279
345.348697	2658.540701
345.739934	2654.396872
346.131106	2654.709424
346.522215	2653.297901
346.913260	2649.262457
347.304241	2649.645585
347.695159	2645.078300
348.086012	2645.544606
348.476802	2643.112250
348.867528	2639.996817
349.258191	2636.576394
349.648789	2636.689820
350.039324	2632.427524
350.429796	2637.259470
350.820203	2632.712349
351.210548	2634.570014
351.600828	2632.084726
351.991045	2629.503655
352.381198	2631.517596
352.771288	2630.103552
353.161314	2629.775877
353.551276	2631.278141
353.941175	2626.980557
354.331010	2630.179169
354.720782	2628.127420
355.110490	2628.079529
355.500135	2629.927112
355.889717	2626.332769
356.279235	2629.811165
356.668689	2631.313429
357.058080	2629.823768
357.447408	2630.307719
357.836672	2629.788480
358.225873	2628.119858
358.615010	2630.249746
359.004084	2627.472070
359.393095	2631.895682
359.782043	2632.490538
360.170927	2630.395939
360.559748	2633.208903
360.948505	2635.553039
361.337199	2636.331898
361.725830	2635.777371
362.114398	2637.120838
362.502903	2635.905920
362.891344	2637.819038
363.279722	2637.395581
363.668037	2636.715025
364.056289	2638.756693
364.444478	2641.680562
364.832603	2642.212404
365.220665	2639.926240
365.608665	2641.229379
365.996601	2643.704585
366.384474	2640.942033
366.772284	2643.102167
367.160031	2644.007054
367.547715	2644.763227
367.935336	2644.513690
368.322893	2642.489667
368.710388	2642.164513
369.097820	2644.622075
369.485189	2641.693165
369.872495	2647.112405
370.259738	2650.132056
370.646918	2648.334885
371.034035	2649.809422
371.421090	2650.895791
371.808081	2652.022489
372.195010	2650.661377
372.581875	2651.515853
372.968678	2650.608445
373.355418	2651.306645
373.742096	2650.547952
374.128710	2653.076090
374.515262	2653.355874
374.901751	2656.070536
375.288177	2655.107675
375.674540	2653.002993
376.060841	2656.410813
376.447079	2655.931904
376.833254	2657.615649
377.219367	2658.192861
377.605417	2658.772594
377.991404	2657.358550
378.377329	2657.582882
378.763191	2659.127995
379.148991	2659.821154
379.534727	2661.008346
379.920402	2658.243273
380.306013	2660.925167
380.691563	2663.382729
381.077049	2664.315343
381.462474	2663.349962
381.847835	2665.379026
382.233134	2668.670900
382.618371	2669.958914
383.003545	2672.373627
383.388657	2676.275480
383.773706	2684.424505
384.158693	2688.911132
384.543618	2701.098122
384.928480	2710.373845
385.313280	2727.924622
385.698017	2745.591346
386.082692	2770.887856
386.467305	2792.400980
386.851856	2822.824343
387.236344	2864.930581
387.620770	2897.440982
388.005133	2940.527724
388.389435	2989.870537
388.773674	3029.410828
389.157851	3089.733275
389.541965	3156.037051
389.926018	3181.991431
390.310008	3264.983947
390.693936	3331.597754
391.077802	3394.581930
391.461606	3440.262346
391.845348	3521.777803
392.229027	3597.526181
392.612645	3648.860251
392.996200	3755.024430
393.379694	3838.775639
393.763125	3953.136735
394.146494	4024.176675
394.529801	4116.182774
394.913047	4221.759659
395.296230	4242.451075
395.679351	4365.921535
396.062410	4463.782934
396.445408	4493.692100
396.828343	4587.455041
397.211217	4676.917878
397.594028	4615.637612
397.976778	4755.562398
398.359466	4830.010158
398.742092	4891.703799
399.124656	4842.514741
399.507158	4981.375844
399.889598	5068.176951
400.271977	5208.870514
400.654294	5221.937185
401.036549	5283.794663
401.418742	5225.793668
401.800874	5438.820226
402.182944	5510.200444
402.564952	5631.987159
402.946898	5704.037851
403.328783	5561.148865
403.710606	5584.764151
404.092367	5910.394963
404.474067	5936.702224
404.855705	5846.982288
405.237282	5787.789060
405.618797	6040.255086
406.000250	6028.882243
406.381642	6225.845165
406.762972	6253.851295
407.144240	6316.235574
407.525447	6301.016330
407.906593	6331.260733
408.287677	6486.752602
408.668700	6396.936885
409.049661	6516.419793
409.430560	6540.682866
409.811399	6403.868472
410.192176	6678.896181
410.572891	6681.386511
410.953545	6888.204889
411.334138	6616.058199
411.714669	6789.685619
412.095139	6583.154588
412.475547	6830.135838
412.855894	6893.281331
413.236180	7069.610810
413.616405	6764.270642
413.996568	6975.895760
414.376670	7008.322982
414.756711	6903.386324
415.136691	6997.819738
415.516609	7205.449742
415.896466	7193.008174
416.276262	7391.095273
416.655997	7374.451904
417.035670	7564.889052
417.415283	7902.545537
417.794834	7950.504554
418.174324	7814.630334
418.553753	7730.523723
418.933121	8046.397382
419.312428	8144.682238
419.691674	7921.659072
420.070859	8396.646669
420.449983	8076.740087
420.829045	8441.477650
421.208047	8219.066984
421.586988	8516.358950
421.965867	8533.879480
422.344686	8648.759814
422.723444	8688.637862
423.102141	8049.437198
423.480777	8804.985172
423.859352	8328.412131
424.237866	8945.469527
424.616319	8812.098240
424.994712	9228.328669
425.373044	8789.226525
425.751314	9251.424715
426.129524	9126.162125
426.507673	9238.930216
426.885762	9386.963698
427.263789	9299.497158
427.641756	9233.793280
428.019662	9325.711158
428.397508	9571.648890
428.775292	9257.340509
429.153016	9635.757243
429.530679	9471.254311
429.908282	9501.355041
430.285824	9224.653668
430.663305	9910.353935
431.040726	9359.565027
431.418086	9341.734466
431.795385	9666.896451
432.172624	9754.199153
432.549802	9670.941977
432.926920	9745.377134
433.303977	9624.157548
433.680974	9835.570938
434.057910	9920.900028
434.434786	9985.746911
434.811601	9822.831942
435.188355	10388.383869
435.565050	10116.083423
435.941683	10043.606754
436.318257	10535.857783
436.694770	10682.396564
437.071222	10744.337221
437.447614	10580.524927
437.823946	10489.728705
438.200218	10603.242887
438.576429	10435.780797
438.952580	10678.398929
439.328670	10715.716070
439.704700	10505.346200
440.080670	10500.249593
440.456580	11041.535926
440.832429	10808.904320
441.208218	10405.919522
441.583947	10721.284025
441.959616	10892.219469
442.335224	10691.949550
442.710773	10821.333284
443.086261	11038.972499
443.461689	10311.148351
443.837057	10977.251132
444.212365	11239.784342
444.587612	10877.479135
444.962800	11091.687845
445.337927	10854.002482
445.712995	10479.633794
446.088002	11545.371526
446.462949	11223.970242
446.837837	11184.850888
447.212664	11149.832513
447.587431	11691.272601
447.962139	12435.309100
448.336786	14713.056163
448.711374	15238.566204
449.085901	13065.082806
449.460369	12704.867158
449.834776	12153.488435
450.209124	13047.958006
450.583412	13460.425214
450.957640	14400.693667
451.331808	13492.885203
451.705917	12527.037935
452.079965	11793.905452
452.453954	12711.614742
452.827883	12351.247859
453.201752	12644.895071
453.575562	12181.038341
453.949311	12593.792894
454.323001	12560.826269
454.696632	12792.676496
455.070202	13069.937437
455.443713	13290.009008
455.817164	13773.211166
456.190556	13750.745264
456.563888	14114.671201
456.937160	14285.374753
457.310373	13620.378505
457.683526	13713.269326
458.056619	13251.250097
458.429653	13429.291048
458.802628	12825.350735
459.175542	13227.196231
459.548398	14173.637578
459.921194	14519.569116
460.293930	14590.941773
460.666607	15454.884636
461.039224	16510.146850
461.411782	17217.418214
461.784280	17034.749484
462.156719	17121.785005
462.529099	16802.052343
462.901419	15743.755355
463.273680	15520.525501
463.645882	15403.306071
464.018024	15132.424710
464.390106	15357.381159
464.762130	16082.016778
465.134094	16853.961104
465.505999	18892.003822
465.877845	22156.183705
466.249631	24973.540917
466.621358	24610.986174
466.993026	23177.289582
467.364634	22615.601699
467.736184	21141.969087
468.107674	20342.021150
468.479105	20476.655246
468.850477	19928.434806
469.221790	19529.114928
469.593043	18833.075255
469.964238	18283.128220
470.335373	17926.217048
470.706449	18400.629954
471.077467	17964.499570
471.448425	19824.294650
471.819324	23925.600979
472.190164	25820.820247
472.560945	22215.818035
472.931667	19888.450895
473.302330	19256.559904
473.672934	18851.825826
474.043479	19123.939749
474.413965	18925.701415
474.784393	18539.458290
475.154761	19276.212842
475.525070	19214.977947
475.895321	18925.073792
476.265513	19520.776859
476.635645	20100.683472
477.005719	19869.448265
477.375734	20062.915147
477.745691	20542.704444
478.115588	21084.111764
478.485427	21630.061164
478.855207	22704.721738
479.224928	24487.825744
479.594591	26713.258233
479.964194	26663.280234
480.333739	26892.146098
480.703226	26470.277138
481.072653	26162.492011
481.442022	26768.962983
481.811333	27696.825157
482.180584	27589.403210
482.549777	26628.168597
482.918912	26297.887321
483.287988	26426.716528
483.657005	26066.768061
484.025964	25849.179258
484.394864	25732.113583
484.763706	25391.908795
485.132489	24841.203067
485.501213	25023.770974
485.869879	24939.694610
486.238487	24772.661019
486.607036	24897.792539
486.975527	24644.847604
487.343959	24943.777945
487.712333	24870.396389
488.080648	24529.445510
488.448905	25032.275401
488.817104	24782.682832
489.185244	25479.866848
489.553326	25437.926968
489.921350	26456.756763
490.289315	28779.576783
490.657222	30524.534378
491.025070	31033.885001
491.392861	30773.985794
491.760593	29921.529199
492.128267	29012.924233
492.495883	27964.638976
492.863440	27090.575995
493.230939	26221.725568
493.598380	26068.658493
493.965763	25688.371491
494.333088	25199.838313
494.700354	25148.663040
495.067563	25004.914538
495.434713	24756.552012
495.801805	24936.906852
496.168839	24724.344080
496.535815	24576.618107
496.902733	24802.494567
497.269593	24486.792307
497.636395	24650.375229
498.003139	24601.292035
498.369825	24335.189688
498.736453	24556.385436
499.103023	24419.150105
499.469535	24432.609986
499.835989	24645.145032
500.202385	24669.841645
500.568723	24196.013513
500.935003	24401.158227
501.301226	24062.619541
501.667390	24897.968980
502.033497	25118.358144
502.399546	24846.224056
502.765537	24390.503748
503.131470	24777.263592
503.497345	24919.131744
503.863163	24153.385516
504.228923	24715.864859
504.594625	24957.336128
504.960269	24494.084337
505.325856	24989.395346
505.691385	24385.412183
506.056856	24982.798996
506.422270	24970.266688
506.787625	24501.547765
507.152924	24930.209679
507.518164	24961.243022
507.883347	24767.466110
508.248472	24457.082267
508.613540	25232.058848
508.978550	25029.999320
509.343503	25047.809716
509.708398	25263.213179
510.073236	25423.370637
510.438016	25646.938248
510.802738	25295.988241
511.167403	25542.760283
511.532010	25278.112309
511.896561	26046.263168
512.261053	26010.501222
512.625488	25839.737177
512.989866	25723.271399
513.354186	25561.924229
513.718449	25695.648397
514.082655	26067.085653
514.446803	25790.621215
514.810894	26286.136391
515.174927	25757.251297
515.538904	25781.358095
515.902822	26294.318184
516.266684	26046.190071
516.630488	25943.985718
516.994235	25893.271710
517.357925	26216.374383
517.721558	26393.293678
518.085133	26505.045976
518.448651	26389.671609
518.812112	26150.302501
519.175516	26368.511365
519.538863	26526.042382
519.902152	26320.549828
520.265385	26577.484836
520.628560	26364.039862
520.991678	26362.245211
521.354739	26428.919512
521.717743	26506.717119
522.080690	26289.670240
522.443580	26617.680477
522.806413	26599.484432
523.169189	26719.058080
523.531908	26753.405982
523.894569	26375.841203
524.257174	26460.396477
524.619722	26618.996218
524.982213	26311.140514
525.344647	26349.203746
525.707025	26505.822314
526.069345	26473.301830
526.431608	26459.758771
526.793815	26616.301721
527.155964	26107.646777
527.518057	26283.575485
527.880093	26210.171244
528.242072	26418.789313
528.603995	26131.194007
528.965860	25935.834172
529.327669	25969.062937
529.689421	25961.284437
530.051117	25802.175539
530.412755	25995.017318
530.774337	25762.433603
531.135862	25658.709342
531.497331	25838.068555
531.858743	25423.226964
532.220098	25884.258127
532.581396	25579.306128
532.942638	25478.699821
533.303824	25597.159374
533.664953	25600.642812
534.026025	25246.015282
534.387040	25503.774520
534.747999	25550.364864
535.108902	25714.487189
535.469748	25205.980959
535.830537	25377.667536
536.191270	25520.213722
536.551947	25351.728279
536.912567	24977.634334
537.273131	25403.206021
537.633638	25078.659057
537.994089	25296.341121
538.354483	24806.230062
538.714821	25318.008001
539.075103	25353.994277
539.435328	25128.576562
539.795497	24713.669436
540.155609	25074.308541
540.515665	25390.043568
540.875665	24604.742705
541.235609	24936.813591
541.595496	24869.254568
541.955328	25241.717699
542.315102	25155.425748
542.674821	24672.079917
543.034483	24547.936463
543.394090	24732.750204
543.753640	24539.159814
544.113134	25148.327803
544.472571	24755.077474
544.831953	25044.469952
545.191278	24699.307189
545.550548	24594.690644
545.909761	24789.561487
546.268918	25022.011611
546.628019	25007.530897
546.987064	24683.578789
547.346053	24429.184522
547.704986	24533.985069
548.063863	24697.164699
548.422684	24723.076229
548.781449	24221.763726
549.140158	24644.121678
549.498811	24223.286155
549.857408	23974.215346
550.215949	24371.924576
550.574434	24064.406630
550.932864	24270.930100
551.291237	24447.700680
551.649555	24292.039932
552.007817	24348.410114
552.366022	24209.163362
552.724173	24228.889397
553.082267	24198.803791
553.440305	24683.241032
553.798288	23918.397170
554.156215	24420.861577
554.514086	24547.596185
554.871902	23920.655607
555.229661	24211.741913
555.587365	24049.434403
555.945014	23937.188071
556.302606	24160.987576
556.660143	24151.439630
557.017625	24384.414035
557.375050	23903.503081
557.732421	24292.753255
558.089735	24116.764053
558.446994	24166.719367
558.804197	24204.764956
559.161345	24101.446508
559.518437	23889.876842
559.875474	24068.633637
560.232455	24251.463684
560.589381	24060.383789
560.946251	24068.081631
561.303065	24365.849986
561.659825	24462.826662
562.016528	24068.666405
562.373177	23799.587256
562.729770	24163.551002
563.086307	24022.381051
563.442789	24183.776112
563.799216	24035.241034
564.155587	24024.450444
564.511904	24015.288147
564.868164	23968.765859
565.224370	23926.190794
565.580520	23854.578683
565.936615	23971.901457
566.292654	23672.857690
566.648638	23916.902468
567.004567	23754.816769
567.360441	23703.412123
567.716260	23432.341719
568.072023	23738.886723
568.427732	23532.630434
568.783385	23286.024749
569.138982	23540.587895
569.494525	23570.955806
569.850013	23322.842817
570.205445	23427.330812
570.560823	23248.982351
570.916145	23014.447709
571.271412	23192.017313
571.626625	22953.444707
571.981782	23051.061610
572.336884	22850.171629
572.691931	23001.567561
573.046923	22732.425399
573.401860	22603.361778
573.756743	22640.552890
574.111570	22527.595756
574.466342	22447.940484
574.821059	22536.173279
575.175722	22234.669430
575.530330	22214.333415
575.884882	22227.097617
576.239380	22145.539309
576.593823	22039.372609
576.948211	22004.601250
577.302544	21858.163293
577.656823	21721.280842
578.011047	21837.373574
578.365216	21698.351154
578.719330	21577.376065
579.073389	21464.489507
579.427394	21624.906584
579.781344	21366.900330
580.135239	21258.984350
580.489080	21214.455838
580.842866	20995.084987
581.196597	21190.893485
581.550273	21164.455153
581.903895	21040.609127
582.257463	21346.022391
582.610975	20883.506608
582.964434	21209.691947
583.317837	20891.968185
583.671186	20981.254581
584.024481	20966.181531
584.377721	20733.002960
584.730906	20815.030095
585.084037	20799.488218
585.437113	20726.517516
585.790135	20933.182138
586.143103	20388.087214
586.496016	20411.647047
586.848874	20645.359980
587.201679	20565.790408
587.554428	20256.966802
587.907124	20588.180693
588.259765	20360.005467
588.612352	20425.837895
588.964884	19997.163377
589.317362	20173.702064
589.669786	20222.298787
590.022155	20230.183152
590.374470	20462.497165
590.726731	20231.146013
591.078937	20021.645741
591.431090	20094.639128
591.783188	19867.744355
592.135232	19833.656073
592.487222	19923.363406
592.839157	19933.067627
593.191038	19815.860800
593.542866	19702.414674
593.894639	19415.764584
594.246358	19628.503797
594.598022	19522.027066
594.949633	19280.565879
595.301190	19266.748076
595.652692	19436.458520
596.004141	19651.995573
596.355535	18975.041709
596.706876	19007.017748
597.058162	18902.297859
597.409395	19138.067583
597.760573	19182.822947
598.111698	18961.980079
598.462768	18906.721471
598.813785	18875.637717
599.164748	18683.559673
599.515657	18729.837465
599.866511	18536.478968
600.217312	18882.707935
600.568060	18401.421415
600.918753	18717.022852
601.269392	18608.764073
601.619978	18398.966373
601.970510	18584.977389
602.320988	18545.028765
602.671412	18737.162262
603.021783	18669.971243
603.372100	18370.690542
603.722363	18522.850209
604.072572	18483.244383
604.422728	18623.035580
604.772830	18371.509729
605.122878	18334.338781
605.472872	18312.192992
605.822813	18307.141756
606.172701	18285.709291
606.522534	18459.523234
606.872314	18492.144541
607.222041	18332.776023
607.571714	18539.594401
607.921333	18369.165593
608.270899	18445.017314
608.620411	18603.390203
608.969870	18393.111073
609.319276	18389.604951
609.668627	18412.640503
610.017926	18544.393580
610.367171	18669.273043
610.716362	18726.520386
611.065500	18529.350777
611.414585	18682.059929
611.763616	18661.194594
612.112594	18600.783927
612.461518	18574.075893
612.810389	18764.228217
613.159207	18611.375391
613.507971	18530.820273
613.856682	18788.377864
614.205340	18709.408189
614.553945	18864.610192
614.902496	18608.348178
615.250994	18816.381474
615.599439	18776.024517
615.947830	18757.977186
616.296169	18830.282455
616.644454	18778.403941
616.992686	18768.427498
617.340864	18978.439446
617.688990	18721.270024
618.037063	18910.225073
618.385082	18762.778885
618.733048	19037.120998
619.080961	18921.459284
619.428821	18953.107648
619.776628	18825.145520
620.124382	18752.323532
620.472083	18809.807809
620.819731	18819.625456
621.167326	18506.718516
621.514868	18549.961534
621.862357	18331.387186
622.209793	18327.442483
622.557176	18159.224220
622.904506	18001.783944
623.251783	17923.154547
623.599007	17665.223911
623.946179	17613.758771
624.293297	17543.558183
624.640363	17281.070343
624.987376	17309.257955
625.334336	17107.924353
625.681243	16955.310982
626.028097	16972.587016
626.374899	16888.790436
626.721647	16753.127945
627.068343	16589.504694
627.414987	16522.638830
627.761577	16489.074827
628.108115	16524.292328
628.454600	16250.144300
628.801032	16353.588777
629.147412	16292.580733
629.493739	16294.882019
629.840014	16107.068792
630.186236	16209.343721
630.532405	15973.790766
630.878521	16170.678071
631.224585	16072.683081
631.570597	15890.894032
631.916556	15922.300421
632.262462	15903.537246
632.608316	15814.795295
632.954117	15767.748726
633.299866	15745.192083
633.645562	15665.539332
633.991206	15427.750626
634.336797	15296.345389
634.682336	15271.661379
635.027823	15134.211799
635.373257	15011.212686
635.718639	14924.774542
636.063968	14872.754875
636.409245	14626.076094
636.754470	14658.541125
637.099642	14503.069420
637.444762	14274.624492
637.789829	14313.249813
638.134845	14148.744360
638.479808	14180.080172
638.824719	14096.870887
639.169577	13962.473725
639.514383	14004.027957
639.859137	13831.519672
640.203839	13936.771402
640.548489	13770.763686
640.893086	13752.915481
641.237632	13635.391061
641.582125	13794.661276
641.926566	13612.625210
642.270955	13622.843629
642.615292	13579.817381
642.959576	13588.329369
643.303809	13618.420017
643.647990	13548.345457
643.992118	13619.299698
644.336195	13384.046692
644.680219	13602.739508
645.024192	13511.625693
645.368112	13757.049227
645.711981	13805.575374
646.055797	13984.924504
646.399562	13968.661742
646.743274	14237.932454
647.086935	14510.779865
647.430544	14461.709273
647.774101	14501.163864
648.117606	14642.429597
648.461059	14627.686743
648.804460	14597.255818
649.147810	14334.417618
649.491108	14246.658691
649.834354	14254.311163
650.177548	13934.918778
650.520690	13743.226383
650.863781	13665.592614
651.206820	13725.121079
651.549807	13549.439388
651.892742	13341.978263
652.235626	13285.920632
652.578458	13284.665385
652.921238	12979.612563
653.263967	13180.736957
653.606644	13007.049043
653.949269	12983.002739
654.291843	12789.440075
654.634365	12945.756174
654.976836	12788.436886
655.319255	12795.353349
655.661622	12759.220878
656.003938	12680.888909
656.346203	12595.305241
656.688416	12682.532326
657.030577	12634.026343
657.372687	12538.413299
657.714746	12530.667566
658.056753	12730.110736
658.398708	12524.255218
658.740612	12534.289635
659.082465	12645.104279
659.424266	12613.191254
659.766016	12635.248823
660.107715	12547.731872
660.449362	12629.232206
660.790958	12569.008062
661.132503	12514.891275
661.473996	12595.789191
661.815438	12599.262546
662.156829	12629.721198
662.498168	12601.909152
662.839456	12606.075666
663.180693	12612.777880
663.521879	12717.122203
663.863013	12681.093076
664.204097	12658.158347
664.545129	12786.417903
664.886110	12757.680806
665.227040	12852.139426
665.567918	12849.775125
665.908746	12877.120864
666.249522	12873.667674
666.590248	12917.994539
666.930922	13041.096996
667.271545	13008.642047
667.612118	13097.520110
667.952639	12990.871980
668.293109	13010.779497
668.633528	12969.343733
668.973896	12940.258795
669.314213	13015.435002
669.654480	12752.211154
669.994695	12834.525635
670.334859	12860.298534
670.674973	12807.893219
671.015035	12830.177639
671.355047	12780.383642
671.695008	12751.921288
672.034918	12756.407915
672.374777	12803.792240
672.714585	12719.327708
673.054342	12751.018921
673.394049	12704.509236
673.733705	12797.243781
674.073310	12705.328423
674.412864	12716.716390
674.752368	12569.071076
675.091820	12612.170421
675.431223	12595.499325
675.770574	12461.248357
676.109875	12373.255017
676.449125	12335.320334
676.788324	12285.788477
677.127473	12113.469235
677.466571	12102.650919
677.805619	11996.993376
678.144616	11931.491143
678.483562	11900.961916
678.822458	11767.946030
679.161303	11747.531878
679.500098	11729.260216
679.838842	11692.384175
680.177535	11722.111859
680.516179	11786.283227
680.854771	11729.492109
681.193314	11942.503544
681.531805	12106.651075
681.870247	12543.673743
682.208638	12957.640694
682.546978	13256.311415
682.885268	13285.066157
683.223508	12990.057834
683.561697	12834.772651
683.899836	12740.891243
684.237925	12538.904811
684.575963	12453.550515
684.913951	12367.225797
685.251889	12324.988489
685.589776	12418.910226
685.927614	12335.958040
686.265401	12316.242087
686.603137	12368.241589
686.940824	12512.264834
687.278460	12645.205102
687.616046	12687.144981
687.953582	12836.816839
688.291068	12773.144545
688.628504	13008.044671
688.965889	13015.918953
689.303224	12970.712406
689.640510	12854.745703
689.977745	12539.723999
690.314930	12328.323212
690.652065	12232.039694
690.989150	11940.908019
691.326185	11719.702188
691.663170	11505.314518
692.000105	11271.062181
692.336990	11148.017698
692.673825	10888.146217
693.010610	10789.311875
693.347345	10575.017466
693.684030	10383.607375
694.020665	10315.002313
694.357251	10122.120205
694.693786	10046.472650
695.030272	9896.521008
695.366707	9778.328636
695.703093	9714.807577
696.039429	9711.924037
696.375716	9616.031208
696.711952	9498.582406
697.048139	9539.125886
697.384276	9497.944700
697.720363	9515.319037
698.056400	9451.873595
698.392388	9402.818127
698.728326	9354.801137
699.064214	9296.908526
699.400053	9341.371503
699.735842	9151.178851
700.071581	9120.238769
700.407270	9043.348570
700.742910	8958.137946
701.078501	8869.416159
701.414042	8730.570179
701.749533	8678.079165
702.084974	8543.044298
702.420366	8664.820930
702.755709	8535.167495
703.091002	8398.731186
703.426246	8433.552957
703.761440	8386.168631
704.096584	8345.867127
704.431679	8276.135366
704.766725	8263.940815
705.101721	8216.334678
705.436668	8262.012573
705.771565	8156.778487
706.106413	8242.904080
706.441212	8272.478009
706.775961	8230.787667
707.110661	8280.322044
707.445311	8410.431704
707.779913	8306.394892
708.114465	8434.077237
708.448967	8474.371179
708.783421	8629.784911
709.117825	8802.119276
709.452180	8833.888628
709.786485	8931.611395
710.120742	9217.638902
710.454949	9220.532525
710.789107	9320.922062
711.123216	9550.382782
711.457275	9722.175223
711.791286	9863.398107
712.125247	9871.486638
712.459159	9851.473258
712.793023	10082.027908
713.126837	9667.564404
713.460602	9817.679883
713.794318	9649.620417
714.127985	9673.686885
714.461602	9338.160288
714.795171	9290.284450
715.128691	9038.188949
715.462162	8793.299777
715.795584	8736.155778
716.128957	8578.375224
716.462281	8407.815346
716.795556	8459.986247
717.128782	8247.970439
717.461960	7991.784042
717.795088	8057.757622
718.128167	7966.089281
718.461198	7813.962381
718.794180	7754.562466
719.127113	7742.635096
719.459997	7570.545227
719.792833	7353.412648
720.125619	7421.758092
720.458357	7276.131760
720.791046	7267.254288
721.123686	7257.061075
721.456278	7094.015036
721.788821	7116.279292
722.121315	7019.158942
722.453761	7084.872903
722.786158	7023.554829
723.118506	7032.389451
723.450805	6995.195818
723.783056	7058.923564
724.115259	6978.146635
724.447412	6973.964998
724.779518	7024.666403
725.111574	7027.832248
725.443582	7098.055521
725.775542	7078.636996
726.107453	7277.873478
726.439315	7184.934766
726.771129	7259.523678
727.102895	7431.164885
727.434612	7537.344188
727.766281	7577.686021
728.097901	7654.367012
728.429473	7662.400091
728.760996	7648.115982
729.092471	7613.631969
729.423897	7548.124695
729.755276	7549.730303
730.086606	7471.179043
730.417887	7575.616628
730.749120	7796.729197
731.080305	7978.891291
731.411442	8089.640400
731.742530	8073.990138
732.073570	8183.766304
732.404562	8274.096219
732.735506	8131.585321
733.066401	8262.219261
733.397249	8182.322013
733.728048	7943.956095
734.058798	7607.857327
734.389501	7378.525156
734.720156	7204.360852
735.050762	6982.729044
735.381320	6898.536734
735.711831	6827.290107
736.042293	6722.297995
736.372707	6746.044351
736.703073	6603.359532
737.033391	6648.432489
737.363661	6656.248798
737.693883	6690.127872
738.024056	6779.936028
738.354182	6816.302912
738.684260	6849.025041
739.014290	6972.014072
739.344272	7080.005669
739.674207	7110.663447
740.004093	7189.446599
740.333931	7197.661159
740.663722	7207.448559
740.993464	7278.773324
741.323159	7261.066272
741.652806	7014.659713
741.982405	7047.051647
742.311956	7085.049344
742.641460	6907.847745
742.970915	6717.526543
743.300323	6710.804165
743.629683	6667.629203
743.958996	6529.557040
744.288260	6440.147135
744.617477	6386.771398
744.946647	6377.916612
745.275768	6223.450617
745.604842	6177.054357
745.933869	6154.699360
746.262847	6117.641838
746.591778	6101.570640
746.920662	6060.326440
747.249498	6062.418519
747.578286	6104.711279
747.907027	6178.523853
748.235720	6240.608184
748.564365	6217.393670
748.892963	6260.513180
749.221514	6394.048304
749.550017	6211.745057
749.878473	6106.168172
750.206881	6163.783520
750.535242	6103.934941
750.863555	6035.786103
751.191821	6049.787908
751.520039	6046.473349
751.848210	5953.653104
752.176334	5985.006560
752.504411	6026.011306
752.832440	5956.203928
753.160421	5880.072422
753.488356	5932.898673
753.816243	5957.602848
754.144082	5813.133461
754.471875	5786.748062
754.799620	5828.481254
755.127318	5837.396534
755.454969	5795.103774
755.782572	5761.396099
756.110129	5805.811185
756.437638	5781.727073
756.765100	5722.317074
757.092515	5733.616821
757.419882	5786.347290
757.747203	5764.327530
758.074477	5826.477395
758.401703	5805.302028
758.728882	5760.513897
759.056014	5833.151883
759.383099	5946.335869
759.710138	5959.606707
760.037129	5947.981806
760.364073	5951.311488
760.690970	6032.968098
761.017820	6007.787534
761.344623	5969.494930
761.671379	6075.097021
761.998088	6197.400454
762.324751	6463.288552
762.651366	7095.819769
762.977935	8457.385011
763.304456	10115.914544
763.630931	10976.263066
763.957359	10521.588797
764.283740	9559.842508
764.610074	8702.934574
764.936362	7698.772016
765.262602	7109.693024
765.588796	6572.535397
765.914943	6245.377115
766.241044	6070.955713
766.567097	5863.217324
766.893104	5599.464155
767.219064	5427.364204
767.544978	5365.002610
767.870845	5283.600579
768.196665	5176.723076
768.522438	5108.796048
768.848165	5069.611160
769.173846	5003.118340
769.499479	4958.925065
769.825066	4910.366151
770.150607	4850.159650
770.476101	4826.090661
770.801548	4820.920958
771.126949	4736.106065
771.452303	4679.367879
771.777611	4643.956293
772.102872	4664.622504
772.428087	4624.404178
772.753256	4580.904062
773.078378	4534.785066
773.403453	4468.007421
773.728482	4451.588383
774.053465	4406.961569
774.378401	4393.196698
774.703291	4388.452973
775.028135	4314.451355
775.352932	4270.250518
775.677683	4258.580247
776.002388	4272.844191
776.327046	4285.865492
776.651658	4208.019994
776.976224	4149.898011
777.300743	4152.353053
777.625216	4177.422711
777.949643	4167.814272
778.274024	4127.215339
778.598359	4088.038012
778.922647	4112.724542
779.246889	4099.602419
779.571086	4092.408692
779.895236	4076.768512
780.219339	4065.718303
780.543397	4063.774938
780.867409	4111.701188
781.191374	4126.290287
781.515294	4064.173190
781.839167	4057.559196
782.162995	4078.298503
782.486776	4066.383736
782.810511	4076.461002
783.134201	4068.052357
783.457844	4018.407074
783.781441	3966.357161
784.104993	3974.443172
784.428498	3991.436901
784.751958	3986.284842
785.075372	3962.311635
785.398739	3927.923404
785.722061	3940.861525
786.045337	3989.115450
786.368568	4014.661497
786.691752	3925.924587
787.014891	3984.974142
787.337983	4112.565746
787.661030	4278.144965
787.984031	4439.172021
788.306987	4606.724852
788.629897	4693.087379
788.952760	4646.834792
789.275579	4582.403805
789.598351	4508.306405
789.921078	4358.896688
790.243759	4159.801358
790.566395	4150.089575
790.888984	4142.658914
791.211529	4029.369063
791.534027	3973.366885
791.856480	3957.835090
792.178888	3894.001480
792.501249	3851.960777
792.823566	3862.176676
793.145836	3888.327661
793.468062	3831.705421
793.790241	3791.109009
794.112375	3820.814008
794.434464	3889.598032
794.756507	3912.449582
795.078505	3887.626941
795.400457	3929.907098
795.722364	4073.524530
796.044226	4175.035724
796.366042	4249.841406
796.687812	4223.894588
797.009538	4226.026996
797.331218	4189.518959
797.652852	4165.810413
797.974442	4142.389212
798.295986	4137.579951
798.617484	4054.685738
798.938938	3970.906802
799.260346	4016.123432
799.581709	4004.208665
799.903026	3931.850463
800.224299	3898.921646
800.545526	3889.204822
800.866708	3847.895087
801.187845	3792.195378
801.508936	3827.244000
801.829983	3814.384017
802.150984	3742.272831
802.471940	3733.413003
802.792851	3741.861977
803.113717	3742.676124
803.434538	3742.429107
803.755314	3685.005324
804.076045	3661.435409
804.396731	3683.969367
804.717372	3711.483984
805.037967	3695.745502
805.358518	3681.771423
805.679024	3711.713357
805.999485	3721.599059
806.319901	3729.843867
806.640272	3741.952718
806.960598	3756.050305
807.280879	3729.637179
807.601115	3740.944487
807.921306	3761.961058
808.241453	3801.236687
808.561554	3771.776184
808.881611	3707.761092
809.201623	3747.765168
809.521590	3755.326899
809.841513	3729.047364
810.161390	3758.558279
810.481223	3733.390318
810.801011	3678.557688
811.120755	3674.897810
811.440453	3707.745969
811.760107	3711.078171
812.079716	3664.954134
812.399281	3634.359372
812.718801	3661.311901
813.038276	3630.031541
813.357707	3631.798465
813.677093	3647.670538
813.996434	3592.336313
814.315731	3605.791153
814.634983	3611.941360
814.954191	3627.435347
815.273354	3650.208759
815.592473	3646.190960
815.911547	3655.872496
816.230577	3700.211964
816.549562	3751.178030
816.868502	3786.584574
817.187399	3815.800581
817.506250	3815.530879
817.825058	3790.960295
818.143821	3889.504771
818.462539	3988.082013
818.781213	4030.856204
819.099843	4094.977160
819.418429	4357.591029
819.736970	4598.101958
820.055466	4851.417418
820.373919	5227.883226
820.692327	5642.951669
821.010691	6127.207428
821.329011	7597.719567
821.647286	10466.738523
821.965517	15179.642678
822.283704	19215.477021
822.601847	21238.270248
822.919945	19316.955448
823.237999	16654.611196
823.556010	14151.486748
823.873976	11993.157058
824.191897	9881.614317
824.509775	8540.690079
824.827609	7408.182264
825.145398	6885.281020
825.463144	6764.323574
825.780845	6870.213011
826.098502	7097.168278
826.416116	8026.880555
826.733685	9396.166325
827.051210	10499.629531
827.368692	10455.234610
827.686129	9139.672417
828.003522	7620.918957
828.320872	6596.813594
828.638177	5880.972268
828.955439	5311.878931
829.272656	4809.134740
829.589830	4538.361764
829.906960	4359.652861
830.224046	4167.587420
830.541088	4046.554357
830.858086	3997.085514
831.175041	3918.156168
831.491952	3906.654776
831.808819	3913.437648
832.125642	3996.200792
832.442421	4153.880522
832.759157	4442.862146
833.075849	5020.225496
833.392497	5914.997536
833.709101	6705.921807
834.025662	7011.816502
834.342179	6604.289625
834.658653	5927.449186
834.975083	5265.570892
835.291469	4682.569011
835.607811	4280.078247
835.924110	4138.338645
836.240366	3934.691153
836.556578	3728.240780
836.872746	3619.334213
837.188871	3575.024991
837.504952	3509.754651
837.820990	3426.414296
838.136984	3381.424518
838.452935	3411.547933
838.768842	3401.881521
839.084706	3429.665840
839.400526	3595.454267
839.716303	3953.008186
840.032037	4502.047813
840.347727	4740.655707
840.663373	4436.825364
840.978977	4047.529820
841.294537	3736.775453
841.610054	3510.026874
841.925527	3402.234402
842.240957	3332.270748
842.556344	3277.070113
842.871687	3216.730022
843.186987	3165.423679
843.502244	3130.720376
843.817458	3092.982298
844.132629	3065.082032
844.447756	3071.633012
844.762840	3056.305383
845.077881	3023.386649
845.392879	3008.051459
845.707833	3003.884945
846.022745	3002.261694
846.337613	3000.847650
846.652438	2989.638644
846.967221	2987.244096
847.281960	2976.082982
847.596656	2968.969914
847.911309	2971.369503
848.225919	2964.516054
848.540485	2959.033799
848.855009	2959.386680
849.169490	2946.950154
849.483928	2938.448248
849.798323	2941.477981
850.112675	2938.130655
850.426984	2948.661625
850.741251	2943.688527
851.055474	2932.497166
851.369654	2928.411310
851.683792	2936.832558
851.997887	2942.143413
852.311938	2946.526697
852.625947	2929.689243
852.939914	2934.947166
853.253837	2940.212652
853.567718	2928.582710
853.881555	2924.116247
854.195350	2940.779781
854.509103	2934.843823
854.822812	2925.860487
855.136479	2927.249324
855.450103	2925.542894
855.763685	2918.833118
856.077224	2916.920000
856.390720	2930.596651
856.704173	2938.758279
857.017584	2931.151178
857.330953	2930.175714
857.644278	2938.375151
857.957561	2946.980401
858.270802	2951.545165
858.584000	2949.090123
858.897155	2933.581014
859.210268	2935.612599
859.523339	2933.891045
859.836367	2933.923812
860.149352	2926.810744
860.462295	2923.881834
860.775195	2930.435334
861.088054	2929.089346
861.400869	2914.346491
861.713642	2912.768610
862.026373	2927.372833
862.339062	2930.452978
862.651708	2932.847526
862.964312	2939.940429
863.276873	2930.480704
863.589392	2941.954370
863.901869	2953.486010
864.214303	2977.408805
864.526696	2990.044457
864.839045	2986.591267
865.151353	2986.692090
865.463619	2984.743684
865.775842	2987.539004
866.088023	3006.198835
866.400162	3008.565657
866.712258	2979.306800
867.024313	2973.927888
867.336325	2982.737305
867.648296	3005.228413
867.960224	2996.179542
868.272110	2978.759834
868.583954	2985.918273
868.895755	2999.912516
869.207515	2985.386431
869.519233	2992.721310
869.830909	3004.507528
870.142542	3011.018178
870.454134	3011.169413
870.765684	3013.949609
871.077191	3011.918024
871.388657	3023.832791
871.700081	3037.794267
872.011463	3046.724671
872.322803	3048.383210
872.634101	3047.453117
872.945357	3067.136303
873.256571	3089.866865
873.567744	3086.028027
873.878874	3077.954619
874.189963	3100.750716
874.501010	3099.835747
874.812015	3092.883996
875.122979	3091.764860
875.433900	3090.648244
875.744780	3097.741147
876.055618	3106.139710
876.366415	3100.528906
876.677169	3110.984259
876.987882	3105.403701
877.298554	3105.257508
877.609183	3127.824233
877.919771	3153.007317
878.230317	3177.983714
878.540822	3234.903382
878.851285	3272.926285
879.161707	3318.147955
879.472087	3427.752722
879.782425	3675.727080
880.092722	4132.889158
880.402977	4674.712373
880.713191	5340.800031
881.023363	6548.489093
881.333494	7853.870676
881.643583	8379.872230
881.953631	8052.792086
882.263637	7383.468007
882.573602	6765.392299
882.883526	6180.497465
883.193408	5603.015648
883.503248	5149.790712
883.813048	4833.685160
884.122806	4510.315305
884.432522	4187.159699
884.742197	3944.536527
885.051831	3754.094337
885.361424	3623.369656
885.670975	3547.984242
885.980485	3455.655509
886.289954	3376.741287
886.599382	3328.852846
886.908768	3297.257414
887.218113	3252.416350
887.527417	3187.385466
887.836680	3139.262611
888.145901	3133.545943
888.455082	3123.698049
888.764221	3069.354410
889.073319	3042.837941
889.382376	3039.220913
889.691392	3046.404557
890.000366	3041.033208
890.309300	3028.379912
890.618193	3042.086809
890.927044	3056.204560
891.235855	3057.043913
891.544625	3045.592932
891.853353	3056.862431
892.162041	3076.835482
892.470687	3117.792337
892.779293	3173.171932
893.087858	3219.326217
893.396381	3292.914460
893.704864	3421.945313
894.013306	3674.663397
894.321707	3987.686283
894.630068	4188.120039
894.938387	4179.716436
895.246665	4133.662975
895.554903	4006.424252
895.863100	3799.530257
896.171256	3627.868886
896.479371	3482.567709
896.787446	3359.641693
897.095480	3250.271339
897.403473	3186.057122
897.711425	3152.382214
898.019336	3142.085657
898.327207	3109.880246
898.635038	3073.483115
898.942827	3059.486352
899.250576	3048.587377
899.558284	3014.806605
899.865952	2996.857577
900.173579	2974.474854
900.481165	2966.338431
900.788711	2952.205557
901.096216	2929.525405
901.403681	2919.533838
901.711105	2926.480548
902.018489	2925.003490
902.325832	2923.090373
902.633135	2934.473298
902.940397	2970.641056
903.247619	3060.116496
903.554800	3268.459822
903.861941	3633.502375
904.169041	4078.409408
904.476101	4373.818503
904.783121	4305.631856
905.090100	4046.937485
905.397039	3761.199843
905.703938	3507.160978
906.010796	3319.183913
906.317614	3209.019577
906.624391	3109.960904
906.931129	3036.329811
907.237826	2973.365800
907.544483	2925.167328
907.851099	2898.665982
908.157675	2872.562888
908.464211	2851.982377
908.770707	2840.055007
909.077163	2827.000939
909.383578	2810.188691
909.689954	2799.811476
909.996289	2798.523461
910.302584	2800.557567
910.608839	2799.287196
910.915054	2794.215795
911.221229	2784.970319
911.527363	2789.817388
911.833458	2795.274437
912.139513	2801.598565
912.445527	2805.258442
912.751502	2812.260605
913.057436	2823.905671
913.363331	2835.787670
913.669186	2860.406145
913.975000	2896.803276
914.280775	2961.471197
914.586510	3032.415355
914.892205	3116.078345
915.197859	3254.536156
915.503475	3457.205664
915.809050	3687.467927
916.114585	3830.946728
916.420081	3840.719004
916.725536	3777.613840
917.030952	3651.466527
917.336328	3518.180940
917.641665	3383.544324
917.946961	3279.164713
918.252218	3207.265256
918.557435	3123.947586
918.862612	3063.032803
919.167750	3012.845596
919.472848	2974.288331
919.777906	2947.996193
920.082925	2920.451328
920.387904	2887.197357
920.692843	2871.121117
920.997743	2859.284488
921.302603	2845.091120
921.607423	2833.461178
921.912204	2819.282932
922.216946	2809.104843
922.521647	2800.315591
922.826310	2793.096659
923.130932	2784.282201
923.435516	2774.323402
923.740059	2765.829058
924.044564	2759.078953
924.349028	2754.272212
924.653454	2748.187540
924.957840	2742.269225
925.262186	2738.135479
925.566493	2733.825292
925.870761	2728.053171
926.174989	2725.472101
926.479178	2718.454814
926.783328	2715.004145
927.087438	2712.392827
927.391509	2712.113043
927.695541	2705.690613
927.999533	2706.532486
928.303486	2702.549974
928.607400	2702.628112
928.911275	2703.049048
929.215110	2699.260621
929.518906	2698.103676
929.822663	2698.519572
930.126381	2699.643749
930.430060	2698.837164
930.733699	2700.553677
931.037299	2701.713142
931.340861	2702.938143
931.644383	2702.761702
931.947866	2699.996630
932.251309	2699.371527
932.554714	2697.193748
932.858080	2697.667617
933.161407	2696.548480
933.464694	2693.869107
933.767943	2690.446164
934.071153	2692.450022
934.374323	2693.672502
934.677455	2692.749971
934.980548	2691.572862
935.283602	2690.451205
935.586617	2689.919363
935.889593	2688.989270
936.192530	2691.298119
936.495428	2690.138653
936.798287	2693.407842
937.101108	2695.880527
937.403890	2701.224151
937.706632	2704.289172
938.009336	2709.965511
938.312002	2720.998077
938.614628	2728.224571
938.917216	2734.082391
939.219765	2735.715725
939.522275	2736.358472
939.824747	2733.127093
940.127179	2730.578789
940.429573	2727.690208
940.731929	2724.562172
941.034246	2720.720813
941.336524	2716.370297
941.638763	2713.627910
941.940964	2716.108157
942.243126	2710.751931
942.545250	2712.390306
942.847335	2708.551468
943.149381	2705.015098
943.451389	2700.019315
943.753359	2697.128213
944.055290	2696.165353
944.357182	2697.050075
944.659036	2695.762060
944.960851	2693.743078
945.262628	2692.187882
945.564367	2694.209385
945.866067	2690.809127
946.167729	2693.980012
946.469352	2695.048737
946.770937	2692.591175
947.072484	2689.831143
947.373992	2692.152594
947.675462	2688.117151
947.976893	2685.546162
948.278286	2684.469876
948.579641	2683.890143
948.880958	2682.667663
949.182236	2684.512726
949.483476	2682.725637
949.784678	2684.101872
950.085841	2683.834690
950.386967	2684.792510
950.688054	2684.401820
950.989103	2685.357119
951.290114	2684.812674
951.591087	2687.688652
951.892021	2692.245856
952.192917	2695.832637
952.493776	2695.837678
952.794596	2695.910774
953.095378	2694.342976
953.396122	2697.513861
953.696828	2696.654345
953.997496	2691.368695
954.298126	2691.998839
954.598718	2687.575227
954.899272	2685.704958
955.199788	2683.338137
955.500266	2680.880574
955.800706	2677.162723
956.101108	2676.474606
956.401472	2671.622495
956.701798	2670.765499
957.002087	2668.010508
957.302337	2670.785664
957.602550	2670.515962
957.902724	2664.844664
958.202861	2664.330466
958.502960	2662.261072
958.803022	2662.571103
959.103045	2664.252328
959.403031	2662.334169
959.702979	2659.291833
960.002889	2662.084632
960.302762	2658.843170
960.602596	2658.805362
960.902393	2658.850732
961.202153	2659.712769
961.501875	2662.003974
961.801559	2658.397028
962.101205	2655.074908
962.400814	2658.253355
962.700385	2657.885351
962.999918	2652.924856
963.299414	2652.065339
963.598873	2655.508447
963.898293	2654.076759
964.197677	2655.783190
964.497022	2658.744868
964.796331	2655.369815
965.095601	2656.327634
965.394835	2655.387459
965.694030	2655.263951
965.993189	2656.373005
966.292309	2655.188334
966.591393	2656.118427
966.890439	2654.467449
967.189447	2653.575164
967.488419	2654.331337
967.787353	2656.690597
968.086249	2652.738333
968.385108	2654.056595
968.683930	2653.693632
968.982714	2654.444763
969.281462	2654.225473
969.580172	2652.617345
969.878844	2654.104486
970.177480	2654.336379
970.476078	2653.439053
970.774639	2656.312511
971.073162	2655.664723
971.371649	2653.781852
971.670098	2656.925011
971.968510	2653.476862
972.266885	2652.982829
972.565223	2659.153201
972.863524	2656.050371
973.161788	2657.093890
973.460014	2654.550628
973.758204	2657.434168
974.056356	2655.339568
974.354471	2656.909888
974.652550	2654.464928
974.950591	2654.976605
975.248595	2653.938127
975.546563	2654.618683
975.844493	2654.477531
976.142386	2654.709424
976.440243	2655.011893
976.738062	2655.689928
977.035845	2652.836635
977.333590	2652.488796
977.631299	2652.667757
977.928971	2650.684063
978.226606	2650.177427
978.524204	2650.230359
978.821765	2650.222797
979.119290	2654.011224
979.416777	2652.027530
979.714228	2650.479896
980.011642	2651.384783
980.309020	2654.275885
980.606360	2656.224291
980.903664	2654.439722
981.200931	2653.426450
981.498162	2652.231697
981.795356	2656.090700
982.092513	2655.339568
982.389633	2658.941473
982.686717	2664.431289
982.983764	2664.148985
983.280775	2670.962104
983.577749	2670.059737
983.874686	2671.093174
984.171587	2668.678461
984.468451	2665.540343
984.765279	2662.729900
985.062070	2660.179076
985.358824	2659.952224
985.655543	2659.468273
985.952224	2654.583395
986.248869	2657.010711
986.545478	2653.481903
986.842050	2653.562562
987.138586	2655.183292
987.435086	2653.461738
987.731549	2649.869916
988.027975	2648.995276
988.324366	2650.661377
988.620719	2651.125164
988.917037	2650.013589
989.213318	2650.706748
989.509563	2648.423105
989.805772	2650.489978
990.101944	2652.082983
990.398080	2648.392858
990.694180	2648.642395
990.990244	2647.611479
991.286271	2648.274391
991.582262	2650.225318
991.878217	2651.160452
992.174136	2653.623055
992.470019	2650.386635
992.765865	2647.707261
993.061676	2646.996459
993.357450	2648.629792
993.653188	2645.796664
993.948890	2649.771614
994.244556	2649.244813
994.540186	2649.295225
994.835780	2649.804381
995.131337	2651.762870
995.426859	2652.483755
995.722345	2652.261944
996.017795	2653.925525
996.313208	2654.956441
996.608586	2652.166162
996.903928	2654.404434
997.199234	2653.948210
997.494504	2656.017603
997.789738	2652.970226
998.084936	2652.927376
998.380099	2652.019968
998.675225	2651.798158
998.970316	2650.865544
999.265371	2652.377890
999.560390	2649.451501
999.855373	2650.439567
1000.150320	2649.806902
1000.445232	2648.821356
1000.740108	2649.292704
1001.034948	2648.576860
1001.329752	2649.486789
1001.624521	2649.617859
1001.919254	2647.752632
1002.213951	2647.858496
1002.508613	2648.662560
1002.803239	2647.601397
1003.097829	2649.116264
1003.392384	2646.636016
1003.686903	2648.657519
1003.981386	2645.592497
1004.275834	2647.571150
1004.570246	2649.350677
1004.864623	2644.100316
1005.158964	2648.196253
1005.453270	2647.740029
1005.747540	2644.806077
1006.041775	2645.252219
1006.335974	2646.880512
1006.630138	2647.518218
1006.924266	2646.575522
1007.218359	2646.699031
1007.512416	2645.310193
1007.806438	2645.254740
1008.100425	2646.033598
1008.394376	2641.531848
1008.688292	2647.770276
1008.982172	2647.314051
1009.276017	2647.855975
1009.569827	2645.877323
1009.863602	2645.985707
1010.157341	2645.680717
1010.451045	2648.138280
1010.744714	2649.506953
1011.038347	2644.566622
1011.331945	2648.556696
1011.625508	2645.673156
1011.919036	2647.021664
1012.212528	2644.982518
1012.505986	2646.877992
1012.799408	2648.660039
1013.092795	2649.207005
1013.386147	2647.026706
1013.679464	2646.867909
1013.972745	2645.612662
1014.265992	2644.594349
1014.559204	2646.404123
1014.852380	2643.754997
1015.145521	2648.833959
1015.438628	2646.147024
1015.731699	2645.867240
1016.024736	2646.845224
1016.317737	2645.801705
1016.610703	2645.917652
1016.903635	2647.661891
1017.196531	2645.433701
1017.489393	2646.681387
1017.782219	2647.689617
1018.075011	2646.290697
1018.367768	2644.811118
1018.660490	2645.910090
1018.953177	2645.910090
1019.245829	2645.910090
