Dividing Wavelength (nm)	Counts (n)	Blue Motor Position (mm): 37.700000	Red Motor Position (mm): 0.000000	
326.493990	2238.481516
326.888308	2238.481516
327.282561	2238.481516
327.676750	2200.166226
328.070874	2195.495597
328.464933	2196.105576
328.858929	2201.093798
329.252859	2205.509849
329.646726	2213.202650
330.040528	2226.327294
330.434265	2241.297000
330.827938	2257.708476
331.221547	2277.752104
331.615091	2291.953034
332.008571	2312.591518
332.401986	2329.234888
332.795338	2349.001252
333.188625	2367.386340
333.581847	2389.859804
333.975006	2405.651218
334.368100	2426.229208
334.761129	2443.636313
335.154095	2459.715073
335.546996	2487.927890
335.939833	2525.111441
336.332606	2544.202291
336.725315	2552.689073
337.117960	2566.549726
337.510540	2575.480130
337.903056	2590.671647
338.295508	2601.021136
338.687896	2607.352825
339.080220	2615.678290
339.472480	2620.711882
339.864676	2628.699591
340.256807	2632.513224
340.648875	2633.186218
341.040879	2636.520941
341.432818	2643.134935
341.824694	2646.683907
342.216506	2647.523259
342.608253	2646.310862
342.999937	2647.843372
343.391557	2648.836480
343.783113	2647.687097
344.174605	2644.160810
344.566033	2642.290542
344.957397	2643.301293
345.348697	2641.844399
345.739934	2639.427166
346.131106	2638.431538
346.522215	2636.324336
346.913260	2633.680251
347.304241	2634.212092
347.695159	2630.955507
348.086012	2631.517596
348.476802	2627.794704
348.867528	2621.735237
349.258191	2621.750360
349.648789	2620.621142
350.039324	2615.622838
350.429796	2618.352622
350.820203	2617.404886
351.210548	2619.696090
351.600828	2615.668208
351.991045	2617.067128
352.381198	2616.227776
352.771288	2614.128136
353.161314	2613.795419
353.551276	2613.681993
353.941175	2615.156531
354.331010	2612.991355
354.720782	2611.610079
355.110490	2614.554113
355.500135	2611.917590
355.889717	2610.863988
356.279235	2611.796602
356.668689	2612.638475
357.058080	2613.843310
357.447408	2614.317179
357.836672	2614.234000
358.225873	2613.394648
358.615010	2612.222579
359.004084	2615.537138
359.393095	2615.431274
359.782043	2615.264916
360.170927	2614.057559
360.559748	2618.087962
360.948505	2617.719958
361.337199	2617.762807
361.725830	2618.657612
362.114398	2618.904629
362.502903	2620.820267
362.891344	2620.686677
363.279722	2620.074177
363.668037	2622.234311
364.056289	2619.675925
364.444478	2620.301028
364.832603	2620.411934
365.220665	2622.776235
365.608665	2623.673560
365.996601	2622.367902
366.384474	2627.220012
366.772284	2626.158849
367.160031	2624.119702
367.547715	2626.524333
367.935336	2625.039713
368.322893	2625.158180
368.710388	2623.101389
369.097820	2626.950310
369.485189	2622.332613
369.872495	2628.497945
370.259738	2628.618932
370.646918	2629.380147
371.034035	2627.648510
371.421090	2629.453243
371.808081	2627.051133
372.195010	2629.796042
372.581875	2633.380302
372.968678	2632.616567
373.355418	2632.593882
373.742096	2633.352576
374.128710	2632.772843
374.515262	2635.706795
374.901751	2634.191928
375.288177	2634.678399
375.674540	2633.390384
376.060841	2637.602268
376.447079	2634.386012
376.833254	2634.839716
377.219367	2636.170581
377.605417	2638.953298
377.991404	2639.157464
378.377329	2638.602937
378.763191	2637.919861
379.148991	2639.669142
379.534727	2640.140489
379.920402	2640.659728
380.306013	2639.492701
380.691563	2641.902373
381.077049	2642.492188
381.462474	2644.160810
381.847835	2641.378093
382.233134	2645.206849
382.618371	2644.246509
383.003545	2647.596356
383.388657	2644.334729
383.773706	2647.669453
384.158693	2648.166006
384.543618	2647.419916
384.928480	2651.016779
385.313280	2651.321769
385.698017	2648.355050
386.082692	2650.568116
386.467305	2653.388642
386.851856	2652.924856
387.236344	2652.841677
387.620770	2649.088537
388.005133	2650.583240
388.389435	2655.011893
388.773674	2649.539721
389.157851	2654.507778
389.541965	2656.398211
389.926018	2655.170690
390.310008	2658.316370
390.693936	2657.477017
391.077802	2656.733447
391.461606	2657.209836
391.845348	2660.564724
392.229027	2660.342913
392.612645	2661.845177
392.996200	2661.426762
393.379694	2668.680982
393.763125	2668.514624
394.146494	2671.113339
394.529801	2676.373783
394.913047	2680.729340
395.296230	2686.574557
395.679351	2697.662575
396.062410	2709.655480
396.445408	2720.042778
396.828343	2735.337639
397.211217	2754.136101
397.594028	2774.048659
397.976778	2804.524955
398.359466	2833.446054
398.742092	2868.247660
399.124656	2896.097514
399.507158	2949.498457
399.889598	3006.642456
400.271977	3077.027046
400.654294	3126.206023
401.036549	3193.447453
401.418742	3237.045872
401.800874	3342.295082
402.182944	3419.757452
402.564952	3523.002804
402.946898	3613.156278
403.328783	3636.612767
403.710606	3714.917010
404.092367	3905.215527
404.474067	3995.472345
404.855705	4035.766288
405.237282	4082.802774
405.618797	4274.769912
406.000250	4348.695913
406.381642	4527.946741
406.762972	4622.468375
407.144240	4731.490889
407.525447	4807.088032
407.906593	4913.400925
408.287677	5088.671762
408.668700	5115.039518
409.049661	5267.410913
409.430560	5366.212487
409.811399	5331.637734
410.192176	5602.345175
410.572891	5670.413354
410.953545	5901.141925
411.334138	5767.437922
411.714669	5969.441998
412.095139	5869.322162
412.475547	6118.579493
412.855894	6231.743315
413.236180	6438.400375
413.616405	6227.833900
413.996568	6462.741587
414.376670	6522.527151
414.756711	6475.261292
415.136691	6600.024809
415.516609	6817.379198
415.896466	6851.127203
416.276262	7066.752476
416.655997	7075.778662
417.035670	7291.325797
417.415283	7635.482850
417.794834	7700.387706
418.174324	7597.517920
418.553753	7533.066768
418.933121	7865.145216
419.312428	7979.123184
419.691674	7780.078266
420.070859	8256.006039
420.449983	7956.997560
420.829045	8323.791914
421.208047	8122.659958
421.586988	8416.778517
421.965867	8440.476981
422.344686	8562.871156
422.723444	8588.694466
423.102141	7982.422619
423.480777	8721.415444
423.859352	8250.367508
424.237866	8874.837920
424.616319	8744.841686
424.994712	9151.680445
425.373044	8727.295950
425.751314	9182.907873
426.129524	9047.777223
426.507673	9185.917442
426.885762	9336.428652
427.263789	9248.347091
427.641756	9163.698556
428.019662	9269.517417
428.397508	9504.989713
428.775292	9203.785812
429.153016	9582.159696
429.530679	9410.183253
429.908282	9458.946334
430.285824	9173.939660
430.663305	9850.180202
431.040726	9308.956884
431.418086	9296.311149
431.795385	9622.539338
432.172624	9699.774856
432.549802	9624.394483
432.926920	9702.970948
433.303977	9578.192308
433.680974	9787.715264
434.057910	9872.147030
434.434786	9931.526781
434.811601	9777.874932
435.188355	10346.890131
435.565050	10067.695908
435.941683	10001.787863
436.318257	10498.868317
436.694770	10623.553696
437.071222	10688.723212
437.447614	10541.486232
437.823946	10435.100241
438.200218	10575.657693
438.576429	10389.397141
438.952580	10627.236258
439.328670	10678.645945
439.704700	10461.596546
440.080670	10456.298293
440.456580	11019.168326
440.832429	10762.999573
441.208218	10365.912925
441.583947	10701.376508
441.959616	10840.903044
442.335224	10649.578652
442.710773	10792.384458
443.086261	10992.745118
443.461689	10284.762951
443.837057	10927.681466
444.212365	11201.902591
444.587612	10842.299443
444.962800	11079.205948
445.337927	10845.737510
445.712995	10440.022928
446.088002	11517.347752
446.462949	11177.556339
446.837837	11154.059521
447.212664	11130.088834
447.587431	11654.676344
447.962139	12372.206457
448.336786	14636.730573
448.711374	15176.930537
449.085901	13033.683979
449.460369	12648.660813
449.834776	12094.486771
450.209124	12972.020585
450.583412	13375.456566
450.957640	14331.718080
451.331808	13472.985249
451.705917	12464.754479
452.079965	11769.463417
452.453954	12670.083196
452.827883	12304.347485
453.201752	12591.569746
453.575562	12112.831529
453.949311	12530.652443
454.323001	12494.373779
454.696632	12715.740927
455.070202	13012.405269
455.443713	13235.214186
455.817164	13701.321792
456.190556	13694.256614
456.563888	14053.814392
456.937160	14233.309716
457.310373	13564.759454
457.683526	13654.297908
458.056619	13199.953836
458.429653	13359.108104
458.802628	12777.855504
459.175542	13153.673523
459.548398	14115.674391
459.921194	14443.331747
460.293930	14500.357279
460.666607	15384.061466
461.039224	16426.587205
461.411782	17127.773896
461.784280	16984.537071
462.156719	17051.281948
462.529099	16735.675471
462.901419	15667.742316
463.273680	15455.865141
463.645882	15327.953424
464.018024	15055.405962
464.390106	15281.990703
464.762130	15992.821122
465.134094	16767.235614
465.505999	18772.672149
465.877845	22030.230477
466.249631	24853.589182
466.621358	24532.495408
466.993026	23091.169030
467.364634	22535.225543
467.736184	21066.089639
468.107674	20266.935684
468.479105	20396.594161
468.850477	19866.423573
469.221790	19445.514953
469.593043	18770.058311
469.964238	18207.352116
470.335373	17856.543261
470.706449	18316.485535
471.077467	17873.103451
471.448425	19713.495130
471.819324	23759.094188
472.190164	25744.585398
472.560945	22171.760871
472.931667	19812.546241
473.302330	19191.839050
473.672934	18738.583867
474.043479	19049.186999
474.413965	18850.804993
474.784393	18473.134349
475.154761	19176.526546
475.525070	19149.067381
475.895321	18825.173246
476.265513	19410.405837
476.635645	20006.844913
477.005719	19790.135792
477.375734	19964.269848
477.745691	20456.626742
478.115588	20971.273097
478.485427	21512.277125
478.855207	22577.825813
479.224928	24347.502706
479.594591	26574.651708
479.964194	26586.206032
480.333739	26802.219475
480.703226	26365.600099
481.072653	26044.365173
481.442022	26627.437630
481.811333	27541.769347
482.180584	27453.415564
482.549777	26506.946491
482.918912	26157.949931
483.287988	26294.865149
483.657005	25951.696162
484.025964	25701.314654
484.394864	25620.368847
484.763706	25292.855163
485.132489	24725.034718
485.501213	24904.572891
485.869879	24815.825898
486.238487	24636.668332
486.607036	24788.255828
486.975527	24490.406815
487.343959	24810.348685
487.712333	24755.369861
488.080648	24408.598970
488.448905	24892.811879
488.817104	24655.920498
489.185244	25332.536606
489.553326	25294.972448
489.921350	26293.012525
490.289315	28598.150697
490.657222	30367.449504
491.025070	30863.302437
491.392861	30636.984876
491.760593	29788.730083
492.128267	28889.962929
492.495883	27843.063989
492.863440	26962.044216
493.230939	26089.690187
493.598380	25936.451713
493.965763	25543.355139
494.333088	25083.007052
494.700354	25023.675192
495.067563	24891.607044
495.434713	24643.511698
495.801805	24793.601972
496.168839	24605.055256
496.535815	24441.837818
496.902733	24650.811289
497.269593	24341.201264
497.636395	24525.110118
498.003139	24470.877385
498.369825	24220.455547
498.736453	24434.167702
499.103023	24299.576457
499.469535	24310.561131
499.835989	24519.668192
500.202385	24544.803385
500.568723	24064.777154
500.935003	24286.625732
501.301226	23914.762498
501.667390	24763.082826
502.033497	24977.362112
502.399546	24726.612599
502.765537	24293.269973
503.131470	24669.957591
503.497345	24806.708972
503.863163	24037.809502
504.228923	24611.505412
504.594625	24834.904145
504.960269	24378.657037
505.325856	24855.368709
505.691385	24247.236677
506.056856	24867.533013
506.422270	24825.323432
506.787625	24397.052207
507.152924	24813.196937
507.518164	24837.124773
507.883347	24650.050075
508.248472	24335.328320
508.613540	25103.103612
508.978550	24907.297635
509.343503	24907.259826
509.708398	25150.734954
510.073236	25315.053884
510.438016	25525.496852
510.802738	25189.650141
511.167403	25438.841938
511.532010	25159.166284
511.896561	25930.823265
512.261053	25890.186524
512.625488	25723.919188
512.989866	25605.401661
513.354186	25466.162471
513.718449	25583.351654
514.082655	25957.647245
514.446803	25690.501379
514.810894	26159.537894
515.174927	25649.363043
515.538904	25674.505798
515.902822	26165.834296
516.266684	25926.823109
516.630488	25833.481105
516.994235	25794.880990
517.357925	26114.903518
517.721558	26282.163962
518.085133	26386.626752
518.448651	26284.777800
518.812112	26033.897217
519.175516	26245.328251
519.538863	26404.071665
519.902152	26173.048187
520.265385	26453.550590
520.628560	26241.401192
520.991678	26247.392603
521.354739	26313.913149
521.717743	26383.110547
522.080690	26176.156058
522.443580	26508.491605
522.806413	26491.770097
523.169189	26585.742246
523.531908	26643.667625
523.894569	26250.916370
524.257174	26338.773599
524.619722	26503.203434
524.982213	26197.323863
525.344647	26246.580977
525.707025	26405.831027
526.069345	26359.417124
526.431608	26330.059964
526.793815	26509.240216
527.155964	25984.511553
527.518057	26154.358109
527.880093	26074.808701
528.242072	26307.203373
528.603995	26016.898446
528.965860	25811.168958
529.327669	25858.172676
529.689421	25843.502919
530.051117	25676.018144
530.412755	25856.415834
530.774337	25660.690516
531.135862	25528.037593
531.497331	25723.684774
531.858743	25294.465812
532.220098	25768.873677
532.581396	25452.939524
532.942638	25363.522058
533.303824	25485.306253
533.664953	25486.795914
534.026025	25144.191537
534.387040	25389.405862
534.747999	25450.290398
535.108902	25603.380158
535.469748	25105.160403
535.830537	25273.582832
536.191270	25398.444651
536.551947	25255.638845
536.912567	24903.005092
537.273131	25294.019670
537.633638	24973.644261
537.994089	25191.732138
538.354483	24709.520567
538.714821	25216.053185
539.075103	25260.044814
539.435328	25043.381063
539.795497	24615.923984
540.155609	24980.061650
540.515665	25297.745083
540.875665	24513.197871
541.235609	24844.426885
541.595496	24777.558500
541.955328	25146.606249
542.315102	25058.000409
542.674821	24584.101700
543.034483	24476.909125
543.394090	24645.167717
543.753640	24436.963022
544.113134	25075.962040
544.472571	24650.314735
544.831953	24957.046262
545.191278	24607.114567
545.550548	24500.962991
545.909761	24705.868251
546.268918	24941.106133
546.628019	24905.976853
546.987064	24597.468320
547.346053	24353.264745
547.704986	24462.420849
548.063863	24624.864470
548.422684	24638.858713
548.781449	24148.349403
549.140158	24559.208483
549.498811	24138.410768
549.857408	23885.780905
550.215949	24296.697958
550.574434	23985.762109
550.932864	24189.951525
551.291237	24374.692169
551.649555	24209.700245
552.007817	24279.253045
552.366022	24134.518997
552.724173	24169.492002
553.082267	24127.163954
553.440305	24601.952426
553.798288	23852.201779
554.156215	24361.018040
554.514086	24468.003927
554.871902	23850.021480
555.229661	24130.957422
555.587365	23985.220185
555.945014	23860.101267
556.302606	24101.451549
556.660143	24068.457197
557.017625	24306.704648
557.375050	23822.327901
557.732421	24231.974583
558.089735	24041.159349
558.446994	24099.087247
558.804197	24123.773778
559.161345	24041.562641
559.518437	23831.631351
559.875474	24013.160780
560.232455	24185.457336
560.589381	24003.262475
560.946251	23997.220652
561.303065	24310.714886
561.659825	24387.423603
562.016528	24003.796837
562.373177	23742.649944
562.729770	24105.297949
563.086307	23961.378048
563.442789	24127.252174
563.799216	23974.182579
564.155587	23973.857424
564.511904	23948.669299
564.868164	23894.013109
565.224370	23869.530745
565.580520	23789.535196
565.936615	23913.144288
566.292654	23606.261527
566.648638	23865.520507
567.004567	23709.706004
567.360441	23650.590913
567.716260	23374.035734
568.072023	23707.830695
568.427732	23481.911385
568.783385	23248.112752
569.138982	23478.216219
569.494525	23515.404811
569.850013	23269.494806
570.205445	23370.055743
570.560823	23191.533362
570.916145	22944.244601
571.271412	23131.271409
571.626625	22885.391650
571.981782	22995.850893
572.336884	22800.740595
572.691931	22947.735600
573.046923	22679.163088
573.401860	22545.814486
573.756743	22565.943813
574.111570	22463.598308
574.466342	22391.812277
574.821059	22465.415644
575.175722	22182.586749
575.530330	22158.681597
575.884882	22187.358201
576.239380	22091.457811
576.593823	21983.534268
576.948211	21960.828912
577.302544	21799.179272
577.656823	21672.739572
578.011047	21776.975510
578.365216	21653.578146
578.719330	21517.383813
579.073389	21413.117628
579.427394	21565.640259
579.781344	21326.354330
580.135239	21211.937781
580.489080	21175.512924
580.842866	20954.758277
581.196597	21148.885550
581.550273	21109.453644
581.903895	20996.793938
582.257463	21304.556380
582.610975	20846.111329
582.964434	21171.795073
583.317837	20856.123061
583.671186	20937.658683
584.024481	20921.166548
584.377721	20684.940599
584.730906	20764.225347
585.084037	20767.388671
585.437113	20684.996052
585.790135	20887.806713
586.143103	20340.796150
586.496016	20362.936897
586.848874	20607.881522
587.201679	20522.345744
587.554428	20219.810978
587.907124	20554.838501
588.259765	20298.178235
588.612352	20384.039167
588.964884	19959.079981
589.317362	20122.294898
589.669786	20179.786737
590.022155	20203.880932
590.374470	20421.298336
590.726731	20204.861436
591.078937	19978.190995
591.431090	20067.996630
591.783188	19822.454629
592.135232	19783.776376
592.487222	19892.390556
592.839157	19909.989224
593.191038	19786.221336
593.542866	19667.439148
593.894639	19378.018944
594.246358	19609.443194
594.598022	19497.428755
594.949633	19250.767618
595.301190	19219.457012
595.652692	19399.332943
596.004141	19636.310023
596.355535	18955.718966
596.706876	18980.287029
597.058162	18862.019039
597.409395	19104.047356
597.760573	19163.817797
598.111698	18935.272046
598.462768	18875.345330
598.813785	18856.015025
599.164748	18653.874838
599.515657	18703.920893
599.866511	18498.143514
600.217312	18860.446199
600.568060	18371.819760
600.918753	18686.755764
601.269392	18574.277540
601.619978	18370.269605
601.970510	18561.714984
602.320988	18514.733951
602.671412	18720.952431
603.021783	18639.991501
603.372100	18353.580865
603.722363	18505.556530
604.072572	18445.849104
604.422728	18588.428058
604.772830	18340.897322
605.122878	18309.281726
605.472872	18291.612482
605.822813	18279.707797
606.172701	18252.561183
606.522534	18433.074820
606.872314	18461.330488
607.222041	18301.288977
607.571714	18514.670937
607.921333	18340.826746
608.270899	18421.086957
608.620411	18584.947142
608.969870	18369.689872
609.319276	18372.502836
609.668627	18400.403102
610.017926	18530.734573
610.367171	18651.351741
610.716362	18694.486374
611.065500	18511.396707
611.414585	18645.294794
611.763616	18640.430081
612.112594	18568.596159
612.461518	18540.829484
612.810389	18738.455318
613.159207	18587.568542
613.507971	18506.075769
613.856682	18765.561602
614.205340	18696.790181
614.553945	18858.119707
614.902496	18589.547195
615.250994	18812.739240
615.599439	18762.236961
615.947830	18740.857427
616.296169	18805.326223
616.644454	18769.715512
616.992686	18735.118074
617.340864	18964.288927
617.688990	18694.221713
618.037063	18877.918839
618.385082	18731.246467
618.733048	19014.067801
619.080961	18891.847547
619.428821	18930.006561
619.776628	18808.366039
620.124382	18732.642867
620.472083	18785.033058
620.819731	18804.529721
621.167326	18490.664962
621.514868	18529.749028
621.862357	18313.039906
622.209793	18314.315318
622.557176	18140.861817
622.904506	17975.330489
623.251783	17901.263337
623.599007	17639.234242
623.946179	17581.384481
624.293297	17522.443310
624.640363	17262.662570
624.987376	17290.482178
625.334336	17094.262826
625.681243	16936.890606
626.028097	16947.381247
626.374899	16867.887292
626.721647	16741.485400
627.068343	16564.114923
627.414987	16509.463774
627.761577	16477.207951
628.108115	16501.440778
628.454600	16232.515385
628.801032	16331.445508
629.147412	16268.771363
629.493739	16286.463293
629.840014	16087.864516
630.186236	16192.339909
630.532405	15949.527693
630.878521	16163.703635
631.224585	16054.252623
631.570597	15875.793256
631.916556	15897.770166
632.262462	15882.525717
632.608316	15798.943386
632.954117	15743.145375
633.299866	15738.081536
633.645562	15656.387117
633.991206	15409.584828
634.336797	15282.857782
634.682336	15251.680766
635.027823	15131.071160
635.373257	15008.533313
635.718639	14912.184260
636.063968	14851.377862
636.409245	14606.962559
636.754470	14650.934024
637.099642	14483.419002
637.444762	14260.171504
637.789829	14298.136434
638.134845	14130.167708
638.479808	14165.667513
638.824719	14093.553808
639.169577	13953.039206
639.514383	14005.023584
639.859137	13820.978619
640.203839	13918.587961
640.548489	13755.572169
640.893086	13747.226538
641.237632	13615.322228
641.582125	13770.010033
641.926566	13592.778188
642.270955	13605.834776
642.615292	13569.772882
642.959576	13574.299838
643.303809	13601.839662
643.647990	13541.184498
643.992118	13601.146503
644.336195	13365.079351
644.680219	13583.943565
645.024192	13503.118746
645.368112	13746.825767
645.711981	13796.506338
646.055797	13980.357219
646.399562	13951.476448
646.743274	14223.996184
647.086935	14496.934336
647.430544	14466.090036
647.774101	14490.514426
648.117606	14636.072702
648.461059	14622.648110
648.804460	14596.998719
649.147810	14319.447912
649.491108	14224.500299
649.834354	14242.514863
650.177548	13923.235904
650.520690	13738.971649
650.863781	13665.658149
651.206820	13710.184140
651.549807	13540.566957
651.892742	13336.632119
652.235626	13276.786062
652.578458	13285.474490
652.921238	12963.533803
653.263967	13165.661387
653.606644	12996.303823
653.949269	12975.446049
654.291843	12769.373762
654.634365	12935.802415
654.976836	12783.587296
655.319255	12782.735341
655.661622	12746.660844
656.003938	12667.960870
656.346203	12600.706837
656.688416	12675.356243
657.030577	12627.982000
657.372687	12536.674101
657.714746	12521.033921
658.056753	12715.146070
658.398708	12524.184642
658.740612	12522.228674
659.082465	12626.638532
659.424266	12598.513935
659.766016	12622.877832
660.107715	12532.565560
660.449362	12615.363992
660.790958	12570.427146
661.132503	12505.696210
661.473996	12581.399218
661.815438	12595.527051
662.156829	12617.314918
662.498168	12589.301226
662.839456	12585.112028
663.180693	12602.509049
663.521879	12697.020602
663.863013	12672.818022
664.204097	12645.908343
664.545129	12772.471551
664.886110	12747.646389
665.227040	12844.555010
665.567918	12842.044516
665.908746	12861.367258
666.249522	12849.714631
666.590248	12907.410637
666.930922	13020.400539
667.271545	12996.505469
667.612118	13087.309253
667.952639	12983.574910
668.293109	13001.924710
668.633528	12949.897482
668.973896	12932.336622
669.314213	13002.688445
669.654480	12743.767221
669.994695	12829.043380
670.334859	12847.914939
670.674973	12788.167184
671.015035	12828.052793
671.355047	12767.180860
671.695008	12734.811612
672.034918	12744.480545
672.374777	12788.850260
672.714585	12705.628372
673.054342	12735.401427
673.394049	12686.892924
673.733705	12780.113941
674.073310	12690.865353
674.412864	12711.052653
674.752368	12565.088564
675.091820	12595.756424
675.431223	12578.198085
675.770574	12445.640945
676.109875	12359.931247
676.449125	12321.668889
676.788324	12272.313473
677.127473	12103.243255
677.466571	12094.232192
677.805619	11983.780512
678.144616	11917.557394
678.483562	11886.937426
678.822458	11747.637742
679.161303	11728.683003
679.500098	11716.402753
679.838842	11671.559169
680.177535	11701.178468
680.516179	11766.652974
680.854771	11712.364788
681.193314	11920.007395
681.531805	12082.493866
681.870247	12519.627439
682.208638	12930.932661
682.546978	13236.101429
682.885268	13269.894804
683.223508	12972.973363
683.561697	12813.730875
683.899836	12726.135786
684.237925	12513.270544
684.575963	12427.202924
684.913951	12352.545957
685.251889	12291.384158
685.589776	12403.144018
685.927614	12322.659476
686.265401	12289.763427
686.603137	12342.052795
686.940824	12495.061896
687.278460	12622.446813
687.616046	12659.365703
687.953582	12823.359479
688.291068	12754.736772
688.628504	12988.429541
688.965889	13002.030574
689.303224	12959.548771
689.640510	12845.774969
689.977745	12538.448587
690.314930	12313.827374
690.652065	12223.333622
690.989150	11923.884042
691.326185	11701.561596
691.663170	11500.631286
692.000105	11256.586507
692.336990	11134.512447
692.673825	10881.335618
693.010610	10769.263206
693.347345	10560.146062
693.684030	10365.703717
694.020665	10298.323655
694.357251	10100.476011
694.693786	10035.548470
695.030272	9878.859326
695.366707	9760.508157
695.703093	9699.114465
696.039429	9688.701962
696.375716	9604.408828
696.711952	9475.534251
697.048139	9521.585191
697.384276	9479.080702
697.720363	9497.775822
698.056400	9437.781050
698.392388	9374.184373
698.728326	9349.921300
699.064214	9280.217266
699.400053	9320.942227
699.735842	9139.012026
700.071581	9104.288558
700.407270	9020.595322
700.742910	8946.215618
701.078501	8855.000980
701.414042	8723.343685
701.749533	8658.537132
702.084974	8525.337245
702.420366	8642.685224
702.755709	8518.398096
703.091002	8383.491778
703.426246	8412.415398
703.761440	8364.584931
704.096584	8321.664547
704.431679	8253.525791
704.766725	8235.929643
705.101721	8190.166049
705.436668	8233.388902
705.771565	8125.215823
706.106413	8208.664563
706.441212	8253.056964
706.775961	8218.187302
707.110661	8252.169721
707.445311	8386.224084
707.779913	8285.030482
708.114465	8422.621214
708.448967	8451.375956
708.783421	8603.525541
709.117825	8784.835680
709.452180	8817.842635
709.786485	8907.870081
710.120742	9191.485396
710.454949	9193.428761
710.789107	9295.101272
711.123216	9518.225262
711.457275	9687.391262
711.791286	9840.627215
712.125247	9839.313995
712.459159	9826.348147
712.793023	10064.625845
713.126837	9639.376792
713.460602	9794.626686
713.794318	9625.077559
714.127985	9655.359770
714.461602	9319.253440
714.795171	9263.105069
715.128691	9016.307821
715.462162	8773.256150
715.795584	8718.771359
716.128957	8556.476452
716.462281	8388.961430
716.795556	8440.378679
717.128782	8237.774706
717.461960	7975.080179
717.795088	8040.186681
718.128167	7951.275850
718.461198	7786.009183
718.794180	7725.023825
719.127113	7716.834470
719.459997	7555.961169
719.792833	7336.287849
720.125619	7398.185656
720.458357	7254.946311
720.791046	7239.648929
721.123686	7237.962663
721.456278	7075.377890
721.788821	7094.146106
722.121315	6991.004098
722.453761	7061.834830
722.786158	6998.427197
723.118506	7005.731829
723.450805	6974.912735
723.783056	7036.918927
724.115259	6953.918850
724.447412	6953.697039
724.779518	6997.759244
725.111574	7000.327712
725.443582	7076.292860
725.775542	7062.311219
726.107453	7254.028821
726.439315	7163.608165
726.771129	7236.188177
727.102895	7408.250320
727.434612	7514.472473
727.766281	7553.415386
728.097901	7632.574104
728.429473	7626.071016
728.760996	7605.137624
729.092471	7583.009480
729.423897	7519.866507
729.755276	7526.833382
730.086606	7447.621731
730.417887	7549.024541
730.749120	7757.561952
731.080305	7948.515819
731.411442	8061.989671
731.742530	8049.984163
732.073570	8164.965321
732.404562	8251.330368
732.735506	8098.830423
733.066401	8237.235302
733.397249	8167.541350
733.728048	7924.126716
734.058798	7589.142043
734.389501	7360.974379
734.720156	7185.312853
735.050762	6959.738862
735.381320	6871.417847
735.711831	6807.037271
736.042293	6695.438728
736.372707	6714.751388
736.703073	6584.334218
737.033391	6617.683971
737.363661	6633.248533
737.693883	6663.452607
738.024056	6749.968889
738.354182	6787.903572
738.684260	6823.627708
739.014290	6948.353416
739.344272	7053.907616
739.674207	7090.766012
740.004093	7157.725138
740.333931	7165.909452
740.663722	7177.524270
740.993464	7255.805827
741.323159	7234.108701
741.652806	6990.263049
741.982405	7013.049064
742.311956	7065.025881
742.641460	6887.521813
742.970915	6693.066865
743.300323	6687.173756
743.629683	6637.336909
743.958996	6504.449573
744.288260	6419.480925
744.617477	6364.544951
744.946647	6359.987748
745.275768	6198.486823
745.604842	6150.986551
745.933869	6134.038191
746.262847	6092.718374
746.591778	6078.051137
746.920662	6038.407503
747.249498	6034.656884
747.578286	6082.295788
747.907027	6158.555843
748.235720	6213.045675
748.564365	6186.965266
748.892963	6226.407253
749.221514	6370.697679
749.550017	6186.420821
749.878473	6073.448563
750.206881	6134.383510
750.535242	6079.966775
750.863555	6012.929511
751.191821	6021.786819
751.520039	6020.375296
751.848210	5929.944557
752.176334	5952.047496
752.504411	5997.753118
752.832440	5928.593528
753.160421	5855.244740
753.488356	5905.595784
753.816243	5930.604948
754.144082	5789.427435
754.471875	5758.421818
754.799620	5803.698942
755.127318	5813.173790
755.454969	5769.567809
755.782572	5737.821143
756.110129	5779.317401
756.437638	5760.642447
756.765100	5702.477613
757.092515	5703.707655
757.419882	5757.229585
757.747203	5733.435339
758.074477	5793.294000
758.401703	5778.092401
758.728882	5727.769082
759.056014	5795.801974
759.383099	5918.385192
759.710138	5932.170227
760.037129	5915.264717
760.364073	5922.581952
760.690970	6007.835425
761.017820	5982.710315
761.344623	5942.688594
761.671379	6044.955962
761.998088	6170.977246
762.324751	6421.333549
762.651366	7040.646861
762.977935	8389.730206
763.304456	10038.822699
763.630931	10917.901628
763.957359	10482.605555
764.283740	9539.503973
764.610074	8683.357253
764.936362	7676.810229
765.262602	7082.306956
765.588796	6543.924328
765.914943	6217.658331
766.241044	6051.065840
766.567097	5837.961144
766.893104	5581.638635
767.219064	5401.634155
767.544978	5341.785576
767.870845	5258.742649
768.196665	5156.288759
768.522438	5082.982820
768.848165	5045.053179
769.173846	4984.329960
769.499479	4934.692239
769.825066	4881.840782
770.150607	4821.228468
770.476101	4801.056291
770.801548	4796.161331
771.126949	4713.584710
771.452303	4658.568078
771.777611	4619.922592
772.102872	4638.078308
772.428087	4603.503554
772.753256	4562.508891
773.078378	4515.442158
773.403453	4442.680664
773.728482	4432.812606
774.053465	4382.917786
774.378401	4370.529150
774.703291	4369.223491
775.028135	4296.696411
775.352932	4247.542640
775.677683	4235.930342
776.002388	4254.708640
776.327046	4266.812451
776.651658	4188.437632
776.976224	4127.303559
777.300743	4136.488542
777.625216	4152.060666
777.949643	4146.046569
778.274024	4109.795632
778.598359	4064.878951
778.922647	4089.278136
779.246889	4080.536775
779.571086	4075.651897
779.895236	4053.133063
780.219339	4038.937173
780.543397	4041.240981
780.867409	4095.718210
781.191374	4104.565435
781.515294	4043.718708
781.839167	4032.131616
782.162995	4054.204308
782.486776	4040.779715
782.810511	4050.879667
783.134201	4044.986558
783.457844	3998.000484
783.781441	3945.620375
784.104993	3948.771096
784.428498	3970.286740
784.751958	3965.840443
785.075372	3942.439407
785.398739	3906.571597
785.722061	3920.470058
786.045337	3962.840956
786.368568	3991.978825
786.691752	3902.866349
787.014891	3959.675112
787.337983	4092.131429
787.661030	4252.636726
787.984031	4413.028597
788.306987	4582.512190
788.629897	4663.286598
788.952760	4623.642964
789.275579	4554.616965
789.598351	4481.842868
789.921078	4337.161753
790.243759	4138.220178
790.566395	4125.221563
790.888984	4117.241416
791.211529	4008.871732
791.534027	3952.398206
791.856480	3933.753498
792.178888	3878.557905
792.501249	3828.705935
792.823566	3841.147502
793.145836	3863.212633
793.468062	3812.029798
793.790241	3766.336779
794.112375	3801.992860
794.434464	3867.870659
794.756507	3886.835480
795.078505	3867.016183
795.400457	3906.039755
795.722364	4044.858009
796.044226	4148.930109
796.366042	4227.302408
796.687812	4201.411041
797.009538	4205.872463
797.331218	4164.348478
797.652852	4141.625477
797.974442	4115.860140
798.295986	4113.458030
798.617484	4032.996174
798.938938	3947.223462
799.260346	3990.158969
799.581709	3985.054801
799.903026	3905.195362
800.224299	3871.812841
800.545526	3866.655741
800.866708	3828.710976
801.187845	3767.007253
801.508936	3807.578459
801.829983	3795.116727
802.150984	3718.786096
802.471940	3713.407184
802.792851	3720.454718
803.113717	3722.461097
803.434538	3718.728122
803.755314	3663.280471
804.076045	3639.181235
804.396731	3664.258455
804.717372	3685.867361
805.037967	3669.166018
805.358518	3661.526150
805.679024	3689.174358
805.999485	3699.259186
806.319901	3706.964590
806.640272	3719.302814
806.960598	3732.974423
807.280879	3710.102708
807.601115	3718.806260
807.921306	3739.916092
808.241453	3776.650980
808.561554	3749.569902
808.881611	3683.666897
809.201623	3726.378073
809.521590	3735.063981
809.841513	3705.754713
810.161390	3739.507758
810.481223	3714.677555
810.801011	3658.483813
811.120755	3654.307217
811.440453	3688.808874
811.760107	3689.870037
812.079716	3645.480157
812.399281	3617.703399
812.718801	3642.732728
813.038276	3611.041514
813.357707	3609.458592
813.677093	3624.874441
813.996434	3573.295875
814.315731	3583.899942
814.634983	3590.004779
814.954191	3601.576748
815.273354	3628.446098
815.592473	3627.878968
815.911547	3635.801142
816.230577	3677.287317
816.549562	3725.193402
816.868502	3766.273765
817.187399	3792.618835
817.506250	3791.124133
817.825058	3767.319804
818.143821	3863.499978
818.462539	3960.171665
818.781213	4008.554139
819.099843	4070.822472
819.418429	4324.856296
819.736970	4567.771856
820.055466	4816.578004
820.373919	5183.871432
820.692327	5603.618066
821.010691	6068.528397
821.329011	7505.869743
821.647286	10342.244708
821.965517	14996.495038
822.283704	19028.644298
822.601847	21089.974626
822.919945	19211.580209
823.237999	16592.068121
823.556010	14080.865223
823.873976	11952.976541
824.191897	9845.015540
824.509775	8498.102411
824.827609	7372.679938
825.145398	6830.977711
825.463144	6717.718107
825.780845	6833.299162
826.098502	7037.591922
826.416116	7957.655431
826.733685	9313.519128
827.051210	10408.729966
827.368692	10395.819571
827.686129	9098.602137
828.003522	7585.383863
828.320872	6564.814870
828.638177	5853.155181
828.955439	5286.716012
829.272656	4785.353097
829.589830	4513.939895
829.906960	4333.920291
830.224046	4145.204697
830.541088	4020.506715
830.858086	3972.512410
831.175041	3893.033578
831.491952	3878.878018
831.808819	3888.176427
832.125642	3967.415803
832.442421	4118.340388
832.759157	4409.177156
833.075849	4976.453157
833.392497	5858.869329
833.709101	6646.295039
834.025662	6967.779502
834.342179	6565.593728
834.658653	5898.258385
834.975083	5242.636162
835.291469	4656.090351
835.607811	4255.326182
835.924110	4114.410808
836.240366	3909.329108
836.556578	3706.571380
836.872746	3600.041717
837.188871	3554.459604
837.504952	3489.285046
837.820990	3405.977458
838.136984	3362.119420
838.452935	3385.853172
838.768842	3380.817059
839.084706	3404.830596
839.400526	3568.957962
839.716303	3921.218669
840.032037	4461.320331
840.347727	4712.541192
840.663373	4412.663114
840.978977	4024.156510
841.294537	3718.198801
841.610054	3488.206239
841.925527	3384.580281
842.240957	3315.869354
842.556344	3259.257196
842.871687	3198.380222
843.186987	3145.906852
843.502244	3111.188425
843.817458	3073.248702
844.132629	3045.600493
844.447756	3055.823953
844.762840	3038.928526
845.077881	3004.961232
845.392879	2990.278871
845.707833	2987.841473
846.022745	2985.852738
846.337613	2983.773262
846.652438	2971.190542
846.967221	2970.676344
847.281960	2956.160342
847.596656	2953.312090
847.911309	2952.008952
848.225919	2942.370265
848.540485	2942.133331
848.855009	2941.790533
849.169490	2928.461722
849.483928	2921.756987
849.798323	2921.303283
850.112675	2918.752460
850.426984	2930.447937
850.741251	2929.338883
851.055474	2913.779361
851.369654	2911.369690
851.683792	2915.838673
851.997887	2923.090373
852.311938	2927.710590
852.625947	2913.045873
852.939914	2918.744898
853.253837	2924.698501
853.567718	2908.261818
853.881555	2908.879360
854.195350	2923.811258
854.509103	2917.161976
854.822812	2911.110070
855.136479	2908.455903
855.450103	2908.249216
855.763685	2902.262845
856.077224	2899.288565
856.390720	2912.773651
856.704173	2920.642892
857.017584	2915.198446
857.330953	2914.195257
857.644278	2922.654313
857.957561	2930.883996
858.270802	2932.189655
858.584000	2930.402566
858.897155	2917.683735
859.210268	2919.546441
859.523339	2913.741553
859.836367	2916.957809
860.149352	2910.159813
860.462295	2907.213258
860.775195	2911.941861
861.088054	2911.341963
861.400869	2898.096332
861.713642	2893.982750
862.026373	2909.476737
862.339062	2911.331881
862.651708	2916.367994
862.964312	2921.719179
863.276873	2912.478744
863.589392	2923.854107
863.901869	2933.608740
864.214303	2957.791155
864.526696	2974.018629
864.839045	2967.800366
865.151353	2968.581745
865.463619	2966.008236
865.775842	2968.768268
866.088023	2989.086638
866.400162	2993.200220
866.712258	2961.647638
867.024313	2952.790330
867.336325	2962.499593
867.648296	2984.569764
867.960224	2976.017447
868.272110	2964.473204
868.583954	2966.217444
868.895755	2981.958447
869.207515	2966.257773
869.519233	2976.445945
869.830909	2984.920124
870.142542	2995.536794
870.454134	2992.267606
870.765684	2997.250787
871.077191	2995.289778
871.388657	3005.510717
871.700081	3020.409848
872.011463	3030.613143
872.322803	3032.122968
872.634101	3026.365971
872.945357	3046.578477
873.256571	3071.847261
873.567744	3065.795356
873.878874	3059.682957
874.189963	3081.843869
874.501010	3083.502408
874.812015	3072.706778
875.122979	3073.301634
875.433900	3071.824576
875.744780	3074.970256
876.055618	3085.609611
876.366415	3079.580391
876.677169	3091.989191
876.987882	3086.506936
877.298554	3082.652974
877.609183	3103.908999
877.919771	3130.092752
878.230317	3155.434633
878.540822	3210.373127
878.851285	3249.063983
879.161707	3294.000828
879.472087	3401.727766
879.782425	3642.253818
880.092722	4089.298300
880.402977	4628.003562
880.713191	5276.663951
881.023363	6467.225693
881.333494	7767.508149
881.643583	8299.198645
881.953631	7980.224676
882.263637	7327.969945
882.573602	6721.012501
882.883526	6135.752184
883.193408	5563.787909
883.503248	5110.505000
883.813048	4798.235766
884.122806	4482.969566
884.432522	4159.725740
884.742197	3923.696397
885.051831	3729.942169
885.361424	3600.664299
885.670975	3522.884337
885.980485	3433.786983
886.289954	3356.377546
886.599382	3308.892397
886.908768	3273.054834
887.218113	3229.363154
887.527417	3169.007939
887.836680	3117.041205
888.145901	3114.747480
888.455082	3101.393463
888.764221	3049.971174
889.073319	3019.610825
889.382376	3020.485465
889.691392	3021.758356
890.000366	3024.344468
890.309300	3011.176974
890.618193	3022.869931
890.927044	3038.394164
891.235855	3037.756458
891.544625	3025.282123
891.853353	3037.728732
892.162041	3056.822102
892.470687	3100.632249
892.779293	3146.902480
893.087858	3199.280068
893.396381	3270.191459
893.704864	3400.646438
894.013306	3647.458810
894.321707	3955.972384
894.630068	4155.055111
894.938387	4147.135458
895.246665	4105.533336
895.554903	3978.526506
895.863100	3773.757358
896.171256	3602.224536
896.479371	3461.248669
896.787446	3337.576562
897.095480	3232.153432
897.403473	3172.748476
897.711425	3134.594503
898.019336	3121.111937
898.327207	3090.305446
898.635038	3054.974519
898.942827	3042.089330
899.250576	3031.417207
899.558284	2999.468894
899.865952	2980.551965
900.173579	2955.371401
900.481165	2948.235648
900.788711	2935.095880
901.096216	2913.683579
901.403681	2899.338976
901.711105	2907.825759
902.018489	2905.453896
902.325832	2901.292423
902.633135	2916.322623
902.940397	2950.904939
903.247619	3036.831406
903.554800	3239.994947
903.861941	3599.998867
904.169041	4038.140671
904.476101	4335.478007
904.783121	4271.329325
905.090100	4016.393133
905.397039	3736.694795
905.703938	3488.465859
906.010796	3302.059113
906.317614	3186.490661
906.624391	3089.466093
906.931129	3016.878519
907.237826	2957.831484
907.544483	2907.621592
907.851099	2875.522045
908.157675	2857.797348
908.464211	2834.774398
908.770707	2821.949703
909.077163	2808.711633
909.383578	2795.695374
909.689954	2783.105092
909.996289	2785.602984
910.302584	2783.473096
910.608839	2783.135339
910.915054	2775.881118
911.221229	2769.569594
911.527363	2774.464554
911.833458	2781.512087
912.139513	2787.173303
912.445527	2787.523663
912.751502	2798.558749
913.057436	2808.353711
913.363331	2820.316369
913.669186	2842.850327
913.975000	2879.126470
914.280775	2941.009154
914.586510	3014.350381
914.892205	3093.854418
915.197859	3228.105386
915.503475	3429.824637
915.809050	3649.654232
916.114585	3793.609422
916.420081	3807.792708
916.725536	3747.482864
917.030952	3625.302939
917.336328	3493.418792
917.641665	3361.438864
917.946961	3258.586723
918.252218	3187.849252
918.557435	3105.456633
918.862612	3043.909186
919.167750	2994.210971
919.472848	2954.249744
919.777906	2928.272679
920.082925	2899.570869
920.387904	2869.883514
920.692843	2853.202336
920.997743	2840.440655
921.302603	2826.252328
921.607423	2816.477530
921.912204	2803.504121
922.216946	2793.376443
922.521647	2782.820267
922.826310	2775.051849
923.130932	2767.782505
923.435516	2759.754467
923.740059	2753.158117
924.044564	2742.682600
924.349028	2740.091447
924.653454	2731.536609
924.957840	2724.864642
925.262186	2720.188971
925.566493	2718.159907
925.870761	2713.872406
926.174989	2707.374358
926.479178	2704.334542
926.783328	2697.700384
927.087438	2697.564273
927.391509	2697.135775
927.695541	2691.741740
927.999533	2689.823581
928.303486	2689.460618
928.607400	2686.980370
928.911275	2689.901719
929.215110	2684.537931
929.518906	2684.248065
929.822663	2683.169258
930.126381	2684.684125
930.430060	2684.253106
930.733699	2684.742098
931.037299	2685.047088
931.340861	2686.037675
931.644383	2689.432892
931.947866	2687.615556
932.251309	2684.795030
932.554714	2684.185051
932.858080	2682.594567
933.161407	2681.397292
933.464694	2680.784792
933.767943	2676.525017
934.071153	2678.208763
934.374323	2679.010306
934.677455	2677.727332
934.980548	2676.431756
935.283602	2675.811694
935.586617	2676.124246
935.889593	2676.915707
936.192530	2676.499812
936.495428	2676.724143
936.798287	2676.086437
937.101108	2679.781603
937.403890	2685.871317
937.706632	2689.793334
938.009336	2697.632328
938.312002	2706.658514
938.614628	2714.789896
938.917216	2720.496482
939.219765	2720.791389
939.522275	2721.507233
939.824747	2718.653940
940.127179	2716.221583
940.429573	2713.083465
940.731929	2708.044832
941.034246	2703.384285
941.336524	2703.840509
941.638763	2700.145344
941.940964	2697.090404
942.243126	2695.318439
942.545250	2696.709797
942.847335	2691.610670
943.149381	2688.452387
943.451389	2684.316121
943.753359	2684.827798
944.055290	2683.156655
944.357182	2679.973167
944.659036	2678.455779
944.960851	2679.385872
945.262628	2675.100891
945.564367	2678.538958
945.866067	2679.758917
946.167729	2679.461489
946.469352	2678.957374
946.770937	2680.207580
947.072484	2676.963598
947.373992	2676.663649
947.675462	2673.689368
947.976893	2669.439676
948.278286	2669.991682
948.579641	2667.957576
948.880958	2664.267452
949.182236	2670.775581
949.483476	2668.267607
949.784678	2669.220385
950.085841	2671.330108
950.386967	2670.392454
950.688054	2671.738442
950.989103	2672.000582
951.290114	2672.023267
951.591087	2673.883453
951.892021	2676.467044
952.192917	2679.280008
952.493776	2681.656912
952.794596	2681.178002
953.095378	2680.119360
953.396122	2681.228414
953.696828	2681.674556
953.997496	2680.326047
954.298126	2673.969152
954.598718	2670.745334
954.899272	2667.730724
955.199788	2667.874397
955.500266	2665.005981
955.800706	2664.605209
956.101108	2658.777635
956.401472	2656.206647
956.701798	2658.512975
957.002087	2654.028868
957.302337	2654.855617
957.602550	2653.330668
957.902724	2650.081645
958.202861	2649.053249
958.502960	2649.166675
958.803022	2650.938641
959.103045	2648.566778
959.403031	2647.677014
959.702979	2645.947899
960.002889	2645.032929
960.302762	2644.385141
960.602596	2645.169040
960.902393	2643.117291
961.202153	2642.734163
961.501875	2643.981849
961.801559	2645.063176
962.101205	2640.558905
962.400814	2643.041673
962.700385	2642.015799
962.999918	2641.849441
963.299414	2637.388019
963.598873	2638.222330
963.898293	2638.030767
964.197677	2641.428504
964.497022	2641.665438
964.796331	2644.317085
965.095601	2640.153092
965.394835	2639.291055
965.694030	2641.431025
965.993189	2641.153761
966.292309	2640.526138
966.591393	2641.801550
966.890439	2639.452372
967.189447	2640.755510
967.488419	2643.061838
967.787353	2641.431025
968.086249	2640.619399
968.385108	2643.727270
968.683930	2640.654687
968.982714	2639.898514
969.281462	2640.715181
969.580172	2640.475726
969.878844	2640.533699
970.177480	2640.725263
970.476078	2637.483801
970.774639	2640.256436
971.073162	2641.756179
971.371649	2643.626447
971.670098	2640.737866
971.968510	2638.933133
972.266885	2641.572177
972.565223	2642.177116
972.863524	2637.763585
973.161788	2639.349028
973.460014	2638.436579
973.758204	2639.606127
974.056356	2640.541261
974.354471	2639.943884
974.652550	2641.927578
974.950591	2641.186529
975.248595	2641.166364
975.546563	2640.178298
975.844493	2639.273411
976.142386	2639.585962
976.440243	2639.477578
976.738062	2640.395068
977.035845	2639.883391
977.333590	2640.667290
977.631299	2640.095119
977.928971	2634.393574
978.226606	2634.328039
978.524204	2634.088584
978.821765	2634.247381
979.119290	2638.411374
979.416777	2635.333749
979.714228	2638.348359
980.011642	2638.711322
980.309020	2638.497073
980.606360	2636.495735
980.903664	2638.781898
981.200931	2638.330715
981.498162	2637.829120
981.795356	2640.906745
982.092513	2639.986734
982.389633	2645.070738
982.686717	2648.665081
982.983764	2651.389824
983.280775	2655.142963
983.577749	2655.498365
983.874686	2656.683036
984.171587	2651.694814
984.468451	2650.588281
984.765279	2646.315903
985.062070	2646.215080
985.358824	2643.202990
985.655543	2643.727270
985.952224	2643.979328
986.248869	2640.659728
986.545478	2641.083185
986.842050	2637.030097
987.138586	2637.957670
987.435086	2638.176960
987.731549	2637.370375
988.027975	2635.966414
988.324366	2636.520941
988.620719	2634.701084
988.917037	2634.514562
989.213318	2635.908441
989.509563	2633.342493
989.805772	2635.449696
990.101944	2637.624954
990.398080	2634.743934
990.694180	2633.695374
990.990244	2634.900210
991.286271	2636.168060
991.582262	2637.476240
991.878217	2637.556898
992.174136	2633.844088
992.470019	2632.422483
992.765865	2631.237812
993.061676	2632.815693
993.357450	2631.419293
993.653188	2628.437451
993.948890	2635.462299
994.244556	2635.336270
994.540186	2637.985396
994.835780	2636.218472
995.131337	2637.509007
995.426859	2638.802063
995.722345	2635.306023
996.017795	2638.799542
996.313208	2639.429687
996.608586	2636.258801
996.903928	2640.611837
997.199234	2641.247023
997.494504	2640.140489
997.789738	2638.890283
998.084936	2637.950108
998.380099	2638.156795
998.675225	2638.565129
998.970316	2637.070427
999.265371	2638.209727
999.560390	2634.431383
999.855373	2635.212762
1000.150320	2633.496249
1000.445232	2635.979017
1000.740108	2634.607823
1001.034948	2634.068420
1001.329752	2634.421300
1001.624521	2631.084057
1001.919254	2631.930970
1002.213951	2634.653193
1002.508613	2632.551032
1002.803239	2632.417442
1003.097829	2632.258645
1003.392384	2635.618574
1003.686903	2632.523306
1003.981386	2633.791156
1004.275834	2629.801083
1004.570246	2634.370889
1004.864623	2631.212606
1005.158964	2631.303347
1005.453270	2629.115486
1005.747540	2632.573717
1006.041775	2633.201341
1006.335974	2632.694705
1006.630138	2633.171094
1006.924266	2635.132103
1007.218359	2633.665127
1007.512416	2630.345527
1007.806438	2628.971813
1008.100425	2629.733027
1008.394376	2628.714714
1008.688292	2632.450209
1008.982172	2629.133130
1009.276017	2634.196969
1009.569827	2632.535909
1009.863602	2631.147071
1010.157341	2631.391567
1010.451045	2630.605147
1010.744714	2631.386526
1011.038347	2632.966927
1011.331945	2632.644294
1011.625508	2632.324180
1011.919036	2630.728655
1012.212528	2631.159674
1012.505986	2632.109931
1012.799408	2630.156484
1013.092795	2631.434417
1013.386147	2633.760909
1013.679464	2630.451392
1013.972745	2633.566825
1014.265992	2630.040538
1014.559204	2631.663789
1014.852380	2631.862915
1015.145521	2629.813686
1015.438628	2630.882410
1015.731699	2633.057668
1016.024736	2632.445168
1016.317737	2631.298306
1016.610703	2631.424334
1016.903635	2632.495580
1017.196531	2631.625981
1017.489393	2630.456433
1017.782219	2630.043058
1018.075011	2630.363172
1018.367768	2630.736217
1018.660490	2629.196144
1018.953177	2629.196144
1019.245829	2629.196144
