Dividing Wavelength (nm)	Counts (n)	Blue Motor Position (mm): 20.000000	Red Motor Position (mm): 0.000000	
326.493990	2102.922368
326.888308	2102.922368
327.282561	2102.922368
327.676750	2079.891857
328.070874	2079.932186
328.464933	2085.530387
328.858929	2097.737541
329.252859	2111.547782
329.646726	2124.110338
330.040528	2137.234982
330.434265	2159.431182
330.827938	2176.301403
331.221547	2199.437779
331.615091	2218.289174
332.008571	2239.174674
332.401986	2261.043200
332.795338	2281.356529
333.188625	2298.521658
333.581847	2317.504123
333.975006	2337.628409
334.368100	2354.438136
334.761129	2373.297093
335.154095	2387.142622
335.546996	2429.011925
335.939833	2493.397542
336.332606	2506.040756
336.725315	2515.906294
337.117960	2525.996163
337.510540	2530.780218
337.903056	2543.476364
338.295508	2548.091541
338.687896	2556.379198
339.080220	2566.317832
339.472480	2569.511403
339.864676	2570.998544
340.256807	2576.692527
340.648875	2577.501632
341.040879	2579.576067
341.432818	2574.736559
341.824694	2577.509194
342.216506	2578.267888
342.608253	2576.682445
342.999937	2578.651015
343.391557	2579.147569
343.783113	2575.238154
344.174605	2571.290931
344.566033	2570.968297
344.957397	2568.546023
345.348697	2568.906465
345.739934	2567.537792
346.131106	2563.630898
346.522215	2565.155847
346.913260	2562.710887
347.304241	2562.438665
347.695159	2557.528581
348.086012	2557.246276
348.476802	2553.546069
348.867528	2553.530946
349.258191	2551.055739
349.648789	2554.818961
350.039324	2548.968702
350.429796	2552.595812
350.820203	2547.998279
351.210548	2548.923331
351.600828	2548.154555
351.991045	2548.734288
352.381198	2546.511139
352.771288	2547.920142
353.161314	2545.114739
353.551276	2545.402085
353.941175	2544.855120
354.331010	2545.639019
354.720782	2547.330327
355.110490	2549.109854
355.500135	2550.125646
355.889717	2547.206818
356.279235	2547.491643
356.668689	2550.717982
357.058080	2549.356870
357.447408	2546.422919
357.836672	2546.226314
358.225873	2547.569781
358.615010	2545.933927
359.004084	2550.634803
359.393095	2552.255534
359.782043	2551.948023
360.170927	2550.934752
360.559748	2551.983312
360.948505	2555.529763
361.337199	2551.738816
361.725830	2554.246790
362.114398	2554.892057
362.502903	2553.772921
362.891344	2556.439692
363.279722	2555.081101
363.668037	2559.061092
364.056289	2554.675288
364.444478	2556.926163
364.832603	2557.105124
365.220665	2559.724003
365.608665	2558.196534
365.996601	2559.479507
366.384474	2557.992367
366.772284	2559.774415
367.160031	2561.274158
367.547715	2561.639642
367.935336	2559.335834
368.322893	2560.563355
368.710388	2563.172152
369.097820	2563.920764
369.485189	2564.331618
369.872495	2562.209292
370.259738	2560.921277
370.646918	2561.251473
371.034035	2563.807338
371.421090	2562.922615
371.808081	2561.160732
372.195010	2565.453275
372.581875	2565.549057
372.968678	2565.170970
373.355418	2563.698953
373.742096	2565.581824
374.128710	2565.962431
374.515262	2568.346897
374.901751	2566.111145
375.288177	2565.594427
375.674540	2565.317163
376.060841	2567.300858
376.447079	2567.676423
376.833254	2566.824468
377.219367	2563.487225
377.605417	2566.398491
377.991404	2565.672565
378.377329	2566.199365
378.763191	2563.381360
379.148991	2570.665828
379.534727	2571.795046
379.920402	2570.121383
380.306013	2568.997206
380.691563	2571.288410
381.077049	2566.320353
381.462474	2570.562484
381.847835	2571.023750
382.233134	2573.425859
382.618371	2573.720767
383.003545	2572.218503
383.388657	2572.858730
383.773706	2572.208421
384.158693	2573.327557
384.543618	2574.562640
384.928480	2575.308730
385.313280	2576.009451
385.698017	2575.064234
386.082692	2577.564647
386.467305	2574.751683
386.851856	2575.767475
387.236344	2573.340160
387.620770	2576.264029
388.005133	2579.140007
388.389435	2576.891653
388.773674	2577.365521
389.157851	2574.615572
389.541965	2575.959039
389.926018	2579.611355
390.310008	2578.225038
390.693936	2581.073290
391.077802	2578.351067
391.461606	2580.465831
391.845348	2577.796540
392.229027	2579.008937
392.612645	2579.215625
392.996200	2578.681262
393.379694	2582.094123
393.763125	2581.176633
394.146494	2581.234607
394.529801	2579.661767
394.913047	2582.817529
395.296230	2582.358784
395.679351	2584.660071
396.062410	2584.649988
396.445408	2581.045563
396.828343	2583.422467
397.211217	2579.999524
397.594028	2583.286356
397.976778	2578.721592
398.359466	2581.854669
398.742092	2580.269226
399.124656	2583.412385
399.507158	2585.048240
399.889598	2585.801892
400.271977	2584.997828
400.654294	2585.015472
401.036549	2585.506985
401.418742	2584.551686
401.800874	2588.874475
402.182944	2588.607294
402.564952	2587.778024
402.946898	2586.603436
403.328783	2585.267530
403.710606	2590.220463
404.092367	2586.956316
404.474067	2586.709300
404.855705	2587.878848
405.237282	2588.756008
405.618797	2589.749116
406.000250	2591.004363
406.381642	2594.356730
406.762972	2589.544949
407.144240	2587.722572
407.525447	2591.125351
407.906593	2588.846749
408.287677	2589.789445
408.668700	2591.957141
409.049661	2591.503437
409.430560	2591.115268
409.811399	2593.056112
410.192176	2594.018973
410.572891	2592.398242
410.953545	2592.347830
411.334138	2591.790783
411.714669	2591.891606
412.095139	2593.630804
412.475547	2593.356061
412.855894	2594.691967
413.236180	2592.340269
413.616405	2594.253387
413.996568	2593.955958
414.376670	2597.439396
414.756711	2592.635176
415.136691	2595.067533
415.516609	2590.371698
415.896466	2595.745568
416.276262	2596.635332
416.655997	2593.114086
417.035670	2591.596698
417.415283	2592.625094
417.794834	2591.390011
418.174324	2592.428489
418.553753	2594.792790
418.933121	2598.898810
419.312428	2597.946032
419.691674	2595.725403
420.070859	2595.823706
420.449983	2597.809921
420.829045	2598.747575
421.208047	2600.360744
421.586988	2595.664910
421.965867	2599.284458
422.344686	2598.876125
422.723444	2600.622884
423.102141	2600.534664
423.480777	2598.193048
423.859352	2600.237236
424.237866	2601.689088
424.616319	2597.787235
424.994712	2601.744541
425.373044	2602.263780
425.751314	2602.331836
426.129524	2601.109356
426.507673	2599.566763
426.885762	2603.755962
427.263789	2602.326794
427.641756	2603.511466
428.019662	2602.984665
428.397508	2604.008019
428.775292	2606.019440
429.153016	2605.033894
429.530679	2607.511621
429.908282	2607.695623
430.285824	2605.674121
430.663305	2604.620519
431.040726	2604.933071
431.418086	2604.391147
431.795385	2607.947681
432.172624	2606.919286
432.549802	2607.279728
432.926920	2610.231324
433.303977	2610.425408
433.680974	2606.639502
434.057910	2608.245109
434.434786	2608.287959
434.811601	2606.589090
435.188355	2611.859616
435.565050	2611.340377
435.941683	2609.258381
436.318257	2612.315841
436.694770	2609.767537
437.071222	2608.976076
437.447614	2607.640171
437.823946	2608.615634
438.200218	2609.525562
438.576429	2610.929523
438.952580	2613.245934
439.328670	2611.065635
439.704700	2611.158896
440.080670	2612.623351
440.456580	2613.303907
440.832429	2614.014710
441.208218	2613.661829
441.583947	2612.444390
441.959616	2613.097220
442.335224	2613.717282
442.710773	2614.382714
443.086261	2615.416150
443.461689	2616.610904
443.837057	2615.963116
444.212365	2616.129474
444.587612	2615.368259
444.962800	2614.528907
445.337927	2615.179216
445.712995	2618.634927
446.088002	2617.082252
446.462949	2618.909670
446.837837	2618.771038
447.212664	2617.934207
447.587431	2620.404372
447.962139	2625.662296
448.336786	2630.814355
448.711374	2626.511730
449.085901	2624.311266
449.460369	2625.584158
449.834776	2624.482666
450.209124	2629.118007
450.583412	2628.029117
450.957640	2627.794704
451.331808	2627.429220
451.705917	2627.555249
452.079965	2627.003242
452.453954	2625.193468
452.827883	2626.332769
453.201752	2628.071967
453.575562	2630.849643
453.949311	2631.346197
454.323001	2628.934004
454.696632	2632.525827
455.070202	2636.836013
455.443713	2638.449182
455.817164	2634.539767
456.190556	2634.466671
456.563888	2636.543626
456.937160	2634.917854
457.310373	2638.106384
457.683526	2641.521766
458.056619	2640.195942
458.429653	2641.945222
458.802628	2641.736015
459.175542	2648.334885
459.548398	2651.314207
459.921194	2652.539207
460.293930	2655.826040
460.666607	2660.254693
461.039224	2664.015394
461.411782	2667.052689
461.784280	2667.345076
462.156719	2664.721156
462.529099	2667.682833
462.901419	2666.596465
463.273680	2665.736948
463.645882	2669.258194
464.018024	2669.298523
464.390106	2674.548885
464.762130	2682.745801
465.134094	2691.376257
465.505999	2703.878318
465.877845	2717.159238
466.249631	2721.587892
466.621358	2720.062942
466.993026	2721.005638
467.364634	2720.052860
467.736184	2713.998434
468.107674	2713.723692
468.479105	2709.000130
468.850477	2711.881150
469.221790	2711.251006
469.593043	2705.783874
469.964238	2707.747404
470.335373	2708.506097
470.706449	2718.734598
471.077467	2726.359344
471.448425	2744.336098
471.819324	2755.315731
472.190164	2752.258272
472.560945	2742.352404
472.931667	2737.500294
473.302330	2731.405539
473.672934	2734.140365
474.043479	2738.432907
474.413965	2736.902917
474.784393	2736.164388
475.154761	2742.760738
475.525070	2745.067066
475.895321	2743.642940
476.265513	2749.896491
476.635645	2762.086001
477.005719	2764.427617
477.375734	2767.762340
477.745691	2776.274328
478.115588	2786.795217
478.485427	2797.212761
478.855207	2818.640185
479.224928	2833.844305
479.594591	2846.323682
479.964194	2845.597756
480.333739	2854.409692
480.703226	2863.816486
481.072653	2873.523227
481.442022	2883.693755
481.811333	2894.766650
482.180584	2894.358316
482.549777	2898.242525
482.918912	2903.989441
483.287988	2910.079154
483.657005	2914.369176
484.025964	2919.551483
484.394864	2932.174532
484.763706	2939.627878
485.132489	2943.076027
485.501213	2954.045578
485.869879	2968.551498
486.238487	2978.359063
486.607036	2994.621825
486.975527	3003.680778
487.343959	3022.096113
487.712333	3039.014226
488.080648	3055.869324
488.448905	3075.444124
488.817104	3097.133688
489.185244	3132.162146
489.553326	3179.430525
489.921350	3243.097777
490.289315	3316.837255
490.657222	3356.057432
491.025070	3394.392887
491.392861	3408.140113
491.760593	3414.333171
492.128267	3419.328954
492.495883	3425.070828
492.863440	3437.333435
493.230939	3452.472020
493.598380	3470.136223
493.965763	3499.435409
494.333088	3524.537835
494.700354	3556.871796
495.067563	3593.246241
495.434713	3634.818117
495.801805	3687.598997
496.168839	3731.363774
496.535815	3771.466153
496.902733	3826.482786
497.269593	3870.240001
497.636395	3923.245213
498.003139	3999.386801
498.369825	4044.646280
498.736453	4119.141931
499.103023	4168.373840
499.469535	4236.855394
499.835989	4308.462464
500.202385	4371.323132
500.568723	4450.847334
500.935003	4541.255387
501.301226	4616.161892
501.667390	4734.417279
502.033497	4836.452753
502.399546	4894.368049
502.765537	4949.901400
503.131470	5063.123195
503.497345	5185.658521
503.863163	5206.549063
504.228923	5341.727603
504.594625	5478.058047
504.960269	5537.641965
505.325856	5698.447211
505.691385	5769.005721
506.056856	5897.587911
506.422270	6050.738165
506.787625	6136.382328
507.152924	6279.016735
507.518164	6423.045021
507.883347	6468.370035
508.248472	6628.676207
508.613540	6811.612118
508.978550	6982.877758
509.343503	7098.292455
509.708398	7267.347549
510.073236	7484.775035
510.438016	7639.263715
510.802738	7726.742858
511.167403	7971.858882
511.532010	8159.382243
511.896561	8360.065536
512.261053	8652.465062
512.625488	8757.429447
512.989866	8906.992920
513.354186	9051.600939
513.718449	9233.571469
514.082655	9519.541003
514.446803	9659.087703
514.810894	9933.656668
515.174927	10112.458833
515.538904	10281.909658
515.902822	10605.309760
516.266684	10691.919303
516.630488	10977.944290
516.994235	11147.995013
517.357925	11469.227418
517.721558	11721.453989
518.085133	12006.919408
518.448651	12244.791293
518.812112	12410.715831
519.175516	12658.314623
519.538863	12972.630565
519.902152	13190.983103
520.265385	13542.585939
520.628560	13784.556283
520.991678	13961.825937
521.354739	14268.388585
521.717743	14588.716103
522.080690	14796.257886
522.443580	15193.072311
522.806413	15455.774400
523.169189	15697.409507
523.531908	15999.057029
523.894569	16201.174531
524.257174	16515.561050
524.619722	16869.699587
524.982213	17121.759800
525.344647	17354.189759
525.707025	17635.786093
526.069345	18060.778047
526.431608	18310.410944
526.793815	18689.296506
527.155964	18789.123955
527.518057	19118.941445
527.880093	19305.398603
528.242072	19780.532394
528.603995	19928.323901
528.965860	20205.327743
529.327669	20521.314828
529.689421	20748.764128
530.051117	21012.088799
530.412755	21341.165240
530.774337	21645.666055
531.135862	21828.165907
531.497331	22192.036392
531.858743	22414.517634
532.220098	22844.833047
532.581396	22989.299913
532.942638	23098.385442
533.303824	23537.653944
533.664953	23801.422236
534.026025	23928.131638
534.387040	24432.612507
534.747999	24683.057030
535.108902	25037.450145
535.469748	25054.196858
535.830537	25380.871189
536.191270	25763.784632
536.551947	25845.678177
536.912567	26277.258919
537.273131	26632.567004
537.633638	26592.260458
537.994089	27047.897587
538.354483	27079.079644
538.714821	27687.655298
539.075103	28168.041972
539.435328	28295.991497
539.795497	28481.067378
540.155609	28733.687159
540.515665	29292.380596
540.875665	29210.920591
541.235609	29680.196562
541.595496	29929.937844
541.955328	30619.376126
542.315102	30454.928646
542.674821	30566.171788
543.034483	30837.688334
543.394090	31075.189695
543.753640	31306.419860
544.113134	32236.389237
544.472571	31777.034257
544.831953	32906.187183
545.191278	32592.405603
545.550548	32634.456388
545.909761	33213.614389
546.268918	33590.314610
546.628019	34057.947164
546.987064	33968.045747
547.346053	33658.723068
547.704986	34545.595620
548.063863	34435.136377
548.422684	34803.122964
548.781449	34891.408692
549.140158	35429.080517
549.498811	35525.916041
549.857408	35313.023073
550.215949	36172.474269
550.574434	36330.839596
550.932864	36342.101534
551.291237	37123.765205
551.649555	37017.061622
552.007817	37399.728049
552.366022	37323.185690
552.724173	37653.721544
553.082267	38191.287505
553.440305	38623.881520
553.798288	38221.516784
554.156215	38689.668577
554.514086	39048.490347
554.871902	39007.261270
555.229661	39210.366838
555.587365	39242.970500
555.945014	39516.967294
556.302606	39638.534719
556.660143	40003.541984
557.017625	40229.673022
557.375050	40210.796421
557.732421	40683.389471
558.089735	40826.500267
558.446994	40931.323499
558.804197	41489.132214
559.161345	41588.571494
559.518437	41069.559500
559.875474	41514.448888
560.232455	41824.928512
560.589381	42122.911116
560.946251	42000.678259
561.303065	42734.392996
561.659825	42690.653424
562.016528	42545.400138
562.373177	42418.761312
562.729770	43002.544572
563.086307	42690.595451
563.442789	43235.992844
563.799216	43405.221858
564.155587	43349.494423
564.511904	43490.334179
564.868164	43693.089387
565.224370	44016.839849
565.580520	43882.571237
565.936615	44200.539495
566.292654	44036.389443
566.648638	44401.041307
567.004567	44461.015914
567.360441	44608.346156
567.716260	44574.870374
568.072023	44948.785358
568.427732	45026.212439
568.783385	44672.673800
569.138982	45132.149767
569.494525	45190.473396
569.850013	45043.511159
570.205445	45122.853879
570.560823	45148.755328
570.916145	45131.282688
571.271412	45228.103089
571.626625	45070.123410
571.981782	45188.051122
572.336884	44971.654552
572.691931	45352.828797
573.046923	45045.308330
573.401860	44963.311442
573.756743	45001.389798
574.111570	45170.548236
574.466342	45095.034272
574.821059	45272.409790
575.175722	44866.009611
575.530330	44956.833560
575.884882	44730.397532
576.239380	44758.191933
576.593823	44792.728878
576.948211	44771.734993
577.302544	44359.159401
577.656823	44436.435248
578.011047	44700.753027
578.365216	44487.035830
578.719330	44323.649513
579.073389	44224.142177
579.427394	44364.326583
579.781344	44358.262075
580.135239	44058.570520
580.489080	44182.091393
580.842866	43704.391654
581.196597	44188.798648
581.550273	44171.900700
581.903895	44089.313997
582.257463	44519.722671
582.610975	43946.997183
582.964434	44275.609837
583.317837	43944.622799
583.671186	43812.731091
584.024481	44078.520887
584.377721	43608.929844
584.730906	43937.557622
585.084037	44019.783883
585.437113	43766.793577
585.790135	43818.190661
586.143103	43451.754229
586.496016	43608.077889
586.848874	43651.325948
587.201679	43686.944221
587.554428	43190.055330
587.907124	43426.122482
588.259765	43194.478943
588.612352	43458.842091
588.964884	42862.476112
589.317362	43173.079244
589.669786	43130.282369
590.022155	42910.757763
590.374470	43362.813152
590.726731	42915.599791
591.078937	42446.782566
591.431090	42578.250817
591.783188	42233.965215
592.135232	41938.026799
592.487222	42220.467526
592.839157	42302.361070
593.191038	41992.388082
593.542866	41753.384457
593.894639	41195.288397
594.246358	41482.041831
594.598022	41483.067706
594.949633	41086.754875
595.301190	41059.038612
595.652692	40915.022928
596.004141	41249.322005
596.355535	40277.616916
596.706876	40244.594837
597.058162	40085.435528
597.409395	40565.769269
597.760573	40662.105719
598.111698	40249.877967
598.462768	40268.807499
598.813785	40316.262401
599.164748	39785.030650
599.515657	40166.572899
599.866511	39664.657978
600.217312	40289.166199
600.568060	39264.748285
600.918753	40018.153768
601.269392	39975.346810
601.619978	39642.928085
601.970510	39839.457467
602.320988	40033.380573
602.671412	40355.008709
603.021783	40107.596440
603.372100	39771.348958
603.722363	39870.400070
604.072572	39957.186054
604.422728	39972.347324
604.772830	39797.066405
605.122878	39903.021376
605.472872	39849.673366
605.822813	40112.183890
606.172701	39942.022263
606.522534	40198.564062
606.872314	40472.830557
607.222041	40221.879398
607.571714	40602.264703
607.921333	40063.269575
608.270899	40346.831958
608.620411	40708.607843
608.969870	40485.090643
609.319276	40507.619560
609.668627	40558.152086
610.017926	41031.644982
610.367171	41193.967615
610.716362	41287.125617
611.065500	41220.957952
611.414585	41426.959663
611.763616	41718.126627
612.112594	41657.693275
612.461518	41876.149156
612.810389	42182.200127
613.159207	42047.440002
613.507971	42131.352528
613.856682	42600.091616
614.205340	42478.720796
614.553945	43199.767113
614.902496	42648.637927
615.250994	43126.234322
615.599439	43194.317626
615.947830	43386.410793
616.296169	43467.671672
616.644454	43565.437289
616.992686	43743.604269
617.340864	44271.188746
617.688990	43967.857477
618.037063	44600.605464
618.385082	44555.081324
618.733048	44857.117016
619.080961	44867.322832
619.428821	44877.508483
619.776628	44980.395913
620.124382	44837.506928
620.472083	44965.045599
620.819731	45092.773314
621.167326	44756.155307
621.514868	44752.984422
621.862357	44312.049818
622.209793	44365.211306
622.557176	44004.912479
622.904506	43747.483437
623.251783	43407.339143
623.599007	43182.317159
623.946179	42988.857839
624.293297	42938.390848
624.640363	42348.734644
624.987376	42322.626508
625.334336	42080.764550
625.681243	41731.432753
626.028097	41700.394368
626.374899	41557.452451
626.721647	41533.905222
627.068343	41432.840169
627.414987	41180.734586
627.761577	40973.175159
628.108115	41300.971146
628.454600	40747.293658
628.801032	40931.459611
629.147412	40884.967569
629.493739	40877.678061
629.840014	40529.457838
630.186236	40875.777546
630.532405	40470.420886
630.878521	40685.809225
631.224585	40559.949257
631.570597	40273.019383
631.916556	40429.590060
632.262462	40371.982274
632.608316	40385.724460
632.954117	40299.886213
633.299866	40273.538622
633.645562	40199.201768
633.991206	39714.966173
634.336797	39267.805745
634.682336	39260.853993
635.027823	39020.595122
635.373257	38841.412349
635.718639	38601.740772
636.063968	38482.068821
636.409245	37893.904799
636.754470	37948.276164
637.099642	37700.909265
637.444762	37199.344704
637.789829	37377.347847
638.134845	37010.747577
638.479808	36953.749771
638.824719	36863.079578
639.169577	36480.854252
639.514383	36543.523356
639.859137	36238.150421
640.203839	36491.163412
640.548489	36107.511440
640.893086	36193.795829
641.237632	35939.157066
641.582125	36043.907202
641.926566	35984.172049
642.270955	35954.535106
642.615292	35955.427390
642.959576	35933.589111
643.303809	35937.178413
643.647990	36094.258246
643.992118	36054.128141
644.336195	36044.839815
644.680219	36120.978882
645.024192	36432.227282
645.368112	36946.619059
645.711981	36947.072763
646.055797	37823.116917
646.399562	37736.303206
646.743274	38717.092454
647.086935	39127.911205
647.430544	39011.314357
647.774101	39119.182447
648.117606	39373.480932
648.461059	39679.781440
648.804460	39271.289182
649.147810	38662.191768
649.491108	38407.550485
649.834354	38047.390289
650.177548	37189.451440
650.520690	36748.302587
650.863781	36784.422455
651.206820	36628.507128
651.549807	36203.091717
651.892742	35697.310231
652.235626	35507.460377
652.578458	35378.255604
652.921238	34778.081032
653.263967	35098.136328
653.606644	34775.578100
653.949269	34724.443156
654.291843	34290.603976
654.634365	34680.625446
654.976836	34286.916372
655.319255	34303.884896
655.661622	34312.961493
656.003938	34094.845890
656.346203	33952.881957
656.688416	34175.683313
657.030577	33960.761280
657.372687	33795.776917
657.714746	34065.403031
658.056753	34198.136612
658.398708	33644.007940
658.740612	33691.886298
659.082465	33976.923219
659.424266	33797.430416
659.766016	33923.638223
660.107715	33776.328146
660.449362	33910.737910
660.790958	33892.138573
661.132503	33891.387441
661.473996	33930.216929
661.815438	34054.491453
662.156829	34250.136114
662.498168	33999.230325
662.839456	34038.659710
663.180693	34189.299469
663.521879	34340.352603
663.863013	34302.483455
664.204097	34298.384997
664.545129	34755.111015
664.886110	34703.149322
665.227040	34776.934170
665.567918	34900.762553
665.908746	34957.266325
666.249522	35116.811283
666.590248	35119.387312
666.930922	35229.811267
667.271545	35184.244277
667.612118	35249.801962
667.952639	35048.468360
668.293109	35090.415801
668.633528	34988.894525
668.973896	34923.369607
669.314213	34965.117922
669.654480	34695.766552
669.994695	34719.102053
670.334859	34609.777070
670.674973	34506.400649
671.015035	34655.233154
671.355047	34612.395950
671.695008	34540.241915
672.034918	34436.563024
672.374777	34531.651788
672.714585	34359.251889
673.054342	34588.785706
673.394049	34322.864840
673.733705	34616.950632
674.073310	34263.885861
674.412864	34343.248746
674.752368	33947.747541
675.091820	34264.914256
675.431223	33840.204606
675.770574	33545.100501
676.109875	33405.279058
676.449125	33136.676299
676.788324	33047.067269
677.127473	32499.350945
677.466571	32425.140119
677.805619	32082.134970
678.144616	32084.156473
678.483562	31986.481596
678.822458	31681.955575
679.161303	31603.487495
679.500098	31512.030882
679.838842	31407.976425
680.177535	31539.341333
680.516179	31833.601044
680.854771	32081.744281
681.193314	32948.038843
681.531805	34073.342848
681.870247	34821.011499
682.208638	35526.503335
682.546978	35721.414508
682.885268	35818.237429
683.223508	35297.786185
683.561697	34966.695804
683.899836	34765.909167
684.237925	34257.143317
684.575963	34102.914257
684.913951	33635.443019
685.251889	33786.584373
685.589776	33779.950215
685.927614	33767.949748
686.265401	33906.279010
686.603137	33997.758308
686.940824	34495.090820
687.278460	34868.973036
687.616046	34983.341694
687.953582	35569.176703
688.291068	35427.306031
688.628504	35708.093259
688.965889	35627.192822
689.303224	35258.394609
689.640510	34936.053150
689.977745	34184.288562
690.314930	33378.820562
690.652065	32869.306102
690.989150	32150.747594
691.326185	31241.590622
691.663170	30535.133404
692.000105	29791.777461
692.336990	29104.025444
692.673825	28651.027360
693.010610	28138.614236
693.347345	27540.342700
693.684030	26880.392647
694.020665	26591.980674
694.357251	25928.368223
694.693786	25873.036518
695.030272	25638.459027
695.366707	25078.432205
695.703093	24791.724142
696.039429	24785.644510
696.375716	24517.840774
696.711952	24480.475742
697.048139	24309.862931
697.384276	24124.895435
697.720363	24253.928808
698.056400	24050.029259
698.392388	23821.906965
698.728326	23795.962667
699.064214	23583.140275
699.400053	23517.756509
699.735842	23156.595645
700.071581	22884.333008
700.407270	22591.948606
700.742910	22394.410992
701.078501	22126.032564
701.414042	21846.150223
701.749533	21545.831045
702.084974	21182.568019
702.420366	21405.069426
702.755709	20956.447063
703.091002	20660.039820
703.426246	20659.724748
703.761440	20571.592776
704.096584	20302.518669
704.431679	20243.602704
704.766725	20155.816051
705.101721	20098.881259
705.436668	20186.914929
705.771565	19855.048209
706.106413	20208.934689
706.441212	20204.125428
706.775961	20332.901703
707.110661	20388.969416
707.445311	20738.054196
707.779913	20570.796273
708.114465	20809.820063
708.448967	21107.038932
708.783421	21788.910442
709.117825	22054.622099
709.452180	22270.716200
709.786485	22668.969875
710.120742	23456.597231
710.454949	23468.428819
710.789107	23927.383027
711.123216	24624.572083
711.457275	24735.684155
711.791286	25268.899600
712.125247	25336.393089
712.459159	25033.825555
712.793023	25705.029984
713.126837	24587.378450
713.460602	24861.261818
713.794318	24486.905733
714.127985	24119.221616
714.461602	23217.281055
714.795171	23176.377133
715.128691	22150.519969
715.462162	21611.290427
715.795584	21201.109383
716.128957	20937.993920
716.462281	20533.032990
716.795556	20299.650252
717.128782	19784.840060
717.461960	19253.310880
717.795088	19178.101906
718.128167	18754.539119
718.461198	18292.038459
718.794180	18154.041914
719.127113	17785.508362
719.459997	17584.845233
719.792833	17230.605873
720.125619	17188.862598
720.458357	16879.769292
720.791046	16707.840740
721.123686	16530.739964
721.456278	16300.959130
721.788821	16246.892755
722.121315	15993.872203
722.453761	16067.084880
722.786158	15994.598129
723.118506	16001.224726
723.450805	15856.871285
723.783056	16016.784247
724.115259	15911.540078
724.447412	15833.835733
724.779518	16081.089205
725.111574	16098.987822
725.443582	16305.970037
725.775542	16285.926410
726.107453	16747.600320
726.439315	16636.019421
726.771129	17028.916869
727.102895	17394.544196
727.434612	17605.145960
727.766281	17722.599803
728.097901	17977.800655
728.429473	18010.757198
728.760996	17998.124067
729.092471	18091.239219
729.423897	17963.995455
729.755276	17840.482145
730.086606	17954.760061
730.417887	18486.649683
730.749120	18994.223299
731.080305	19164.823507
731.411442	19489.914916
731.742530	19563.838396
732.073570	19664.956380
732.404562	19950.782241
732.735506	19763.001781
733.066401	19459.549525
733.397249	18940.242624
733.728048	18300.704203
734.058798	17464.361656
734.389501	16785.799663
734.720156	16331.775704
735.050762	15802.701567
735.381320	15443.005157
735.711831	15204.608992
736.042293	14854.909191
736.372707	14867.418814
736.703073	14653.903263
737.033391	14829.829450
737.363661	14800.575635
737.693883	14895.316559
738.024056	15062.345110
738.354182	15237.653755
738.684260	15515.880077
739.014290	15734.696401
739.344272	15908.807773
739.674207	16178.070923
740.004093	16296.953934
740.333931	16285.145031
740.663722	16330.868296
740.993464	16316.430432
741.323159	16136.420910
741.652806	15877.613113
741.982405	15667.129816
742.311956	15321.856148
742.641460	15215.591146
742.970915	14913.608386
743.300323	14574.590790
743.629683	14370.224934
743.958996	14096.941463
744.288260	13820.373681
744.617477	13529.420966
744.946647	13458.577631
745.275768	13175.854600
745.604842	13000.692148
745.933869	12819.495434
746.262847	12772.879885
746.591778	12699.226107
746.920662	12593.200559
747.249498	12597.679624
747.578286	12711.284547
747.907027	12857.810724
748.235720	13067.908372
748.564365	13090.767485
748.892963	12991.436589
749.221514	13048.114282
749.550017	12899.480902
749.878473	12859.814583
750.206881	12640.037919
750.535242	12539.446735
750.863555	12461.087040
751.191821	12355.686595
751.520039	12370.689069
751.848210	12284.752520
752.176334	12316.191676
752.504411	12213.674771
752.832440	12056.884804
753.160421	12114.139709
753.488356	11992.713436
753.816243	11900.661967
754.144082	11758.544278
754.471875	11707.792462
754.799620	11642.383491
755.127318	11613.457350
755.454969	11580.846126
755.782572	11524.833865
756.110129	11537.451873
756.437638	11458.288114
756.765100	11446.796804
757.092515	11456.236364
757.419882	11463.709875
757.747203	11468.922428
758.074477	11534.565813
758.401703	11486.299285
758.728882	11652.173412
759.056014	11680.000581
759.383099	11802.246041
759.710138	11904.510888
760.037129	11991.138076
760.364073	11996.370793
760.690970	11976.473359
761.017820	11985.839823
761.344623	12182.096983
761.671379	12522.568952
761.998088	13184.769880
762.324751	14806.340194
762.651366	17706.321917
762.977935	21289.437960
763.304456	23378.169480
763.630931	23751.308126
763.957359	22563.226632
764.283740	20661.554687
764.610074	18814.753181
764.936362	16712.634877
765.262602	15214.434201
765.588796	13764.638684
765.914943	12760.062751
766.241044	11913.418607
766.567097	11287.982814
766.893104	10743.160112
767.219064	10383.141069
767.544978	10012.144913
767.870845	9699.931132
768.196665	9514.875415
768.522438	9317.725971
768.848165	9147.609714
769.173846	8985.042584
769.499479	8859.792597
769.825066	8702.417856
770.150607	8520.265844
770.476101	8459.643448
770.801548	8350.326027
771.126949	8208.909059
771.452303	8121.185420
771.777611	7958.308260
772.102872	7937.992410
772.428087	7818.731313
772.753256	7697.647839
773.078378	7611.189530
773.403453	7464.086140
773.728482	7356.911209
774.053465	7292.591127
774.378401	7211.511729
774.703291	7110.247551
775.028135	7013.961513
775.352932	6974.685883
775.677683	6897.725108
776.002388	6808.962992
776.327046	6805.998793
776.651658	6720.684826
776.976224	6649.375184
777.300743	6632.320961
777.625216	6568.671352
777.949643	6524.863726
778.274024	6526.776843
778.598359	6457.445855
778.922647	6462.091278
779.246889	6417.056130
779.571086	6428.585249
779.895236	6426.717501
780.219339	6426.629281
780.543397	6425.389157
780.867409	6470.658719
781.191374	6474.966385
781.515294	6437.238389
781.839167	6486.992057
782.162995	6463.485157
782.486776	6410.333751
782.810511	6374.854111
783.134201	6296.451565
783.457844	6284.483866
783.781441	6236.663481
784.104993	6196.208221
784.428498	6165.074055
784.751958	6149.872456
785.075372	6129.392768
785.398739	6085.733855
785.722061	6109.023986
786.045337	6110.115396
786.368568	6223.687551
786.691752	6244.688998
787.014891	6494.558829
787.337983	6777.080214
787.661030	7209.071811
787.984031	7625.241746
788.306987	7866.869291
788.629897	7953.138557
788.952760	7857.449895
789.275579	7683.174686
789.598351	7388.582258
789.921078	7131.007023
790.243759	6852.611822
790.566395	6653.599671
790.888984	6462.383665
791.211529	6330.580177
791.534027	6163.198746
791.856480	6028.350401
792.178888	5974.321835
792.501249	5905.961268
792.823566	5799.963447
793.145836	5793.919103
793.468062	5784.842506
793.790241	5741.649899
794.112375	5777.736999
794.434464	5875.182503
794.756507	5908.403707
795.078505	6025.693713
795.400457	6241.656744
795.722364	6478.369164
796.044226	6658.514796
796.366042	6810.719834
796.687812	6756.892914
797.009538	6783.873169
797.331218	6691.332708
797.652852	6628.459437
797.974442	6508.169945
798.295986	6440.053874
798.617484	6313.498227
798.938938	6206.351023
799.260346	6137.362832
799.581709	6002.564899
799.903026	5950.162105
800.224299	5882.255242
800.545526	5766.832983
800.866708	5701.260175
801.187845	5653.961549
801.508936	5575.669909
801.829983	5544.445002
802.150984	5440.481286
802.471940	5411.529940
802.792851	5394.969749
803.113717	5372.397983
803.434538	5352.009036
803.755314	5315.392615
804.076045	5305.915246
804.396731	5273.881234
804.717372	5283.285507
805.037967	5283.832472
805.358518	5312.042769
805.679024	5365.804154
805.999485	5372.231625
806.319901	5392.381117
806.640272	5405.498199
806.960598	5449.938491
807.280879	5444.269713
807.601115	5478.804138
807.921306	5442.832985
808.241453	5436.934835
808.561554	5448.723573
808.881611	5416.699643
809.201623	5411.792080
809.521590	5364.932034
809.841513	5348.114745
810.161390	5364.168299
810.481223	5283.497235
810.801011	5268.159524
811.120755	5251.344756
811.440453	5191.773441
811.760107	5165.972815
812.079716	5140.910719
812.399281	5089.448100
812.718801	5082.950053
813.038276	5056.274787
813.357707	5012.371378
813.677093	5038.829874
813.996434	4982.613447
814.315731	4995.329758
814.634983	4998.104913
814.954191	5006.044730
815.273354	5068.033278
815.592473	5105.872179
815.911547	5176.528992
816.230577	5229.120829
816.549562	5318.697092
816.868502	5367.825657
817.187399	5423.918575
817.506250	5505.489486
817.825058	5535.431419
818.143821	5691.419842
818.462539	5862.670359
818.781213	6092.851964
819.099843	6455.598272
819.418429	7091.275169
819.736970	7696.521141
820.055466	8406.855006
820.373919	9331.334566
820.692327	10836.136633
821.010691	13660.291840
821.329011	20019.437716
821.647286	29455.318250
821.965517	39346.432621
822.283704	44238.559877
822.601847	45361.277771
822.919945	40812.574079
823.237999	35872.959154
823.556010	30868.222603
823.873976	26342.100760
824.191897	22291.213532
824.509775	19322.392332
824.827609	16648.776061
825.145398	15164.494010
825.463144	14467.536847
825.780845	14825.368029
826.098502	16131.455373
826.416116	18526.905817
826.733685	20623.776280
827.051210	20965.284206
827.368692	19470.108222
827.686129	16976.403170
828.003522	14601.036683
828.320872	12461.656690
828.638177	10878.242870
828.955439	9684.918576
829.272656	8644.069021
829.589830	7822.176942
829.906960	7119.301464
830.224046	6595.419715
830.541088	6200.251227
830.858086	5948.659841
831.175041	5751.971662
831.491952	5706.429878
831.808819	5745.637452
832.125642	6005.340054
832.442421	6573.813329
832.759157	7710.553192
833.075849	9463.054874
833.392497	11224.421425
833.709101	12224.437634
834.025662	11904.843604
834.342179	10846.322284
834.658653	9593.751829
834.975083	8530.078450
835.291469	7662.616861
835.607811	6945.023734
835.924110	6442.337517
836.240366	5960.078054
836.556578	5520.575139
836.872746	5176.879352
837.188871	4906.670985
837.504952	4696.006207
837.820990	4534.734654
838.136984	4421.391872
838.452935	4380.435017
838.768842	4416.680913
839.084706	4723.379672
839.400526	5474.105782
839.716303	6349.328228
840.032037	6858.038624
840.347727	6666.484861
840.663373	6075.785138
840.978977	5517.941136
841.294537	5098.489409
841.610054	4776.977220
841.925527	4546.551119
842.240957	4345.388916
842.556344	4162.954599
842.871687	4004.553984
843.186987	3861.191130
843.502244	3742.870208
843.817458	3661.720234
844.132629	3587.590067
844.447756	3545.002399
844.762840	3499.405163
845.077881	3459.534677
845.392879	3427.208278
845.707833	3400.217940
846.022745	3371.889176
846.337613	3362.290819
846.652438	3337.632015
846.967221	3327.078359
847.281960	3310.339208
847.596656	3299.878814
847.911309	3288.079993
848.225919	3275.726646
848.540485	3269.147940
848.855009	3256.217380
849.169490	3245.230186
849.483928	3237.902868
849.798323	3235.102507
850.112675	3221.912328
850.426984	3226.827453
850.741251	3216.780434
851.055474	3212.941595
851.369654	3215.245402
851.683792	3212.329095
851.997887	3215.137018
852.311938	3216.793037
852.625947	3212.583673
852.939914	3210.191646
853.253837	3216.677090
853.567718	3209.344732
853.881555	3205.140410
854.195350	3211.061245
854.509103	3208.467571
854.822812	3205.417673
855.136479	3203.512117
855.450103	3204.480018
855.763685	3198.060109
856.077224	3200.293340
856.390720	3210.131152
856.704173	3218.905280
857.017584	3222.550034
857.330953	3229.302660
857.644278	3236.196438
857.957561	3240.400760
858.270802	3235.591499
858.584000	3235.185687
858.897155	3231.205696
859.210268	3218.630537
859.523339	3207.814742
859.836367	3205.367262
860.149352	3199.232177
860.462295	3197.203113
860.775195	3188.111392
861.088054	3185.313552
861.400869	3183.735670
861.713642	3181.426822
862.026373	3190.478214
862.339062	3197.119934
862.651708	3204.835420
862.964312	3217.503839
863.276873	3228.259141
863.589392	3259.569748
863.901869	3281.382820
864.214303	3303.266469
864.526696	3321.641475
864.839045	3340.898683
865.151353	3351.164993
865.463619	3351.568285
865.775842	3350.844879
866.088023	3355.712113
866.400162	3347.358921
866.712258	3352.611804
867.024313	3351.469982
867.336325	3347.779858
867.648296	3349.282122
867.960224	3346.832121
868.272110	3353.231866
868.583954	3352.553830
868.895755	3358.625900
869.207515	3357.761342
869.519233	3373.915720
869.830909	3381.071638
870.142542	3392.731827
870.454134	3396.303484
870.765684	3408.588776
871.077191	3429.870007
871.388657	3441.152109
871.700081	3458.856642
872.011463	3478.847337
872.322803	3496.803927
872.634101	3514.858820
872.945357	3538.895041
873.256571	3562.885892
873.567744	3576.297882
873.878874	3584.061259
874.189963	3596.346551
874.501010	3600.923919
874.812015	3592.800099
875.122979	3610.734004
875.433900	3610.257615
875.744780	3609.372892
876.055618	3621.461579
876.366415	3616.717854
876.677169	3624.143473
876.987882	3640.922954
877.298554	3666.350534
877.609183	3696.413455
877.919771	3750.366404
878.230317	3819.674707
878.540822	3924.681942
878.851285	4074.787339
879.161707	4303.086073
879.472087	4685.530689
879.782425	5325.452238
880.092722	6528.226175
880.402977	8444.494781
880.713191	10737.519061
881.023363	12981.175321
881.333494	14176.753011
881.643583	14544.119536
881.953631	14118.230256
882.263637	13313.805775
882.573602	12334.475941
882.883526	11425.175295
883.193408	10520.890597
883.503248	9644.705292
883.813048	8847.293056
884.122806	8102.220599
884.432522	7361.491097
884.742197	6723.265897
885.051831	6178.985119
885.361424	5701.353436
885.670975	5321.847813
885.980485	5009.686964
886.289954	4752.041152
886.599382	4537.487124
886.908768	4364.434395
887.218113	4205.524623
887.527417	4077.244902
887.836680	3956.000110
888.145901	3854.821632
888.455082	3787.247485
888.764221	3718.372721
889.073319	3658.771159
889.382376	3625.557517
889.691392	3603.200000
890.000366	3597.130450
890.309300	3592.026282
890.618193	3596.896037
890.927044	3590.445880
891.235855	3595.088783
891.544625	3614.237606
891.853353	3642.460506
892.162041	3702.460319
892.470687	3794.398362
892.779293	3919.877722
893.087858	4089.205039
893.396381	4368.943707
893.704864	4786.343684
894.013306	5346.345300
894.321707	5884.579214
894.630068	6197.982707
894.938387	6210.595674
895.246665	6027.011975
895.554903	5726.254216
895.863100	5398.314555
896.171256	5144.840298
896.479371	4912.939660
896.787446	4698.357905
897.095480	4512.465357
897.403473	4366.912122
897.711425	4225.601018
898.019336	4110.398050
898.327207	3990.526973
898.635038	3887.667270
898.942827	3786.919810
899.250576	3702.485525
899.558284	3623.982156
899.865952	3571.241605
900.173579	3506.677027
900.481165	3467.172025
900.788711	3422.174686
901.096216	3391.932804
901.403681	3364.486242
901.711105	3359.112372
902.018489	3354.232535
902.325832	3388.474572
902.633135	3450.619396
902.940397	3625.224801
903.247619	4048.878329
903.554800	4797.325837
903.861941	5722.483432
904.169041	6367.753645
904.476101	6524.495721
904.783121	6248.132106
905.090100	5861.699937
905.397039	5469.631758
905.703938	5124.562257
906.010796	4822.503880
906.317614	4574.400973
906.624391	4346.213144
906.931129	4157.469824
907.237826	3982.022547
907.544483	3818.820232
907.851099	3649.424860
908.157675	3495.558762
908.464211	3360.092876
908.770707	3258.291815
909.077163	3184.585105
909.383578	3127.007566
909.689954	3083.986359
909.996289	3053.172306
910.302584	3031.984337
910.608839	3021.544107
910.915054	3010.415760
911.221229	3006.886952
911.527363	3012.359125
911.833458	3016.462624
912.139513	3030.466949
912.445527	3045.116542
912.751502	3077.677355
913.057436	3122.009262
913.363331	3180.363138
913.669186	3268.648866
913.975000	3388.303173
914.280775	3574.795618
914.586510	3844.809901
914.892205	4218.354359
915.197859	4704.689594
915.503475	5262.556282
915.809050	5719.214244
916.114585	5975.831660
916.420081	6022.285893
916.725536	5951.803000
917.030952	5726.728084
917.336328	5528.540162
917.641665	5328.199667
917.946961	5109.766471
918.252218	4916.652470
918.557435	4702.501734
918.862612	4511.043752
919.167750	4347.118032
919.472848	4164.744209
919.777906	4001.546935
920.082925	3852.164944
920.387904	3702.760268
920.692843	3593.556272
920.997743	3500.247035
921.302603	3410.832089
921.607423	3348.410002
921.912204	3282.375928
922.216946	3234.426993
922.521647	3189.046526
922.826310	3146.098416
923.130932	3109.849999
923.435516	3072.225347
923.740059	3048.078220
924.044564	3014.791482
924.349028	2993.747185
924.653454	2962.786938
924.957840	2936.938422
925.262186	2919.801020
925.566493	2896.324366
925.870761	2872.252857
926.174989	2864.255066
926.479178	2845.743949
926.783328	2831.119562
927.087438	2820.316369
927.391509	2808.562919
927.695541	2795.249232
927.999533	2788.040382
928.303486	2779.379679
928.607400	2772.874070
928.911275	2767.084305
929.215110	2758.854621
929.518906	2757.712800
929.822663	2757.576689
930.126381	2757.009559
930.430060	2761.115579
930.733699	2761.758326
931.037299	2764.213368
931.340861	2767.180087
931.644383	2769.002464
931.947866	2764.712442
932.251309	2764.019283
932.554714	2762.287647
932.858080	2762.564911
933.161407	2757.322111
933.464694	2753.047212
933.767943	2751.592839
934.071153	2746.660070
934.374323	2742.677559
934.677455	2741.381982
934.980548	2737.507855
935.283602	2734.863770
935.586617	2731.609705
935.889593	2736.209758
936.192530	2737.132289
936.495428	2744.469689
936.798287	2752.303642
937.101108	2764.649428
937.403890	2785.043416
937.706632	2812.111891
938.009336	2841.542147
938.312002	2870.982486
938.614628	2894.065929
938.917216	2909.164185
939.219765	2921.005855
939.522275	2930.175714
939.824747	2929.855601
940.127179	2923.284457
940.429573	2916.869589
940.731929	2916.075607
941.034246	2910.726943
941.336524	2902.003226
941.638763	2900.884090
941.940964	2895.689181
942.243126	2882.105792
942.545250	2873.687065
942.847335	2856.695856
943.149381	2841.254802
943.451389	2830.630570
943.753359	2817.916780
944.055290	2804.305664
944.357182	2801.273410
944.659036	2797.603450
944.960851	2792.322842
945.262628	2787.763118
945.564367	2790.056843
945.866067	2789.598098
946.167729	2786.462500
946.469352	2785.159362
946.770937	2783.125257
947.072484	2773.332815
947.373992	2777.905142
947.675462	2773.935233
947.976893	2769.962804
948.278286	2763.311001
948.579641	2761.539036
948.880958	2760.712287
949.182236	2759.648603
949.483476	2756.850763
949.784678	2755.845052
950.085841	2754.557038
950.386967	2759.177255
950.688054	2763.431989
950.989103	2770.172012
951.290114	2777.935389
951.591087	2793.394087
951.892021	2802.236271
952.192917	2815.313024
952.493776	2825.080259
952.794596	2829.554283
953.095378	2827.696618
953.396122	2826.247287
953.696828	2825.836432
953.997496	2820.540700
954.298126	2806.722898
954.598718	2805.833134
954.899272	2793.479787
955.199788	2780.513939
955.500266	2771.434821
955.800706	2755.824888
956.101108	2741.843248
956.401472	2731.581979
956.701798	2717.408775
957.002087	2703.769933
957.302337	2694.093438
957.602550	2684.215297
957.902724	2674.947136
958.202861	2670.276507
958.502960	2661.610764
958.803022	2653.272695
959.103045	2644.128042
959.403031	2638.802063
959.702979	2636.742752
960.002889	2632.805611
960.302762	2624.447377
960.602596	2624.795217
960.902393	2620.033847
961.202153	2617.412447
961.501875	2613.591253
961.801559	2614.307097
962.101205	2608.870212
962.400814	2606.732763
962.700385	2607.430963
962.999918	2605.280911
963.299414	2599.599530
963.598873	2604.660849
963.898293	2600.239757
964.197677	2599.181114
964.497022	2595.828747
964.796331	2596.821854
965.095601	2593.361102
965.394835	2594.361771
965.694030	2592.040320
965.993189	2593.298088
966.292309	2592.594847
966.591393	2589.983529
966.890439	2591.639548
967.189447	2591.611822
967.488419	2590.676688
967.787353	2592.219281
968.086249	2591.896647
968.385108	2595.453181
968.683930	2591.342120
968.982714	2596.665579
969.281462	2593.840012
969.580172	2597.046186
969.878844	2601.648759
970.177480	2606.158071
970.476078	2606.770572
970.774639	2609.795264
971.073162	2610.415326
971.371649	2612.401540
971.670098	2609.323916
971.968510	2613.263578
972.266885	2612.651077
972.565223	2617.097375
972.863524	2618.695421
973.161788	2619.670884
973.460014	2622.645165
973.758204	2620.578292
974.056356	2621.553755
974.354471	2622.186420
974.652550	2622.919908
974.950591	2623.252624
975.248595	2621.687346
975.546563	2621.430247
975.844493	2616.091665
976.142386	2616.003445
976.440243	2612.096551
976.738062	2615.196860
977.035845	2611.620162
977.333590	2609.538165
977.631299	2606.768051
977.928971	2605.984152
978.226606	2605.538009
978.524204	2601.109356
978.821765	2601.570621
979.119290	2603.559357
979.416777	2601.187494
979.714228	2600.385950
980.011642	2601.177411
980.309020	2608.532455
980.606360	2607.478854
980.903664	2620.830350
981.200931	2633.924747
981.498162	2645.804226
981.795356	2678.354956
982.092513	2712.949874
982.389633	2754.065525
982.686717	2793.542801
982.983764	2821.168324
983.280775	2836.422856
983.577749	2835.586024
983.874686	2828.165446
984.171587	2811.451500
984.468451	2798.253759
984.765279	2779.815739
985.062070	2762.776639
985.358824	2747.300297
985.655543	2726.177862
985.952224	2705.065510
986.248869	2678.218845
986.545478	2654.598519
986.842050	2638.333236
987.138586	2617.911522
987.435086	2606.374841
987.731549	2596.834457
988.027975	2591.755495
988.324366	2587.846080
988.620719	2580.823753
988.917037	2579.263516
989.213318	2578.285532
989.509563	2573.438462
989.805772	2574.965932
990.101944	2572.455437
990.398080	2569.314798
990.694180	2571.237999
990.990244	2569.055179
991.286271	2569.430745
991.582262	2569.861764
991.878217	2572.568863
992.174136	2572.767989
992.470019	2573.695561
992.765865	2576.420305
993.061676	2578.267888
993.357450	2578.552713
993.653188	2579.956674
993.948890	2586.716862
994.244556	2593.592995
994.540186	2602.120107
994.835780	2614.047477
995.131337	2628.039200
995.426859	2642.814822
995.722345	2659.286792
996.017795	2675.834379
996.313208	2688.520443
996.608586	2700.326825
996.903928	2700.767926
997.199234	2698.118800
997.494504	2695.482276
997.789738	2689.052285
998.084936	2679.655574
998.380099	2668.615447
998.675225	2656.798982
998.970316	2648.649957
999.265371	2634.809469
999.560390	2624.938890
999.855373	2612.303238
1000.150320	2604.640684
1000.445232	2594.676843
1000.740108	2587.828436
1001.034948	2584.158476
1001.329752	2578.265367
1001.624521	2572.465520
1001.919254	2566.922771
1002.213951	2566.804304
1002.508613	2562.665517
1002.803239	2562.773901
1003.097829	2556.893395
1003.392384	2560.109652
1003.686903	2557.221070
1003.981386	2557.916750
1004.275834	2556.429609
1004.570246	2558.771225
1004.864623	2554.471121
1005.158964	2556.081770
1005.453270	2554.602191
1005.747540	2556.580844
1006.041775	2551.590102
1006.335974	2554.519012
1006.630138	2551.627910
1006.924266	2553.309135
1007.218359	2551.862324
1007.512416	2549.472817
1007.806438	2548.189843
1008.100425	2550.221428
1008.394376	2547.642878
1008.688292	2551.209494
1008.982172	2550.541542
1009.276017	2549.810574
1009.569827	2550.899463
1009.863602	2550.329813
1010.157341	2549.278732
1010.451045	2549.019113
1010.744714	2547.592467
1011.038347	2549.782848
1011.331945	2548.492313
1011.625508	2550.228990
1011.919036	2548.217570
1012.212528	2547.559699
1012.505986	2546.639688
1012.799408	2545.961653
1013.092795	2543.551982
1013.386147	2547.965512
1013.679464	2544.219935
1013.972745	2546.334699
1014.265992	2547.574823
1014.559204	2547.433670
1014.852380	2543.922507
1015.145521	2546.760676
1015.438628	2546.259081
1015.731699	2545.157589
1016.024736	2544.923176
1016.317737	2547.884853
1016.610703	2549.989535
1016.903635	2542.833617
1017.196531	2544.093906
1017.489393	2544.078782
1017.782219	2544.953423
1018.075011	2546.392672
1018.367768	2547.690769
1018.660490	2547.990718
1018.953177	2547.990718
1019.245829	2547.990718
