Dividing Wavelength (nm)	Counts (n)	Blue Motor Position (mm): 17.500000	Red Motor Position (mm): 0.000000	
326.493990	2158.259114
326.888308	2158.259114
327.282561	2158.259114
327.676750	2135.825979
328.070874	2131.840947
328.464933	2136.040228
328.858929	2147.317289
329.252859	2159.700884
329.646726	2171.194715
330.040528	2186.144256
330.434265	2208.055632
330.827938	2224.434340
331.221547	2245.531569
331.615091	2265.451689
332.008571	2284.449277
332.401986	2306.222020
332.795338	2327.755309
333.188625	2346.384893
333.581847	2366.952801
333.975006	2384.133053
334.368100	2401.232647
334.761129	2417.031623
335.154095	2436.175405
335.546996	2461.827316
335.939833	2484.857827
336.332606	2498.647904
336.725315	2510.192146
337.117960	2518.225225
337.510540	2526.654034
337.903056	2536.988399
338.295508	2543.219266
338.687896	2550.904505
339.080220	2558.219219
339.472480	2564.646690
339.864676	2565.400343
340.256807	2568.672051
340.648875	2570.771692
341.040879	2574.663463
341.432818	2576.170768
341.824694	2574.350911
342.216506	2573.680438
342.608253	2575.643967
342.999937	2576.211097
343.391557	2575.434759
343.783113	2574.010633
344.174605	2570.514593
344.566033	2569.907134
344.957397	2569.826476
345.348697	2568.125086
345.739934	2565.034859
346.131106	2562.778942
346.522215	2564.331618
346.913260	2560.376833
347.304241	2556.790052
347.695159	2558.982954
348.086012	2554.047664
348.476802	2554.788714
348.867528	2551.098589
349.258191	2551.373332
349.648789	2548.618341
350.039324	2549.465255
350.429796	2551.000287
350.820203	2546.962322
351.210548	2545.613814
351.600828	2547.315203
351.991045	2543.771272
352.381198	2540.802032
352.771288	2541.754810
353.161314	2544.923176
353.551276	2546.191026
353.941175	2543.085675
354.331010	2544.444266
354.720782	2545.399565
355.110490	2549.959288
355.500135	2542.258926
355.889717	2545.218083
356.279235	2545.465100
356.668689	2547.892415
357.058080	2543.337733
357.447408	2546.049873
357.836672	2546.208670
358.225873	2543.766231
358.615010	2544.366128
359.004084	2547.274874
359.393095	2549.142621
359.782043	2550.884340
360.170927	2551.116233
360.559748	2552.003476
360.948505	2549.676984
361.337199	2552.588250
361.725830	2552.338713
362.114398	2550.284443
362.502903	2552.300904
362.891344	2550.581871
363.279722	2554.760987
363.668037	2553.200750
364.056289	2551.244783
364.444478	2555.144115
364.832603	2554.506409
365.220665	2553.669577
365.608665	2554.962633
365.996601	2555.920453
366.384474	2553.409958
366.772284	2555.491955
367.160031	2557.125288
367.547715	2559.986143
367.935336	2555.101265
368.322893	2558.501523
368.710388	2559.499672
369.097820	2557.687377
369.485189	2555.978426
369.872495	2560.311298
370.259738	2559.466904
370.646918	2559.073694
371.034035	2556.318704
371.421090	2558.625032
371.808081	2560.311298
372.195010	2562.829354
372.581875	2559.713921
372.968678	2560.492779
373.355418	2560.694425
373.742096	2559.892882
374.128710	2562.156360
374.515262	2565.002091
374.901751	2559.638304
375.288177	2563.255332
375.674540	2561.838767
376.060841	2563.504869
376.447079	2560.414641
376.833254	2562.584858
377.219367	2560.671740
377.605417	2559.484548
377.991404	2559.875238
378.377329	2560.447409
378.763191	2559.666030
379.148991	2565.483522
379.534727	2565.433110
379.920402	2563.119220
380.306013	2563.877914
380.691563	2564.966803
381.077049	2564.157698
381.462474	2566.335477
381.847835	2564.674416
382.233134	2565.753223
382.618371	2566.234653
383.003545	2565.365054
383.388657	2567.905796
383.773706	2569.077864
384.158693	2567.361351
384.543618	2568.044428
384.928480	2569.065261
385.313280	2567.777247
385.698017	2571.386713
386.082692	2570.784295
386.467305	2566.388409
386.851856	2570.229768
387.236344	2567.842782
387.620770	2570.733883
388.005133	2570.307906
388.389435	2571.608523
388.773674	2566.993347
389.157851	2567.699109
389.541965	2568.377144
389.926018	2567.366392
390.310008	2571.598441
390.693936	2571.243040
391.077802	2569.390416
391.461606	2571.028791
391.845348	2571.618606
392.229027	2569.279510
392.612645	2571.356466
392.996200	2569.791187
393.379694	2574.000551
393.763125	2571.106929
394.146494	2572.813359
394.529801	2573.519121
394.913047	2572.402505
395.296230	2575.361662
395.679351	2575.018864
396.062410	2575.434759
396.445408	2574.665983
396.828343	2574.819738
397.211217	2570.146589
397.594028	2572.044583
397.976778	2571.679100
398.359466	2572.793195
398.742092	2570.476784
399.124656	2573.919892
399.507158	2578.557754
399.889598	2573.801425
400.271977	2575.089440
400.654294	2576.866447
401.036549	2575.762434
401.418742	2579.248392
401.800874	2575.129769
402.182944	2575.578432
402.564952	2574.363514
402.946898	2577.413412
403.328783	2577.395768
403.710606	2576.294276
404.092367	2576.601786
404.474067	2576.677404
404.855705	2577.274780
405.237282	2579.016499
405.618797	2576.674883
406.000250	2579.175295
406.381642	2576.437949
406.762972	2579.472723
407.144240	2578.761921
407.525447	2579.293763
407.906593	2579.303845
408.287677	2578.754359
408.668700	2580.183526
409.049661	2579.470203
409.430560	2578.449369
409.811399	2580.687642
410.192176	2579.999524
410.572891	2580.478434
410.953545	2578.867785
411.334138	2581.463979
411.714669	2580.256623
412.095139	2580.964905
412.475547	2581.322827
412.855894	2580.982549
413.236180	2581.753846
413.616405	2582.411716
413.996568	2580.543969
414.376670	2582.391552
414.756711	2580.579257
415.136691	2585.325503
415.516609	2581.821901
415.896466	2585.801892
416.276262	2583.316603
416.655997	2577.630182
417.035670	2577.136149
417.415283	2579.361818
417.794834	2580.186047
418.174324	2576.856365
418.553753	2583.616552
418.933121	2584.839032
419.312428	2582.099165
419.691674	2583.714854
420.070859	2585.305338
420.449983	2582.562951
420.829045	2584.327355
421.208047	2583.707293
421.586988	2583.881212
421.965867	2585.804413
422.344686	2584.347519
422.723444	2585.035637
423.102141	2584.622262
423.480777	2586.573189
423.859352	2584.241655
424.237866	2584.523960
424.616319	2585.161666
424.994712	2584.319793
425.373044	2586.192582
425.751314	2587.954465
426.129524	2583.873651
426.507673	2583.785431
426.885762	2585.491861
427.263789	2585.522108
427.641756	2584.614700
428.019662	2584.546645
428.397508	2586.053950
428.775292	2587.044537
429.153016	2583.397262
429.530679	2587.130236
429.908282	2587.828436
430.285824	2587.488158
430.663305	2586.792479
431.040726	2589.807089
431.418086	2588.403127
431.795385	2586.774835
432.172624	2588.030082
432.549802	2590.233066
432.926920	2586.691656
433.303977	2587.778024
433.680974	2587.609146
434.057910	2587.876327
434.434786	2587.868765
434.811601	2589.466811
435.188355	2590.646441
435.565050	2585.764083
435.941683	2589.854980
436.318257	2586.613518
436.694770	2584.753332
437.071222	2584.287025
437.447614	2586.651327
437.823946	2585.232242
438.200218	2588.428333
438.576429	2589.834815
438.952580	2589.731472
439.328670	2591.674836
439.704700	2588.655185
440.080670	2590.918663
440.456580	2592.310022
440.832429	2592.483942
441.208218	2589.749116
441.583947	2588.128385
441.959616	2590.585947
442.335224	2591.253900
442.710773	2592.272213
443.086261	2590.510330
443.461689	2592.496544
443.837057	2591.926894
444.212365	2589.429002
444.587612	2588.753488
444.962800	2592.693149
445.337927	2593.172059
445.712995	2588.640062
446.088002	2591.334558
446.462949	2590.303642
446.837837	2594.865887
447.212664	2593.222471
447.587431	2595.291864
447.962139	2592.554518
448.336786	2596.988212
448.711374	2592.367995
449.085901	2592.113417
449.460369	2591.480752
449.834776	2592.068046
450.209124	2593.877821
450.583412	2590.817840
450.957640	2592.720876
451.331808	2591.949579
451.705917	2595.304467
452.079965	2593.172059
452.453954	2593.797162
452.827883	2594.341607
453.201752	2593.653489
453.575562	2596.211875
453.949311	2594.603747
454.323001	2594.452512
454.696632	2598.130034
455.070202	2594.344127
455.443713	2595.949735
455.817164	2591.216091
456.190556	2591.468149
456.563888	2593.456884
456.937160	2592.277254
457.310373	2594.180290
457.683526	2592.930084
458.056619	2592.955289
458.429653	2594.883531
458.802628	2596.771443
459.175542	2595.712801
459.548398	2596.504262
459.921194	2593.865218
460.293930	2598.692122
460.666607	2596.111052
461.039224	2597.333532
461.411782	2598.233377
461.784280	2596.471494
462.156719	2598.351845
462.529099	2597.865373
462.901419	2597.436875
463.273680	2598.046855
463.645882	2598.145157
464.018024	2599.856629
464.390106	2597.820003
464.762130	2596.468974
465.134094	2598.041814
465.505999	2599.813779
465.877845	2602.790581
466.249631	2601.585745
466.621358	2600.632967
466.993026	2605.817793
467.364634	2604.214707
467.736184	2599.901999
468.107674	2602.296547
468.479105	2597.988882
468.850477	2599.380240
469.221790	2600.287648
469.593043	2597.056268
469.964238	2600.738831
470.335373	2599.465940
470.706449	2599.309664
471.077467	2602.830910
471.448425	2604.403750
471.819324	2604.489449
472.190164	2604.693616
472.560945	2605.066662
472.931667	2604.933071
473.302330	2601.169850
473.672934	2601.590786
474.043479	2602.888883
474.413965	2603.529110
474.784393	2597.058789
475.154761	2603.355190
475.525070	2601.197576
475.895321	2600.297730
476.265513	2598.566094
476.635645	2605.999275
477.005719	2604.020622
477.375734	2608.693772
477.745691	2605.495160
478.115588	2609.066817
478.485427	2606.609255
478.855207	2608.550099
479.224928	2609.260902
479.594591	2611.133690
479.964194	2611.733587
480.333739	2613.437498
480.703226	2612.313320
481.072653	2614.806171
481.442022	2612.517487
481.811333	2614.768362
482.180584	2614.833897
482.549777	2612.391458
482.918912	2615.985801
483.287988	2615.958074
483.657005	2612.968670
484.025964	2612.787189
484.394864	2616.928497
484.763706	2618.181223
485.132489	2613.538321
485.501213	2616.817591
485.869879	2616.202570
486.238487	2614.589401
486.607036	2615.408589
486.975527	2618.637448
487.343959	2617.788013
487.712333	2619.290277
488.080648	2616.764659
488.448905	2618.977726
488.817104	2618.395472
489.185244	2619.179372
489.553326	2621.584002
489.921350	2622.866976
490.289315	2626.544497
490.657222	2625.266565
491.025070	2629.034827
491.392861	2627.061216
491.760593	2628.908799
492.128267	2630.532050
492.495883	2628.450054
492.863440	2625.120372
493.230939	2626.365537
493.598380	2628.533233
493.965763	2622.597274
494.333088	2623.822274
494.700354	2622.007459
495.067563	2622.826647
495.434713	2622.108282
495.801805	2626.894858
496.168839	2626.403345
496.535815	2630.287554
496.902733	2627.391411
497.269593	2632.152781
497.636395	2627.998870
498.003139	2629.506175
498.369825	2629.571710
498.736453	2631.671351
499.103023	2631.787297
499.469535	2633.899541
499.835989	2634.907772
500.202385	2631.517596
500.568723	2634.620426
500.935003	2635.916002
501.301226	2635.532875
501.667390	2637.992958
502.033497	2640.679893
502.399546	2639.777526
502.765537	2637.554377
503.131470	2639.691827
503.497345	2641.685603
503.863163	2643.427322
504.228923	2642.635861
504.594625	2644.259112
504.960269	2646.058804
505.325856	2646.835142
505.691385	2646.762045
506.056856	2651.130205
506.422270	2653.290339
506.787625	2653.902839
507.152924	2653.706234
507.518164	2658.515495
507.883347	2656.551966
508.248472	2657.497182
508.613540	2658.840650
508.978550	2661.769560
509.343503	2663.672596
509.708398	2668.287772
510.073236	2667.052689
510.438016	2671.332629
510.802738	2671.377999
511.167403	2677.639112
511.532010	2677.636592
511.896561	2682.695390
512.261053	2688.603622
512.625488	2685.435257
512.989866	2689.546318
513.354186	2690.005063
513.718449	2694.287523
514.082655	2699.064016
514.446803	2703.507793
514.810894	2707.056766
515.174927	2711.334185
515.538904	2716.448435
515.902822	2721.141749
516.266684	2724.128633
516.630488	2728.401011
516.994235	2733.348903
517.357925	2738.495922
517.721558	2747.196953
518.085133	2749.838518
518.448651	2759.116761
518.812112	2762.839653
519.175516	2765.471136
519.538863	2772.183432
519.902152	2779.188115
520.265385	2788.131122
520.628560	2795.007256
520.991678	2801.666620
521.354739	2811.063331
521.717743	2817.853765
522.080690	2826.101093
522.443580	2836.322032
522.806413	2846.981552
523.169189	2854.089579
523.531908	2864.983513
523.894569	2871.289996
524.257174	2883.298025
524.619722	2898.481980
524.982213	2903.374420
525.344647	2916.146183
525.707025	2927.481218
526.069345	2940.600820
526.431608	2957.869293
526.793815	2968.493525
527.155964	2978.772437
527.518057	2990.745178
527.880093	3006.155985
528.242072	3022.968233
528.603995	3032.700181
528.965860	3049.661143
529.327669	3063.549522
529.689421	3076.444793
530.051117	3094.663523
530.412755	3112.960391
530.774337	3128.590488
531.135862	3145.191008
531.497331	3163.886127
531.858743	3178.165195
532.220098	3201.883824
532.581396	3217.395455
532.942638	3230.898185
533.303824	3257.286105
533.664953	3277.750669
534.026025	3296.327321
534.387040	3326.750684
534.747999	3345.448324
535.108902	3370.646532
535.469748	3382.339488
535.830537	3411.827717
536.191270	3437.638425
536.551947	3459.000314
536.912567	3487.399655
537.273131	3516.703882
537.633638	3533.125441
537.994089	3563.062333
538.354483	3582.553954
538.714821	3622.563072
539.075103	3657.962054
539.435328	3683.984490
539.795497	3711.579766
540.155609	3743.540682
540.515665	3782.213893
540.875665	3796.868527
541.235609	3837.895958
541.595496	3868.674723
541.955328	3922.456273
542.315102	3937.521761
542.674821	3966.722645
543.034483	4000.909229
543.394090	4039.184190
543.753640	4071.450095
544.113134	4139.004077
544.472571	4143.828462
544.831953	4218.624061
545.191278	4232.930856
545.550548	4262.214918
545.909761	4319.931089
546.268918	4366.523953
546.628019	4417.394237
546.987064	4447.835244
547.346053	4463.263696
547.704986	4530.041340
548.063863	4557.308941
548.422684	4609.411787
548.781449	4644.941839
549.140158	4707.691602
549.498811	4742.893979
549.857408	4762.425929
550.215949	4846.068754
550.574434	4891.076176
550.932864	4925.789561
551.291237	5013.757696
551.649555	5038.545049
552.007817	5100.127784
552.366022	5129.701713
552.724173	5190.198080
553.082267	5260.191981
553.440305	5330.374925
553.798288	5341.112582
554.156215	5409.372326
554.514086	5473.984795
554.871902	5513.081463
555.229661	5569.607922
555.587365	5611.492348
555.945014	5669.947048
556.302606	5714.561259
556.660143	5791.320388
557.017625	5858.077868
557.375050	5897.366101
557.732421	5981.787783
558.089735	6039.607298
558.446994	6087.473053
558.804197	6182.425707
559.161345	6235.498974
559.518437	6230.104940
559.875474	6316.500234
560.232455	6384.533126
560.589381	6461.393078
560.946251	6496.537482
561.303065	6613.288085
561.659825	6657.017574
562.016528	6682.112438
562.373177	6713.977571
562.729770	6821.094528
563.086307	6838.136149
563.442789	6932.161230
563.799216	7007.874320
564.155587	7048.571555
564.511904	7116.289374
564.868164	7180.438057
565.224370	7269.603466
565.580520	7308.591749
565.936615	7390.455047
566.292654	7421.138030
566.648638	7512.977770
567.004567	7569.088333
567.360441	7638.454610
567.716260	7683.570417
568.072023	7785.278216
568.427732	7830.172212
568.783385	7848.524532
569.138982	7962.978889
569.494525	8012.956888
569.850013	8050.778145
570.205445	8112.655788
570.560823	8181.154986
570.916145	8214.600522
571.271412	8286.111809
571.626625	8311.753638
571.981782	8373.822845
572.336884	8394.710866
572.691931	8496.743820
573.046923	8501.016198
573.401860	8544.450779
573.756743	8605.428576
574.111570	8675.828290
574.466342	8728.200837
574.821059	8798.083832
575.175722	8785.866596
575.530330	8854.161628
575.884882	8870.525213
576.239380	8927.583513
576.593823	8966.183628
576.948211	9017.212708
577.302544	9003.856171
577.656823	9066.028721
578.011047	9154.896702
578.365216	9173.054938
578.719330	9191.782824
579.073389	9216.358449
579.427394	9271.042366
579.781344	9318.953492
580.135239	9319.694541
580.489080	9380.251402
580.842866	9357.873720
581.196597	9466.805493
581.550273	9503.812603
581.903895	9521.554944
582.257463	9642.421649
582.610975	9588.014996
582.964434	9670.062295
583.317837	9668.653293
583.671186	9682.544192
584.024481	9766.701215
584.377721	9731.914732
584.730906	9826.927880
585.084037	9885.657322
585.437113	9871.279951
585.790135	9926.672150
586.143103	9898.323221
586.496016	9955.721799
586.848874	9994.127829
587.201679	10033.310198
587.554428	9983.337239
587.907124	10059.287263
588.259765	10052.703516
588.612352	10137.238625
588.964884	10070.652545
589.317362	10144.810438
589.669786	10176.052989
590.022155	10172.829171
590.374470	10294.101689
590.726731	10236.420807
591.078937	10182.568681
591.431090	10234.149767
591.783188	10216.704854
592.135232	10188.756697
592.487222	10277.279358
592.839157	10322.800978
593.191038	10293.413571
593.542866	10274.789028
593.894639	10195.227018
594.246358	10273.047310
594.598022	10310.656838
594.949633	10258.531307
595.301190	10275.948494
595.652692	10275.038566
596.004141	10374.130006
596.355535	10223.207942
596.706876	10221.899763
597.058162	10227.739940
597.409395	10337.069964
597.760573	10383.635102
598.111698	10315.297220
598.462768	10339.275468
598.813785	10373.882990
599.164748	10286.844948
599.515657	10385.664166
599.866511	10304.962855
600.217312	10441.552918
600.568060	10257.457542
600.918753	10418.408981
601.269392	10433.408934
601.619978	10372.700839
601.970510	10419.722202
602.320988	10476.798145
602.671412	10561.396269
603.021783	10509.185038
603.372100	10469.047371
603.722363	10502.376960
604.072572	10523.428818
604.422728	10551.003930
604.772830	10513.739721
605.122878	10536.563545
605.472872	10537.947342
605.822813	10605.193813
606.172701	10577.976624
606.522534	10638.087342
606.872314	10694.339057
607.222041	10652.240382
607.571714	10742.655996
607.921333	10629.368667
608.270899	10695.710251
608.620411	10762.192988
608.969870	10726.559592
609.319276	10724.759900
609.668627	10754.815259
610.017926	10839.045378
610.367171	10874.857735
610.716362	10887.034643
611.065500	10875.601306
611.414585	10895.660057
611.763616	10975.557304
612.112594	10950.139806
612.461518	10981.321863
612.810389	11040.205061
613.159207	10992.104892
613.507971	11001.776345
613.856682	11097.444842
614.205340	11069.635317
614.553945	11200.004597
614.902496	11096.983577
615.250994	11167.763897
615.599439	11165.056798
615.947830	11205.713703
616.296169	11174.153560
616.644454	11206.487521
616.992686	11232.172199
617.340864	11318.118831
617.688990	11218.092257
618.037063	11344.010197
618.385082	11336.042654
618.733048	11374.090762
619.080961	11372.754857
619.428821	11353.807680
619.776628	11375.842563
620.124382	11333.106182
620.472083	11360.209945
620.819731	11379.177287
621.167326	11306.745988
621.514868	11300.056377
621.862357	11216.368182
622.209793	11218.180477
622.557176	11148.363017
622.904506	11098.944586
623.251783	11029.280881
623.599007	10973.949176
623.946179	10928.351939
624.293297	10914.650083
624.640363	10790.844386
624.987376	10774.125399
625.334336	10721.793181
625.681243	10641.820317
626.028097	10612.765626
626.374899	10589.699827
626.721647	10566.631507
627.068343	10525.793120
627.414987	10463.688625
627.761577	10403.540098
628.108115	10460.535383
628.454600	10326.080248
628.801032	10348.168064
629.147412	10336.439819
629.493739	10305.247680
629.840014	10231.286391
630.186236	10285.587180
630.532405	10182.490543
630.878521	10223.381862
631.224585	10180.474081
631.570597	10107.321898
631.916556	10116.078382
632.262462	10107.110169
632.608316	10085.778527
632.954117	10063.436133
633.299866	10045.998782
633.645562	10025.370380
633.991206	9925.845400
634.336797	9832.165638
634.682336	9833.378036
635.027823	9778.621023
635.373257	9741.969314
635.718639	9674.533799
636.063968	9645.441300
636.409245	9532.509372
636.754470	9520.957567
637.099642	9464.123599
637.444762	9377.380465
637.789829	9386.933451
638.134845	9318.139345
638.479808	9284.882853
638.824719	9264.783773
639.169577	9175.363786
639.514383	9179.101802
639.859137	9117.965208
640.203839	9148.819591
640.548489	9069.411335
640.893086	9077.930885
641.237632	9014.908900
641.582125	9019.166155
641.926566	9006.170060
642.270955	8989.904777
642.615292	8985.334971
642.959576	8955.559396
643.303809	8957.175086
643.647990	8972.611099
643.992118	8946.021533
644.336195	8928.964789
644.680219	8924.785673
645.024192	8957.028892
645.368112	9030.627218
645.711981	9009.532510
646.055797	9151.022575
646.399562	9110.320299
646.743274	9265.897868
647.086935	9340.978293
647.430544	9314.182040
647.774101	9340.842182
648.117606	9363.313125
648.461059	9424.217825
648.804460	9363.522333
649.147810	9245.556812
649.491108	9216.751659
649.834354	9151.196495
650.177548	9010.119804
650.520690	8915.600690
650.863781	8903.471674
651.206820	8882.981904
651.549807	8791.737020
651.892742	8702.715284
652.235626	8666.534923
652.578458	8624.988253
652.921238	8525.722893
653.263967	8560.690857
653.606644	8498.765323
653.949269	8472.261456
654.291843	8399.351248
654.634365	8460.790311
654.976836	8391.008139
655.319255	8379.720995
655.661622	8372.970890
656.003938	8329.652255
656.346203	8287.389742
656.688416	8326.211668
657.030577	8283.152652
657.372687	8249.518074
657.714746	8280.342209
658.056753	8303.120663
658.398708	8205.665076
658.740612	8195.418931
659.082465	8232.438644
659.424266	8193.873817
659.766016	8212.397537
660.107715	8183.736057
660.449362	8203.809932
660.790958	8197.914302
661.132503	8190.234104
661.473996	8184.953496
661.815438	8200.704581
662.156829	8224.682829
662.498168	8179.322527
662.839456	8179.836725
663.180693	8200.402112
663.521879	8212.266467
663.863013	8203.023512
664.204097	8196.792646
664.545129	8267.835106
664.886110	8261.395032
665.227040	8271.343749
665.567918	8281.486551
665.908746	8290.953838
666.249522	8312.625758
666.590248	8314.143145
666.930922	8324.850556
667.271545	8314.496026
667.612118	8328.379364
667.952639	8293.323180
668.293109	8297.623284
668.633528	8280.740460
668.973896	8261.863859
669.314213	8266.295034
669.654480	8222.905822
669.994695	8217.766366
670.334859	8200.134931
670.674973	8183.015172
671.015035	8208.989717
671.355047	8194.503962
671.695008	8176.444028
672.034918	8153.017786
672.374777	8161.688571
672.714585	8131.474415
673.054342	8165.051020
673.394049	8133.022049
673.733705	8169.819952
674.073310	8123.844629
674.412864	8132.616237
674.752368	8070.529386
675.091820	8123.940411
675.431223	8047.758494
675.770574	8006.058069
676.109875	7974.313923
676.449125	7924.615708
676.788324	7914.195643
677.127473	7833.935433
677.466571	7820.994791
677.805619	7763.129907
678.144616	7766.033611
678.483562	7741.488233
678.822458	7694.323198
679.161303	7677.029519
679.500098	7661.439751
679.838842	7643.596587
680.177535	7650.134964
680.516179	7688.611570
680.854771	7703.954322
681.193314	7822.733989
681.531805	7976.526990
681.870247	8096.645083
682.208638	8245.134790
682.546978	8322.955082
682.885268	8357.481945
683.223508	8286.154659
683.561697	8232.834375
683.899836	8198.678037
684.237925	8111.249306
684.575963	8086.456911
684.913951	8007.046135
685.251889	8024.249073
685.589776	8012.099892
685.927614	7993.603899
686.265401	8023.157663
686.603137	8032.400619
686.940824	8105.202442
687.278460	8159.321749
687.616046	8168.015219
687.953582	8276.445397
688.291068	8256.079135
688.628504	8313.881005
688.965889	8313.291190
689.303224	8271.182432
689.640510	8230.815393
689.977745	8126.360165
690.314930	8001.402564
690.652065	7929.765247
690.989150	7818.133936
691.326185	7671.942995
691.663170	7561.198928
692.000105	7438.194774
692.336990	7326.462640
692.673825	7246.260403
693.010610	7153.195662
693.347345	7053.736217
693.684030	6942.286387
694.020665	6900.391878
694.357251	6789.110928
694.693786	6772.157528
695.030272	6732.680252
695.366707	6637.878833
695.703093	6586.103663
696.039429	6580.399597
696.375716	6530.436721
696.711952	6523.540423
697.048139	6490.780484
697.384276	6463.051618
697.720363	6479.402600
698.056400	6456.687161
698.392388	6423.448313
698.728326	6419.435555
699.064214	6397.836731
699.400053	6395.754734
699.735842	6334.144273
700.071581	6292.350587
700.407270	6254.128558
700.742910	6219.941973
701.078501	6176.298184
701.414042	6135.759745
701.749533	6084.198824
702.084974	6021.678434
702.420366	6061.264094
702.755709	5986.902034
703.091002	5940.304128
703.426246	5944.652124
703.761440	5930.604948
704.096584	5884.939656
704.431679	5871.263006
704.766725	5851.383216
705.101721	5839.065156
705.436668	5855.839596
705.771565	5801.163241
706.106413	5853.704667
706.441212	5855.395974
706.775961	5877.004880
707.110661	5881.035283
707.445311	5937.304642
707.779913	5909.593419
708.114465	5953.552281
708.448967	5997.798488
708.783421	6107.279747
709.117825	6152.677858
709.452180	6183.128947
709.786485	6244.545325
710.120742	6374.738164
710.454949	6378.914760
710.789107	6454.683302
711.123216	6575.471869
711.457275	6607.775583
711.791286	6711.550255
712.125247	6738.727116
712.459159	6701.281425
712.793023	6834.874523
713.126837	6659.339025
713.460602	6719.752213
713.794318	6679.473393
714.127985	6626.271576
714.461602	6474.704245
714.795171	6482.213043
715.128691	6314.733310
715.462162	6225.003292
715.795584	6150.737013
716.128957	6114.055058
716.462281	6047.085849
716.795556	6006.814592
717.128782	5923.265028
717.461960	5821.910110
717.795088	5819.147558
718.128167	5745.496300
718.461198	5664.235420
718.794180	5641.209950
719.127113	5579.004632
719.459997	5546.048089
719.792833	5478.819261
720.125619	5479.333459
720.458357	5416.392133
720.791046	5390.888935
721.123686	5366.421695
721.456278	5320.774047
721.788821	5306.200071
722.121315	5266.412765
722.453761	5278.249394
722.786158	5261.353967
723.118506	5265.046612
723.450805	5236.059977
723.783056	5265.379328
724.115259	5242.973920
724.447412	5228.399944
724.779518	5277.183190
725.111574	5283.144354
725.443582	5313.182069
725.775542	5308.524043
726.107453	5394.664760
726.439315	5370.258013
726.771129	5439.856183
727.102895	5502.842880
727.434612	5544.964241
727.766281	5574.076904
728.097901	5626.983814
728.429473	5642.785311
728.760996	5651.277134
729.092471	5679.542884
729.423897	5659.282487
729.755276	5633.199557
730.086606	5650.246218
730.417887	5734.246965
730.749120	5827.039484
731.080305	5869.997676
731.411442	5941.284633
731.742530	5967.488551
732.073570	5989.049566
732.404562	6053.843516
732.735506	6044.151898
733.066401	6026.649012
733.397249	5961.683662
733.728048	5867.378797
734.058798	5721.079471
734.389501	5597.782930
734.720156	5506.729610
735.050762	5406.854270
735.381320	5328.910469
735.711831	5272.721769
736.042293	5194.788051
736.372707	5187.165826
736.703073	5147.186956
737.033391	5174.567983
737.363661	5160.616589
737.693883	5174.757026
738.024056	5199.544379
738.354182	5220.097164
738.684260	5273.316625
739.014290	5311.533612
739.344272	5342.236760
739.674207	5398.329678
740.004093	5424.687351
740.333931	5437.703611
740.663722	5456.406291
740.993464	5467.307787
741.323159	5447.980003
741.652806	5400.825050
741.982405	5371.601481
742.311956	5323.342515
742.641460	5306.099248
742.970915	5257.240385
743.300323	5195.745870
743.629683	5160.707330
743.958996	5116.261997
744.288260	5064.867434
744.617477	5003.498948
744.946647	4986.361545
745.275768	4933.361374
745.604842	4900.616559
745.933869	4870.445253
746.262847	4861.179613
746.591778	4845.090770
746.920662	4825.899097
747.249498	4821.399868
747.578286	4839.258155
747.907027	4861.776989
748.235720	4902.479266
748.564365	4911.583589
748.892963	4896.233276
749.221514	4917.317902
749.550017	4890.004930
749.878473	4886.861771
750.206881	4850.767109
750.535242	4837.531560
750.863555	4819.317871
751.191821	4801.459584
751.520039	4804.239780
751.848210	4787.200680
752.176334	4793.587822
752.504411	4774.948156
752.832440	4745.225512
753.160421	4761.021968
753.488356	4736.988267
753.816243	4721.184250
754.144082	4690.806257
754.471875	4680.857540
754.799620	4668.436137
755.127318	4661.499509
755.454969	4655.503056
755.782572	4647.747241
756.110129	4650.247653
756.437638	4635.041013
756.765100	4631.371053
757.092515	4632.775014
757.419882	4634.753667
757.747203	4635.159480
758.074477	4645.022497
758.401703	4636.671826
758.728882	4664.030168
759.056014	4676.839740
759.383099	4698.967885
759.710138	4727.541145
760.037129	4746.158126
760.364073	4757.316720
760.690970	4759.514663
761.017820	4758.022482
761.344623	4794.482627
761.671379	4852.188715
761.998088	4944.023414
762.324751	5174.852808
762.651366	5634.288446
762.977935	6323.381409
763.304456	6876.789196
763.630931	7179.757501
763.957359	7115.858356
764.283740	6819.284754
764.610074	6498.687534
764.936362	6101.416885
765.262602	5786.838803
765.588796	5440.708138
765.914943	5186.187842
766.241044	4966.128874
766.567097	4794.240651
766.893104	4642.658196
767.219064	4549.432138
767.544978	4451.245585
767.870845	4366.811299
768.196665	4324.430319
768.522438	4270.661372
768.848165	4232.948500
769.173846	4189.035009
769.499479	4164.305628
769.825066	4127.974033
770.150607	4087.677569
770.476101	4069.342893
770.801548	4050.609965
771.126949	4018.644009
771.452303	4000.024507
771.777611	3962.019248
772.102872	3960.693425
772.428087	3935.142336
772.753256	3905.298706
773.078378	3886.469996
773.403453	3855.363556
773.728482	3829.653672
774.053465	3816.342505
774.378401	3799.351296
774.703291	3773.964045
775.028135	3753.723812
775.352932	3744.584200
775.677683	3727.519895
776.002388	3702.193138
776.327046	3709.165053
776.651658	3685.307793
776.976224	3668.767767
777.300743	3666.910102
777.625216	3653.800581
777.949643	3641.480001
778.274024	3645.954025
778.598359	3625.156745
778.922647	3624.950058
779.246889	3613.587297
779.571086	3612.241309
779.895236	3614.913121
780.219339	3617.458903
780.543397	3613.718367
780.867409	3629.537508
781.191374	3632.443733
781.515294	3624.292187
781.839167	3638.422542
782.162995	3635.854074
782.486776	3626.873258
782.810511	3620.687762
783.134201	3605.735700
783.457844	3608.810804
783.781441	3598.191613
784.104993	3589.823298
784.428498	3583.952874
784.751958	3584.104109
785.075372	3577.081782
785.398739	3566.071902
785.722061	3575.655135
786.045337	3572.534661
786.368568	3596.402004
786.691752	3595.108948
787.014891	3643.599807
787.337983	3679.986855
787.661030	3771.367851
787.984031	3866.333107
788.306987	3945.935447
788.629897	3989.198629
788.952760	3999.447295
789.275579	3985.372393
789.598351	3934.449178
789.921078	3887.450500
790.243759	3820.390551
790.566395	3777.507976
790.888984	3726.267168
791.211529	3691.306766
791.534027	3644.209786
791.856480	3608.465485
792.178888	3586.733071
792.501249	3571.133220
792.823566	3539.636091
793.145836	3530.380532
793.468062	3524.414327
793.790241	3510.019312
794.112375	3512.943181
794.434464	3539.245401
794.756507	3533.148126
795.078505	3554.144532
795.400457	3592.106941
795.722364	3641.389261
796.044226	3687.813246
796.366042	3731.860328
796.687812	3727.865214
797.009538	3751.624172
797.331218	3742.451792
797.652852	3732.742530
797.974442	3713.749983
798.295986	3705.706822
798.617484	3672.536030
798.938938	3651.832011
799.260346	3632.983137
799.581709	3600.739917
799.903026	3591.113833
800.224299	3569.961152
800.545526	3539.845299
800.866708	3519.325282
801.187845	3509.893283
801.508936	3487.344202
801.829983	3479.817759
802.150984	3452.177113
802.471940	3443.077830
802.792851	3435.594237
803.113717	3426.988988
803.434538	3419.820467
803.755314	3409.347470
804.076045	3405.254053
804.396731	3391.809295
804.717372	3390.924573
805.037967	3389.898698
805.358518	3391.814337
805.679024	3406.821852
805.999485	3401.067374
806.319901	3404.820513
806.640272	3411.933582
806.960598	3424.448246
807.280879	3425.960592
807.601115	3430.391766
807.921306	3426.227773
808.241453	3428.259358
808.561554	3435.498455
808.881611	3426.956220
809.201623	3431.417641
809.521590	3422.933379
809.841513	3420.748039
810.161390	3430.573248
810.481223	3406.405956
810.801011	3405.947211
811.120755	3403.245153
811.440453	3391.610170
811.760107	3387.496588
812.079716	3376.393447
812.399281	3367.566387
812.718801	3368.773743
813.038276	3360.269316
813.357707	3354.247658
813.677093	3363.120089
813.996434	3345.954960
814.315731	3351.028881
814.634983	3351.840507
814.954191	3351.293542
815.273354	3369.386243
815.592473	3378.818242
815.911547	3398.758526
816.230577	3413.125814
816.549562	3440.408539
816.868502	3457.538380
817.187399	3476.412460
817.506250	3502.490349
817.825058	3514.470651
818.143821	3558.661405
818.462539	3602.897530
818.781213	3656.999193
819.099843	3738.759147
819.418429	3893.089031
819.736970	4043.575035
820.055466	4234.612081
820.373919	4467.909119
820.692327	4804.832116
821.010691	5317.436803
821.329011	6389.302057
821.647286	8113.956406
821.965517	10269.037072
822.283704	11874.500899
822.601847	12952.909571
822.919945	12539.575285
823.237999	11869.535362
823.556010	10981.732717
823.873976	10031.397080
824.191897	9072.952746
824.509775	8311.032753
824.827609	7504.566605
825.145398	6961.266332
825.463144	6587.837819
825.780845	6458.454085
826.098502	6518.456419
826.416116	6899.144193
826.733685	7392.842033
827.051210	7670.297058
827.368692	7587.130623
827.686129	7150.385218
828.003522	6601.653102
828.320872	6040.973450
828.638177	5583.607206
828.955439	5211.920412
829.272656	4881.495463
829.589830	4602.412145
829.906960	4338.515303
830.224046	4130.645844
830.541088	3963.758446
830.858086	3845.132534
831.175041	3750.157196
831.491952	3706.208417
831.808819	3690.757280
832.125642	3724.941344
832.442421	3826.596212
832.759157	4039.448851
833.075849	4415.995317
833.392497	4869.063977
833.709101	5263.539307
834.025662	5369.879927
834.342179	5240.506275
834.658653	4974.794618
834.975083	4705.271848
835.291469	4463.054488
835.607811	4242.496445
835.924110	4083.195984
836.240366	3923.628341
836.556578	3759.737909
836.872746	3628.234370
837.188871	3517.918800
837.504952	3419.530600
837.820990	3345.758355
838.136984	3295.273720
838.452935	3264.053854
838.768842	3250.107502
839.084706	3283.711833
839.400526	3418.976073
839.716303	3640.887666
840.032037	3848.777289
840.347727	3918.718257
840.663373	3828.032941
840.978977	3679.369314
841.294537	3549.204201
841.610054	3441.991461
841.925527	3365.592775
842.240957	3300.272024
842.556344	3240.015112
842.871687	3180.688293
843.186987	3115.415433
843.502244	3065.528174
843.817458	3026.917977
844.132629	2994.226094
844.447756	2972.178608
844.762840	2950.995680
845.077881	2933.535643
845.392879	2918.689445
845.707833	2909.270049
846.022745	2898.625653
846.337613	2893.433264
846.652438	2885.168293
846.967221	2877.291490
847.281960	2872.089019
847.596656	2868.358565
847.911309	2865.109542
848.225919	2858.256093
848.540485	2853.671163
848.855009	2854.331555
849.169490	2847.278980
849.483928	2846.873167
849.798323	2845.383507
850.112675	2838.560305
850.426984	2840.859071
850.741251	2836.117866
851.055474	2836.894203
851.369654	2835.601147
851.683792	2833.514110
851.997887	2834.565190
852.311938	2833.241887
852.625947	2835.023935
852.939914	2830.255004
853.253837	2832.029490
853.567718	2832.130313
853.881555	2830.426403
854.195350	2832.775581
854.509103	2833.050324
854.822812	2832.586537
855.136479	2832.452947
855.450103	2833.317505
855.763685	2829.594613
856.077224	2828.583861
856.390720	2832.531085
856.704173	2834.177022
857.017584	2835.298678
857.330953	2838.290603
857.644278	2838.673731
857.957561	2843.500636
858.270802	2841.607682
858.584000	2843.908969
858.897155	2839.288752
859.210268	2838.124245
859.523339	2836.881601
859.836367	2834.751713
860.149352	2836.589214
860.462295	2837.736076
860.775195	2829.236691
861.088054	2824.709735
861.400869	2829.667709
861.713642	2824.676967
862.026373	2829.962617
862.339062	2831.485045
862.651708	2834.794563
862.964312	2836.120386
863.276873	2841.078361
863.589392	2848.882067
863.901869	2855.571678
864.214303	2863.866897
864.526696	2869.162629
864.839045	2875.580018
865.151353	2880.480020
865.463619	2882.579660
865.775842	2886.073180
866.088023	2890.360681
866.400162	2889.780948
866.712258	2890.486710
867.024313	2894.139026
867.336325	2894.123903
867.648296	2894.675909
867.960224	2893.186248
868.272110	2900.808473
868.583954	2898.459295
868.895755	2901.420973
869.207515	2898.887793
869.519233	2906.673855
869.830909	2906.494894
870.142542	2911.130235
870.454134	2913.759197
870.765684	2920.267326
871.077191	2927.340065
871.388657	2932.706373
871.700081	2937.087136
872.011463	2945.916717
872.322803	2951.935855
872.634101	2954.315279
872.945357	2961.637555
873.256571	2971.374544
873.567744	2977.030719
873.878874	2979.495843
874.189963	2989.532780
874.501010	2989.207626
874.812015	2992.615446
875.122979	3002.254132
875.433900	3002.559122
875.744780	3005.603979
876.055618	3010.904752
876.366415	3011.239989
876.677169	3017.717871
876.987882	3023.384128
877.298554	3032.629604
877.609183	3043.354659
877.919771	3064.938359
878.230317	3085.546596
878.540822	3126.329531
878.851285	3174.228054
879.161707	3244.302613
879.472087	3348.115094
879.782425	3511.261956
880.092722	3784.535345
880.402977	4199.019014
880.713191	4736.327876
881.023363	5329.291077
881.333494	5763.563795
881.643583	6046.120468
881.953631	6125.957222
882.263637	6075.379325
882.573602	5928.848106
882.883526	5769.252737
883.193408	5563.573660
883.503248	5343.633159
883.813048	5129.215242
884.122806	4917.035597
884.432522	4674.039379
884.742197	4451.424546
885.051831	4246.229420
885.361424	4053.059966
885.670975	3885.355901
885.980485	3737.340062
886.289954	3614.779530
886.599382	3511.115763
886.908768	3431.636931
887.218113	3354.477031
887.527417	3293.854635
887.836680	3231.419945
888.145901	3185.845393
888.455082	3149.506236
888.764221	3117.008437
889.073319	3085.604570
889.382376	3066.624625
889.691392	3052.315310
890.000366	3045.197201
890.309300	3037.811911
890.618193	3034.802342
890.927044	3025.680374
891.235855	3029.640200
891.544625	3031.359234
891.853353	3036.453320
892.162041	3051.460835
892.470687	3075.650811
892.779293	3109.353445
893.087858	3155.568223
893.396381	3235.074781
893.704864	3341.954804
894.013306	3493.204543
894.321707	3679.016433
894.630068	3831.541584
894.938387	3909.787853
895.246665	3914.576949
895.554903	3856.822970
895.863100	3772.489507
896.171256	3694.959082
896.479371	3624.186323
896.787446	3548.974828
897.095480	3480.914210
897.403473	3422.731733
897.711425	3367.765512
898.019336	3317.230465
898.327207	3264.499996
898.635038	3219.815208
898.942827	3164.677588
899.250576	3126.982360
899.558284	3084.475351
899.865952	3057.991649
900.173579	3028.657175
900.481165	3009.314268
900.788711	2988.098572
901.096216	2976.939978
901.403681	2959.540435
901.711105	2953.367543
902.018489	2948.180195
902.325832	2959.147225
902.633135	2965.042855
902.940397	3003.524503
903.247619	3092.851228
903.554800	3266.203906
903.861941	3539.709187
904.169041	3801.801297
904.476101	3970.952173
904.783121	3991.567971
905.090100	3919.744132
905.397039	3818.827794
905.703938	3712.005744
906.010796	3611.472533
906.317614	3525.420037
906.624391	3440.965587
906.931129	3372.983106
907.237826	3305.315698
907.544483	3240.315061
907.851099	3170.210255
908.157675	3099.404728
908.464211	3026.928059
908.770707	2967.954121
909.077163	2921.328489
909.383578	2885.576626
909.689954	2856.516895
909.996289	2838.005778
910.302584	2827.873059
910.608839	2815.335709
910.915054	2807.249698
911.221229	2803.632670
911.527363	2804.071251
911.833458	2804.106539
912.139513	2809.059472
912.445527	2809.913948
912.751502	2820.480207
913.057436	2832.752896
913.363331	2854.455063
913.669186	2881.863816
913.975000	2920.872265
914.280775	2979.354691
914.586510	3061.994326
914.892205	3166.182373
915.197859	3315.198880
915.503475	3495.137826
915.809050	3668.515709
916.114585	3800.513282
916.420081	3870.434086
916.725536	3899.556831
917.030952	3867.212788
917.336328	3829.008404
917.641665	3782.392854
917.946961	3720.757187
918.252218	3664.901202
918.557435	3592.469904
918.862612	3525.493134
919.167750	3465.652117
919.472848	3391.249727
919.777906	3323.809171
920.082925	3257.313831
920.387904	3185.512677
920.692843	3130.541415
920.997743	3080.265988
921.302603	3031.659182
921.607423	2996.323214
921.912204	2960.188224
922.216946	2935.572269
922.521647	2911.092426
922.826310	2888.331617
923.130932	2873.813094
923.435516	2850.772500
923.740059	2840.841427
924.044564	2821.375011
924.349028	2812.623568
924.653454	2795.879376
924.957840	2783.011831
925.262186	2774.028494
925.566493	2762.214550
925.870761	2749.291552
926.174989	2744.567991
926.479178	2737.611199
926.783328	2731.718090
927.087438	2723.707697
927.391509	2718.255689
927.695541	2713.574977
927.999533	2707.616334
928.303486	2703.653987
928.607400	2698.108717
928.911275	2693.037317
929.215110	2691.230063
929.518906	2688.805268
929.822663	2691.265351
930.126381	2688.651513
930.430060	2687.441636
930.733699	2686.375432
931.037299	2688.938859
931.340861	2688.563293
931.644383	2688.628828
931.947866	2688.265865
932.251309	2686.597243
932.554714	2688.003725
932.858080	2688.648992
933.161407	2687.567665
933.464694	2685.715041
933.767943	2684.268230
934.071153	2684.038857
934.374323	2682.493743
934.677455	2681.233455
934.980548	2678.932168
935.283602	2677.946623
935.586617	2676.968639
935.889593	2679.184226
936.192530	2678.110460
936.495428	2683.202026
936.798287	2684.951306
937.101108	2684.895853
937.403890	2696.911443
937.706632	2703.061651
938.009336	2715.556151
938.312002	2726.659292
938.614628	2735.488873
938.917216	2747.509505
939.219765	2755.066194
939.522275	2760.162801
939.824747	2762.595157
940.127179	2761.367637
940.429573	2762.149015
940.731929	2762.955600
941.034246	2760.258583
941.336524	2762.799324
941.638763	2764.241094
941.940964	2763.626073
942.243126	2753.715165
942.545250	2752.379259
942.847335	2746.241654
943.149381	2738.861405
943.451389	2731.014849
943.753359	2727.405383
944.055290	2726.308932
944.357182	2718.918601
944.659036	2717.040771
944.960851	2711.631613
945.262628	2710.020964
945.564367	2708.826211
945.866067	2704.110211
946.167729	2707.379399
946.469352	2706.154399
946.770937	2704.921837
947.072484	2700.692309
947.373992	2702.242464
947.675462	2699.406815
947.976893	2698.307843
948.278286	2696.029242
948.579641	2696.835826
948.880958	2694.577389
949.182236	2693.911957
949.483476	2693.717872
949.784678	2693.848942
950.085841	2692.520598
950.386967	2693.712831
950.688054	2695.378933
950.989103	2699.787422
951.290114	2698.857329
951.591087	2704.773123
951.892021	2709.121118
952.192917	2713.282591
952.493776	2717.761656
952.794596	2719.687377
953.095378	2722.323900
953.396122	2722.323900
953.696828	2720.602346
953.997496	2722.646534
954.298126	2718.648899
954.598718	2715.573795
954.899272	2709.461396
955.199788	2710.028526
955.500266	2706.958463
955.800706	2694.915147
956.101108	2689.029599
956.401472	2684.583302
956.701798	2676.726663
957.002087	2670.263904
957.302337	2667.110662
957.602550	2664.262411
957.902724	2658.611277
958.202861	2651.296563
958.502960	2647.329175
958.803022	2642.812301
959.103045	2638.053452
959.403031	2638.751652
959.702979	2630.481639
960.002889	2632.470374
960.302762	2629.110445
960.602596	2626.693212
960.902393	2622.085597
961.202153	2622.456122
961.501875	2619.628034
961.801559	2616.580657
962.101205	2616.782303
962.400814	2617.495626
962.700385	2613.699637
962.999918	2611.839452
963.299414	2611.741149
963.598873	2608.698813
963.898293	2612.698968
964.197677	2610.427929
964.497022	2609.979266
964.796331	2610.062445
965.095601	2607.017588
965.394835	2608.555140
965.694030	2606.947012
965.993189	2608.971035
966.292309	2604.668410
966.591393	2607.917434
966.890439	2605.376692
967.189447	2606.495829
967.488419	2604.426435
967.787353	2606.447938
968.086249	2607.493977
968.385108	2606.629419
968.683930	2606.122783
968.982714	2605.984152
969.281462	2606.601693
969.580172	2609.102105
969.878844	2611.355501
970.177480	2610.853906
970.476078	2614.849021
970.774639	2609.283587
971.073162	2612.855244
971.371649	2614.579319
971.670098	2613.508074
971.968510	2614.213835
972.266885	2615.738784
972.565223	2619.149125
972.863524	2619.640637
973.161788	2622.708179
973.460014	2619.847325
973.758204	2622.688015
974.056356	2624.139867
974.354471	2624.099538
974.652550	2621.243724
974.950591	2621.526029
975.248595	2625.132974
975.546563	2620.238014
975.844493	2620.812706
976.142386	2621.485700
976.440243	2622.400669
976.738062	2619.648199
977.035845	2618.461007
977.333590	2615.799278
977.631299	2615.895060
977.928971	2616.447066
978.226606	2615.643002
978.524204	2615.564864
978.821765	2613.853393
979.119290	2608.862650
979.416777	2612.489761
979.714228	2611.557147
980.011642	2614.571757
980.309020	2615.232148
980.606360	2616.767180
980.903664	2619.018055
981.200931	2623.822274
981.498162	2633.027421
981.795356	2643.434883
982.092513	2659.417862
982.389633	2677.137517
982.686717	2694.428675
982.983764	2711.102292
983.280775	2722.470093
983.577749	2729.310939
983.874686	2727.256669
984.171587	2724.282388
984.468451	2722.023951
984.765279	2711.167827
985.062070	2706.471992
985.358824	2698.164170
985.655543	2691.593026
985.952224	2678.274298
986.248869	2669.459840
986.545478	2651.523415
986.842050	2643.283649
987.138586	2630.698408
987.435086	2622.292284
987.731549	2614.639813
988.027975	2614.032354
988.324366	2607.856940
988.620719	2606.347115
988.917037	2602.848554
989.213318	2600.229674
989.509563	2600.552308
989.805772	2597.346134
990.101944	2596.534509
990.398080	2595.264138
990.694180	2596.342945
990.990244	2597.139447
991.286271	2593.403952
991.582262	2595.145671
991.878217	2599.470981
992.174136	2596.617688
992.470019	2594.376895
992.765865	2599.269335
993.061676	2598.193048
993.357450	2598.205651
993.653188	2601.598348
993.948890	2602.437700
994.244556	2608.847527
994.540186	2613.586212
994.835780	2615.252313
995.131337	2620.825308
995.426859	2628.934004
995.722345	2635.696712
996.017795	2648.503764
996.313208	2655.793272
996.608586	2661.789725
996.903928	2667.138389
997.199234	2668.625529
997.494504	2667.859274
997.789738	2665.217709
998.084936	2664.680826
998.380099	2657.149342
998.675225	2653.227325
998.970316	2648.135759
999.265371	2641.786426
999.560390	2631.439458
999.855373	2628.011473
1000.150320	2620.729527
1000.445232	2618.445884
1000.740108	2613.016561
1001.034948	2611.292487
1001.329752	2602.359562
1001.624521	2602.319233
1001.919254	2595.581731
1002.213951	2593.933273
1002.508613	2593.025866
1002.803239	2594.354210
1003.097829	2589.343303
1003.392384	2592.360433
1003.686903	2592.168869
1003.981386	2590.180134
1004.275834	2588.471183
1004.570246	2589.774321
1004.864623	2587.621749
1005.158964	2590.298601
1005.453270	2586.026223
1005.747540	2586.729464
1006.041775	2585.149063
1006.335974	2587.145360
1006.630138	2583.772828
1006.924266	2588.322469
1007.218359	2585.675863
1007.512416	2584.181161
1007.806438	2587.760380
1008.100425	2586.242993
1008.394376	2583.291397
1008.688292	2586.351378
1008.982172	2584.339957
1009.276017	2584.057653
1009.569827	2582.177302
1009.863602	2585.622931
1010.157341	2582.817529
1010.451045	2581.736202
1010.744714	2586.704259
1011.038347	2582.991449
1011.331945	2580.740574
1011.625508	2584.405492
1011.919036	2582.167220
1012.212528	2583.072107
1012.505986	2580.922055
1012.799408	2581.756366
1013.092795	2580.785944
1013.386147	2582.242838
1013.679464	2580.387693
1013.972745	2581.705955
1014.265992	2580.256623
1014.559204	2581.975656
1014.852380	2581.521952
1015.145521	2582.641089
1015.438628	2581.259812
1015.731699	2583.692169
1016.024736	2580.733012
1016.317737	2581.214442
1016.610703	2585.824577
1016.903635	2578.860223
1017.196531	2577.857034
1017.489393	2578.119174
1017.782219	2578.351067
1018.075011	2582.053794
1018.367768	2582.404154
1018.660490	2585.075966
1018.953177	2585.075966
1019.245829	2585.075966
