Dividing Wavelength (nm)	Counts (n)	Blue Motor Position (mm): 30.500000	Red Motor Position (mm): 0.000000	
326.493990	2133.350773
326.888308	2133.350773
327.282561	2133.350773
327.676750	2100.321133
328.070874	2099.411204
328.464933	2100.122007
328.858929	2106.625096
329.252859	2117.904677
329.646726	2128.264248
330.040528	2142.654222
330.434265	2158.188538
330.827938	2175.199911
331.221547	2194.147088
331.615091	2212.663246
332.008571	2232.006153
332.401986	2251.550707
332.795338	2272.305137
333.188625	2288.701490
333.581847	2307.729325
333.975006	2325.617860
334.368100	2345.916066
334.761129	2363.602954
335.154095	2380.034595
335.546996	2400.952863
335.939833	2425.901533
336.332606	2438.511980
336.725315	2454.646192
337.117960	2462.190279
337.510540	2470.803091
337.903056	2483.133753
338.295508	2488.421923
338.687896	2495.789570
339.080220	2506.043277
339.472480	2511.848165
339.864676	2516.980060
340.256807	2518.847807
340.648875	2524.551873
341.040879	2526.071781
341.432818	2529.550177
341.824694	2528.715866
342.216506	2527.503468
342.608253	2532.123686
342.999937	2532.738707
343.391557	2532.153933
343.783113	2528.302491
344.174605	2525.439116
344.566033	2525.703777
344.957397	2526.263345
345.348697	2522.452232
345.739934	2522.454753
346.131106	2519.656912
346.522215	2519.362005
346.913260	2515.326561
347.304241	2515.598784
347.695159	2512.246416
348.086012	2509.763648
348.476802	2508.737773
348.867528	2507.444717
349.258191	2506.149141
349.648789	2505.012361
350.039324	2502.549757
350.429796	2503.457165
350.820203	2499.978768
351.210548	2499.628408
351.600828	2498.819303
351.991045	2496.790239
352.381198	2499.061278
352.771288	2497.695126
353.161314	2497.203613
353.551276	2497.979951
353.941175	2495.837461
354.331010	2497.102790
354.720782	2495.484580
355.110490	2497.664879
355.500135	2494.282265
355.889717	2498.461381
356.279235	2495.353510
356.668689	2499.361227
357.058080	2498.189159
357.447408	2496.840650
357.836672	2494.125989
358.225873	2496.515496
358.615010	2495.063643
359.004084	2503.200066
359.393095	2498.620178
359.782043	2501.982627
360.170927	2500.921464
360.559748	2502.622854
360.948505	2503.626043
361.337199	2504.601507
361.725830	2503.084119
362.114398	2504.876249
362.502903	2504.553616
362.891344	2506.204593
363.279722	2504.137720
363.668037	2504.059582
364.056289	2506.807011
364.444478	2506.796929
364.832603	2506.323061
365.220665	2508.011847
365.608665	2506.118894
365.996601	2508.629388
366.384474	2506.812053
366.772284	2508.957063
367.160031	2509.645181
367.547715	2509.980418
367.935336	2509.831704
368.322893	2510.159379
368.710388	2511.568381
369.097820	2508.508401
369.485189	2512.062414
369.872495	2512.511077
370.259738	2511.626354
370.646918	2511.507887
371.034035	2511.470079
371.421090	2512.092661
371.808081	2512.115346
372.195010	2515.666839
372.581875	2513.249606
372.968678	2515.518125
373.355418	2512.213649
373.742096	2514.230110
374.128710	2515.689524
374.515262	2512.538803
374.901751	2511.427229
375.288177	2510.771879
375.674540	2511.943947
376.060841	2516.183558
376.447079	2515.986953
376.833254	2514.225069
377.219367	2511.104595
377.605417	2514.030985
377.991404	2512.952178
378.377329	2513.186592
378.763191	2513.829339
379.148991	2516.775893
379.534727	2515.921418
379.920402	2516.415451
380.306013	2515.397137
380.691563	2518.008455
381.077049	2515.800430
381.462474	2519.301511
381.847835	2520.864269
382.233134	2519.304032
382.618371	2519.044412
383.003545	2519.298991
383.388657	2517.970647
383.773706	2520.140863
384.158693	2520.899557
384.543618	2522.308559
384.928480	2520.992818
385.313280	2522.081708
385.698017	2520.534073
386.082692	2523.294105
386.467305	2521.900226
386.851856	2521.191944
387.236344	2521.822088
387.620770	2522.434588
388.005133	2520.866789
388.389435	2522.820237
388.773674	2521.401152
389.157851	2523.762932
389.541965	2523.994825
389.926018	2523.397449
390.310008	2526.074301
390.693936	2522.376615
391.077802	2523.157994
391.461606	2524.859383
391.845348	2527.082532
392.229027	2525.192099
392.612645	2526.911133
392.996200	2526.669158
393.379694	2528.426000
393.763125	2523.805782
394.146494	2525.497089
394.529801	2525.192099
394.913047	2527.332069
395.296230	2528.322656
395.679351	2526.737213
396.062410	2527.639580
396.445408	2528.357944
396.828343	2530.901206
397.211217	2523.606657
397.594028	2526.170083
397.976778	2525.255114
398.359466	2529.015815
398.742092	2526.810310
399.124656	2529.383819
399.507158	2529.225022
399.889598	2532.620240
400.271977	2528.005063
400.654294	2527.722759
401.036549	2530.603778
401.418742	2532.645445
401.800874	2529.784591
402.182944	2532.776515
402.564952	2534.261135
402.946898	2533.817514
403.328783	2533.494880
403.710606	2533.399098
404.092367	2534.109901
404.474067	2535.372710
404.855705	2534.253573
405.237282	2533.532688
405.618797	2533.633512
406.000250	2536.012936
406.381642	2535.937319
406.762972	2535.428162
407.144240	2536.295241
407.525447	2537.369007
407.906593	2535.128214
408.287677	2536.423790
408.668700	2537.568132
409.049661	2536.063348
409.430560	2536.985879
409.811399	2537.643749
410.192176	2538.588966
410.572891	2538.276414
410.953545	2540.703730
411.334138	2537.489994
411.714669	2538.036959
412.095139	2538.669624
412.475547	2540.025695
412.855894	2540.371014
413.236180	2541.601055
413.616405	2540.612989
413.996568	2540.917979
414.376670	2541.527958
414.756711	2543.025181
415.136691	2540.474357
415.516609	2543.025181
415.896466	2545.586087
416.276262	2544.287990
416.655997	2539.514017
417.035670	2541.096940
417.415283	2542.407640
417.794834	2539.105684
418.174324	2546.407795
418.553753	2546.881664
418.933121	2547.824360
419.312428	2547.748742
419.691674	2548.439380
420.070859	2550.584391
420.449983	2553.992211
420.829045	2554.468600
421.208047	2556.580844
421.586988	2559.844991
421.965867	2564.170301
422.344686	2566.393450
422.723444	2570.597772
423.102141	2571.127093
423.480777	2581.554720
423.859352	2582.815008
424.237866	2592.226843
424.616319	2599.070209
424.994712	2610.826180
425.373044	2615.146449
425.751314	2629.672533
426.129524	2631.608337
426.507673	2647.631644
426.885762	2662.356854
427.263789	2673.638957
427.641756	2679.821932
428.019662	2698.448995
428.397508	2715.556151
428.775292	2726.545866
429.153016	2747.791809
429.530679	2756.626431
429.908282	2778.971346
430.285824	2787.322017
430.663305	2830.847339
431.040726	2826.978254
431.418086	2849.209742
431.795385	2880.709392
432.172624	2906.827610
432.549802	2930.319387
432.926920	2956.427523
433.303977	2985.086483
433.680974	3018.327851
434.057910	3047.677449
434.434786	3077.198446
434.811601	3104.181222
435.188355	3173.655883
435.565050	3187.660209
435.941683	3217.922255
436.318257	3298.968886
436.694770	3335.368537
437.071222	3383.897204
437.447614	3406.917633
437.823946	3419.298707
438.200218	3503.801049
438.576429	3513.616175
438.952580	3584.462031
439.328670	3641.457316
439.704700	3662.713341
440.080670	3698.069474
440.456580	3841.815455
440.832429	3850.183771
441.208218	3841.707070
441.583947	3942.842699
441.959616	3996.939321
442.335224	4017.270294
442.710773	4119.605717
443.086261	4191.051470
443.461689	4145.572701
443.837057	4265.471504
444.212365	4397.259868
444.587612	4393.819281
444.962800	4524.508674
445.337927	4567.723965
445.712995	4412.322836
446.088002	4784.181029
446.462949	4741.754678
446.837837	4755.448972
447.212664	4901.518926
447.587431	5052.141041
447.962139	5443.120330
448.336786	6075.956537
448.711374	5974.657071
449.085901	5442.565803
449.460369	5448.005208
449.834776	5455.403102
450.209124	5780.779336
450.583412	5952.458350
450.957640	6095.178457
451.331808	5985.671993
451.705917	5705.416606
452.079965	5687.747362
452.453954	5900.146297
452.827883	5847.027659
453.201752	5965.552748
453.575562	5842.387277
453.949311	6047.960489
454.323001	5993.510987
454.696632	6093.867757
455.070202	6243.857207
455.443713	6410.573206
455.817164	6535.707247
456.190556	6638.733309
456.563888	6740.854483
456.937160	6811.828888
457.310373	6549.134361
457.683526	6597.650425
458.056619	6528.949581
458.429653	6544.252003
458.802628	6507.968298
459.175542	6632.331043
459.548398	6980.778118
459.921194	7144.333313
460.293930	7165.964904
460.666607	7682.166455
461.039224	7993.888724
461.411782	8132.205382
461.784280	8173.941095
462.156719	8097.315557
462.529099	8005.816094
462.901419	7625.261911
463.273680	7546.191413
463.645882	7571.926503
464.018024	7455.541384
464.390106	7630.313147
464.762130	8018.545007
465.134094	8485.287798
465.505999	9482.992638
465.877845	10678.988744
466.249631	11328.647281
466.621358	10971.226953
466.993026	10370.369305
467.364634	10137.364654
467.736184	9779.447772
468.107674	9462.296181
468.479105	9507.104477
468.850477	9272.826934
469.221790	9053.599756
469.593043	8732.919357
469.964238	8600.722659
470.335373	8617.804609
470.706449	8675.702261
471.077467	8660.455291
471.448425	9966.658582
471.819324	11022.470282
472.190164	11044.855525
472.560945	9809.803080
472.931667	9034.118217
473.302330	8901.694667
473.672934	8548.602170
474.043479	8914.292511
474.413965	8853.917132
474.784393	8733.345335
475.154761	8892.691167
475.525070	8974.577149
475.895321	8804.823855
476.265513	8985.503850
476.635645	9154.604315
477.005719	9153.686825
477.375734	9269.613198
477.745691	9503.684054
478.115588	9640.342173
478.485427	9883.361076
478.855207	10415.482591
479.224928	11222.379758
479.594591	11853.176818
479.964194	11660.506439
480.333739	11596.650143
480.703226	11518.325736
481.072653	11611.622370
481.442022	11848.067609
481.811333	12029.463448
482.180584	11843.321363
482.549777	11553.636498
482.918912	11372.807789
483.287988	11405.993705
483.657005	11411.423027
484.025964	11093.669018
484.394864	11223.428318
484.763706	11194.913031
485.132489	10953.076278
485.501213	10917.848695
485.869879	10998.693680
486.238487	10839.869607
486.607036	10948.355238
486.975527	10731.381456
487.343959	10923.880436
487.712333	10971.809206
488.080648	10893.777186
488.448905	10945.847264
488.817104	10881.459126
489.185244	11147.054837
489.553326	11306.935032
489.921350	11842.406393
490.289315	12886.507493
490.657222	13234.140421
491.025070	13142.106595
491.392861	13011.402079
491.760593	12634.167496
492.128267	12293.735856
492.495883	11958.569701
492.863440	11625.760286
493.230939	11297.205605
493.598380	11226.120294
493.965763	11098.516088
494.333088	10994.542289
494.700354	10925.665004
495.067563	10977.273817
495.434713	10807.341562
495.801805	10944.811307
496.168839	10864.614111
496.535815	10796.727413
496.902733	10804.662189
497.269593	10726.778882
497.636395	10828.766466
498.003139	10820.093161
498.369825	10689.698675
498.736453	10842.117962
499.103023	10775.259659
499.469535	10803.858125
499.835989	10793.367483
500.202385	10754.701833
500.568723	10610.381161
500.935003	10833.444657
501.301226	10638.442743
501.667390	10892.658050
502.033497	10992.392237
502.399546	10849.473005
502.765537	10756.902297
503.131470	10835.287198
503.497345	11004.821202
503.863163	10617.113622
504.228923	10928.435118
504.594625	10992.102371
504.960269	10739.477549
505.325856	10962.639347
505.691385	10757.295507
506.056856	10911.360730
506.422270	10933.322517
506.787625	10821.887811
507.152924	10933.897209
507.518164	10915.381051
507.883347	10843.952942
508.248472	10758.149983
508.613540	10993.725623
508.978550	10876.985102
509.343503	10847.917809
509.708398	10972.971192
510.073236	11081.902965
510.438016	11089.048801
510.802738	11035.536953
511.167403	11091.145921
511.532010	10992.709830
511.896561	11218.919006
512.261053	11284.600199
512.625488	11159.662763
512.989866	11136.443208
513.354186	11130.933227
513.718449	11035.973012
514.082655	11228.333361
514.446803	11118.680703
514.810894	11242.524209
515.174927	11108.875659
515.538904	11129.486416
515.902822	11285.560539
516.266684	11169.334217
516.630488	11111.539908
516.994235	11163.849441
517.357925	11229.462579
517.721558	11314.960548
518.085133	11333.517036
518.448651	11344.499189
518.812112	11227.496529
519.175516	11240.071687
519.538863	11364.830163
519.902152	11281.653645
520.265385	11433.467993
520.628560	11347.113028
520.991678	11331.785399
521.354739	11393.317723
521.717743	11319.537916
522.080690	11300.411778
522.443580	11437.856318
522.806413	11395.437528
523.169189	11423.161354
523.531908	11486.256436
523.894569	11306.163735
524.257174	11305.513426
524.619722	11420.608010
524.982213	11372.235618
525.344647	11421.961559
525.707025	11369.899043
526.069345	11460.541510
526.431608	11383.764737
526.793815	11492.504946
527.155964	11279.508634
527.518057	11337.665905
527.880093	11283.891917
528.242072	11354.591579
528.603995	11259.686817
528.965860	11181.846361
529.327669	11231.889895
529.689421	11179.938284
530.051117	11150.092132
530.412755	11256.896538
530.774337	11145.219857
531.135862	11131.328958
531.497331	11150.205558
531.858743	11001.345327
532.220098	11174.042654
532.581396	11035.269771
532.942638	11022.944150
533.303824	10986.058027
533.664953	10995.563123
534.026025	10910.508775
534.387040	11011.155412
534.747999	11009.885041
535.108902	11069.476521
535.469748	10836.290388
535.830537	10928.193143
536.191270	10910.816286
536.551947	10940.294433
536.912567	10933.519122
537.273131	10863.126970
537.633638	10842.339773
537.994089	10829.361322
538.354483	10782.440782
538.714821	10925.672566
539.075103	10932.861252
539.435328	10894.427495
539.795497	10724.782585
540.155609	10875.578620
540.515665	10960.902670
540.875665	10700.673267
541.235609	10773.167580
541.595496	10767.544173
541.955328	10917.442882
542.315102	10806.224946
542.674821	10754.913562
543.034483	10757.534962
543.394090	10763.591908
543.753640	10689.444097
544.113134	10912.595813
544.472571	10760.368090
544.831953	10907.506768
545.191278	10711.146264
545.550548	10737.072918
545.909761	10881.786801
546.268918	10851.585249
546.628019	10936.256469
546.987064	10798.822012
547.346053	10725.183357
547.704986	10830.621610
548.063863	10806.585389
548.422684	10802.922991
548.781449	10723.328213
549.140158	10821.335805
549.498811	10701.840294
549.857408	10559.483151
550.215949	10783.000351
550.574434	10634.240942
550.932864	10728.621424
551.291237	10792.722216
551.649555	10736.664585
552.007817	10755.780640
552.366022	10711.945287
552.724173	10712.746831
553.082267	10695.740498
553.440305	10832.955665
553.798288	10633.210026
554.156215	10786.443459
554.514086	10759.569068
554.871902	10609.539288
555.229661	10647.920113
555.587365	10620.655032
555.945014	10518.417912
556.302606	10644.925667
556.660143	10531.477021
557.017625	10696.985663
557.375050	10589.440207
557.732421	10719.199508
558.089735	10632.794131
558.446994	10637.784873
558.804197	10674.066057
559.161345	10671.520274
559.518437	10522.377738
559.875474	10615.341656
560.232455	10649.218210
560.589381	10590.130846
560.946251	10591.817112
561.303065	10697.487258
561.659825	10634.296394
562.016528	10558.159848
562.373177	10443.004771
562.729770	10556.728160
563.086307	10474.537188
563.442789	10563.702597
563.799216	10442.727507
564.155587	10492.834056
564.511904	10443.425707
564.868164	10438.490417
565.224370	10451.312592
565.580520	10373.560356
565.936615	10374.127486
566.292654	10251.282128
566.648638	10384.101408
567.004567	10338.972999
567.360441	10325.780300
567.716260	10232.922246
568.072023	10331.103758
568.427732	10286.025760
568.783385	10185.759731
569.138982	10260.603222
569.494525	10273.437999
569.850013	10154.212190
570.205445	10233.078522
570.560823	10129.044230
570.916145	10053.018588
571.271412	10118.067117
571.626625	10056.623013
571.981782	10033.143839
572.336884	10012.215489
572.691931	10022.708651
573.046923	9967.860897
573.401860	9918.203011
573.756743	9860.338127
574.111570	9904.256659
574.466342	9887.139421
574.821059	9912.372917
575.175722	9805.185383
575.530330	9810.130755
575.884882	9801.414600
576.239380	9733.969003
576.593823	9712.914624
576.948211	9728.126305
577.302544	9608.313202
577.656823	9619.020613
578.011047	9621.495819
578.365216	9596.103527
578.719330	9528.181541
579.073389	9535.944918
579.427394	9483.237134
579.781344	9456.224111
580.135239	9404.794259
580.489080	9414.740456
580.842866	9320.543976
581.196597	9328.020007
581.550273	9365.112817
581.903895	9334.437396
582.257463	9401.877952
582.610975	9276.922872
582.964434	9305.473446
583.317837	9225.119975
583.671186	9205.714053
584.024481	9205.686327
584.377721	9121.773800
584.730906	9097.896375
585.084037	9127.311508
585.437113	9062.565448
585.790135	9088.948327
586.143103	8985.599632
586.496016	8959.468811
586.848874	9020.134056
587.201679	9005.497066
587.554428	8890.589005
587.907124	8939.750338
588.259765	8908.810256
588.612352	8908.719515
588.964884	8791.452194
589.317362	8804.307137
589.669786	8802.278072
590.022155	8858.108851
590.374470	8867.787867
590.726731	8802.174729
591.078937	8658.953027
591.431090	8769.513093
591.783188	8642.168506
592.135232	8635.730952
592.487222	8632.570149
592.839157	8688.932769
593.191038	8615.694886
593.542866	8564.723780
593.894639	8468.402453
594.246358	8516.323662
594.598022	8539.001292
594.949633	8434.258718
595.301190	8406.928103
595.652692	8434.891383
596.004141	8546.936068
596.355535	8324.565731
596.706876	8304.990931
597.058162	8238.117504
597.409395	8313.218094
597.760573	8379.872230
598.111698	8288.133312
598.462768	8269.349973
598.813785	8236.922751
599.164748	8204.112401
599.515657	8197.909261
599.866511	8107.559181
600.217312	8232.486535
600.568060	8089.718538
600.918753	8193.697377
601.269392	8162.038931
601.619978	8076.230931
601.970510	8134.940208
602.320988	8138.068244
602.671412	8197.087553
603.021783	8129.231102
603.372100	8101.154395
603.722363	8107.216383
604.072572	8084.493382
604.422728	8089.554700
604.772830	8024.833847
605.122878	8025.506841
605.472872	8025.174125
605.822813	8054.334679
606.172701	7995.451482
606.522534	8070.940240
606.872314	8066.778767
607.222041	8042.240951
607.571714	8096.604754
607.921333	8053.023979
608.270899	8060.923467
608.620411	8143.071590
608.969870	8054.248979
609.319276	8047.897126
609.668627	8064.739621
610.017926	8103.201104
610.367171	8146.035788
610.716362	8122.677602
611.065500	8118.886654
611.414585	8140.558574
611.763616	8129.271431
612.112594	8110.087320
612.461518	8127.045762
612.810389	8187.716048
613.159207	8125.170452
613.507971	8075.913338
613.856682	8190.508847
614.205340	8147.903536
614.553945	8221.700987
614.902496	8131.353427
615.250994	8178.561313
615.599439	8159.810741
615.947830	8174.634254
616.296169	8148.090058
616.644454	8162.177563
616.992686	8159.404928
617.340864	8217.184113
617.688990	8122.566696
618.037063	8215.006334
618.385082	8162.621184
618.733048	8245.540603
619.080961	8186.231428
619.428821	8205.748255
619.776628	8202.932771
620.124382	8159.160432
620.472083	8142.600242
620.819731	8172.012854
621.167326	8065.342038
621.514868	8071.290600
621.862357	7961.663148
622.209793	7976.958009
622.557176	7910.949140
622.904506	7884.982157
623.251783	7812.840725
623.599007	7767.578725
623.946179	7769.907738
624.293297	7732.608241
624.640363	7648.569685
624.987376	7631.102087
625.334336	7582.084428
625.681243	7526.193155
626.028097	7516.383070
626.374899	7496.034452
626.721647	7490.398442
627.068343	7417.397493
627.414987	7389.590489
627.761577	7342.864034
628.108115	7382.847946
628.454600	7277.487830
628.801032	7329.784760
629.147412	7288.265817
629.493739	7281.707276
629.840014	7212.971143
630.186236	7269.729494
630.532405	7154.708008
630.878521	7210.435443
631.224585	7161.967269
631.570597	7087.378357
631.916556	7119.301464
632.262462	7114.446833
632.608316	7073.411840
632.954117	7054.963738
633.299866	7039.757097
633.645562	7032.134872
633.991206	6950.266534
634.336797	6898.367855
634.682336	6855.069385
635.027823	6823.620147
635.373257	6817.515309
635.718639	6742.848259
636.063968	6762.614623
636.409245	6653.766029
636.754470	6652.195710
637.099642	6608.403207
637.444762	6552.285082
637.789829	6560.960908
638.134845	6507.219687
638.479808	6488.635473
638.824719	6494.838613
639.169577	6427.566936
639.514383	6444.318690
639.859137	6368.482092
640.203839	6384.553291
640.548489	6369.545776
640.893086	6348.476273
641.237632	6317.090049
641.582125	6337.161403
641.926566	6304.996321
642.270955	6320.129865
642.615292	6318.620039
642.959576	6332.049673
643.303809	6317.311860
643.647990	6324.210679
643.992118	6314.249359
644.336195	6263.081648
644.680219	6291.221368
645.024192	6279.515809
645.368112	6372.341095
645.711981	6392.845989
646.055797	6469.721064
646.399562	6430.679848
646.743274	6555.594599
647.086935	6609.315655
647.430544	6605.257527
647.774101	6626.952132
648.117606	6628.298120
648.461059	6621.916019
648.804460	6587.021153
649.147810	6491.786195
649.491108	6465.234437
649.834354	6439.327948
650.177548	6354.923909
650.520690	6271.444922
650.863781	6251.797025
651.206820	6268.236227
651.549807	6189.725297
651.892742	6133.508870
652.235626	6136.021885
652.578458	6121.689885
652.921238	6031.450711
653.263967	6071.782462
653.606644	6012.359861
653.949269	6014.356158
654.291843	5952.145799
654.634365	6005.531618
654.976836	5954.996571
655.319255	5953.678310
655.661622	5935.003355
656.003938	5929.846255
656.346203	5893.552468
656.688416	5922.067754
657.030577	5877.680395
657.372687	5844.474314
657.714746	5838.699673
658.056753	5873.844077
658.398708	5819.301313
658.740612	5805.423016
659.082465	5858.997879
659.424266	5849.777608
659.766016	5845.807700
660.107715	5821.090922
660.449362	5836.743705
660.790958	5831.299259
661.132503	5819.389533
661.473996	5857.987127
661.815438	5841.915929
662.156829	5837.623386
662.498168	5836.143808
662.839456	5807.106762
663.180693	5841.913408
663.521879	5844.905333
663.863013	5830.633827
664.204097	5849.548236
664.545129	5889.368310
664.886110	5887.006529
665.227040	5922.460964
665.567918	5887.109873
665.908746	5913.003760
666.249522	5920.668834
666.590248	5904.421195
666.930922	5936.309014
667.271545	5946.958452
667.612118	5950.797290
667.952639	5919.622795
668.293109	5945.062978
668.633528	5901.857769
668.973896	5902.581174
669.314213	5896.869547
669.654480	5874.915322
669.994695	5870.837028
670.334859	5863.703796
670.674973	5851.615109
671.015035	5858.193815
671.355047	5858.506366
671.695008	5845.860632
672.034918	5819.795346
672.374777	5824.516386
672.714585	5809.266896
673.054342	5815.893493
673.394049	5811.643800
673.733705	5839.125650
674.073310	5832.983004
674.412864	5788.439369
674.752368	5777.293378
675.091820	5787.746210
675.431223	5718.407660
675.770574	5721.583587
676.109875	5670.052912
676.449125	5676.709756
676.788324	5644.055682
677.127473	5587.229275
677.466571	5577.567903
677.805619	5573.413993
678.144616	5551.444644
678.483562	5531.053177
678.822458	5500.216439
679.161303	5496.241489
679.500098	5489.967773
679.838842	5472.885823
680.177535	5476.573427
680.516179	5490.295448
680.854771	5503.490668
681.193314	5582.851033
681.531805	5691.487898
681.870247	5839.193706
682.208638	5940.911588
682.546978	5954.845337
682.885268	5931.955978
683.223508	5845.545560
683.561697	5794.889525
683.899836	5763.311738
684.237925	5722.904369
684.575963	5682.749058
684.913951	5640.993181
685.251889	5706.596236
685.589776	5669.052243
685.927614	5645.734386
686.265401	5718.195931
686.603137	5692.095357
686.940824	5777.318583
687.278460	5799.245082
687.616046	5810.380991
687.953582	5875.222832
688.291068	5859.060893
688.628504	5920.552888
688.965889	5882.250201
689.303224	5829.497046
689.640510	5779.372854
689.977745	5704.824271
690.314930	5606.221822
690.652065	5551.306012
690.989150	5459.529286
691.326185	5386.319129
691.663170	5329.694369
692.000105	5256.854737
692.336990	5173.564793
692.673825	5151.877749
693.010610	5084.139765
693.347345	5015.290206
693.684030	4999.100541
694.020665	4961.518739
694.357251	4871.997929
694.693786	4880.837592
695.030272	4845.410883
695.366707	4810.188342
695.703093	4777.539309
696.039429	4798.576044
696.375716	4783.974342
696.711952	4754.607100
697.048139	4743.062857
697.384276	4726.190116
697.720363	4738.777877
698.056400	4749.094598
698.392388	4695.292884
698.728326	4673.126930
699.064214	4654.202439
699.400053	4648.211027
699.735842	4613.283393
700.071581	4589.239610
700.407270	4561.977050
700.742910	4548.600348
701.078501	4493.674456
701.414042	4491.698324
701.749533	4462.315959
702.084974	4389.672932
702.420366	4451.374134
702.755709	4396.173500
703.091002	4339.722659
703.426246	4388.326944
703.761440	4343.382537
704.096584	4303.985919
704.431679	4328.889219
704.766725	4312.064368
705.101721	4300.119354
705.436668	4328.458201
705.771565	4276.935088
706.106413	4304.903409
706.441212	4336.040096
706.775961	4345.956046
707.110661	4326.121626
707.445311	4352.212118
707.779913	4378.872260
708.114465	4387.351480
708.448967	4412.179163
708.783421	4469.562617
709.117825	4514.484339
709.452180	4516.578939
709.786485	4566.539294
710.120742	4651.843179
710.454949	4634.173934
710.789107	4698.408317
711.123216	4777.052837
711.457275	4766.143780
711.791286	4840.508361
712.125247	4851.901369
712.459159	4757.412502
712.793023	4832.694573
713.126837	4790.358963
713.460602	4787.790495
713.794318	4706.713618
714.127985	4714.479515
714.461602	4629.387359
714.795171	4596.720682
715.128691	4534.419582
715.462162	4479.513855
715.795584	4427.229528
716.128957	4410.581117
716.462281	4360.955999
716.795556	4333.998429
717.128782	4293.167603
717.461960	4228.209815
717.795088	4237.225919
718.128167	4198.991288
718.461198	4137.640445
718.794180	4132.543839
719.127113	4114.277218
719.459997	4088.176644
719.792833	4050.133576
720.125619	4038.659910
720.458357	4001.587265
720.791046	4009.945498
721.123686	3982.251919
721.456278	3939.016463
721.788821	3956.504226
722.121315	3928.601439
722.453761	3904.484559
722.786158	3918.287238
723.118506	3940.768264
723.450805	3892.221952
723.783056	3916.104419
724.115259	3931.706790
724.447412	3935.643931
724.779518	3929.289557
725.111574	3931.537911
725.443582	3963.080411
725.775542	3952.516673
726.107453	4000.112727
726.439315	3999.497706
726.771129	4013.363400
727.102895	4051.144327
727.434612	4100.046040
727.766281	4107.932926
728.097901	4107.431331
728.429473	4116.442393
728.760996	4125.871872
729.092471	4115.214872
729.423897	4099.720886
729.755276	4106.755816
730.086606	4104.426803
730.417887	4142.782422
730.749120	4209.577711
731.080305	4272.327473
731.411442	4299.935352
731.742530	4268.866721
732.073570	4271.382257
732.404562	4329.577337
732.735506	4320.760359
733.066401	4284.176705
733.397249	4214.197928
733.728048	4139.457781
734.058798	4056.918969
734.389501	3985.238803
734.720156	3922.448711
735.050762	3880.854151
735.381320	3873.857029
735.711831	3824.362981
736.042293	3793.425419
736.372707	3814.293276
736.703073	3788.714461
737.033391	3775.436062
737.363661	3795.923311
737.693883	3819.359635
738.024056	3828.834484
738.354182	3825.227538
738.684260	3887.334554
739.014290	3909.974376
739.344272	3901.684198
739.674207	3946.815128
740.004093	3957.426757
740.333931	3945.464099
740.663722	3946.852937
740.993464	3944.191207
741.323159	3921.788320
741.652806	3890.833115
741.982405	3864.440154
742.311956	3831.687777
742.641460	3825.587981
742.970915	3801.040082
743.300323	3757.907970
743.629683	3725.954616
743.958996	3714.798543
744.288260	3689.643185
744.617477	3658.193947
744.946647	3644.517297
745.275768	3616.410343
745.604842	3614.668625
745.933869	3568.849577
746.262847	3557.978329
746.591778	3599.608178
746.920662	3570.427458
747.249498	3539.066440
747.578286	3585.326589
747.907027	3602.854681
748.235720	3596.714555
748.564365	3621.804378
748.892963	3621.411168
749.221514	3606.622943
749.550017	3583.751228
749.878473	3581.389448
750.206881	3548.964746
750.535242	3547.250754
750.863555	3548.649674
751.191821	3542.164229
751.520039	3526.612270
751.848210	3503.977489
752.176334	3537.566697
752.504411	3546.638253
752.832440	3504.650483
753.160421	3485.478975
753.488356	3496.020028
753.816243	3508.418746
754.144082	3463.807055
754.471875	3450.087554
754.799620	3468.399546
755.127318	3460.522743
755.454969	3463.199596
755.782572	3468.394505
756.110129	3442.619085
756.437638	3434.293619
756.765100	3448.232410
757.092515	3456.693987
757.419882	3465.765543
757.747203	3434.853187
758.074477	3437.116666
758.401703	3452.630817
758.728882	3479.061586
759.056014	3483.364211
759.383099	3487.228255
759.710138	3484.750528
760.037129	3501.104031
760.364073	3530.393135
760.690970	3517.207997
761.017820	3492.241683
761.344623	3513.391844
761.671379	3555.614028
761.998088	3606.943056
762.324751	3735.018611
762.651366	3979.834686
762.977935	4446.700985
763.304456	4893.405189
763.630931	4985.146627
763.957359	4626.420640
764.283740	4288.998569
764.610074	4097.585957
764.936362	3899.811410
765.262602	3740.200917
765.588796	3627.480717
765.914943	3539.865463
766.241044	3453.770117
766.567097	3424.738112
766.893104	3379.798746
767.219064	3344.810618
767.544978	3318.699962
767.870845	3265.309101
768.196665	3246.180443
768.522438	3254.314345
768.848165	3250.987183
769.173846	3211.709033
769.499479	3195.075746
769.825066	3179.685103
770.150607	3162.872855
770.476101	3179.153262
770.801548	3175.085050
771.126949	3130.594347
771.452303	3111.609362
771.777611	3118.664457
772.102872	3124.030765
772.428087	3099.253494
772.753256	3091.127154
773.078378	3081.065011
773.403453	3048.378169
773.728482	3036.319729
774.053465	3059.561969
774.378401	3046.344063
774.703291	3014.269722
775.028135	3014.292407
775.352932	3010.451048
775.677683	3000.640963
776.002388	2996.028307
776.327046	2997.923781
776.651658	2989.308449
776.976224	2973.761530
777.300743	2975.311685
777.625216	2963.691826
777.949643	2963.066723
778.274024	2963.018832
778.598359	2952.439970
778.922647	2956.828295
779.246889	2953.163376
779.571086	2939.708536
779.895236	2936.197373
780.219339	2945.546192
780.543397	2958.169242
780.867409	2963.573358
781.191374	2954.456432
781.515294	2951.693879
781.839167	2952.266050
782.162995	2942.899587
782.486776	2950.723457
782.810511	2946.723302
783.134201	2936.502362
783.457844	2942.778599
783.781441	2930.402566
784.104993	2913.499577
784.428498	2912.821542
784.751958	2926.951896
785.075372	2922.389652
785.398739	2907.795512
785.722061	2923.632297
786.045337	2934.659821
786.368568	2919.680032
786.691752	2910.573188
787.014891	2959.432051
787.337983	2987.589415
787.661030	3015.315762
787.984031	3082.355546
788.306987	3127.554531
788.629897	3123.380456
788.952760	3101.746344
789.275579	3091.636310
789.598351	3028.868904
789.921078	2985.807368
790.243759	2979.987355
790.566395	2960.100003
790.888984	2936.872887
791.211529	2917.693817
791.534027	2907.971952
791.856480	2899.860736
792.178888	2887.222563
792.501249	2877.057076
792.823566	2874.896942
793.145836	2871.940305
793.468062	2867.299923
793.790241	2865.747247
794.112375	2872.600696
794.434464	2883.247613
794.756507	2889.022255
795.078505	2893.612225
795.400457	2908.269380
795.722364	2944.323713
796.044226	2968.465798
796.366042	2970.237764
796.687812	2960.538584
797.009538	2982.202943
797.331218	2967.003864
797.652852	2952.621452
797.974442	2937.167795
798.295986	2932.902978
798.617484	2926.437699
798.938938	2911.478075
799.260346	2895.873183
799.581709	2891.875548
799.903026	2883.650905
800.224299	2876.928527
800.545526	2869.966693
800.866708	2854.875999
801.187845	2844.022395
801.508936	2846.847962
801.829983	2851.563961
802.150984	2837.458813
802.471940	2826.033037
802.792851	2825.042451
803.113717	2825.342399
803.434538	2831.981599
803.755314	2825.050012
804.076045	2819.870227
804.396731	2818.763694
804.717372	2817.730257
805.037967	2811.388486
805.358518	2822.650423
805.679024	2833.899758
805.999485	2827.986485
806.319901	2830.111331
806.640272	2824.815599
806.960598	2828.374653
807.280879	2835.729697
807.601115	2844.561798
807.921306	2832.095025
808.241453	2830.020590
808.561554	2834.585355
808.881611	2836.894203
809.201623	2830.229798
809.521590	2830.607885
809.841513	2826.358192
810.161390	2827.953717
810.481223	2818.947696
810.801011	2815.754125
811.120755	2810.899494
811.440453	2813.694813
811.760107	2812.177426
812.079716	2812.225317
812.399281	2800.280303
812.718801	2793.850311
813.038276	2791.798562
813.357707	2795.128244
813.677093	2802.059830
813.996434	2798.576393
814.315731	2794.752678
814.634983	2786.412089
814.954191	2791.130609
815.273354	2803.786426
815.592473	2811.335553
815.911547	2813.775472
816.230577	2819.287974
816.549562	2833.032680
816.868502	2828.495641
817.187399	2839.916375
817.506250	2859.140815
817.825058	2846.454752
818.143821	2861.555528
818.462539	2877.359545
818.781213	2904.407856
819.099843	2939.340532
819.418429	2998.614419
819.736970	3058.828481
820.055466	3132.653658
820.373919	3236.819020
820.692327	3375.155844
821.010691	3543.863098
821.329011	3985.826097
821.647286	4882.639805
821.965517	6260.271204
822.283704	7000.952815
822.601847	6972.752601
822.919945	6346.293453
823.237999	5845.177555
823.556010	5263.892188
823.873976	4710.449113
824.191897	4301.404848
824.509775	4004.183459
824.827609	3740.629415
825.145398	3611.439766
825.463144	3606.391050
825.780845	3697.136860
826.098502	3799.971358
826.416116	4083.460644
826.733685	4397.937903
827.051210	4458.356132
827.368692	4344.758772
827.686129	4079.301692
828.003522	3756.887136
828.320872	3499.712673
828.638177	3304.746048
828.955439	3168.236643
829.272656	3083.212542
829.589830	3017.362470
829.906960	2969.905048
830.224046	2924.166659
830.541088	2888.949158
830.858086	2876.391644
831.175041	2857.961185
831.491952	2857.719210
831.808819	2870.526261
832.125642	2893.740775
832.442421	2937.757610
832.759157	3019.290711
833.075849	3197.611446
833.392497	3479.807677
833.709101	3681.821835
834.025662	3631.178403
834.342179	3472.296358
834.658653	3295.361940
834.975083	3146.141266
835.291469	3049.991338
835.607811	2965.078143
835.924110	2906.643608
836.240366	2855.657378
836.556578	2812.109371
836.872746	2790.714714
837.188871	2770.484563
837.504952	2753.125350
837.820990	2748.169896
838.136984	2730.178018
838.452935	2723.785835
838.768842	2721.454301
839.084706	2738.977352
839.400526	2821.054898
839.716303	2951.852676
840.032037	3030.948380
840.347727	3016.182840
840.663373	2953.735547
840.978977	2881.863816
841.294537	2809.596355
841.610054	2759.850249
841.925527	2739.834348
842.240957	2715.692262
842.556344	2693.153263
842.871687	2679.658094
843.186987	2670.755417
843.502244	2666.200734
843.817458	2661.025990
844.132629	2651.478044
844.447756	2640.266518
844.762840	2635.109418
845.077881	2635.926085
845.392879	2634.920375
845.707833	2632.856022
846.022745	2624.099538
846.337613	2627.645990
846.652438	2624.149949
846.967221	2627.986267
847.281960	2624.908643
847.596656	2621.871348
847.911309	2620.061574
848.225919	2620.432098
848.540485	2616.326079
848.855009	2615.955554
849.169490	2616.956223
849.483928	2615.751387
849.798323	2615.154010
850.112675	2615.763990
850.426984	2610.745521
850.741251	2614.745677
851.055474	2611.615120
851.369654	2615.932869
851.683792	2616.011007
851.997887	2612.749380
852.311938	2610.453134
852.625947	2613.893722
852.939914	2615.678290
853.253837	2616.822632
853.567718	2610.344750
853.881555	2611.332816
854.195350	2618.592077
854.509103	2615.738784
854.822812	2611.816767
855.136479	2610.314503
855.450103	2613.066973
855.763685	2613.568568
856.077224	2612.756942
856.390720	2608.267794
856.704173	2612.976232
857.017584	2616.366408
857.330953	2618.077880
857.644278	2622.130967
857.957561	2622.367902
858.270802	2614.922117
858.584000	2616.076542
858.897155	2618.632407
859.210268	2618.995370
859.523339	2615.607714
859.836367	2612.885491
860.149352	2610.604369
860.462295	2613.908845
860.775195	2612.900615
861.088054	2610.601848
861.400869	2608.746704
861.713642	2605.832917
862.026373	2606.750407
862.339062	2610.385079
862.651708	2614.213835
862.964312	2615.388424
863.276873	2612.502363
863.589392	2613.986983
863.901869	2622.846811
864.214303	2627.207409
864.526696	2631.643625
864.839045	2632.891310
865.151353	2633.841568
865.463619	2633.382823
865.775842	2631.477267
866.088023	2632.067082
866.400162	2633.655045
866.712258	2633.423152
867.024313	2631.691516
867.336325	2627.272944
867.648296	2631.457102
867.960224	2634.217134
868.272110	2633.382823
868.583954	2625.780763
868.895755	2628.402163
869.207515	2635.696712
869.519233	2641.431025
869.830909	2638.996147
870.142542	2634.728811
870.454134	2633.559263
870.765684	2638.497073
871.077191	2641.181488
871.388657	2645.690800
871.700081	2643.160141
872.011463	2642.048566
872.322803	2645.632827
872.634101	2646.240286
872.945357	2656.062974
873.256571	2662.913902
873.567744	2656.531801
873.878874	2658.016421
874.189963	2656.768735
874.501010	2660.302584
874.812015	2666.987154
875.122979	2666.059582
875.433900	2656.904847
875.744780	2657.053561
876.055618	2662.813079
876.366415	2667.972700
876.677169	2666.052020
876.987882	2660.700835
877.298554	2661.409118
877.609183	2671.952691
877.919771	2676.106602
878.230317	2683.378466
878.540822	2694.597554
878.851285	2709.978114
879.161707	2731.108111
879.472087	2774.449431
879.782425	2819.330823
880.092722	2930.241249
880.402977	3119.387862
880.713191	3377.121894
881.023363	3668.871111
881.333494	3863.933518
881.643583	4035.335269
881.953631	4034.798386
882.263637	3853.528576
882.573602	3635.672592
882.883526	3505.205010
883.193408	3389.250910
883.503248	3287.734674
883.813048	3175.362314
884.122806	3063.201682
884.432522	2976.985348
884.742197	2913.660894
885.051831	2876.936088
885.361424	2837.509224
885.670975	2803.239460
885.980485	2773.108484
886.289954	2756.986874
886.599382	2741.349215
886.908768	2731.410580
887.218113	2710.842672
887.527417	2699.318594
887.836680	2689.742923
888.145901	2685.576409
888.455082	2675.894873
888.764221	2664.471618
889.073319	2658.407110
889.382376	2658.205464
889.691392	2660.363078
890.000366	2659.185969
890.309300	2657.517347
890.618193	2657.756802
890.927044	2659.170845
891.235855	2660.652944
891.544625	2659.304436
891.853353	2660.660506
892.162041	2670.231137
892.470687	2685.427695
892.779293	2697.808769
893.087858	2711.702189
893.396381	2733.974007
893.704864	2774.724174
894.013306	2848.501460
894.321707	2933.928853
894.630068	2987.723006
894.938387	3005.072137
895.246665	2999.050479
895.554903	2954.847121
895.863100	2911.228538
896.171256	2853.993797
896.479371	2794.135137
896.787446	2755.250196
897.095480	2736.255129
897.403473	2730.021742
897.711425	2715.583877
898.019336	2695.656196
898.327207	2682.171110
898.635038	2680.656243
898.942827	2679.968125
899.250576	2669.447237
899.558284	2658.664209
899.865952	2656.277223
900.173579	2650.275729
900.481165	2648.281953
900.788711	2640.074954
901.096216	2634.837196
901.403681	2631.295785
901.711105	2633.198821
902.018489	2628.099693
902.325832	2635.179994
902.633135	2634.237298
902.940397	2649.718682
903.247619	2685.452901
903.554800	2757.501072
903.861941	2884.076883
904.169041	3007.945595
904.476101	3069.979513
904.783121	3063.597412
905.090100	3006.871829
905.397039	2930.027000
905.703938	2857.880527
906.010796	2794.437606
906.317614	2743.882394
906.624391	2710.847713
906.931129	2683.149093
907.237826	2659.377532
907.544483	2642.840027
907.851099	2627.512399
908.157675	2617.052005
908.464211	2611.312651
908.770707	2602.034407
909.077163	2596.186669
909.383578	2594.223140
909.689954	2593.580392
909.996289	2589.194589
910.302584	2587.924218
910.608839	2588.768611
910.915054	2589.252562
911.221229	2590.817840
911.527363	2591.248859
911.833458	2591.712645
912.139513	2589.252562
912.445527	2593.121647
912.751502	2597.540219
913.057436	2604.562546
913.363331	2610.322064
913.669186	2619.867489
913.975000	2635.464819
914.280775	2651.790596
914.586510	2668.013029
914.892205	2706.020808
915.197859	2773.950357
915.503475	2858.888758
915.809050	2923.546597
916.114585	2933.855757
916.420081	2949.150617
916.725536	2959.333748
917.030952	2932.981116
917.336328	2885.795916
917.641665	2835.843123
917.946961	2787.203550
918.252218	2752.908580
918.557435	2726.669375
918.862612	2705.751107
919.167750	2691.575382
919.472848	2674.589214
919.777906	2655.362253
920.082925	2642.804739
920.387904	2634.627988
920.692843	2628.291257
920.997743	2625.931997
921.302603	2617.878754
921.607423	2612.819956
921.912204	2605.321240
922.216946	2603.425766
922.521647	2599.975096
922.826310	2596.713470
923.130932	2591.052254
923.435516	2587.851121
923.740059	2585.696028
924.044564	2582.923393
924.349028	2582.867941
924.653454	2571.842937
924.957840	2571.671538
925.262186	2569.821434
925.566493	2574.469378
925.870761	2565.425548
926.174989	2566.562328
926.479178	2565.501166
926.783328	2562.834395
927.087438	2561.349775
927.391509	2560.633932
927.695541	2561.627039
927.999533	2559.073694
928.303486	2558.688046
928.607400	2559.940773
928.911275	2556.636297
929.215110	2555.875082
929.518906	2553.941800
929.822663	2558.509085
930.126381	2556.636297
930.430060	2553.251162
930.733699	2556.472459
931.037299	2559.169476
931.340861	2558.657799
931.644383	2561.329611
931.947866	2557.553787
932.251309	2557.165618
932.554714	2556.399362
932.858080	2558.206616
933.161407	2555.612942
933.464694	2554.750905
933.767943	2554.584547
934.071153	2555.786862
934.374323	2551.592622
934.677455	2554.511450
934.980548	2555.456667
935.283602	2554.793755
935.586617	2555.383570
935.889593	2553.525905
936.192530	2554.035061
936.495428	2552.000956
936.798287	2557.392470
937.101108	2555.512119
937.403890	2557.306770
937.706632	2564.886145
938.009336	2569.443348
938.312002	2571.994172
938.614628	2573.254460
938.917216	2577.799060
939.219765	2577.108422
939.522275	2576.838721
939.824747	2576.649677
940.127179	2570.998544
940.429573	2570.703636
940.731929	2568.329253
941.034246	2566.574931
941.336524	2565.934705
941.638763	2568.167936
941.940964	2568.225909
942.243126	2565.312122
942.545250	2565.307081
942.847335	2561.755588
943.149381	2561.495969
943.451389	2564.137533
943.753359	2559.812223
944.055290	2557.929352
944.357182	2557.505896
944.659036	2558.035217
944.960851	2554.818961
945.262628	2553.898950
945.564367	2559.250135
945.866067	2558.665361
946.167729	2557.331976
946.469352	2558.849363
946.770937	2558.546894
947.072484	2557.649568
947.373992	2555.726368
947.675462	2555.973385
947.976893	2557.503375
948.278286	2556.656461
948.579641	2553.972047
948.880958	2555.081101
949.182236	2555.025648
949.483476	2552.222766
949.784678	2556.041440
950.085841	2556.575803
950.386967	2555.181924
950.688054	2554.466080
950.989103	2555.358364
951.290114	2557.384908
951.591087	2556.636297
951.892021	2558.383056
952.192917	2561.107800
952.493776	2559.499672
952.794596	2562.715928
953.095378	2564.921433
953.396122	2563.812379
953.696828	2561.390105
953.997496	2557.571431
954.298126	2555.897767
954.598718	2557.090000
954.899272	2556.195196
955.199788	2555.799465
955.500266	2551.980791
955.800706	2548.194884
956.101108	2545.248330
956.401472	2545.543238
956.701798	2545.260933
957.002087	2543.201622
957.302337	2547.660522
957.602550	2546.712785
957.902724	2547.869730
958.202861	2545.134904
958.502960	2543.423432
958.803022	2541.545602
959.103045	2543.957795
959.403031	2543.420912
959.702979	2541.752290
960.002889	2540.739018
960.302762	2539.844213
960.602596	2541.376724
960.902393	2543.564585
961.202153	2540.514687
961.501875	2540.549975
961.801559	2541.893442
962.101205	2539.241795
962.400814	2540.761703
962.700385	2539.017464
962.999918	2541.704399
963.299414	2539.899666
963.598873	2539.970242
963.898293	2538.054603
964.197677	2541.835469
964.497022	2538.210879
964.796331	2541.099460
965.095601	2535.561753
965.394835	2538.173071
965.694030	2539.352701
965.993189	2543.052907
966.292309	2538.336908
966.591393	2540.023174
966.890439	2540.486960
967.189447	2537.623585
967.488419	2539.362783
967.787353	2536.370858
968.086249	2539.632485
968.385108	2537.356404
968.683930	2540.265149
968.982714	2538.039480
969.281462	2540.471837
969.580172	2539.473688
969.878844	2538.064686
970.177480	2539.279604
970.476078	2537.137113
970.774639	2540.852444
971.073162	2540.610468
971.371649	2535.528985
971.670098	2537.784902
971.968510	2538.722556
972.266885	2534.911444
972.565223	2540.983514
972.863524	2539.589635
973.161788	2538.896476
973.460014	2539.556867
973.758204	2541.964018
974.056356	2538.306661
974.354471	2539.201466
974.652550	2538.460416
974.950591	2541.104502
975.248595	2541.021323
975.546563	2538.649460
975.844493	2538.291538
976.142386	2539.093081
976.440243	2539.375386
976.738062	2540.234902
977.035845	2537.305992
977.333590	2537.928575
977.631299	2538.241126
977.928971	2536.128883
978.226606	2537.931095
978.524204	2536.685930
978.821765	2539.801363
979.119290	2537.623585
979.416777	2537.616023
979.714228	2536.837165
980.011642	2536.542257
980.309020	2539.778678
980.606360	2538.926723
980.903664	2539.398071
981.200931	2535.523944
981.498162	2539.844213
981.795356	2539.259439
982.092513	2545.744884
982.389633	2547.219421
982.686717	2547.302600
982.983764	2552.079093
983.280775	2550.937272
983.577749	2555.131512
983.874686	2552.230328
984.171587	2550.044988
984.468451	2546.596839
984.765279	2548.265461
985.062070	2540.814635
985.358824	2540.471837
985.655543	2540.892773
985.952224	2537.915972
986.248869	2537.550488
986.545478	2532.955476
986.842050	2534.747607
987.138586	2531.705270
987.435086	2533.822555
987.731549	2532.978162
988.027975	2539.950077
988.324366	2537.850437
988.620719	2535.052596
988.917037	2533.346166
989.213318	2533.711649
989.509563	2535.768440
989.805772	2534.145189
990.101944	2535.276928
990.398080	2536.905220
990.694180	2535.125693
990.990244	2534.450178
991.286271	2536.166691
991.582262	2536.249870
991.878217	2534.490508
992.174136	2538.268853
992.470019	2534.979500
992.765865	2533.757020
993.061676	2535.082843
993.357450	2533.716691
993.653188	2534.946732
993.948890	2533.850281
994.244556	2534.732483
994.540186	2534.634181
994.835780	2535.871784
995.131337	2536.398584
995.426859	2537.379089
995.722345	2535.261804
996.017795	2538.583925
996.313208	2537.295910
996.608586	2539.408153
996.903928	2540.204656
997.199234	2538.883873
997.494504	2540.227341
997.789738	2538.616692
998.084936	2537.414377
998.380099	2538.478060
998.675225	2536.461599
998.970316	2536.017977
999.265371	2534.548481
999.560390	2537.394212
999.855373	2534.689633
1000.150320	2535.917154
1000.445232	2537.921013
1000.740108	2532.844571
1001.034948	2534.440096
1001.329752	2534.566125
1001.624521	2533.459592
1001.919254	2532.925229
1002.213951	2531.324663
1002.508613	2532.532019
1002.803239	2533.192411
1003.097829	2529.865249
1003.392384	2535.274407
1003.686903	2534.031763
1003.981386	2534.508152
1004.275834	2533.764582
1004.570246	2530.828109
1004.864623	2534.959335
1005.158964	2533.041176
1005.453270	2533.915816
1005.747540	2533.187369
1006.041775	2532.705939
1006.335974	2533.197452
1006.630138	2530.818027
1006.924266	2532.819365
1007.218359	2531.697708
1007.512416	2536.063348
1007.806438	2533.136958
1008.100425	2532.620240
1008.394376	2533.318439
1008.688292	2534.077133
1008.982172	2531.395239
1009.276017	2532.821886
1009.569827	2533.086546
1009.863602	2535.846578
1010.157341	2533.368851
1010.451045	2533.814993
1010.744714	2531.720394
1011.038347	2534.447658
1011.331945	2533.731814
1011.625508	2531.942204
1011.919036	2534.674510
1012.212528	2532.486649
1012.505986	2533.177287
1012.799408	2532.385826
1013.092795	2533.613347
1013.386147	2532.940353
1013.679464	2532.980682
1013.972745	2533.262987
1014.265992	2534.908923
1014.559204	2532.317770
1014.852380	2534.392205
1015.145521	2534.447658
1015.438628	2531.783408
1015.731699	2535.244160
1016.024736	2531.992616
1016.317737	2536.038142
1016.610703	2533.066382
1016.903635	2529.114117
1017.196531	2529.461957
1017.489393	2529.156967
1017.782219	2529.164529
1018.075011	2530.220650
1018.367768	2531.702750
1018.660490	2534.525796
1018.953177	2534.525796
1019.245829	2534.525796
