Dividing Wavelength (nm)	Counts (n)	Blue Motor Position (mm): 1.000000	Red Motor Position (mm): 0.000000	
326.493990	2062.222613
326.888308	2062.222613
327.282561	2062.222613
327.676750	2036.656401
328.070874	2041.014478
328.464933	2045.254089
328.858929	2054.325645
329.252859	2065.532130
329.646726	2080.630386
330.040528	2096.240319
330.434265	2110.980653
330.827938	2134.137193
331.221547	2155.516726
331.615091	2173.773265
332.008571	2195.863601
332.401986	2213.205170
332.795338	2236.328943
333.188625	2253.068094
333.581847	2274.742535
333.975006	2289.538322
334.368100	2309.261836
334.761129	2327.568786
335.154095	2341.525221
335.546996	2358.576924
335.939833	2369.485981
336.332606	2383.863351
336.725315	2393.953221
337.117960	2406.009140
337.510540	2414.077507
337.903056	2422.201326
338.295508	2431.824889
338.687896	2437.108018
339.080220	2441.771086
339.472480	2447.470110
339.864676	2452.725513
340.256807	2456.367747
340.648875	2456.642489
341.040879	2456.415638
341.432818	2458.545525
341.824694	2459.102573
342.216506	2459.064764
342.608253	2457.370936
342.999937	2457.335648
343.391557	2456.513940
343.783113	2452.967488
344.174605	2451.903805
344.566033	2452.460852
344.957397	2450.330965
345.348697	2449.741150
345.739934	2448.866510
346.131106	2446.928186
346.522215	2443.394337
346.913260	2440.835952
347.304241	2441.030036
347.695159	2438.017947
348.086012	2438.761517
348.476802	2438.466609
348.867528	2433.624581
349.258191	2431.678696
349.648789	2426.685433
350.039324	2429.891607
350.429796	2431.892945
350.820203	2429.551329
351.210548	2429.095104
351.600828	2429.813469
351.991045	2427.920515
352.381198	2429.732810
352.771288	2427.509661
353.161314	2425.959507
353.551276	2428.681730
353.941175	2427.124013
354.331010	2426.882038
354.720782	2427.542429
355.110490	2427.567635
355.500135	2429.604261
355.889717	2429.689960
356.279235	2430.524271
356.668689	2429.571493
357.058080	2428.966555
357.447408	2432.147523
357.836672	2432.886052
358.225873	2431.348500
358.615010	2431.305650
359.004084	2431.961000
359.393095	2429.758016
359.782043	2433.349838
360.170927	2433.216247
360.559748	2432.197934
360.948505	2434.325301
361.337199	2434.221958
361.725830	2435.154571
362.114398	2434.612647
362.502903	2436.094746
362.891344	2436.782864
363.279722	2435.774633
363.668037	2440.664552
364.056289	2439.525252
364.444478	2438.254881
364.832603	2439.956270
365.220665	2436.160281
365.608665	2440.062134
365.996601	2439.641198
366.384474	2437.909562
366.772284	2438.222113
367.160031	2439.046342
367.547715	2440.717484
367.935336	2438.181784
368.322893	2440.404933
368.710388	2437.735642
369.097820	2441.148503
369.485189	2435.767071
369.872495	2442.980962
370.259738	2442.673452
370.646918	2441.718153
371.034035	2443.580860
371.421090	2445.045315
371.808081	2445.259564
372.195010	2444.090016
372.581875	2442.035746
372.968678	2444.616817
373.355418	2444.145469
373.742096	2442.522218
374.128710	2443.666559
374.515262	2445.940120
374.901751	2444.042125
375.288177	2448.029678
375.674540	2445.115891
376.060841	2446.224945
376.447079	2443.336364
376.833254	2444.473144
377.219367	2442.764193
377.605417	2446.837445
377.991404	2445.544389
378.377329	2446.449276
378.763191	2444.392486
379.148991	2449.957919
379.534727	2448.402723
379.920402	2446.313165
380.306013	2446.298042
380.691563	2447.959102
381.077049	2448.120419
381.462474	2448.652261
381.847835	2449.133691
382.233134	2446.671087
382.618371	2451.213167
383.003545	2450.399020
383.388657	2451.026644
383.773706	2449.000100
384.158693	2449.010182
384.543618	2449.647888
384.928480	2450.998918
385.313280	2450.431788
385.698017	2449.332816
386.082692	2451.742488
386.467305	2453.950513
386.851856	2450.434308
387.236344	2450.913218
387.620770	2448.828701
388.005133	2447.568413
388.389435	2449.426078
388.773674	2447.636468
389.157851	2453.247272
389.541965	2451.500513
389.926018	2457.703652
390.310008	2452.218877
390.693936	2453.385904
391.077802	2452.314659
391.461606	2455.011676
391.845348	2454.210133
392.229027	2454.220215
392.612645	2453.143929
392.996200	2453.446398
393.379694	2455.876234
393.763125	2453.438836
394.146494	2453.406069
394.529801	2455.437654
394.913047	2457.607870
395.296230	2456.556790
395.679351	2456.057716
396.062410	2455.682150
396.445408	2456.889506
396.828343	2453.771552
397.211217	2454.908333
397.594028	2456.798765
397.976778	2456.677777
398.359466	2456.982767
398.742092	2456.357664
399.124656	2457.723817
399.507158	2455.293981
399.889598	2459.130299
400.271977	2456.526543
400.654294	2459.533591
401.036549	2457.050823
401.418742	2462.308746
401.800874	2458.618622
402.182944	2459.833540
402.564952	2457.154167
402.946898	2460.143571
403.328783	2459.841102
403.710606	2458.419496
404.092367	2460.758592
404.474067	2456.755915
404.855705	2460.889662
405.237282	2458.835391
405.618797	2460.337655
406.000250	2462.144909
406.381642	2461.376133
406.762972	2459.082408
407.144240	2455.614094
407.525447	2459.717593
407.906593	2455.586368
408.287677	2460.405711
408.668700	2460.393108
409.049661	2459.190793
409.430560	2460.161215
409.811399	2463.087605
410.192176	2463.377471
410.572891	2463.138016
410.953545	2461.250104
411.334138	2463.130454
411.714669	2463.357306
412.095139	2462.260855
412.475547	2460.778756
412.855894	2464.549539
413.236180	2462.966617
413.616405	2463.306895
413.996568	2461.088787
414.376670	2464.363017
414.756711	2463.591720
415.136691	2460.990485
415.516609	2462.011318
415.896466	2465.663634
416.276262	2464.345372
416.655997	2465.046093
417.035670	2465.461988
417.415283	2465.310753
417.794834	2466.160188
418.174324	2465.530044
418.553753	2464.909982
418.933121	2465.313274
419.312428	2462.485187
419.691674	2466.571042
420.070859	2463.891669
420.449983	2465.424179
420.829045	2468.055662
421.208047	2468.806794
421.586988	2464.761268
421.965867	2465.761937
422.344686	2466.003912
422.723444	2467.796042
423.102141	2464.955352
423.480777	2466.941567
423.859352	2466.855867
424.237866	2469.066413
424.616319	2468.116156
424.994712	2471.753348
425.373044	2466.238326
425.751314	2467.259159
426.129524	2461.590382
426.507673	2465.580455
426.885762	2462.797738
427.263789	2468.708491
427.641756	2467.730507
428.019662	2468.227061
428.397508	2466.626495
428.775292	2467.997688
429.153016	2470.319140
429.530679	2469.021043
429.908282	2468.262349
430.285824	2466.918882
430.663305	2468.663121
431.040726	2470.140179
431.418086	2469.535240
431.795385	2472.333081
432.172624	2466.573563
432.549802	2472.754017
432.926920	2469.252936
433.303977	2469.038687
433.680974	2471.728142
434.057910	2470.936681
434.434786	2467.906948
434.811601	2471.559264
435.188355	2472.096147
435.565050	2469.283183
435.941683	2472.249902
436.318257	2470.982052
436.694770	2469.933492
437.071222	2473.240488
437.447614	2472.454068
437.823946	2471.324850
438.200218	2470.969449
438.576429	2472.214614
438.952580	2470.639253
439.328670	2470.813173
439.704700	2470.921558
440.080670	2472.217134
440.456580	2467.203707
440.832429	2469.426856
441.208218	2472.635550
441.583947	2470.810652
441.959616	2471.448358
442.335224	2473.437093
442.710773	2471.962556
443.086261	2473.278297
443.461689	2471.012298
443.837057	2472.570015
444.212365	2473.482464
444.587612	2472.464151
444.962800	2471.234109
445.337927	2471.408029
445.712995	2466.989458
446.088002	2473.033801
446.462949	2473.772330
446.837837	2473.348873
447.212664	2473.033801
447.587431	2475.806436
447.962139	2474.200828
448.336786	2472.716208
448.711374	2473.865592
449.085901	2476.444142
449.460369	2471.995323
449.834776	2474.795684
450.209124	2476.275263
450.583412	2475.635037
450.957640	2476.993627
451.331808	2473.275777
451.705917	2475.766107
452.079965	2473.666466
452.453954	2476.061014
452.827883	2476.033288
453.201752	2475.509008
453.575562	2472.688482
453.949311	2473.764768
454.323001	2473.739563
454.696632	2473.653863
455.070202	2474.841055
455.443713	2471.889459
455.817164	2475.113277
456.190556	2473.860550
456.563888	2476.033288
456.937160	2474.042032
457.310373	2475.050263
457.683526	2473.719398
458.056619	2474.946919
458.429653	2477.321303
458.802628	2474.924234
459.175542	2475.362814
459.548398	2474.556230
459.921194	2476.486992
460.293930	2475.927423
460.666607	2477.230562
461.039224	2475.060345
461.411782	2476.464306
461.784280	2474.006744
462.156719	2471.123204
462.529099	2479.582260
462.901419	2474.805767
463.273680	2473.076651
463.645882	2473.159830
464.018024	2473.858030
464.390106	2473.036322
464.762130	2477.570840
465.134094	2475.803915
465.505999	2477.817856
465.877845	2476.950778
466.249631	2477.749801
466.621358	2476.711323
466.993026	2477.036477
467.364634	2481.213073
467.736184	2476.923051
468.107674	2477.404482
468.479105	2477.076807
468.850477	2481.041674
469.221790	2477.444811
469.593043	2476.081179
469.964238	2478.783237
470.335373	2480.076293
470.706449	2478.082517
471.077467	2476.928093
471.448425	2476.343319
471.819324	2477.117136
472.190164	2478.327013
472.560945	2475.791312
472.931667	2476.880202
473.302330	2477.439770
473.672934	2479.393217
474.043479	2476.300469
474.413965	2476.628144
474.784393	2479.297435
475.154761	2479.778865
475.525070	2480.711478
475.895321	2479.022692
476.265513	2476.597897
476.635645	2477.573360
477.005719	2480.645943
477.375734	2481.301293
477.745691	2477.391879
478.115588	2481.034112
478.485427	2479.204173
478.855207	2480.943372
479.224928	2479.753659
479.594591	2480.401447
479.964194	2476.610500
480.333739	2479.186529
480.703226	2481.036633
481.072653	2480.449338
481.442022	2481.669298
481.811333	2475.874491
482.180584	2477.636375
482.549777	2477.243165
482.918912	2474.783082
483.287988	2481.775162
483.657005	2479.244503
484.025964	2480.658546
484.394864	2480.656026
484.763706	2480.340954
485.132489	2479.279791
485.501213	2482.359936
485.869879	2477.172588
486.238487	2481.699545
486.607036	2480.333392
486.975527	2482.004534
487.343959	2478.604276
487.712333	2482.059987
488.080648	2479.927579
488.448905	2478.808443
488.817104	2482.324648
489.185244	2479.393217
489.553326	2480.497229
489.921350	2481.679380
490.289315	2479.133597
490.657222	2480.973618
491.025070	2483.516881
491.392861	2479.612507
491.760593	2481.407158
492.128267	2482.407827
492.495883	2480.111581
492.863440	2480.734164
493.230939	2481.041674
493.598380	2480.852631
493.965763	2481.656695
494.333088	2481.018989
494.700354	2482.959833
495.067563	2481.797847
495.434713	2481.533187
495.801805	2481.807929
496.168839	2478.659729
496.535815	2483.542086
496.902733	2483.037971
497.269593	2483.650471
497.636395	2479.249544
498.003139	2482.702734
498.369825	2480.900522
498.736453	2478.924389
499.103023	2482.115440
499.469535	2482.047384
499.835989	2482.052425
500.202385	2479.909935
500.568723	2477.681745
500.935003	2479.070583
501.301226	2478.377424
501.667390	2482.501088
502.033497	2483.605101
502.399546	2482.473362
502.765537	2482.909422
503.131470	2483.065697
503.497345	2483.292549
503.863163	2485.724906
504.228923	2483.592498
504.594625	2481.989411
504.960269	2483.509319
505.325856	2484.320945
505.691385	2482.669967
506.056856	2482.836325
506.422270	2482.327168
506.787625	2483.733650
507.152924	2484.449494
507.518164	2483.516881
507.883347	2480.572847
508.248472	2482.448156
508.613540	2478.669811
508.978550	2481.470172
509.343503	2481.215594
509.708398	2482.727940
510.073236	2480.451859
510.438016	2484.404124
510.802738	2484.618373
511.167403	2483.600060
511.532010	2480.749287
511.896561	2484.963692
512.261053	2482.508650
512.625488	2482.775831
512.989866	2479.413381
513.354186	2484.394041
513.718449	2483.353043
514.082655	2483.542086
514.446803	2483.663074
514.810894	2486.155925
515.174927	2481.936479
515.538904	2486.463435
515.902822	2484.300780
516.266684	2482.758187
516.630488	2484.373877
516.994235	2483.166520
517.357925	2482.095275
517.721558	2485.218270
518.085133	2481.462610
518.448651	2484.121819
518.812112	2477.822897
519.175516	2482.846407
519.538863	2477.601087
519.902152	2484.877992
520.265385	2482.317086
520.628560	2485.798003
520.991678	2485.051912
521.354739	2482.874133
521.717743	2483.874802
522.080690	2482.753146
522.443580	2483.252220
522.806413	2484.003352
523.169189	2480.633341
523.531908	2484.197436
523.894569	2484.739360
524.257174	2484.986377
524.619722	2483.269864
524.982213	2485.737509
525.344647	2484.404124
525.707025	2484.464618
526.069345	2484.159628
526.431608	2482.027220
526.793815	2485.263640
527.155964	2484.217601
527.518057	2484.600729
527.880093	2484.056284
528.242072	2481.906232
528.603995	2481.482775
528.965860	2483.950420
529.327669	2486.193733
529.689421	2484.217601
530.051117	2485.782879
530.412755	2484.356233
530.774337	2483.174082
531.135862	2485.593836
531.497331	2483.980667
531.858743	2481.870944
532.220098	2483.340440
532.581396	2485.545945
532.942638	2486.624752
533.303824	2486.218939
533.664953	2485.581233
534.026025	2485.374546
534.387040	2484.454535
534.747999	2482.811119
535.108902	2484.620893
535.469748	2483.915132
535.830537	2484.772128
536.191270	2482.760708
536.551947	2481.918835
536.912567	2482.869092
537.273131	2481.087044
537.633638	2482.246510
537.994089	2481.833135
538.354483	2483.915132
538.714821	2484.109216
539.075103	2484.409165
539.435328	2485.034268
539.795497	2484.620893
540.155609	2484.048722
540.515665	2485.286326
540.875665	2484.920842
541.235609	2484.013434
541.595496	2484.028558
541.955328	2481.785244
542.315102	2487.436378
542.674821	2484.015955
543.034483	2484.590646
543.394090	2485.283805
543.753640	2485.762715
544.113134	2485.046871
544.472571	2485.429998
544.831953	2485.266161
545.191278	2483.625265
545.550548	2483.766418
545.909761	2486.652478
546.268918	2487.859835
546.628019	2487.312869
546.987064	2487.471666
547.346053	2485.989567
547.704986	2484.308342
548.063863	2484.671305
548.422684	2483.836994
548.781449	2482.518732
549.140158	2486.236583
549.498811	2486.833960
549.857408	2485.848414
550.215949	2483.136273
550.574434	2485.326655
550.932864	2485.200626
551.291237	2487.753970
551.649555	2482.312045
552.007817	2485.235914
552.366022	2483.932776
552.724173	2486.909577
553.082267	2485.470328
553.440305	2485.556027
553.798288	2484.603249
554.156215	2485.762715
554.514086	2482.649802
554.871902	2481.429843
555.229661	2487.360760
555.587365	2482.168372
555.945014	2485.921511
556.302606	2484.678867
556.660143	2485.505616
557.017625	2483.416057
557.375050	2485.387149
557.732421	2487.166676
558.089735	2483.332878
558.446994	2485.883702
558.804197	2484.489823
559.161345	2486.559217
559.518437	2484.935965
559.875474	2485.641727
560.232455	2484.991418
560.589381	2486.695328
560.946251	2485.039309
561.303065	2484.320945
561.659825	2484.560399
562.016528	2485.939155
562.373177	2483.375728
562.729770	2484.373877
563.086307	2485.263640
563.442789	2482.927066
563.799216	2485.621562
564.155587	2484.976295
564.511904	2482.964874
564.868164	2485.188023
565.224370	2485.472848
565.580520	2488.003508
565.936615	2487.338075
566.292654	2484.973774
566.648638	2486.917139
567.004567	2485.177941
567.360441	2484.885554
567.716260	2487.383446
568.072023	2484.608290
568.427732	2485.671974
568.783385	2484.439412
569.138982	2484.361274
569.494525	2486.213898
569.850013	2484.026037
570.205445	2487.610297
570.560823	2483.554689
570.916145	2484.003352
571.271412	2483.917652
571.626625	2487.559886
571.981782	2487.879999
572.336884	2484.716675
572.691931	2480.978660
573.046923	2485.130050
573.401860	2478.722743
573.756743	2482.412868
574.111570	2487.935452
574.466342	2486.380256
574.821059	2481.394555
575.175722	2486.859166
575.530330	2484.262971
575.884882	2486.745740
576.239380	2487.189361
576.593823	2486.534011
576.948211	2488.545432
577.302544	2486.496203
577.656823	2483.448825
578.011047	2484.817498
578.365216	2487.393528
578.719330	2485.281284
579.073389	2485.094762
579.427394	2486.440750
579.781344	2483.307673
580.135239	2485.528301
580.489080	2485.694659
580.842866	2486.375215
581.196597	2483.993270
581.550273	2485.614001
581.903895	2484.141984
582.257463	2484.562920
582.610975	2487.012921
582.964434	2486.339927
583.317837	2484.457056
583.671186	2485.689618
584.024481	2483.481593
584.377721	2483.421099
584.730906	2484.482262
585.084037	2486.481079
585.437113	2485.349340
585.790135	2485.931593
586.143103	2486.730616
586.496016	2484.888074
586.848874	2490.980309
587.201679	2486.029896
587.554428	2484.071407
587.907124	2484.623414
588.259765	2487.083497
588.612352	2484.736840
588.964884	2484.126860
589.317362	2487.063332
589.669786	2483.186685
590.022155	2484.250368
590.374470	2483.239617
590.726731	2482.420430
591.078937	2479.214256
591.431090	2487.897643
591.783188	2485.203147
592.135232	2486.657519
592.487222	2487.302787
592.839157	2487.154073
593.191038	2484.953609
593.542866	2483.516881
593.894639	2486.082828
594.246358	2484.948568
594.598022	2486.344968
594.949633	2485.324134
595.301190	2486.886892
595.652692	2487.819505
596.004141	2484.310862
596.355535	2485.939155
596.706876	2486.128198
597.058162	2485.853455
597.409395	2488.689104
597.760573	2486.697849
598.111698	2485.639206
598.462768	2486.236583
598.813785	2486.478558
599.164748	2486.029896
599.515657	2485.102323
599.866511	2488.139619
600.217312	2485.606439
600.568060	2487.325472
600.918753	2487.759012
601.269392	2487.038127
601.619978	2485.044350
601.970510	2484.875472
602.320988	2484.754484
602.671412	2486.455873
603.021783	2486.198774
603.372100	2487.509474
603.722363	2485.671974
604.072572	2483.801706
604.422728	2487.388487
604.772830	2489.094917
605.122878	2484.913280
605.472872	2485.556027
605.822813	2487.428816
606.172701	2487.005359
606.522534	2484.121819
606.872314	2486.929742
607.222041	2485.747591
607.571714	2482.548979
607.921333	2480.918166
608.270899	2483.116109
608.620411	2481.253403
608.969870	2483.574854
609.319276	2485.669453
609.668627	2483.161479
610.017926	2487.572489
610.367171	2483.942858
610.716362	2483.612662
611.065500	2483.552169
611.414585	2485.881182
611.763616	2487.035606
612.112594	2487.900164
612.461518	2486.942345
612.810389	2484.691469
613.159207	2485.346819
613.507971	2485.361943
613.856682	2484.850266
614.205340	2487.201964
614.553945	2486.685246
614.902496	2488.316059
615.250994	2484.557879
615.599439	2485.397231
615.947830	2486.665081
616.296169	2484.482262
616.644454	2485.777838
616.992686	2484.918321
617.340864	2483.189206
617.688990	2485.545945
618.037063	2486.017293
618.385082	2486.541573
618.733048	2485.160297
619.080961	2485.210708
619.428821	2484.971253
619.776628	2482.710296
620.124382	2485.311531
620.472083	2488.752119
620.819731	2486.622231
621.167326	2483.476551
621.514868	2485.281284
621.862357	2484.774648
622.209793	2486.496202
622.557176	2486.687766
622.904506	2486.249186
623.251783	2485.755153
623.599007	2486.783548
623.946179	2487.496872
624.293297	2488.215236
624.640363	2485.125009
624.987376	2483.355564
625.334336	2480.681232
625.681243	2484.547797
626.028097	2480.187198
626.374899	2488.235401
626.721647	2485.979484
627.068343	2486.042499
627.414987	2484.084010
627.761577	2484.764566
628.108115	2486.372694
628.454600	2484.154587
628.801032	2484.855307
629.147412	2483.506798
629.493739	2489.616677
629.840014	2485.435040
630.186236	2485.878661
630.532405	2486.566779
630.878521	2485.319093
631.224585	2484.764566
631.570597	2487.272540
631.916556	2483.605101
632.262462	2486.624752
632.608316	2485.079638
632.954117	2485.810606
633.299866	2486.334886
633.645562	2489.036944
633.991206	2485.387149
634.336797	2486.523929
634.682336	2484.731799
635.027823	2484.600729
635.373257	2485.515698
635.718639	2486.264309
636.063968	2483.947899
636.409245	2485.319093
636.754470	2483.400934
637.099642	2485.709782
637.444762	2484.532673
637.789829	2486.143322
638.134845	2484.517550
638.479808	2484.114257
638.824719	2484.552838
639.169577	2487.199443
639.514383	2486.665081
639.859137	2484.139463
640.203839	2486.034937
640.548489	2484.111737
640.893086	2485.876141
641.237632	2483.771459
641.582125	2487.391007
641.926566	2484.560399
642.270955	2481.528145
642.615292	2482.178454
642.959576	2482.319607
643.303809	2481.669298
643.647990	2483.204329
643.992118	2485.606439
644.336195	2488.011069
644.680219	2486.450832
645.024192	2486.377735
645.368112	2484.386480
645.711981	2488.195071
646.055797	2482.158290
646.399562	2486.697849
646.743274	2483.141315
647.086935	2483.731130
647.430544	2485.414875
647.774101	2487.779176
648.117606	2484.504947
648.461059	2486.576861
648.804460	2489.135247
649.147810	2483.264823
649.491108	2486.145842
649.834354	2485.480410
650.177548	2488.106851
650.520690	2485.543424
650.863781	2486.927221
651.206820	2483.340440
651.549807	2483.353043
651.892742	2486.367653
652.235626	2486.115595
652.578458	2485.606439
652.921238	2486.317242
653.263967	2484.739360
653.606644	2484.628455
653.949269	2486.773466
654.291843	2484.353712
654.634365	2485.747591
654.976836	2482.538897
655.319255	2485.157776
655.661622	2486.944865
656.003938	2484.141984
656.346203	2486.644917
656.688416	2482.919504
657.030577	2487.741368
657.372687	2483.277426
657.714746	2486.692808
658.056753	2483.224494
658.398708	2482.894298
658.740612	2486.138281
659.082465	2483.844556
659.424266	2483.448825
659.766016	2479.988073
660.107715	2486.367653
660.449362	2478.206025
660.790958	2482.949751
661.132503	2483.610142
661.473996	2486.571820
661.815438	2485.366984
662.156829	2484.497385
662.498168	2486.811275
662.839456	2482.972436
663.180693	2485.608959
663.521879	2486.559217
663.863013	2485.545945
664.204097	2483.169041
664.545129	2483.559730
664.886110	2486.039978
665.227040	2487.892602
665.567918	2487.511995
665.908746	2485.389669
666.249522	2483.952940
666.590248	2486.972592
666.930922	2484.699031
667.271545	2485.117447
667.612118	2483.663074
667.952639	2485.813126
668.293109	2484.600729
668.633528	2483.383290
668.973896	2483.169041
669.314213	2485.976964
669.654480	2485.747591
669.994695	2482.896819
670.334859	2487.375884
670.674973	2484.837663
671.015035	2484.764566
671.355047	2483.698362
671.695008	2483.287508
672.034918	2483.988228
672.374777	2484.204998
672.714585	2486.236583
673.054342	2486.710452
673.394049	2482.949751
673.733705	2484.484782
674.073310	2482.511170
674.412864	2485.470328
674.752368	2486.271871
675.091820	2482.826242
675.431223	2485.298928
675.770574	2484.565441
676.109875	2482.392703
676.449125	2484.625934
676.788324	2479.219297
677.127473	2485.258599
677.466571	2479.088227
677.805619	2488.497541
678.144616	2484.454535
678.483562	2482.916983
678.822458	2483.264823
679.161303	2484.545276
679.500098	2484.300780
679.838842	2485.266161
680.177535	2482.455718
680.516179	2483.534525
680.854771	2485.742550
681.193314	2482.806078
681.531805	2485.828250
681.870247	2483.655512
682.208638	2482.145687
682.546978	2487.141470
682.885268	2483.272385
683.223508	2485.568630
683.561697	2485.046871
683.899836	2486.899495
684.237925	2484.076449
684.575963	2484.782210
684.913951	2483.552169
685.251889	2486.067704
685.589776	2485.301449
685.927614	2484.106696
686.265401	2481.875985
686.603137	2482.435553
686.940824	2483.718527
687.278460	2484.643578
687.616046	2481.344143
687.953582	2483.852117
688.291068	2483.169041
688.628504	2483.521922
688.965889	2482.294401
689.303224	2483.857158
689.640510	2483.468990
689.977745	2484.484782
690.314930	2483.095944
690.652065	2482.067549
690.989150	2483.960502
691.326185	2485.694659
691.663170	2486.468476
692.000105	2482.609473
692.336990	2484.300780
692.673825	2484.714155
693.010610	2486.685246
693.347345	2481.518063
693.684030	2481.485296
694.020665	2482.155769
694.357251	2479.667960
694.693786	2484.457056
695.030272	2483.083341
695.366707	2481.500419
695.703093	2483.809267
696.039429	2484.184833
696.375716	2484.890595
696.711952	2485.805564
697.048139	2483.960502
697.384276	2483.829432
697.720363	2484.618373
698.056400	2483.595018
698.392388	2482.874133
698.728326	2482.654843
699.064214	2483.630307
699.400053	2486.150883
699.735842	2485.240955
700.071581	2485.818167
700.407270	2485.976964
700.742910	2483.423619
701.078501	2482.080152
701.414042	2483.884885
701.749533	2484.043681
702.084974	2484.767087
702.420366	2483.090903
702.755709	2484.328506
703.091002	2482.982518
703.426246	2484.494864
703.761440	2483.864720
704.096584	2483.322796
704.431679	2484.000831
704.766725	2482.669967
705.101721	2483.436222
705.436668	2483.738691
705.771565	2483.779021
706.106413	2484.711634
706.441212	2481.911273
706.775961	2483.191726
707.110661	2483.857158
707.445311	2484.315903
707.779913	2483.824391
708.114465	2482.246510
708.448967	2484.908239
708.783421	2482.818681
709.117825	2483.554689
709.452180	2484.300780
709.786485	2486.002169
710.120742	2482.024699
710.454949	2480.288022
710.789107	2483.572333
711.123216	2480.852631
711.457275	2484.751963
711.791286	2482.702734
712.125247	2482.097796
712.459159	2480.472024
712.793023	2486.680205
713.126837	2483.050574
713.460602	2483.191726
713.794318	2482.221304
714.127985	2485.926552
714.461602	2484.273054
714.795171	2485.026706
715.128691	2483.597539
715.462162	2482.538897
715.795584	2485.225832
716.128957	2484.373877
716.462281	2481.187867
716.795556	2485.422437
717.128782	2480.804740
717.461960	2482.543938
717.795088	2484.457056
718.128167	2483.579895
718.461198	2484.837663
718.794180	2484.020996
719.127113	2483.037971
719.459997	2484.164669
719.792833	2482.531335
720.125619	2481.573516
720.458357	2485.006542
720.791046	2483.557210
721.123686	2482.967395
721.456278	2482.105357
721.788821	2482.871613
722.121315	2485.477889
722.453761	2482.667446
722.786158	2483.741212
723.118506	2482.216263
723.450805	2482.380100
723.783056	2483.161479
724.115259	2483.705924
724.447412	2486.962509
724.779518	2484.820019
725.111574	2481.051756
725.443582	2483.632827
725.775542	2483.514360
726.107453	2482.261633
726.439315	2483.920173
726.771129	2488.457211
727.102895	2479.826756
727.434612	2480.325830
727.766281	2476.597897
728.097901	2485.150214
728.429473	2483.279946
728.760996	2484.262971
729.092471	2483.045533
729.423897	2482.712817
729.755276	2482.362456
730.086606	2482.170893
730.417887	2484.825060
730.749120	2484.013434
731.080305	2482.506129
731.411442	2481.344143
731.742530	2484.114257
732.073570	2484.366315
732.404562	2482.125522
732.735506	2482.412868
733.066401	2484.078969
733.397249	2482.813640
733.728048	2482.869092
734.058798	2483.214411
734.389501	2483.418578
734.720156	2485.742550
735.050762	2484.842704
735.381320	2481.936479
735.711831	2483.630307
736.042293	2482.780872
736.372707	2481.399596
736.703073	2482.634679
737.033391	2482.264154
737.363661	2483.678197
737.693883	2484.719196
738.024056	2484.046202
738.354182	2483.491675
738.684260	2480.613176
739.014290	2481.185347
739.344272	2485.435040
739.674207	2482.400265
740.004093	2485.820688
740.333931	2481.568475
740.663722	2482.649802
740.993464	2482.725419
741.323159	2485.598877
741.652806	2485.727427
741.982405	2482.974957
742.311956	2482.007055
742.641460	2485.808085
742.970915	2482.017137
743.300323	2480.746767
743.629683	2477.769965
743.958996	2481.460090
744.288260	2475.713174
744.617477	2482.990080
744.946647	2481.767600
745.275768	2481.767600
745.604842	2486.080307
745.933869	2482.024699
746.262847	2482.488485
746.591778	2481.626448
746.920662	2482.175934
747.249498	2483.587457
747.578286	2481.966726
747.907027	2483.083341
748.235720	2481.371870
748.564365	2480.179637
748.892963	2484.232724
749.221514	2483.405975
749.550017	2483.537045
749.878473	2484.905718
750.206881	2482.904380
750.535242	2483.252220
750.863555	2483.239617
751.191821	2483.098465
751.520039	2483.295070
751.848210	2483.804226
752.176334	2482.213742
752.504411	2482.319607
752.832440	2484.033599
753.160421	2482.516212
753.488356	2485.041830
753.816243	2480.068731
754.144082	2484.930924
754.471875	2481.150059
754.799620	2483.189206
755.127318	2482.289360
755.454969	2482.957313
755.782572	2485.019144
756.110129	2479.168885
756.437638	2483.753815
756.765100	2481.870944
757.092515	2483.733650
757.419882	2482.927066
757.747203	2482.755666
758.074477	2480.144349
758.401703	2483.290029
758.728882	2482.922024
759.056014	2479.617548
759.383099	2483.274905
759.710138	2480.149390
760.037129	2480.340954
760.364073	2480.167034
760.690970	2477.656539
761.017820	2481.959164
761.344623	2483.610142
761.671379	2482.521253
761.998088	2485.429998
762.324751	2481.991932
762.651366	2481.006386
762.977935	2481.392034
763.304456	2480.504791
763.630931	2483.574854
763.957359	2483.562251
764.283740	2481.908752
764.610074	2482.738022
764.936362	2483.975626
765.262602	2481.417240
765.588796	2480.494709
765.914943	2480.590491
766.241044	2481.323979
766.567097	2482.314565
766.893104	2483.287508
767.219064	2481.036633
767.544978	2481.208032
767.870845	2480.098978
768.196665	2482.455718
768.522438	2483.947899
768.848165	2481.971767
769.173846	2480.260295
769.499479	2481.412199
769.825066	2482.075111
770.150607	2481.371870
770.476101	2479.239462
770.801548	2479.554534
771.126949	2481.606283
771.452303	2480.361118
771.777611	2478.190902
772.102872	2481.870944
772.428087	2483.199288
772.753256	2483.504278
773.078378	2483.068218
773.403453	2481.823053
773.728482	2483.902529
774.053465	2482.395224
774.378401	2480.106540
774.703291	2481.147538
775.028135	2482.191057
775.352932	2483.164000
775.677683	2479.887250
776.002388	2478.833649
776.327046	2479.579739
776.651658	2479.592342
776.976224	2477.442290
777.300743	2482.191057
777.625216	2480.973618
777.949643	2482.677528
778.274024	2483.698362
778.598359	2480.235089
778.922647	2482.654843
779.246889	2482.256592
779.571086	2480.640902
779.895236	2481.694503
780.219339	2481.586119
780.543397	2480.046046
780.867409	2479.587301
781.191374	2483.184164
781.515294	2478.339616
781.839167	2483.118629
782.162995	2481.954123
782.486776	2482.911942
782.810511	2482.198619
783.134201	2480.923207
783.457844	2479.834318
783.781441	2480.547641
784.104993	2482.571664
784.428498	2481.664257
784.751958	2479.809112
785.075372	2479.070583
785.398739	2478.871457
785.722061	2480.991263
786.045337	2481.520584
786.368568	2482.748105
786.691752	2480.340954
787.014891	2483.229535
787.337983	2480.731643
787.661030	2482.435553
787.984031	2480.580408
788.306987	2481.467652
788.629897	2479.650316
788.952760	2483.920173
789.275579	2481.528145
789.598351	2480.943372
789.921078	2480.638382
790.243759	2481.964205
790.566395	2481.853300
790.888984	2481.182826
791.211529	2479.214256
791.534027	2478.644605
791.856480	2481.989411
792.178888	2478.722743
792.501249	2473.956332
792.823566	2479.463793
793.145836	2476.003041
793.468062	2482.092755
793.790241	2482.233907
794.112375	2480.650985
794.434464	2478.841210
794.756507	2480.048567
795.078505	2478.420274
795.400457	2480.892960
795.722364	2481.631489
796.044226	2483.663074
796.366042	2480.101499
796.687812	2481.157621
797.009538	2478.760552
797.331218	2482.503609
797.652852	2484.121819
797.974442	2482.324648
798.295986	2481.596201
798.617484	2481.303814
798.938938	2482.606952
799.260346	2478.732826
799.581709	2480.792137
799.903026	2482.979998
800.224299	2479.836838
800.545526	2482.606952
800.866708	2481.863382
801.187845	2479.234420
801.508936	2481.336582
801.829983	2480.557723
802.150984	2480.477065
802.471940	2483.232055
802.792851	2479.068062
803.113717	2481.805409
803.434538	2480.126705
803.755314	2481.518063
804.076045	2482.589308
804.396731	2479.746098
804.717372	2480.071252
805.037967	2478.926910
805.358518	2480.736684
805.679024	2481.220635
805.999485	2481.765080
806.319901	2481.235758
806.640272	2479.131077
806.960598	2481.654174
807.280879	2477.661580
807.601115	2481.644092
807.921306	2481.223156
808.241453	2478.097640
808.561554	2476.260140
808.881611	2479.304997
809.201623	2476.791981
809.521590	2482.163331
809.841513	2479.841879
810.161390	2483.597539
810.481223	2479.461272
810.801011	2482.450677
811.120755	2480.542600
811.440453	2483.113588
811.760107	2481.155100
812.079716	2480.078814
812.399281	2482.548979
812.718801	2482.123002
813.038276	2480.257775
813.357707	2482.501088
813.677093	2481.671818
813.996434	2480.978660
814.315731	2480.892960
814.634983	2482.422950
814.954191	2479.070583
815.273354	2479.055459
815.592473	2480.570326
815.911547	2482.150728
816.230577	2481.200470
816.549562	2481.013948
816.868502	2480.275419
817.187399	2477.081848
817.506250	2481.215594
817.825058	2477.170068
818.143821	2481.845738
818.462539	2481.041674
818.781213	2479.184009
819.099843	2480.978660
819.418429	2482.405306
819.736970	2479.189050
820.055466	2478.793319
820.373919	2479.241982
820.692327	2482.372539
821.010691	2479.546972
821.329011	2483.726088
821.647286	2477.722074
821.965517	2480.497229
822.283704	2480.189719
822.601847	2479.761221
822.919945	2481.558392
823.237999	2482.191057
823.556010	2480.156952
823.873976	2481.684421
824.191897	2478.538741
824.509775	2474.934316
824.827609	2479.446149
825.145398	2474.853658
825.463144	2480.940851
825.780845	2481.152579
826.098502	2481.074442
826.416116	2480.371201
826.733685	2477.802733
827.051210	2480.371201
827.368692	2478.541262
827.686129	2481.707106
828.003522	2479.892291
828.320872	2480.522435
828.638177	2481.565954
828.955439	2481.001345
829.272656	2481.051756
829.589830	2482.145687
829.906960	2481.192909
830.224046	2479.582260
830.541088	2481.475213
830.858086	2480.671149
831.175041	2480.179637
831.491952	2481.507981
831.808819	2481.235758
832.125642	2479.057980
832.442421	2481.334061
832.759157	2480.784575
833.075849	2481.770121
833.392497	2478.296766
833.709101	2480.351036
834.025662	2479.196612
834.342179	2481.008907
834.658653	2477.825418
834.975083	2482.445635
835.291469	2485.026706
835.607811	2481.049236
835.924110	2479.420943
836.240366	2481.139977
836.556578	2479.743577
836.872746	2478.160655
837.188871	2481.389514
837.504952	2480.782055
837.820990	2479.554534
838.136984	2481.742394
838.452935	2479.902373
838.768842	2478.538741
839.084706	2480.466982
839.400526	2481.041674
839.716303	2479.458752
840.032037	2476.648308
840.347727	2473.379120
840.663373	2476.572691
840.978977	2475.934985
841.294537	2481.230717
841.610054	2476.683597
841.925527	2478.556385
842.240957	2478.266519
842.556344	2480.219966
842.871687	2477.485140
843.186987	2479.607466
843.502244	2481.588639
843.817458	2478.533700
844.132629	2481.263485
844.447756	2477.948926
844.762840	2479.398258
845.077881	2480.288022
845.392879	2479.105871
845.707833	2480.330871
846.022745	2480.499750
846.337613	2480.555203
846.652438	2477.850624
846.967221	2482.816160
847.281960	2479.733495
847.596656	2478.803402
847.911309	2479.811632
848.225919	2480.466983
848.540485	2480.414050
848.855009	2479.365490
849.169490	2477.490181
849.483928	2479.615028
849.798323	2478.672332
850.112675	2480.005717
850.426984	2479.640233
850.741251	2479.678042
851.055474	2477.699389
851.369654	2479.788947
851.683792	2481.495378
851.997887	2477.437249
852.311938	2479.559575
852.625947	2480.267857
852.939914	2478.911787
853.253837	2478.450521
853.567718	2479.572178
853.881555	2479.262147
854.195350	2482.168372
854.509103	2479.557054
854.822812	2480.691314
855.136479	2479.065542
855.450103	2476.187043
855.763685	2475.229224
856.077224	2477.109574
856.390720	2478.425315
856.704173	2475.400623
857.017584	2477.953967
857.330953	2479.088227
857.644278	2478.148052
857.957561	2479.907414
858.270802	2478.778196
858.584000	2481.419761
858.897155	2478.891622
859.210268	2480.416571
859.523339	2481.127374
859.836367	2479.746097
860.149352	2477.701910
860.462295	2477.651498
860.775195	2478.505974
861.088054	2479.771303
861.400869	2480.348515
861.713642	2479.312558
862.026373	2481.283649
862.339062	2479.428505
862.651708	2480.840028
862.964312	2479.793988
863.276873	2479.874647
863.589392	2477.696868
863.901869	2478.284163
864.214303	2476.489512
864.526696	2477.681745
864.839045	2480.275419
865.151353	2477.659060
865.463619	2481.170223
865.775842	2479.277270
866.088023	2480.882878
866.400162	2478.291725
866.712258	2479.287353
867.024313	2482.468321
867.336325	2479.539410
867.648296	2477.439770
867.960224	2478.445480
868.272110	2480.812302
868.583954	2478.700058
868.895755	2479.673001
869.207515	2477.028916
869.519233	2479.390696
869.830909	2479.524287
870.142542	2479.867085
870.454134	2477.200315
870.765684	2480.411530
871.077191	2479.776344
871.388657	2477.263329
871.700081	2474.939357
872.011463	2477.601087
872.322803	2472.373410
872.634101	2480.741725
872.945357	2477.291056
873.256571	2479.819194
873.567744	2479.380614
873.878874	2477.699389
874.189963	2477.351549
874.501010	2479.131077
874.812015	2479.541931
875.122979	2475.445993
875.433900	2477.631333
875.744780	2479.126036
876.055618	2475.435911
876.366415	2481.346664
876.677169	2477.830459
876.987882	2478.024543
877.298554	2479.710809
877.609183	2478.074955
877.919771	2480.630820
878.230317	2476.615541
878.540822	2477.865747
878.851285	2479.171406
879.161707	2477.520428
879.472087	2478.579070
879.782425	2476.544965
880.092722	2481.921355
880.402977	2479.088227
880.713191	2478.523618
881.023363	2477.588484
881.333494	2477.744759
881.643583	2477.477578
881.953631	2479.531848
882.263637	2479.060501
882.573602	2477.835500
882.883526	2478.206025
883.193408	2480.414050
883.503248	2478.730305
883.813048	2480.880357
884.122806	2478.072434
884.432522	2479.700727
884.742197	2478.659729
885.051831	2479.678042
885.361424	2477.840541
885.670975	2480.497229
885.980485	2478.647126
886.289954	2479.161324
886.599382	2478.664770
886.908768	2475.085551
887.218113	2472.398616
887.527417	2478.616879
887.836680	2472.063379
888.145901	2481.762559
888.455082	2478.994966
888.764221	2479.499081
889.073319	2476.305510
889.382376	2476.991107
889.691392	2477.732157
890.000366	2477.906076
890.309300	2478.505974
890.618193	2480.870275
890.927044	2478.591673
891.235855	2478.742908
891.544625	2478.768114
891.853353	2482.453197
892.162041	2477.959008
892.470687	2479.080665
892.779293	2476.045891
893.087858	2478.977322
893.396381	2476.681076
893.704864	2480.320789
894.013306	2479.181488
894.321707	2478.737867
894.630068	2476.454224
894.938387	2479.892291
895.246665	2476.744090
895.554903	2478.347177
895.863100	2476.615541
896.171256	2481.364308
896.479371	2479.862044
896.787446	2479.700727
897.095480	2477.633854
897.403473	2481.697024
897.711425	2476.285345
898.019336	2479.405820
898.327207	2475.055304
898.635038	2480.590491
898.942827	2477.623772
899.250576	2480.555203
899.558284	2478.468165
899.865952	2478.029585
900.173579	2477.601087
900.481165	2477.691827
900.788711	2478.349698
901.096216	2477.832980
901.403681	2476.305510
901.711105	2479.032774
902.018489	2478.016982
902.325832	2471.806280
902.633135	2474.047073
902.940397	2475.889615
903.247619	2471.871815
903.554800	2479.809112
903.861941	2478.679893
904.169041	2480.943372
904.476101	2479.488999
904.783121	2479.115953
905.090100	2477.049080
905.397039	2480.600573
905.703938	2478.581591
906.010796	2477.918679
906.317614	2476.844913
906.624391	2478.137969
906.931129	2476.955819
907.237826	2479.914976
907.544483	2475.471199
907.851099	2477.298617
908.157675	2476.239975
908.464211	2479.569657
908.770707	2478.742908
909.077163	2477.724595
909.383578	2476.607979
909.689954	2478.634523
909.996289	2477.298617
910.302584	2478.301807
910.608839	2478.127887
910.915054	2475.602269
911.221229	2476.670994
911.527363	2475.647639
911.833458	2478.707620
912.139513	2476.948257
912.445527	2477.591004
912.751502	2474.503298
913.057436	2480.358598
913.363331	2481.553351
913.669186	2476.048411
913.975000	2477.107053
914.280775	2477.671663
914.586510	2477.873309
914.892205	2477.313741
915.197859	2476.199646
915.503475	2476.918010
915.809050	2477.240644
916.114585	2476.429018
916.420081	2478.974801
916.725536	2476.761734
917.030952	2481.366828
917.336328	2478.188381
917.641665	2476.348360
917.946961	2476.071096
918.252218	2474.536065
918.557435	2472.247381
918.862612	2476.345839
919.167750	2480.038484
919.472848	2478.150572
919.777906	2477.109574
920.082925	2476.078658
920.387904	2476.434059
920.692843	2477.701910
920.997743	2477.112095
921.302603	2476.981025
921.607423	2478.513535
921.912204	2478.286683
922.216946	2476.015644
922.521647	2480.361118
922.826310	2475.335088
923.130932	2478.009420
923.435516	2478.382465
923.740059	2479.055459
924.044564	2477.409523
924.349028	2477.545634
924.653454	2476.761734
924.957840	2478.596714
925.262186	2476.827269
925.566493	2475.602269
925.870761	2475.451034
926.174989	2477.969091
926.479178	2476.847434
926.783328	2478.284163
927.087438	2476.363483
927.391509	2477.079327
927.695541	2477.706951
927.999533	2474.074799
928.303486	2476.492033
928.607400	2477.323823
928.911275	2476.151755
929.215110	2477.502784
929.518906	2477.291056
929.822663	2477.280973
930.126381	2477.633854
930.430060	2477.172588
930.733699	2477.863227
931.037299	2477.328864
931.340861	2478.079996
931.644383	2476.227372
931.947866	2476.877681
932.251309	2478.397589
932.554714	2476.744090
932.858080	2473.772330
933.161407	2472.499439
933.464694	2474.626806
933.767943	2470.566156
934.071153	2477.333905
934.374323	2477.553196
934.677455	2476.093782
934.980548	2475.919862
935.283602	2477.555716
935.586617	2477.959008
935.889593	2476.928092
936.192530	2475.758545
936.495428	2478.523618
936.798287	2475.438432
937.101108	2474.094964
937.403890	2475.330047
937.706632	2476.912969
938.009336	2477.706951
938.312002	2476.736529
938.614628	2474.599079
938.917216	2477.843062
939.219765	2478.329533
939.522275	2477.268370
939.824747	2475.710654
940.127179	2476.139152
940.429573	2475.377938
940.731929	2476.108905
941.034246	2479.247023
941.336524	2477.512866
941.638763	2478.899184
941.940964	2476.055973
942.243126	2478.589153
942.545250	2476.597897
942.847335	2474.745273
943.149381	2476.492033
943.451389	2475.985397
943.753359	2476.804584
944.055290	2475.798874
944.357182	2476.479430
944.659036	2476.171919
944.960851	2478.064873
945.262628	2476.325675
945.564367	2476.915490
945.866067	2476.723926
946.167729	2477.452372
946.469352	2475.050263
946.770937	2478.763073
947.072484	2475.060345
947.373992	2476.849955
947.675462	2477.059162
947.976893	2475.113277
948.278286	2470.591362
948.579641	2475.030098
948.880958	2473.580766
949.182236	2477.003710
949.483476	2478.831128
949.784678	2476.038329
950.085841	2478.042187
950.386967	2476.000520
950.688054	2477.598566
950.989103	2475.443473
951.290114	2474.059676
951.591087	2475.793833
951.892021	2476.676035
952.192917	2475.188894
952.493776	2477.328864
952.794596	2476.681076
953.095378	2475.836683
953.396122	2476.645788
953.696828	2476.595376
953.997496	2477.575881
954.298126	2476.355922
954.598718	2476.822228
954.899272	2478.102681
955.199788	2477.507825
955.500266	2477.696868
955.800706	2475.594707
956.101108	2476.184522
956.401472	2475.647639
956.701798	2478.453042
957.002087	2474.326857
957.302337	2474.946919
957.602550	2478.415233
957.902724	2476.436580
958.202861	2475.992958
958.502960	2477.260809
958.803022	2476.930613
959.103045	2474.417598
959.403031	2475.796353
959.702979	2477.522949
960.002889	2476.479430
960.302762	2475.231744
960.602596	2480.136787
960.902393	2474.951960
961.202153	2478.528659
961.501875	2477.512866
961.801559	2477.648977
962.101205	2475.284676
962.400814	2475.017495
962.700385	2475.526652
962.999918	2476.529841
963.299414	2473.537917
963.598873	2471.518934
963.898293	2472.645632
964.197677	2477.810294
964.497022	2472.214614
964.796331	2476.529841
965.095601	2474.677217
965.394835	2475.292238
965.694030	2472.123873
965.993189	2474.105046
966.292309	2475.083030
966.591393	2476.653350
966.890439	2476.366004
967.189447	2477.739718
967.488419	2474.238637
967.787353	2477.313741
968.086249	2476.030767
968.385108	2476.633185
968.683930	2473.837865
968.982714	2477.107053
969.281462	2476.113946
969.580172	2477.585963
969.878844	2476.292907
970.177480	2475.080510
970.476078	2478.102681
970.774639	2478.511015
971.073162	2475.831642
971.371649	2474.911631
971.670098	2475.481281
971.968510	2476.055973
972.266885	2474.188225
972.565223	2477.497743
972.863524	2474.437763
973.161788	2474.175623
973.460014	2476.055973
973.758204	2476.749132
974.056356	2476.063535
974.354471	2476.426498
974.652550	2473.825262
974.950591	2473.240488
975.248595	2477.659060
975.546563	2475.491364
975.844493	2476.355922
976.142386	2475.773668
976.440243	2474.689820
976.738062	2476.849955
977.035845	2475.783751
977.333590	2478.437918
977.631299	2474.571353
977.928971	2474.087402
978.226606	2470.987093
978.524204	2472.446507
978.821765	2471.418111
979.119290	2474.248719
979.416777	2477.066724
979.714228	2477.422126
980.011642	2473.890797
980.309020	2474.488174
980.606360	2475.783751
980.903664	2476.383648
981.200931	2475.836683
981.498162	2479.118474
981.795356	2476.358442
982.092513	2474.709985
982.389633	2477.369193
982.686717	2477.147383
982.983764	2473.628657
983.280775	2474.117649
983.577749	2475.493884
983.874686	2477.270891
984.171587	2476.063535
984.468451	2475.037660
984.765279	2474.939357
985.062070	2476.872640
985.358824	2474.725108
985.655543	2477.641416
985.952224	2473.414408
986.248869	2476.144193
986.545478	2473.820221
986.842050	2475.551858
987.138586	2474.616723
987.435086	2475.556899
987.731549	2476.716364
988.027975	2476.479430
988.324366	2476.073617
988.620719	2475.032619
988.917037	2474.873822
989.213318	2478.022023
989.509563	2477.517908
989.805772	2474.964563
990.101944	2473.482464
990.398080	2475.062866
990.694180	2474.999851
990.990244	2474.568832
991.286271	2473.525314
991.582262	2478.566467
991.878217	2476.688638
992.174136	2476.764255
992.470019	2473.800057
992.765865	2473.716877
993.061676	2467.987606
993.357450	2473.825262
993.653188	2472.302834
993.948890	2477.608648
994.244556	2473.689151
994.540186	2473.202680
994.835780	2475.234265
995.131337	2474.984728
995.426859	2473.394244
995.722345	2477.427167
996.017795	2473.139665
996.313208	2476.194605
996.608586	2473.404326
996.903928	2476.940695
997.199234	2475.226703
997.494504	2474.120170
997.789738	2475.261991
998.084936	2474.336939
998.380099	2476.020685
998.675225	2474.447845
998.970316	2475.350211
999.265371	2474.735191
999.560390	2474.989769
999.855373	2473.497587
1000.150320	2475.960191
1000.445232	2475.168730
1000.740108	2476.003041
1001.034948	2474.639409
1001.329752	2473.089254
1001.624521	2472.181846
1001.919254	2473.810139
1002.213951	2476.169399
1002.508613	2475.161168
1002.803239	2475.682928
1003.097829	2474.354583
1003.392384	2474.979687
1003.686903	2472.322998
1003.981386	2476.466827
1004.275834	2476.658391
1004.570246	2474.851137
1004.864623	2473.185036
1005.158964	2473.752166
1005.453270	2474.697382
1005.747540	2474.299131
1006.041775	2473.994141
1006.335974	2473.696713
1006.630138	2472.181846
1006.924266	2476.701241
1007.218359	2474.732670
1007.512416	2473.553040
1007.806438	2470.248564
1008.100425	2473.295941
1008.394376	2468.191773
1008.688292	2475.690489
1008.982172	2475.841724
1009.276017	2475.682928
1009.569827	2476.981025
1009.863602	2475.750983
1010.157341	2476.766776
1010.451045	2474.687300
1010.744714	2473.164871
1011.038347	2474.578915
1011.331945	2475.277115
1011.625508	2474.493215
1011.919036	2475.430870
1012.212528	2473.159830
1012.505986	2474.258802
1012.799408	2476.277784
1013.092795	2474.798205
1013.386147	2478.316930
1013.679464	2473.721919
1013.972745	2473.754686
1014.265992	2473.633698
1014.559204	2474.732670
1014.852380	2474.311734
1015.145521	2474.609162
1015.438628	2472.610344
1015.731699	2475.927423
1016.024736	2474.460448
1016.317737	2475.141003
1016.610703	2472.751497
1016.903635	2474.193267
1017.196531	2474.510859
1017.489393	2472.610344
1017.782219	2471.380303
1018.075011	2476.187043
1018.367768	2471.859212
1018.660490	2474.641929
1018.953177	2474.641929
1019.245829	2474.641929
