Dividing Wavelength (nm)	Counts (n)	Blue Motor Position (mm): 24.100000	Red Motor Position (mm): 0.000000	
326.493990	2134.424538
326.888308	2134.424538
327.282561	2134.424538
327.676750	2100.157295
328.070874	2099.149064
328.464933	2103.917996
328.858929	2108.339088
329.252859	2119.472476
329.646726	2129.890021
330.040528	2140.622637
330.434265	2161.233395
330.827938	2177.125632
331.221547	2195.465350
331.615091	2214.871272
332.008571	2233.853736
332.401986	2253.824267
332.795338	2273.827566
333.188625	2291.519495
333.581847	2312.309214
333.975006	2331.475681
334.368100	2347.330109
334.761129	2365.135465
335.154095	2383.815460
335.546996	2402.679458
335.939833	2426.907243
336.332606	2441.418205
336.725315	2451.455142
337.117960	2462.109621
337.510540	2469.333594
337.903056	2482.095275
338.295508	2487.426295
338.687896	2499.953563
339.080220	2505.463544
339.472480	2511.502846
339.864676	2517.189268
340.256807	2520.370236
340.648875	2524.801410
341.040879	2523.629342
341.432818	2526.379291
341.824694	2531.017153
342.216506	2528.514220
342.608253	2531.448171
342.999937	2531.627132
343.391557	2530.351720
343.783113	2528.529343
344.174605	2528.872142
344.566033	2525.524816
344.957397	2525.313087
345.348697	2521.754033
345.739934	2520.198837
346.131106	2519.324196
346.522215	2518.515091
346.913260	2515.167765
347.304241	2515.157683
347.695159	2512.110305
348.086012	2509.380520
348.476802	2508.004285
348.867528	2508.412619
349.258191	2502.927843
349.648789	2506.166785
350.039324	2500.225785
350.429796	2504.591424
350.820203	2500.180415
351.210548	2500.006495
351.600828	2499.202431
351.991045	2498.529437
352.381198	2494.322594
352.771288	2497.561535
353.161314	2497.828716
353.551276	2495.109014
353.941175	2497.911895
354.331010	2496.901144
354.720782	2497.634632
355.110490	2495.892913
355.500135	2497.039776
355.889717	2498.307626
356.279235	2496.260917
356.668689	2498.279900
357.058080	2496.717142
357.447408	2492.711945
357.836672	2493.465598
358.225873	2497.022132
358.615010	2494.246977
359.004084	2499.837616
359.393095	2499.482215
359.782043	2498.952894
360.170927	2501.526403
360.559748	2502.673265
360.948505	2501.080261
361.337199	2502.280055
361.725830	2502.529592
362.114398	2502.595127
362.502903	2503.192504
362.891344	2504.712412
363.279722	2503.638646
363.668037	2505.128307
364.056289	2504.190653
364.444478	2507.729543
364.832603	2505.624861
365.220665	2506.416322
365.608665	2507.709378
365.996601	2507.747187
366.384474	2505.524038
366.772284	2508.032012
367.160031	2509.493946
367.547715	2508.306755
367.935336	2508.155520
368.322893	2508.636950
368.710388	2508.558812
369.097820	2512.319513
369.485189	2511.386900
369.872495	2511.359173
370.259738	2509.771210
370.646918	2510.940758
371.034035	2512.102743
371.421090	2510.076200
371.808081	2512.138032
372.195010	2511.548217
372.581875	2513.037878
372.968678	2511.999400
373.355418	2511.943947
373.742096	2513.819256
374.128710	2515.026613
374.515262	2514.240193
374.901751	2514.250275
375.288177	2514.391427
375.674540	2511.631396
376.060841	2514.976201
376.447079	2517.766480
376.833254	2514.633403
377.219367	2509.461179
377.605417	2513.635254
377.991404	2510.361025
378.377329	2512.412774
378.763191	2511.777589
379.148991	2515.245903
379.534727	2518.084073
379.920402	2516.269257
380.306013	2518.013496
380.691563	2518.615914
381.077049	2518.235307
381.462474	2517.348064
381.847835	2519.077180
382.233134	2518.499968
382.618371	2517.690862
383.003545	2520.665143
383.388657	2517.983249
383.773706	2519.886285
384.158693	2516.975019
384.543618	2520.178672
384.928480	2519.001563
385.313280	2520.196316
385.698017	2517.108609
386.082692	2519.571213
386.467305	2520.070287
386.851856	2520.307221
387.236344	2520.433250
387.620770	2520.052643
388.005133	2520.153466
388.389435	2522.487520
388.773674	2523.052130
389.157851	2519.001563
389.541965	2523.001718
389.926018	2523.425175
390.310008	2523.720082
390.693936	2523.815864
391.077802	2525.960875
391.461606	2526.671678
391.845348	2522.016173
392.229027	2524.602284
392.612645	2521.897705
392.996200	2523.321831
393.379694	2526.049096
393.763125	2525.789476
394.146494	2524.861904
394.529801	2525.008097
394.913047	2525.048427
395.296230	2526.154960
395.679351	2523.470545
396.062410	2525.333252
396.445408	2525.313087
396.828343	2526.079343
397.211217	2521.650689
397.594028	2525.963396
397.976778	2522.336286
398.359466	2524.892151
398.742092	2523.677233
399.124656	2526.633869
399.507158	2527.352234
399.889598	2529.638397
400.271977	2526.732172
400.654294	2529.769467
401.036549	2526.429703
401.418742	2527.795855
401.800874	2527.180835
402.182944	2529.827440
402.564952	2528.327697
402.946898	2528.564631
403.328783	2529.948428
403.710606	2528.201668
404.092367	2530.709642
404.474067	2530.928932
404.855705	2528.743592
405.237282	2529.673685
405.618797	2530.465146
406.000250	2528.572193
406.381642	2530.641587
406.762972	2530.492873
407.144240	2530.863397
407.525447	2533.666279
407.906593	2532.842050
408.287677	2531.624612
408.668700	2531.100332
409.049661	2531.886752
409.430560	2533.469674
409.811399	2530.482790
410.192176	2529.472039
410.572891	2534.056968
410.953545	2533.943542
411.334138	2532.254756
411.714669	2530.860877
412.095139	2531.662420
412.475547	2534.185518
412.855894	2531.276772
413.236180	2535.128214
413.616405	2534.175436
413.996568	2533.688964
414.376670	2532.831968
414.756711	2534.419932
415.136691	2534.074613
415.516609	2534.588810
415.896466	2534.339273
416.276262	2537.873122
416.655997	2531.647297
417.035670	2531.919519
417.415283	2534.669469
417.794834	2532.670651
418.174324	2532.683254
418.553753	2534.561084
418.933121	2535.022349
419.312428	2533.464633
419.691674	2537.721887
420.070859	2538.629295
420.449983	2536.696013
420.829045	2539.244316
421.208047	2535.425642
421.586988	2537.205169
421.965867	2537.535365
422.344686	2538.873791
422.723444	2537.759696
423.102141	2538.198276
423.480777	2539.650129
423.859352	2539.135931
424.237866	2536.522093
424.616319	2538.561239
424.994712	2538.218441
425.373044	2539.062834
425.751314	2542.861344
426.129524	2539.466127
426.507673	2539.534182
426.885762	2538.808256
427.263789	2539.080478
427.641756	2541.406971
428.019662	2538.694830
428.397508	2539.201466
428.775292	2540.751621
429.153016	2539.249357
429.530679	2543.052908
429.908282	2543.055428
430.285824	2538.578883
430.663305	2540.418905
431.040726	2539.934954
431.418086	2539.564429
431.795385	2543.378062
432.172624	2540.807073
432.549802	2544.257743
432.926920	2542.616848
433.303977	2543.020140
433.680974	2542.490819
434.057910	2542.858823
434.434786	2544.378731
434.811601	2545.487785
435.188355	2542.309337
435.565050	2544.761859
435.941683	2543.763710
436.318257	2541.041487
436.694770	2539.793802
437.071222	2542.828576
437.447614	2540.595345
437.823946	2541.855633
438.200218	2545.747404
438.576429	2544.764379
438.952580	2542.599204
439.328670	2546.145655
439.704700	2545.296221
440.080670	2545.202960
440.456580	2545.102137
440.832429	2545.092054
441.208218	2545.253371
441.583947	2548.383928
441.959616	2546.112888
442.335224	2547.864689
442.710773	2546.072559
443.086261	2547.105995
443.461689	2549.387117
443.837057	2548.978784
444.212365	2548.625903
444.587612	2546.864020
444.962800	2549.440049
445.337927	2547.479041
445.712995	2548.083979
446.088002	2551.685883
446.462949	2548.767055
446.837837	2550.375183
447.212664	2550.760832
447.587431	2550.289484
447.962139	2552.570606
448.336786	2551.335523
448.711374	2552.331151
449.085901	2551.758980
449.460369	2552.114382
449.834776	2552.149670
450.209124	2554.435833
450.583412	2554.019938
450.957640	2554.481203
451.331808	2555.517160
451.705917	2553.253682
452.079965	2555.368446
452.453954	2555.968344
452.827883	2557.773077
453.201752	2557.853735
453.575562	2557.193344
453.949311	2561.248952
454.323001	2561.574107
454.696632	2559.199723
455.070202	2562.027811
455.443713	2567.613409
455.817164	2563.164591
456.190556	2566.529561
456.563888	2569.697926
456.937160	2571.764799
457.310373	2575.001220
457.683526	2579.354256
458.056619	2583.596387
458.429653	2584.710482
458.802628	2587.367170
459.175542	2593.020824
459.548398	2600.995930
459.921194	2608.091354
460.293930	2615.073352
460.666607	2630.577421
461.039224	2640.342136
461.411782	2648.571819
461.784280	2656.178920
462.156719	2659.110351
462.529099	2667.274500
462.901419	2665.414314
463.273680	2670.170643
463.645882	2677.986952
464.018024	2687.290401
464.390106	2700.082329
464.762130	2721.534959
465.134094	2756.301277
465.505999	2819.020792
465.877845	2892.999725
466.249631	2928.849891
466.621358	2920.370670
466.993026	2914.207859
467.364634	2914.520411
467.736184	2916.723395
468.107674	2923.597008
468.479105	2949.919393
468.850477	2953.002059
469.221790	2961.579582
469.593043	2960.054633
469.964238	2978.573312
470.335373	2998.080057
470.706449	3026.486958
471.077467	3054.631720
471.448425	3200.174873
471.819324	3331.869976
472.190164	3360.677650
472.560945	3271.696243
472.931667	3236.312384
473.302330	3246.697161
473.672934	3245.386461
474.043479	3316.348263
474.413965	3342.879856
474.784393	3368.183928
475.154761	3428.957558
475.525070	3475.661328
475.895321	3492.735716
476.265513	3557.464131
476.635645	3624.145994
477.005719	3675.810259
477.375734	3742.030856
477.745691	3833.064012
478.115588	3908.091505
478.485427	4010.820138
478.855207	4178.415818
479.224928	4428.721709
479.594591	4631.086228
479.964194	4651.628930
480.333739	4684.303168
480.703226	4756.895784
481.072653	4849.098487
481.442022	5007.655379
481.811333	5132.907887
482.180584	5157.385210
482.549777	5160.898894
482.918912	5186.465106
483.287988	5271.408548
483.657005	5348.248336
484.025964	5335.043033
484.394864	5458.947033
484.763706	5535.174320
485.132489	5525.361714
485.501213	5595.857210
485.869879	5689.347928
486.238487	5735.487089
486.607036	5837.726730
486.975527	5855.196849
487.343959	6004.140260
487.712333	6109.623883
488.080648	6163.445762
488.448905	6276.276868
488.817104	6326.282593
489.185244	6525.574528
489.553326	6690.591658
489.921350	7028.031373
490.289315	7621.927187
490.657222	7873.715178
491.025070	7947.373997
491.392861	7979.438256
491.760593	7894.240236
492.128267	7824.798342
492.495883	7744.303718
492.863440	7650.792834
493.230939	7553.609470
493.598380	7599.879701
493.965763	7620.253524
494.333088	7621.554142
494.700354	7674.939961
495.067563	7773.686083
495.434713	7755.810151
495.801805	7915.168586
496.168839	7942.481557
496.535815	7986.947055
496.902733	8044.224645
497.269593	8089.748785
497.636395	8215.812919
498.003139	8299.624622
498.369825	8271.482381
498.736453	8450.939896
499.103023	8463.368861
499.469535	8556.877224
499.835989	8613.237324
500.202385	8652.701997
500.568723	8612.720605
500.935003	8830.448040
501.301226	8765.049151
501.667390	9003.470522
502.033497	9146.906473
502.399546	9093.172814
502.765537	9080.426256
503.131470	9197.917908
503.497345	9396.756140
503.863163	9139.458168
504.228923	9445.335219
504.594625	9548.550323
504.960269	9393.794462
505.325856	9627.278023
505.691385	9507.502728
506.056856	9679.332977
506.422270	9755.116643
506.787625	9694.746305
507.152924	9852.882260
507.518164	9878.206497
507.883347	9845.335653
508.248472	9814.332557
508.613540	10062.372449
508.978550	10002.438171
509.343503	10010.304892
509.708398	10157.713272
510.073236	10294.232759
510.438016	10334.178862
510.802738	10319.304938
511.167403	10396.421988
511.532010	10336.891003
511.896561	10571.546632
512.261053	10669.992805
512.625488	10582.480895
512.989866	10591.691083
513.354186	10609.297312
513.718449	10545.889679
514.082655	10744.228836
514.446803	10681.474033
514.810894	10809.131172
515.174927	10704.454132
515.538904	10747.886193
515.902822	10909.621532
516.266684	10818.986627
516.630488	10783.171750
516.994235	10858.973060
517.357925	10937.748650
517.721558	11035.123578
518.085133	11066.081304
518.448651	11092.040725
518.812112	10986.995682
519.175516	11018.651608
519.538863	11145.718932
519.902152	11069.715976
520.265385	11239.295350
520.628560	11165.137456
520.991678	11160.025726
521.354739	11228.686242
521.717743	11166.974957
522.080690	11156.857361
522.443580	11301.256172
522.806413	11264.218814
523.169189	11304.177520
523.531908	11363.547189
523.894569	11197.763804
524.257174	11200.675070
524.619722	11326.093937
524.982213	11275.735330
525.344647	11333.116264
525.707025	11289.664038
526.069345	11386.986034
526.431608	11309.448047
526.793815	11424.898032
527.155964	11217.346166
527.518057	11275.049733
527.880093	11230.919473
528.242072	11299.592591
528.603995	11205.360823
528.965860	11129.690583
529.327669	11177.238746
529.689421	11130.789554
530.051117	11105.921542
530.412755	11209.179497
530.774337	11103.388363
531.135862	11088.595097
531.497331	11110.503951
531.858743	10964.073556
532.220098	11136.173507
532.581396	10997.980356
532.942638	10993.385345
533.303824	10955.193563
533.664953	10969.296191
534.026025	10890.588656
534.387040	10987.023408
534.747999	10986.675569
535.108902	11044.774867
535.469748	10807.974227
535.830537	10911.325442
536.191270	10889.033460
536.551947	10918.932543
536.912567	10910.864177
537.273131	10842.564104
537.633638	10820.723305
537.994089	10810.623353
538.354483	10762.878585
538.714821	10913.435165
539.075103	10919.587893
539.435328	10881.552388
539.795497	10707.614936
540.155609	10866.277692
540.515665	10946.537902
540.875665	10691.881495
541.235609	10757.184602
541.595496	10758.633933
541.955328	10908.494834
542.315102	10791.446804
542.674821	10747.661862
543.034483	10752.037584
543.394090	10749.728735
543.753640	10678.590493
544.113134	10898.898998
544.472571	10758.444890
544.831953	10886.651515
545.191278	10705.031345
545.550548	10736.657023
545.909761	10870.686181
546.268918	10846.249187
546.628019	10933.304873
546.987064	10787.449169
547.346053	10718.970135
547.704986	10808.687550
548.063863	10806.711418
548.422684	10795.646085
548.781449	10712.950997
549.140158	10817.890176
549.498811	10692.574653
549.857408	10550.106605
550.215949	10775.720924
550.574434	10631.856476
550.932864	10730.806764
551.291237	10789.790785
551.649555	10734.116282
552.007817	10751.362069
552.366022	10712.598117
552.724173	10706.001767
553.082267	10690.790085
553.440305	10821.799591
553.798288	10623.163006
554.156215	10774.195975
554.514086	10753.867523
554.871902	10602.209450
555.229661	10641.588423
555.587365	10618.878025
555.945014	10513.260811
556.302606	10635.932249
556.660143	10536.853411
557.017625	10693.121619
557.375050	10582.128014
557.732421	10716.615916
558.089735	10628.269695
558.446994	10631.745571
558.804197	10668.906436
559.161345	10668.472897
559.518437	10518.191060
559.875474	10609.498959
560.232455	10637.739502
560.589381	10589.714950
560.946251	10584.515000
561.303065	10691.011896
561.659825	10627.480754
562.016528	10556.539117
562.373177	10434.374315
562.729770	10548.017046
563.086307	10467.053595
563.442789	10558.895856
563.799216	10443.821438
564.155587	10487.903807
564.511904	10444.675913
564.868164	10432.453636
565.224370	10448.371079
565.580520	10369.920643
565.936615	10376.093536
566.292654	10246.803063
566.648638	10383.002437
567.004567	10333.644500
567.360441	10322.430453
567.716260	10234.865611
568.072023	10330.375311
568.427732	10278.700964
568.783385	10183.392909
569.138982	10259.063149
569.494525	10272.548236
569.850013	10151.293362
570.205445	10228.740609
570.560823	10126.871492
570.916145	10043.974758
571.271412	10112.176529
571.626625	10061.991842
571.981782	10038.348831
572.336884	10013.352269
572.691931	10013.637095
573.046923	9964.637079
573.401860	9917.013299
573.756743	9852.738587
574.111570	9895.868179
574.466342	9881.972238
574.821059	9911.208410
575.175722	9800.865114
575.530330	9813.394902
575.884882	9803.378129
576.239380	9726.813085
576.593823	9711.382113
576.948211	9727.773425
577.302544	9604.227347
577.656823	9619.759142
578.011047	9622.357857
578.365216	9590.843083
578.719330	9516.173512
579.073389	9524.889667
579.427394	9477.016350
579.781344	9451.099778
580.135239	9404.285103
580.489080	9407.826513
580.842866	9315.659098
581.196597	9314.915528
581.550273	9364.260862
581.903895	9326.293412
582.257463	9395.208505
582.610975	9268.849464
582.964434	9295.749061
583.317837	9225.475376
583.671186	9207.284372
584.024481	9198.419503
584.377721	9111.073951
584.730906	9097.747661
585.084037	9125.970561
585.437113	9062.628463
585.790135	9078.150175
586.143103	8982.842121
586.496016	8958.468142
586.848874	9015.309672
587.201679	9000.236622
587.554428	8893.424654
587.907124	8937.668341
588.259765	8903.701047
588.612352	8906.781192
588.964884	8785.783417
589.317362	8799.470150
589.669786	8798.686250
590.022155	8847.580401
590.374470	8862.527422
590.726731	8802.595665
591.078937	8653.863982
591.431090	8765.051672
591.783188	8637.714646
592.135232	8634.001836
592.487222	8629.192576
592.839157	8682.895987
593.191038	8616.536759
593.542866	8562.518275
593.894639	8460.765105
594.246358	8514.488682
594.598022	8527.820013
594.949633	8424.672964
595.301190	8405.234275
595.652692	8429.426772
596.004141	8540.070017
596.355535	8320.321079
596.706876	8297.703943
597.058162	8232.476453
597.409395	8311.897311
597.760573	8371.463585
598.111698	8281.438660
598.462768	8265.196062
598.813785	8232.179025
599.164748	8198.120990
599.515657	8189.576234
599.866511	8103.090198
600.217312	8226.860608
600.568060	8092.350020
600.918753	8187.542128
601.269392	8162.767378
601.619978	8072.931496
601.970510	8137.672514
602.320988	8130.377964
602.671412	8188.434412
603.021783	8126.241697
603.372100	8100.483922
603.722363	8106.205632
604.072572	8076.477947
604.422728	8088.422961
604.772830	8014.373452
605.122878	8020.768156
605.472872	8020.503496
605.822813	8046.651961
606.172701	7995.012901
606.522534	8067.169457
606.872314	8064.033859
607.222041	8039.629633
607.571714	8085.970440
607.921333	8054.271665
608.270899	8057.717293
608.620411	8141.576887
608.969870	8050.521046
609.319276	8046.392341
609.668627	8058.246614
610.017926	8094.474867
610.367171	8143.001013
610.716362	8124.683981
611.065500	8100.715815
611.414585	8138.491701
611.763616	8125.964434
612.112594	8108.093544
612.461518	8118.523691
612.810389	8180.723968
613.159207	8123.587530
613.507971	8069.349756
613.856682	8188.119340
614.205340	8139.527658
614.553945	8224.158549
614.902496	8119.758774
615.250994	8174.001589
615.599439	8154.699011
615.947830	8166.830548
616.296169	8140.271229
616.644454	8156.400400
616.992686	8155.031727
617.340864	8209.156075
617.688990	8111.665201
618.037063	8206.701033
618.385082	8156.153384
618.733048	8247.292404
619.080961	8181.069287
619.428821	8197.384981
619.776628	8201.738017
620.124382	8147.780027
620.472083	8141.077813
620.819731	8162.669075
621.167326	8056.270482
621.514868	8067.308088
621.862357	7954.779452
622.209793	7969.736556
622.557176	7905.671052
622.904506	7877.243986
623.251783	7807.792009
623.599007	7765.607634
623.946179	7767.198118
624.293297	7725.979123
624.640363	7643.687328
624.987376	7630.156871
625.334336	7575.442708
625.681243	7523.153339
626.028097	7511.399889
626.374899	7488.003894
626.721647	7475.973181
627.068343	7415.638131
627.414987	7389.915643
627.761577	7344.373859
628.108115	7375.286215
628.454600	7268.925430
628.801032	7322.086918
629.147412	7284.076618
629.493739	7267.990296
629.840014	7208.736574
630.186236	7264.547188
630.532405	7148.822461
630.878521	7196.481529
631.224585	7158.851836
631.570597	7078.261430
631.916556	7114.071267
632.262462	7108.435257
632.608316	7072.186840
632.954117	7045.297325
633.299866	7034.839452
633.645562	7030.617485
633.991206	6952.865249
634.336797	6890.057513
634.682336	6847.444640
635.027823	6818.657131
635.373257	6808.436191
635.718639	6742.671819
636.063968	6751.292192
636.409245	6651.958776
636.754470	6644.880996
637.099642	6601.857268
637.444762	6553.429424
637.789829	6557.341359
638.134845	6501.031671
638.479808	6482.646583
638.824719	6491.471122
639.169577	6420.751296
639.514383	6437.001455
639.859137	6363.085537
640.203839	6381.672271
640.548489	6362.649477
640.893086	6340.496127
641.237632	6311.660727
641.582125	6330.466751
641.926566	6301.442308
642.270955	6314.546787
642.615292	6311.915305
642.959576	6326.612789
643.303809	6311.063350
643.647990	6316.822868
643.992118	6313.561242
644.336195	6256.119814
644.680219	6281.514627
645.024192	6274.804851
645.368112	6364.910435
645.711981	6391.741976
646.055797	6464.407688
646.399562	6420.854639
646.743274	6551.710390
647.086935	6603.072186
647.430544	6599.523214
647.774101	6620.446523
648.117606	6621.631194
648.461059	6616.726152
648.804460	6577.793320
649.147810	6493.459858
649.491108	6457.037521
649.834354	6433.109684
650.177548	6349.665985
650.520690	6256.303816
650.863781	6242.213791
651.206820	6262.073417
651.549807	6184.931160
651.892742	6127.315813
652.235626	6132.175485
652.578458	6116.880624
652.921238	6028.904928
653.263967	6066.053191
653.606644	6000.888715
653.949269	6012.259038
654.291843	5951.543381
654.634365	5995.204814
654.976836	5954.948680
655.319255	5949.277382
655.661622	5926.478764
656.003938	5928.878353
656.346203	5883.510489
656.688416	5917.830665
657.030577	5872.727461
657.372687	5843.687894
657.714746	5829.428991
658.056753	5872.979519
658.398708	5811.006094
658.740612	5804.417306
659.082465	5853.334142
659.424266	5841.215208
659.766016	5837.467111
660.107715	5820.516231
660.449362	5835.178427
660.790958	5832.098282
661.132503	5813.907278
661.473996	5853.117373
661.815438	5838.860990
662.156829	5835.062480
662.498168	5825.887580
662.839456	5803.847656
663.180693	5838.170352
663.521879	5834.442418
663.863013	5826.686603
664.204097	5848.003122
664.545129	5892.274535
664.886110	5882.918154
665.227040	5917.482825
665.567918	5880.813472
665.908746	5910.284057
666.249522	5915.544501
666.590248	5903.160907
666.930922	5930.824239
667.271545	5939.159787
667.612118	5945.315035
667.952639	5917.833185
668.293109	5938.519560
668.633528	5896.168827
668.973896	5898.918776
669.314213	5889.340584
669.654480	5873.218974
669.994695	5865.132963
670.334859	5855.489236
670.674973	5849.989337
671.015035	5853.223237
671.355047	5851.647876
671.695008	5835.450649
672.034918	5810.423841
672.374777	5823.170398
672.714585	5805.425537
673.054342	5812.316794
673.394049	5803.393952
673.733705	5832.446121
674.073310	5820.909441
674.412864	5780.809582
674.752368	5774.916474
675.091820	5775.629797
675.431223	5716.557556
675.770574	5715.388008
676.109875	5670.637686
676.449125	5670.829250
676.788324	5641.920753
677.127473	5583.675261
677.466571	5572.975412
677.805619	5560.090223
678.144616	5553.380447
678.483562	5527.869688
678.822458	5496.072610
679.161303	5493.909955
679.500098	5482.617771
679.838842	5467.060770
680.177535	5474.062933
680.516179	5487.434593
680.854771	5498.159648
681.193314	5577.870373
681.531805	5688.213669
681.870247	5838.024158
682.208638	5937.980157
682.546978	5946.096414
682.885268	5923.534730
683.223508	5841.283264
683.561697	5791.519514
683.899836	5755.913844
684.237925	5712.643100
684.575963	5675.706566
684.913951	5636.856914
685.251889	5701.381162
685.589776	5666.864382
685.927614	5642.883613
686.265401	5711.037493
686.603137	5693.065779
686.940824	5765.807109
687.278460	5793.687210
687.616046	5804.001411
687.953582	5868.813005
688.291068	5850.153174
688.628504	5918.082722
688.965889	5878.257607
689.303224	5822.830120
689.640510	5771.692656
689.977745	5699.495771
690.314930	5603.058498
690.652065	5540.780083
690.989150	5457.578360
691.326185	5376.599785
691.663170	5325.404347
692.000105	5249.265280
692.336990	5173.393394
692.673825	5143.101100
693.010610	5075.897478
693.347345	5011.025390
693.684030	4998.094831
694.020665	4956.913645
694.357251	4866.679512
694.693786	4874.115213
695.030272	4842.003063
695.366707	4806.523423
695.703093	4776.785656
696.039429	4795.332061
696.375716	4778.144247
696.711952	4753.077110
697.048139	4742.399946
697.384276	4718.507397
697.720363	4731.760591
698.056400	4742.977158
698.392388	4687.736194
698.728326	4672.166590
699.064214	4649.080626
699.400053	4647.069206
699.735842	4611.655100
700.071581	4585.887242
700.407270	4560.240372
700.742910	4543.831416
701.078501	4488.550123
701.414042	4487.017613
701.749533	4457.027788
702.084974	4393.499167
702.420366	4452.006799
702.755709	4393.501688
703.091002	4334.293336
703.426246	4385.894587
703.761440	4338.530426
704.096584	4307.338287
704.431679	4323.217921
704.766725	4305.972134
705.101721	4297.944096
705.436668	4326.179599
705.771565	4274.046507
706.106413	4302.561793
706.441212	4336.652596
706.775961	4340.645190
707.110661	4324.455524
707.445311	4350.356973
707.779913	4375.056106
708.114465	4385.783682
708.448967	4408.854522
708.783421	4471.574038
709.117825	4514.635574
709.452180	4515.578270
709.786485	4561.573757
710.120742	4645.677847
710.454949	4627.020537
710.789107	4696.230538
711.123216	4769.397845
711.457275	4759.615486
711.791286	4832.959233
712.125247	4855.591494
712.459159	4753.578704
712.793023	4824.951361
713.126837	4790.215290
713.460602	4782.300678
713.794318	4700.954099
714.127985	4708.830902
714.461602	4621.649188
714.795171	4596.289663
715.128691	4531.931773
715.462162	4474.767609
715.795584	4422.195936
716.128957	4404.340169
716.462281	4356.388713
716.795556	4333.302749
717.128782	4293.162562
717.461960	4226.284094
717.795088	4232.136874
718.128167	4191.182540
718.461198	4134.008294
718.794180	4130.839929
719.127113	4113.276549
719.459997	4088.290070
719.792833	4046.198956
720.125619	4038.460784
720.458357	4001.675485
720.791046	4007.160260
721.123686	3979.295282
721.456278	3938.804735
721.788821	3954.785192
722.121315	3929.781069
722.453761	3901.253180
722.786158	3914.075354
723.118506	3939.361782
723.450805	3890.233217
723.783056	3911.408584
724.115259	3930.312911
724.447412	3933.309877
724.779518	3925.387704
725.111574	3929.186213
725.443582	3961.068991
725.775542	3945.275056
726.107453	3997.771111
726.439315	3997.115761
726.771129	4010.217720
727.102895	4044.794994
727.434612	4095.488837
727.766281	4104.580558
728.097901	4107.476701
728.429473	4108.890745
728.760996	4117.122949
729.092471	4112.278400
729.423897	4098.700052
729.755276	4105.006536
730.086606	4103.562245
730.417887	4142.389212
730.749120	4205.779201
731.080305	4272.634983
731.411442	4294.493427
731.742530	4266.832615
732.073570	4270.013583
732.404562	4324.788241
732.735506	4316.525789
733.066401	4277.156898
733.397249	4218.235892
733.728048	4139.470384
734.058798	4052.389492
734.389501	3982.319975
734.720156	3925.753187
735.050762	3879.654356
735.381320	3875.462637
735.711831	3818.500119
736.042293	3789.631951
736.372707	3816.130776
736.703073	3784.179943
737.033391	3776.789612
737.363661	3797.067653
737.693883	3817.794357
738.024056	3825.434226
738.354182	3820.768638
738.684260	3886.918659
739.014290	3902.967172
739.344272	3903.163777
739.674207	3944.886887
740.004093	3950.164975
740.333931	3944.007205
740.663722	3946.777319
740.993464	3941.088377
741.323159	3921.616921
741.652806	3888.867065
741.982405	3860.215667
742.311956	3830.404803
742.641460	3823.301818
742.970915	3797.574289
743.300323	3759.463166
743.629683	3722.279615
743.958996	3714.816187
744.288260	3687.556147
744.617477	3655.630520
744.946647	3638.538488
745.275768	3616.531331
745.604842	3613.960342
745.933869	3566.293712
746.262847	3558.202660
746.591778	3597.712704
746.920662	3566.031572
747.249498	3536.881100
747.578286	3582.808532
747.907027	3597.594237
748.235720	3596.971654
748.564365	3623.125160
748.892963	3620.196250
749.221514	3604.170422
749.550017	3583.340374
749.878473	3578.624375
750.206881	3552.203687
750.535242	3547.109601
750.863555	3546.413922
751.191821	3542.728839
751.520039	3522.249151
751.848210	3501.983713
752.176334	3533.299360
752.504411	3545.413253
752.832440	3500.516737
753.160421	3487.671877
753.488356	3492.090448
753.816243	3508.033097
754.144082	3460.384111
754.471875	3448.302986
754.799620	3467.262766
755.127318	3457.913946
755.454969	3460.308494
755.782572	3464.631283
756.110129	3441.789815
756.437638	3432.173814
756.765100	3448.844910
757.092515	3456.625931
757.419882	3462.448464
757.747203	3433.030810
758.074477	3436.305040
758.401703	3452.875313
758.728882	3473.801142
759.056014	3478.534786
759.383099	3486.454438
759.710138	3478.507059
760.037129	3497.250069
760.364073	3528.298536
760.690970	3512.854961
761.017820	3491.588853
761.344623	3510.815814
761.671379	3554.688976
761.998088	3603.656224
762.324751	3729.571644
762.651366	3978.108091
762.977935	4449.322385
763.304456	4886.544178
763.630931	4977.736131
763.957359	4620.078868
764.283740	4282.313999
764.610074	4090.959361
764.936362	3892.784041
765.262602	3736.195720
765.588796	3627.120275
765.914943	3542.199517
766.241044	3451.027730
766.567097	3424.944800
766.893104	3379.012326
767.219064	3343.477233
767.544978	3316.985969
767.870845	3262.516302
768.196665	3245.943509
768.522438	3254.392483
768.848165	3250.049529
769.173846	3214.080896
769.499479	3196.550283
769.825066	3180.158972
770.150607	3165.620284
770.476101	3178.253416
770.801548	3173.943229
771.126949	3125.951444
771.452303	3111.735391
771.777611	3119.680249
772.102872	3121.767287
772.428087	3100.208792
772.753256	3089.287132
773.078378	3082.068200
773.403453	3048.234496
773.728482	3034.083977
774.053465	3058.044582
774.378401	3042.485060
774.703291	3013.256450
775.028135	3012.346522
775.352932	3008.734535
775.677683	2999.030314
776.002388	2994.173162
776.327046	2998.047289
776.651658	2985.124291
776.976224	2970.378916
777.300743	2973.181798
777.625216	2965.874645
777.949643	2962.529840
778.274024	2962.600416
778.598359	2953.395269
778.922647	2954.831998
779.246889	2957.009776
779.571086	2938.082764
779.895236	2933.144954
780.219339	2945.037036
780.543397	2955.910805
780.867409	2962.648307
781.191374	2953.170938
781.515294	2951.083900
781.839167	2950.070628
782.162995	2944.522838
782.486776	2953.002059
782.810511	2949.745473
783.134201	2933.986827
783.457844	2944.195163
783.781441	2930.964655
784.104993	2912.254412
784.428498	2912.574526
784.751958	2929.638831
785.075372	2920.980650
785.398739	2905.534554
785.722061	2921.512491
786.045337	2934.627053
786.368568	2915.546286
786.691752	2909.595204
787.014891	2960.210909
787.337983	2985.305773
787.661030	3014.657891
787.984031	3080.807912
788.306987	3128.623256
788.629897	3117.910804
788.952760	3105.678444
789.275579	3090.129005
789.598351	3028.021990
789.921078	2984.673108
790.243759	2977.305462
790.566395	2959.076649
790.888984	2936.893052
791.211529	2921.832605
791.534027	2910.704258
791.856480	2899.560787
792.178888	2883.882798
792.501249	2877.145296
792.823566	2874.370141
793.145836	2873.992055
793.468062	2866.914275
793.790241	2866.077443
794.112375	2871.158926
794.434464	2883.187119
794.756507	2886.826832
795.078505	2895.222874
795.400457	2906.691499
795.722364	2945.813373
796.044226	2967.956642
796.366042	2970.716673
796.687812	2958.068418
797.009538	2979.092551
797.331218	2965.340283
797.652852	2953.382666
797.974442	2935.126127
798.295986	2931.778801
798.617484	2927.960127
798.938938	2914.101995
799.260346	2898.295457
799.581709	2890.839591
799.903026	2882.546893
800.224299	2880.238044
800.545526	2870.990047
800.866708	2853.696369
801.187845	2841.194308
801.508936	2843.966942
801.829983	2848.841738
802.150984	2838.333453
802.471940	2825.090342
802.792851	2827.068995
803.113717	2824.528253
803.434538	2831.401866
803.755314	2824.649241
804.076045	2818.861996
804.396731	2818.451142
804.717372	2817.926862
805.037967	2814.251861
805.358518	2821.732933
805.679024	2831.253152
805.999485	2825.150836
806.319901	2831.953873
806.640272	2821.964826
806.960598	2827.197544
807.280879	2837.796570
807.601115	2845.088599
807.921306	2830.108810
808.241453	2828.425065
808.561554	2834.482011
808.881611	2835.155005
809.201623	2829.113182
809.521590	2830.847339
809.841513	2826.116217
810.161390	2829.395487
810.481223	2823.973726
810.801011	2815.136583
811.120755	2809.757672
811.440453	2812.999134
811.760107	2815.028199
812.079716	2809.654329
812.399281	2799.423307
812.718801	2796.965744
813.038276	2789.542645
813.357707	2795.418110
813.677093	2804.865232
813.996434	2799.060344
814.315731	2790.661782
814.634983	2790.278654
814.954191	2788.995680
815.273354	2803.814152
815.592473	2815.560040
815.911547	2813.528455
816.230577	2822.181596
816.549562	2830.880107
816.868502	2828.198213
817.187399	2839.651715
817.506250	2855.543952
817.825058	2845.166737
818.143821	2860.585106
818.462539	2875.287631
818.781213	2903.243350
819.099843	2938.596962
819.418429	2995.362875
819.736970	3054.193140
820.055466	3130.669964
820.373919	3233.207034
820.692327	3370.843137
821.010691	3539.474774
821.329011	3982.050273
821.647286	4873.260738
821.965517	6235.551906
822.283704	6967.555171
822.601847	6935.175840
822.919945	6312.626107
823.237999	5811.726979
823.556010	5238.368826
823.873976	4695.118964
824.191897	4289.071666
824.509775	4000.400073
824.827609	3731.028538
825.145398	3609.201493
825.463144	3600.676902
825.780845	3687.359542
826.098502	3793.392652
826.416116	4074.225250
826.733685	4386.451634
827.051210	4448.626705
827.368692	4335.233511
827.686129	4066.769384
828.003522	3746.572936
828.320872	3494.064060
828.638177	3299.982158
828.955439	3161.970489
829.272656	3082.461410
829.589830	3015.494723
829.906960	2966.396405
830.224046	2921.522574
830.541088	2887.915722
830.858086	2873.651777
831.175041	2856.922708
831.491952	2856.688294
831.808819	2869.722197
832.125642	2892.316649
832.442421	2937.182918
832.759157	3020.505629
833.075849	3194.773277
833.392497	3476.604024
833.709101	3674.038293
834.025662	3621.741363
834.342179	3467.731593
834.658653	3291.770118
834.975083	3146.655463
835.291469	3049.073848
835.607811	2963.515385
835.924110	2904.087743
836.240366	2858.119982
836.556578	2814.960143
836.872746	2792.942904
837.188871	2769.907351
837.504952	2755.603077
837.820990	2744.300810
838.136984	2732.252452
838.452935	2725.124261
838.768842	2724.045454
839.084706	2741.863412
839.400526	2817.357212
839.716303	2952.621452
840.032037	3029.640200
840.347727	3013.775689
840.663373	2953.841411
840.978977	2878.027498
841.294537	2806.405305
841.610054	2762.020466
841.925527	2737.802763
842.240957	2718.729557
842.556344	2697.355065
842.871687	2679.290090
843.186987	2671.509069
843.502244	2667.992864
843.817458	2664.514468
844.132629	2650.802530
844.447756	2642.318268
844.762840	2633.776033
845.077881	2640.508494
845.392879	2637.728297
845.707833	2634.113790
846.022745	2623.792027
846.337613	2628.639097
846.652438	2625.795886
846.967221	2627.330917
847.281960	2624.772532
847.596656	2622.796400
847.911309	2621.873868
848.225919	2619.738940
848.540485	2616.903291
848.855009	2617.241048
849.169490	2614.206273
849.483928	2616.890688
849.798323	2614.639813
850.112675	2613.545882
850.426984	2614.239041
850.741251	2614.100409
851.055474	2611.612600
851.369654	2617.104937
851.683792	2616.704165
851.997887	2612.068824
852.311938	2612.656119
852.625947	2613.344236
852.939914	2618.677777
853.253837	2619.070987
853.567718	2615.627879
853.881555	2614.760800
854.195350	2616.036212
854.509103	2616.565533
854.822812	2613.886160
855.136479	2614.445728
855.450103	2615.244751
855.763685	2616.000924
856.077224	2612.988835
856.390720	2612.086468
856.704173	2616.444546
857.017584	2617.230966
857.330953	2623.613067
857.644278	2621.082407
857.957561	2620.353961
858.270802	2619.834722
858.584000	2617.248610
858.897155	2622.602315
859.210268	2622.677932
859.523339	2615.947992
859.836367	2611.015223
860.149352	2613.024123
860.462295	2613.278701
860.775195	2610.536313
861.088054	2609.185284
861.400869	2608.701333
861.713642	2607.448607
862.026373	2608.098916
862.339062	2612.537652
862.651708	2616.124432
862.964312	2618.733230
863.276873	2614.082765
863.589392	2617.205760
863.901869	2622.355299
864.214303	2629.675054
864.526696	2630.348048
864.839045	2633.612195
865.151353	2634.867442
865.463619	2633.773512
865.775842	2634.607823
866.088023	2632.631691
866.400162	2635.842906
866.712258	2634.005405
867.024313	2632.167905
867.336325	2630.385857
867.648296	2629.793521
867.960224	2636.747793
868.272110	2633.599592
868.583954	2627.905609
868.895755	2630.234622
869.207515	2635.812659
869.519233	2640.873977
869.830909	2638.678555
870.142542	2633.733183
870.454134	2633.329891
870.765684	2640.180819
871.077191	2642.426653
871.388657	2648.581902
871.700081	2642.870274
872.011463	2643.384472
872.322803	2643.432363
872.634101	2651.231028
872.945357	2651.714979
873.256571	2660.814261
873.567744	2657.910557
873.878874	2654.142294
874.189963	2659.387615
874.501010	2665.084119
874.812015	2667.176197
875.122979	2668.496980
875.433900	2657.391318
875.744780	2656.713283
876.055618	2664.325425
876.366415	2668.048317
876.677169	2667.370282
876.987882	2661.212512
877.298554	2661.358706
877.609183	2670.228616
877.919771	2678.599452
878.230317	2684.371573
878.540822	2693.596885
878.851285	2708.092723
879.161707	2730.780436
879.472087	2767.167484
879.782425	2814.937458
880.092722	2928.391146
880.402977	3114.450052
880.713191	3373.794732
881.023363	3658.183865
881.333494	3844.872915
881.643583	4016.627547
881.953631	4014.971528
882.263637	3838.959642
882.573602	3619.989562
882.883526	3491.853514
883.193408	3378.344373
883.503248	3285.264509
883.813048	3169.925429
884.122806	3055.594581
884.432522	2971.266159
884.742197	2911.180647
885.051831	2869.570963
885.361424	2838.368741
885.670975	2804.502269
885.980485	2769.635129
886.289954	2753.579054
886.599382	2738.836199
886.908768	2727.927142
887.218113	2709.496684
887.527417	2696.185517
887.836680	2691.552697
888.145901	2683.743950
888.455082	2674.125428
888.764221	2663.327277
889.073319	2658.543222
889.382376	2658.245793
889.691392	2660.849549
890.000366	2656.869558
890.309300	2654.275885
890.618193	2657.605567
890.927044	2661.678819
891.235855	2660.332831
891.544625	2660.300064
891.853353	2660.947852
892.162041	2666.767864
892.470687	2688.364167
892.779293	2698.811958
893.087858	2707.732280
893.396381	2728.282544
893.704864	2770.580345
894.013306	2839.891169
894.321707	2930.747885
894.630068	2980.504074
894.938387	3002.261694
895.246665	2993.522853
895.554903	2950.360494
895.863100	2910.595873
896.171256	2850.686800
896.479371	2787.800927
896.787446	2750.322468
897.095480	2736.360993
897.403473	2730.598954
897.711425	2715.871223
898.019336	2697.034952
898.327207	2682.420647
898.635038	2682.130780
898.942827	2676.623320
899.250576	2669.028822
899.558284	2656.294867
899.865952	2656.340237
900.173579	2650.570637
900.481165	2652.400576
900.788711	2642.683752
901.096216	2635.522792
901.403681	2631.663789
901.711105	2632.273769
902.018489	2631.000877
902.325832	2634.469191
902.633135	2638.108904
902.940397	2650.129536
903.247619	2685.435257
903.554800	2754.602408
903.861941	2878.360214
904.169041	3003.030470
904.476101	3063.494069
904.783121	3054.198181
905.090100	2997.550735
905.397039	2928.008018
905.703938	2854.553365
906.010796	2796.189407
906.317614	2743.723598
906.624391	2707.354194
906.931129	2682.960050
907.237826	2660.511792
907.544483	2643.646612
907.851099	2628.039200
908.157675	2620.510236
908.464211	2612.789709
908.770707	2599.355034
909.077163	2597.416711
909.383578	2596.569797
909.689954	2591.100145
909.996289	2593.386308
910.302584	2590.888416
910.608839	2589.960844
910.915054	2589.003025
911.221229	2591.203488
911.527363	2593.484611
911.833458	2589.887747
912.139513	2593.204827
912.445527	2593.320773
912.751502	2598.893769
913.057436	2604.759151
913.363331	2610.478340
913.669186	2619.711213
913.975000	2633.541619
914.280775	2649.920328
914.586510	2668.552432
914.892205	2702.189532
915.197859	2768.238729
915.503475	2851.463138
915.809050	2915.768097
916.114585	2927.163625
916.420081	2941.293979
916.725536	2954.748819
917.030952	2925.023655
917.336328	2881.095040
917.641665	2832.223574
917.946961	2781.993517
918.252218	2749.394896
918.557435	2727.191134
918.862612	2702.280272
919.167750	2687.698735
919.472848	2670.407577
919.777906	2654.777480
920.082925	2644.243989
920.387904	2633.496249
920.692843	2630.431227
920.997743	2625.306894
921.302603	2618.584516
921.607423	2611.103443
921.912204	2606.768051
922.216946	2605.417022
922.521647	2602.425097
922.826310	2598.303954
923.130932	2592.410845
923.435516	2586.674012
923.740059	2585.333065
924.044564	2583.881213
924.349028	2582.895667
924.653454	2574.630695
924.957840	2571.593400
925.262186	2572.636919
925.566493	2573.950139
925.870761	2568.046948
926.174989	2569.304716
926.479178	2565.201217
926.783328	2564.228274
927.087438	2563.603171
927.391509	2565.022256
927.695541	2564.129972
927.999533	2559.630742
928.303486	2559.066133
928.607400	2560.278530
928.911275	2557.911708
929.215110	2559.174517
929.518906	2559.766853
929.822663	2559.640824
930.126381	2557.606719
930.430060	2558.330124
930.733699	2560.659137
931.037299	2558.433468
931.340861	2559.499672
931.644383	2561.453119
931.947866	2558.264589
932.251309	2561.712738
932.554714	2558.035217
932.858080	2561.737944
933.161407	2558.776266
933.464694	2560.636452
933.767943	2556.742161
934.071153	2554.138405
934.374323	2555.771739
934.677455	2555.754095
934.980548	2552.762170
935.283602	2554.060267
935.586617	2552.825184
935.889593	2556.628735
936.192530	2552.253013
936.495428	2557.573951
936.798287	2557.528581
937.101108	2559.086297
937.403890	2561.435475
937.706632	2561.974878
938.009336	2566.169118
938.312002	2571.081723
938.614628	2572.347052
938.917216	2574.734039
939.219765	2576.412743
939.522275	2578.686303
939.824747	2580.831314
940.127179	2572.636919
940.429573	2571.260684
940.731929	2571.134655
941.034246	2567.701629
941.336524	2567.197514
941.638763	2568.422514
941.940964	2566.252298
942.243126	2564.414797
942.545250	2566.794222
942.847335	2563.877914
943.149381	2560.870866
943.451389	2565.455795
943.753359	2559.880279
944.055290	2561.969837
944.357182	2558.325083
944.659036	2557.276523
944.960851	2558.806513
945.262628	2555.867521
945.564367	2557.841132
945.866067	2558.509085
946.167729	2559.451781
946.469352	2558.272151
946.770937	2557.846173
947.072484	2557.594116
947.373992	2555.680998
947.675462	2556.822819
947.976893	2555.880123
948.278286	2554.216543
948.579641	2557.122768
948.880958	2554.493806
949.182236	2559.454302
949.483476	2554.539177
949.784678	2555.502037
950.085841	2554.455997
950.386967	2556.832902
950.688054	2553.576316
950.989103	2557.546225
951.290114	2558.181410
951.591087	2559.744168
951.892021	2559.401369
952.192917	2562.287430
952.493776	2560.291133
952.794596	2562.312636
953.095378	2562.083263
953.396122	2565.118038
953.696828	2562.340362
953.997496	2559.146791
954.298126	2556.474980
954.598718	2560.860783
954.899272	2554.713096
955.199788	2556.220401
955.500266	2557.694939
955.800706	2548.278063
956.101108	2548.381407
956.401472	2547.975594
956.701798	2546.022147
957.002087	2547.078269
957.302337	2546.790923
957.602550	2549.966850
957.902724	2546.198588
958.202861	2548.346119
958.502960	2544.330840
958.803022	2547.368135
959.103045	2544.555171
959.403031	2545.139945
959.702979	2542.200953
960.002889	2545.170192
960.302762	2543.037784
960.602596	2544.116591
960.902393	2543.365459
961.202153	2542.458051
961.501875	2542.659697
961.801559	2542.326981
962.101205	2541.406971
962.400814	2543.506611
962.700385	2539.839172
962.999918	2545.515511
963.299414	2539.750952
963.598873	2539.730787
963.898293	2541.230530
964.197677	2542.957126
964.497022	2541.011240
964.796331	2540.834800
965.095601	2539.672814
965.394835	2541.921168
965.694030	2543.105840
965.993189	2542.125335
966.292309	2539.571991
966.591393	2540.857485
966.890439	2536.501928
967.189447	2542.465613
967.488419	2537.908410
967.787353	2540.902855
968.086249	2540.222300
968.385108	2540.751621
968.683930	2539.962680
968.982714	2540.484440
969.281462	2537.926054
969.580172	2540.983514
969.878844	2540.635674
970.177480	2543.869574
970.476078	2542.359749
970.774639	2543.398227
971.073162	2540.817156
971.371649	2539.418236
971.670098	2536.963194
971.968510	2538.606610
972.266885	2540.199614
972.565223	2542.538710
972.863524	2539.173740
973.161788	2541.180119
973.460014	2540.602907
973.758204	2540.822197
974.056356	2540.822197
974.354471	2538.649460
974.652550	2542.495860
974.950591	2543.872095
975.248595	2541.550644
975.546563	2542.637012
975.844493	2540.849923
976.142386	2541.404450
976.440243	2540.887732
976.738062	2543.534338
977.035845	2539.098122
977.333590	2538.170550
977.631299	2540.703730
977.928971	2541.147351
978.226606	2538.445293
978.524204	2538.571322
978.821765	2539.425797
979.119290	2540.807073
979.416777	2537.396733
979.714228	2539.130890
980.011642	2540.555016
980.309020	2546.180943
980.606360	2541.331353
980.903664	2540.880170
981.200931	2541.926210
981.498162	2543.741025
981.795356	2541.464944
982.092513	2544.552651
982.389633	2549.586243
982.686717	2554.392983
982.983764	2551.338044
983.280775	2552.847869
983.577749	2554.526574
983.874686	2555.023127
984.171587	2550.589433
984.468451	2551.179247
984.765279	2544.625747
985.062070	2547.622713
985.358824	2544.046015
985.655543	2543.254554
985.952224	2539.173740
986.248869	2539.791281
986.545478	2536.930426
986.842050	2538.606610
987.138586	2533.318439
987.435086	2537.835313
987.731549	2532.227030
988.027975	2536.920344
988.324366	2536.617875
988.620719	2538.331867
988.917037	2539.453524
989.213318	2540.144162
989.509563	2536.128883
989.805772	2536.144006
990.101944	2536.801877
990.398080	2537.374048
990.694180	2535.710467
990.990244	2535.962525
991.286271	2535.108049
991.582262	2537.946219
991.878217	2539.647608
992.174136	2539.854295
992.470019	2537.333718
992.765865	2536.128883
993.061676	2535.536547
993.357450	2539.100643
993.653188	2537.253060
993.948890	2537.134593
994.244556	2538.132741
994.540186	2535.592000
994.835780	2539.065355
995.131337	2539.370345
995.426859	2539.362783
995.722345	2538.904038
996.017795	2538.457896
996.313208	2540.043339
996.608586	2539.602238
996.903928	2542.818494
997.199234	2539.914789
997.494504	2541.958977
997.789738	2540.607948
998.084936	2540.038298
998.380099	2538.004192
998.675225	2540.461754
998.970316	2537.941178
999.265371	2541.815304
999.560390	2536.549819
999.855373	2538.868750
1000.150320	2537.384130
1000.445232	2540.161806
1000.740108	2535.029911
1001.034948	2537.966383
1001.329752	2534.460261
1001.624521	2538.339429
1001.919254	2530.119827
1002.213951	2532.035466
1002.508613	2532.559746
1002.803239	2534.828265
1003.097829	2529.613191
1003.392384	2537.121990
1003.686903	2536.015457
1003.981386	2537.633667
1004.275834	2534.014119
1004.570246	2536.806918
1004.864623	2536.907741
1005.158964	2535.080323
1005.453270	2534.087215
1005.747540	2539.430838
1006.041775	2533.477236
1006.335974	2537.389171
1006.630138	2536.123842
1006.924266	2535.395395
1007.218359	2535.380271
1007.512416	2537.159799
1007.806438	2535.034952
1008.100425	2535.592000
1008.394376	2536.413708
1008.688292	2535.423121
1008.982172	2537.608461
1009.276017	2535.407998
1009.569827	2535.682741
1009.863602	2535.554191
1010.157341	2532.471526
1010.451045	2535.987730
1010.744714	2534.528316
1011.038347	2535.150899
1011.331945	2536.290200
1011.625508	2535.450848
1011.919036	2534.775333
1012.212528	2533.268028
1012.505986	2533.361289
1012.799408	2535.644932
1013.092795	2534.727442
1013.386147	2534.094777
1013.679464	2533.298275
1013.972745	2532.733666
1014.265992	2537.855478
1014.559204	2535.080323
1014.852380	2534.485467
1015.145521	2534.959335
1015.438628	2534.097298
1015.731699	2535.758358
1016.024736	2533.666279
1016.317737	2537.018646
1016.610703	2535.390354
1016.903635	2532.511855
1017.196531	2531.377595
1017.489393	2533.545291
1017.782219	2532.171577
1018.075011	2531.692667
1018.367768	2533.777184
1018.660490	2533.434386
1018.953177	2533.434386
1019.245829	2533.434386
