Dividing Wavelength (nm)	Counts (n)	Blue Motor Position (mm): 33.600000	Red Motor Position (mm): 0.000000	
326.493990	2053.123330
326.888308	2053.123330
327.282561	2053.123330
327.676750	2027.375637
328.070874	2028.530061
328.464933	2036.416946
328.858929	2044.722247
329.252859	2055.253217
329.646726	2068.226627
330.040528	2083.670202
330.434265	2101.399940
330.827938	2124.778291
331.221547	2145.081538
331.615091	2161.331697
332.008571	2184.480676
332.401986	2205.353573
332.795338	2224.441902
333.188625	2245.581981
333.581847	2261.998498
333.975006	2281.008689
334.368100	2299.149282
334.761129	2315.840542
335.154095	2330.558191
335.546996	2380.712630
335.939833	2487.443939
336.332606	2497.647235
336.725315	2516.397807
337.117960	2522.358971
337.510540	2532.504293
337.903056	2541.653987
338.295508	2545.989380
338.687896	2554.771070
339.080220	2559.424055
339.472480	2563.381360
339.864676	2566.738769
340.256807	2572.694892
340.648875	2571.739593
341.040879	2575.369224
341.432818	2576.674883
341.824694	2576.632033
342.216506	2578.073803
342.608253	2576.725295
342.999937	2575.495253
343.391557	2573.193966
343.783113	2572.329408
344.174605	2572.790674
344.566033	2570.204562
344.957397	2568.412432
345.348697	2566.171639
345.739934	2565.544015
346.131106	2562.708366
346.522215	2561.430434
346.913260	2559.910526
347.304241	2559.197203
347.695159	2557.856256
348.086012	2557.876420
348.476802	2556.091852
348.867528	2548.038609
349.258191	2544.512322
349.648789	2547.350491
350.039324	2541.560726
350.429796	2548.411654
350.820203	2548.794782
351.210548	2547.078269
351.600828	2546.143135
351.991045	2544.592980
352.381198	2544.396375
352.771288	2543.219266
353.161314	2543.131045
353.551276	2544.184647
353.941175	2539.874460
354.331010	2546.536345
354.720782	2546.148176
355.110490	2547.494164
355.500135	2545.639019
355.889717	2542.800850
356.279235	2544.940820
356.668689	2544.671118
357.058080	2546.745553
357.447408	2545.785213
357.836672	2547.970553
358.225873	2546.029709
358.615010	2548.963660
359.004084	2547.226983
359.393095	2549.243444
359.782043	2547.121119
360.170927	2547.874771
360.559748	2552.525236
360.948505	2550.218908
361.337199	2551.821995
361.725830	2552.926007
362.114398	2552.729402
362.502903	2552.852911
362.891344	2553.014227
363.279722	2550.599515
363.668037	2554.103117
364.056289	2551.459032
364.444478	2553.495658
364.832603	2555.983467
365.220665	2555.103786
365.608665	2556.719476
365.996601	2555.408776
366.384474	2557.092521
366.772284	2557.377346
367.160031	2557.727706
367.547715	2559.088818
367.935336	2555.504558
368.322893	2555.126471
368.710388	2555.640669
369.097820	2555.749053
369.485189	2556.689229
369.872495	2561.521175
370.259738	2560.999415
370.646918	2561.228788
371.034035	2560.555794
371.421090	2557.223591
371.808081	2559.502193
372.195010	2562.594940
372.581875	2562.799107
372.968678	2563.676268
373.355418	2561.511092
373.742096	2564.041752
374.128710	2564.992009
374.515262	2562.705846
374.901751	2566.499314
375.288177	2567.159705
375.674540	2565.942267
376.060841	2567.131979
376.447079	2565.047462
376.833254	2567.777247
377.219367	2565.251628
377.605417	2566.040569
377.991404	2566.547205
378.377329	2566.413614
378.763191	2568.672051
379.148991	2567.573080
379.534727	2567.946125
379.920402	2569.627350
380.306013	2571.348904
380.691563	2570.335632
381.077049	2569.042576
381.462474	2569.844120
381.847835	2566.148954
382.233134	2573.078020
382.618371	2570.570046
383.003545	2572.626837
383.388657	2571.716908
383.773706	2570.731363
384.158693	2572.092474
384.543618	2572.074830
384.928480	2570.464182
385.313280	2574.900397
385.698017	2571.800087
386.082692	2575.525500
386.467305	2576.412743
386.851856	2578.406519
387.236344	2573.554409
387.620770	2575.916189
388.005133	2571.134655
388.389435	2572.856209
388.773674	2570.438976
389.157851	2577.804102
389.541965	2578.645974
389.926018	2578.361149
390.310008	2578.124215
390.693936	2579.424832
391.077802	2580.385172
391.461606	2579.301324
391.845348	2579.250913
392.229027	2579.855851
392.612645	2579.462641
392.996200	2582.426840
393.379694	2581.569843
393.763125	2580.385172
394.146494	2581.335430
394.529801	2581.842066
394.913047	2585.239803
395.296230	2585.514546
395.679351	2583.198136
396.062410	2584.163517
396.445408	2586.255596
396.828343	2585.575040
397.211217	2588.025041
397.594028	2587.548652
397.976778	2585.232242
398.359466	2584.823908
398.742092	2584.491192
399.124656	2585.640575
399.507158	2588.241811
399.889598	2590.449836
400.271977	2585.963209
400.654294	2590.018817
401.036549	2590.507809
401.418742	2589.817171
401.800874	2591.647110
402.182944	2591.203488
402.564952	2591.584096
402.946898	2592.791452
403.328783	2593.345979
403.710606	2595.261617
404.092367	2596.869745
404.474067	2594.548294
404.855705	2598.830754
405.237282	2595.944694
405.618797	2595.997626
406.000250	2597.946032
406.381642	2600.695981
406.762972	2599.465940
407.144240	2597.925867
407.525447	2601.079109
407.906593	2596.204313
408.287677	2602.803183
408.668700	2605.414501
409.049661	2608.779471
409.430560	2607.418360
409.811399	2609.737291
410.192176	2608.464399
410.572891	2610.435490
410.953545	2612.721654
411.334138	2613.107302
411.714669	2616.116871
412.095139	2615.585029
412.475547	2617.084772
412.855894	2622.778756
413.236180	2623.809672
413.616405	2629.780918
413.996568	2634.862401
414.376670	2638.940695
414.756711	2643.800367
415.136691	2649.907725
415.516609	2656.340237
415.896466	2666.629232
416.276262	2670.692402
416.655997	2683.509536
417.035670	2700.727597
417.415283	2714.709237
417.794834	2724.030331
418.174324	2733.321177
418.553753	2749.347005
418.933121	2768.795777
419.312428	2786.049126
419.691674	2799.261990
420.070859	2832.286589
420.449983	2841.844617
420.829045	2876.603372
421.208047	2893.750857
421.586988	2926.609098
421.965867	2958.852318
422.344686	2990.467914
422.723444	3035.684544
423.102141	3024.283974
423.480777	3092.110179
423.859352	3100.765840
424.237866	3182.109898
424.616319	3215.131977
424.994712	3272.195318
425.373044	3294.620890
425.751314	3379.405536
426.129524	3368.443547
426.507673	3460.356385
426.885762	3506.072088
427.263789	3561.000501
427.641756	3624.440901
428.019662	3682.504911
428.397508	3738.668406
428.775292	3786.577012
429.153016	3869.786297
429.530679	3905.333994
429.908282	3973.213130
430.285824	4006.439375
430.663305	4134.025938
431.040726	4163.105834
431.418086	4212.007547
431.795385	4311.378771
432.172624	4433.054581
432.549802	4448.689720
432.926920	4553.414650
433.303977	4599.483234
433.680974	4675.546684
434.057910	4807.191376
434.434786	4892.487699
434.811601	4940.136685
435.188355	5151.456813
435.565050	5166.209750
435.941683	5234.083845
436.318257	5450.493018
436.694770	5489.365355
437.071222	5662.740718
437.447614	5613.347493
437.823946	5666.524104
438.200218	5809.907123
438.576429	5823.916489
438.952580	5974.750333
439.328670	6047.279934
439.704700	6166.309138
440.080670	6164.978273
440.456580	6381.500872
440.832429	6440.331137
441.208218	6343.183062
441.583947	6478.406972
441.959616	6612.204237
442.335224	6699.164140
442.710773	6821.747358
443.086261	7001.769482
443.461689	6879.571913
443.837057	7044.828498
444.212365	7249.554797
444.587612	7313.630383
444.962800	7292.525592
445.337927	7454.724717
445.712995	7179.364291
446.088002	7725.354020
446.462949	7834.729415
446.837837	7906.389417
447.212664	8004.787698
447.587431	8785.879199
447.962139	9623.983629
448.336786	10277.390264
448.711374	10019.779741
449.085901	9145.605855
449.460369	9192.987660
449.834776	9188.506074
450.209124	10026.411378
450.583412	9883.948371
450.957640	10107.515982
451.331808	9807.947935
451.705917	9445.126011
452.079965	9420.152135
452.453954	9643.538264
452.827883	9643.944077
453.201752	9650.784923
453.575562	9712.871774
453.949311	10080.296272
454.323001	10191.045381
454.696632	10150.713629
455.070202	10728.003883
455.443713	10808.498507
455.817164	10986.655404
456.190556	11314.746299
456.563888	11189.385406
456.937160	11424.648494
457.310373	10984.878398
457.683526	11057.307175
458.056619	11121.670107
458.429653	11219.864222
458.802628	11419.604820
459.175542	11503.340906
459.548398	12048.145964
459.921194	12615.255607
460.293930	12959.604223
460.666607	13780.702321
461.039224	14513.224824
461.411782	14780.335402
461.784280	14422.370629
462.156719	14347.118805
462.529099	14279.431232
462.901419	13732.392943
463.273680	13405.597625
463.645882	13651.477383
464.018024	13623.816572
464.390106	14052.854052
464.762130	15228.531787
465.134094	16903.545894
465.505999	19173.877419
465.877845	21167.356337
466.249631	22044.844782
466.621358	21400.986092
466.993026	20591.984243
467.364634	19901.421783
467.736184	19203.867243
468.107674	18673.885698
468.479105	18542.669505
468.850477	18290.936967
469.221790	17869.594808
469.593043	17247.287051
469.964238	16926.601611
470.335373	17034.018517
470.706449	17905.296260
471.077467	19059.826355
471.448425	21412.840365
471.819324	22902.745823
472.190164	22375.720914
472.560945	20698.173628
472.931667	19300.445669
473.302330	19053.615653
473.672934	18614.755484
474.043479	19049.156752
474.413965	18868.365852
474.784393	18712.236276
475.154761	19343.542493
475.525070	19482.769080
475.895321	19332.338529
476.265513	19840.625468
476.635645	20437.901376
477.005719	20506.942498
477.375734	20888.303266
477.745691	21494.121409
478.115588	22163.702586
478.485427	23440.296660
478.855207	25337.093809
479.224928	27051.965798
479.594591	28223.202277
479.964194	27677.358741
480.333739	28043.691830
480.703226	28341.051851
481.072653	28857.155099
481.442022	29345.816827
481.811333	29658.781740
482.180584	29155.293979
482.549777	28955.714698
482.918912	28746.741227
483.287988	28696.483444
483.657005	28512.108283
484.025964	28175.301233
484.394864	28371.911274
484.763706	28310.489856
485.132489	27815.619947
485.501213	27894.897133
485.869879	28094.277288
486.238487	28052.715495
486.607036	28332.474328
486.975527	28040.278968
487.343959	28380.715649
487.712333	28714.629077
488.080648	28687.971456
488.448905	29115.849471
488.817104	29042.921619
489.185244	29939.775655
489.553326	31114.677053
489.921350	33064.466811
490.289315	35464.174509
490.657222	36124.608513
491.025070	36529.758486
491.392861	36129.828628
491.760593	35311.341848
492.128267	34291.501302
492.495883	33353.536655
492.863440	32504.329084
493.230939	31631.879273
493.598380	31120.615532
493.965763	31016.765243
494.333088	30551.570086
494.700354	30387.525899
495.067563	30367.696520
495.434713	30291.328081
495.801805	30577.174107
496.168839	30444.879106
496.535815	30310.171914
496.902733	30460.610027
497.269593	30296.028957
497.636395	30437.569433
498.003139	30742.569323
498.369825	30514.300836
498.736453	30907.417574
499.103023	30781.343358
499.469535	30877.425230
499.835989	31027.311336
500.202385	30888.919060
500.568723	30972.211525
500.935003	31313.275829
501.301226	31200.860619
501.667390	31899.204100
502.033497	32092.655858
502.399546	31910.206418
502.765537	31502.987052
503.131470	31977.440287
503.497345	32418.432864
503.863163	31413.173855
504.228923	32177.294311
504.594625	32591.825871
504.960269	32082.666812
505.325856	32755.275202
505.691385	32452.279171
506.056856	32784.970119
506.422270	33274.529172
506.787625	32818.861796
507.152924	33283.015954
507.518164	33485.657736
507.883347	33056.085893
508.248472	33234.222626
508.613540	33920.429529
508.978550	34161.026158
509.343503	34006.227447
509.708398	34383.890528
510.073236	35005.900857
510.438016	35109.700735
510.802738	34806.135054
511.167403	35374.396600
511.532010	35625.529241
511.896561	36111.171317
512.261053	36865.612758
512.625488	36651.454460
512.989866	36600.690041
513.354186	36655.210120
513.718449	36633.659187
514.082655	37513.680811
514.446803	37221.979485
514.810894	37861.444809
515.174927	37874.783702
515.538904	37878.499033
515.902822	38540.601658
516.266684	38231.047086
516.630488	38599.310936
516.994235	38610.242678
517.357925	39208.897341
517.721558	39464.942586
518.085133	39866.294050
518.448651	40053.192308
518.812112	39944.406729
519.175516	40100.783321
519.538863	40569.086349
519.902152	40624.760852
520.265385	41179.479339
520.628560	41195.810157
520.991678	41152.670483
521.354739	41397.390775
521.717743	41772.795420
522.080690	41664.816425
522.443580	42355.504914
522.806413	42381.129099
523.169189	42531.181563
523.531908	42771.125363
523.894569	42620.886376
524.257174	42823.452540
524.619722	43174.909183
524.982213	43304.013133
525.344647	43366.105025
525.707025	43481.166841
526.069345	43935.226089
526.431608	43851.966392
526.793815	44227.655862
527.155964	43788.929283
527.518057	44053.259665
527.880093	43914.645578
528.242072	44539.118511
528.603995	44272.771668
528.965860	44207.839086
529.327669	44425.609370
529.689421	44485.410058
530.051117	44424.160038
530.412755	44725.961316
530.774337	44790.236028
531.135862	44735.438686
531.497331	44883.124329
531.858743	44883.555347
532.220098	45291.455270
532.581396	45015.016037
532.942638	44786.987004
533.303824	45041.078802
533.664953	45096.309684
534.026025	44778.235561
534.387040	45339.326067
534.747999	45431.422906
535.108902	45726.282515
535.469748	45059.547069
535.830537	45324.227811
536.191270	45568.542291
536.551947	45305.313402
536.912567	45577.182828
537.273131	45748.186329
537.633638	45354.048756
537.994089	45563.980047
538.354483	45314.508466
538.714821	45968.227653
539.075103	46243.958604
539.435328	46103.872500
539.795497	45855.981321
540.155609	45987.066445
540.515665	46565.838797
540.875665	45881.083747
541.235609	46165.699731
541.595496	46283.519058
541.955328	46853.466871
542.315102	46289.883515
542.674821	46169.404979
543.034483	46069.433858
543.394090	46092.575274
543.753640	46067.873620
544.113134	47124.869991
544.472571	46224.068731
544.831953	47363.077113
545.191278	46630.514281
545.550548	46299.350802
545.909761	46954.990668
546.268918	47093.735825
546.628019	47512.789300
546.987064	46950.960266
547.346053	46230.072745
547.704986	47150.083322
548.063863	46800.514591
548.422684	46991.317223
548.781449	46594.303672
549.140158	47130.558933
549.498811	46892.041780
549.857408	46276.108562
550.215949	47125.124570
550.574434	46940.494831
550.932864	46894.156544
551.291237	47619.013974
551.649555	47358.189715
552.007817	47536.840645
552.366022	47201.936631
552.724173	47275.517312
553.082267	47691.135241
553.440305	48030.447745
553.798288	47293.342832
554.156215	47676.485648
554.514086	47871.066625
554.871902	47502.442332
555.229661	47669.334771
555.587365	47351.618571
555.945014	47485.110845
556.302606	47502.132301
556.660143	47600.865820
557.017625	47812.012028
557.375050	47509.583127
557.732421	47925.380016
558.089735	47987.565170
558.446994	47850.821351
558.804197	48330.784568
559.161345	48209.534735
559.518437	47537.979946
559.875474	47791.829769
560.232455	48030.084782
560.589381	48088.617619
560.946251	47887.503307
561.303065	48556.935770
561.659825	48230.952077
562.016528	48049.309222
562.373177	47611.827809
562.729770	48242.710569
563.086307	47767.914535
563.442789	48316.402156
563.799216	48184.175211
564.155587	48037.449907
564.511904	48020.143626
564.868164	48072.022141
565.224370	48379.923215
565.580520	48117.677350
565.936615	48316.490376
566.292654	47963.934761
566.648638	48330.545113
567.004567	48272.045043
567.360441	48361.717088
567.716260	48087.264069
568.072023	48447.172207
568.427732	48383.091580
568.783385	47903.970236
569.138982	48320.447682
569.494525	48446.806723
569.850013	48047.136485
570.205445	48169.583591
570.560823	47938.804609
570.916145	47818.295826
571.271412	48048.852998
571.626625	47713.918736
571.981782	47785.460271
572.336884	47369.368473
572.691931	47693.688586
573.046923	47351.555556
573.401860	47201.177937
573.756743	47216.311481
574.111570	47366.472331
574.466342	47267.360725
574.821059	47405.475738
575.175722	46931.635003
575.530330	47013.997374
575.884882	46658.820359
576.239380	46563.161945
576.593823	46647.180335
576.948211	46579.827999
577.302544	46125.665408
577.656823	46116.881197
578.011047	46385.388175
578.365216	46198.328600
578.719330	45923.074038
579.073389	45892.063380
579.427394	45945.262677
579.781344	45870.968672
580.135239	45627.475900
580.489080	45688.052925
580.842866	45183.773703
581.196597	45691.362442
581.550273	45677.078333
581.903895	45611.497963
582.257463	46053.438276
582.610975	45482.172202
582.964434	45822.911352
583.317837	45316.277911
583.671186	45263.270178
584.024481	45560.673050
584.377721	45094.378922
584.730906	45314.561398
585.084037	45439.241736
585.437113	45137.639583
585.790135	45250.906749
586.143103	44809.541127
586.496016	44974.578421
586.848874	45074.330253
587.201679	45101.751609
587.554428	44605.011433
587.907124	44876.994286
588.259765	44653.577909
588.612352	44816.699565
588.964884	44265.585503
589.317362	44581.156693
589.669786	44577.796764
590.022155	44420.848000
590.374470	44866.571700
590.726731	44448.647443
591.078937	43782.816884
591.431090	44108.069610
591.783188	43643.736491
592.135232	43440.966160
592.487222	43719.661309
592.839157	43867.974576
593.191038	43506.531407
593.542866	43299.715550
593.894639	42705.071124
594.246358	43010.746529
594.598022	42994.902182
594.949633	42571.515835
595.301190	42554.174266
595.652692	42482.196672
596.004141	42977.767300
596.355535	41863.047197
596.706876	41893.916703
597.058162	41607.667385
597.409395	42109.214301
597.760573	42340.293232
598.111698	41926.051538
598.462768	41846.592871
598.813785	41865.943340
599.164748	41469.519605
599.515657	41742.034299
599.866511	41241.251117
600.217312	41947.675567
600.568060	40849.303926
600.918753	41712.024310
601.269392	41622.657256
601.619978	41340.486231
601.970510	41554.369786
602.320988	41679.776049
602.671412	41956.656383
603.021783	41827.870026
603.372100	41381.697663
603.722363	41504.671570
604.072572	41536.148535
604.422728	41530.484799
604.772830	41318.209372
605.122878	41466.270581
605.472872	41322.759013
605.822813	41579.205030
606.172701	41333.078255
606.522534	41665.713751
606.872314	41873.043805
607.222041	41710.728734
607.571714	42022.229192
607.921333	41526.603110
608.270899	41736.173958
608.620411	42139.423416
608.969870	41877.041440
609.319276	41884.449416
609.668627	41906.388518
610.017926	42327.027436
610.367171	42475.819612
610.716362	42490.784277
611.065500	42389.131930
611.414585	42615.983853
611.763616	42796.522696
612.112594	42687.384236
612.461518	42820.458095
612.810389	43199.872977
613.159207	42998.773788
613.507971	42986.836336
613.856682	43466.613030
614.205340	43293.338490
614.553945	43986.093852
614.902496	43311.821881
615.250994	43740.267025
615.599439	43785.584478
615.947830	43906.577211
616.296169	43908.760031
616.644454	43955.395745
616.992686	44105.221358
617.340864	44561.493672
617.688990	44095.776756
618.037063	44766.794662
618.385082	44594.198158
618.733048	44936.026197
619.080961	44783.261592
619.428821	44802.223892
619.776628	44837.078429
620.124382	44657.736861
620.472083	44751.691366
620.819731	44849.318351
621.167326	44394.271037
621.514868	44370.403694
621.862357	43850.149056
622.209793	43942.255978
622.557176	43505.881098
622.904506	43242.937034
623.251783	42881.282136
623.599007	42551.804924
623.946179	42467.499188
624.293297	42223.172105
624.640363	41685.394415
624.987376	41524.382482
625.334336	41321.541575
625.681243	40906.823492
626.028097	40822.172436
626.374899	40629.633127
626.721647	40601.742943
627.068343	40392.207384
627.414987	40102.696439
627.761577	39841.085760
628.108115	40171.634218
628.454600	39423.456411
628.801032	39652.874281
629.147412	39532.799038
629.493739	39462.033841
629.840014	39008.206486
630.186236	39445.304772
630.532405	38883.034636
630.878521	39118.942992
631.224585	38894.596523
631.570597	38557.731499
631.916556	38725.077642
632.262462	38606.348387
632.608316	38536.225937
632.954117	38396.356603
633.299866	38350.547638
633.645562	38264.326263
633.991206	37723.337358
634.336797	37314.192271
634.682336	37210.576395
635.027823	36965.379713
635.373257	36840.291042
635.718639	36502.604311
636.063968	36405.095792
636.409245	35744.669350
636.754470	35697.660591
637.099642	35474.294626
637.444762	34897.931945
637.789829	35060.907407
638.134845	34666.580792
638.479808	34583.058955
638.824719	34539.397521
639.169577	34019.306720
639.514383	34123.666167
639.859137	33724.452152
640.203839	33899.778442
640.548489	33602.105869
640.893086	33601.601754
641.237632	33339.716332
641.582125	33438.417083
641.926566	33220.750142
642.270955	33264.958541
642.615292	33188.753939
642.959576	33073.908893
643.303809	33095.414455
643.647990	33167.389529
643.992118	33113.073617
644.336195	32966.048365
644.680219	33058.770308
645.024192	33265.792852
645.368112	33790.259375
645.711981	33824.231710
646.055797	34550.367072
646.399562	34357.517732
646.743274	35238.703862
647.086935	35632.244058
647.430544	35588.093632
647.774101	35619.610926
648.117606	35901.240027
648.461059	36044.958282
648.804460	35633.693390
649.147810	35127.891739
649.491108	34757.119915
649.834354	34624.497239
650.177548	33777.928712
650.520690	33277.742907
650.863781	33275.421456
651.206820	33088.001438
651.549807	32689.881354
651.892742	32109.372324
652.235626	32012.509074
652.578458	31874.129401
652.921238	31186.208506
653.263967	31488.092962
653.606644	31194.314681
653.949269	31121.787601
654.291843	30717.867669
654.634365	31076.026527
654.976836	30622.594903
655.319255	30696.016788
655.661622	30571.054146
656.003938	30439.127150
656.346203	30247.137326
656.688416	30495.593114
657.030577	30263.977300
657.372687	30083.052809
657.714746	30250.459446
658.056753	30435.290832
658.398708	29808.889657
658.740612	29884.186852
659.082465	30091.229561
659.424266	29986.582769
659.766016	29994.333543
660.107715	29856.160557
660.449362	29958.853902
660.790958	29944.499217
661.132503	29884.383457
661.473996	29948.693457
661.815438	30023.879746
662.156829	30151.546967
662.498168	29948.156574
662.839456	29920.697409
663.180693	30053.554498
663.521879	30138.150100
663.863013	30108.598857
664.204097	30074.540821
664.545129	30500.775420
664.886110	30425.894121
665.227040	30535.587108
665.567918	30528.532013
665.908746	30609.301380
666.249522	30694.489318
666.590248	30724.453937
666.930922	30816.586064
667.271545	30799.602417
667.612118	30861.611130
667.952639	30675.736226
668.293109	30705.882326
668.633528	30568.057180
668.973896	30527.213751
669.314213	30514.187410
669.654480	30312.379939
669.994695	30293.001744
670.334859	30220.603213
670.674973	30062.444573
671.015035	30245.045247
671.355047	30186.749344
671.695008	30123.203079
672.034918	30029.165395
672.374777	30130.820263
672.714585	30000.498874
673.054342	30129.559974
673.394049	29972.270933
673.733705	30200.110922
674.073310	29912.268599
674.412864	29972.989297
674.752368	29659.280814
675.091820	29888.227337
675.431223	29481.262548
675.770574	29280.100345
676.109875	29123.126376
676.449125	28908.784077
676.788324	28812.392174
677.127473	28328.708586
677.466571	28245.645494
677.805619	27952.026009
678.144616	27898.758657
678.483562	27847.595986
678.822458	27523.674125
679.161303	27476.120921
679.500098	27390.824598
679.838842	27324.775400
680.177535	27403.412359
680.516179	27651.051480
680.854771	27782.529813
681.193314	28567.944103
681.531805	29609.017990
681.870247	30356.767299
682.208638	31090.817272
682.546978	31353.012725
682.885268	31479.593577
683.223508	31030.283097
683.561697	30753.049882
683.899836	30593.744379
684.237925	30188.198676
684.575963	30042.274916
684.913951	29650.937705
685.251889	29828.424129
685.589776	29860.039725
685.927614	29882.004032
686.265401	30071.642158
686.603137	30164.603555
686.940824	30683.711331
687.278460	31010.173934
687.616046	31192.381398
687.953582	31863.825282
688.291068	31760.002719
688.628504	32092.499582
688.965889	32080.332757
689.303224	31810.172282
689.640510	31516.192354
689.977745	30869.124970
690.314930	30108.578692
690.652065	29677.423927
690.989150	29000.074332
691.326185	28151.348191
691.663170	27499.408531
692.000105	26762.268331
692.336990	26147.154300
692.673825	25731.760703
693.010610	25239.275260
693.347345	24732.631737
693.684030	24113.192396
694.020665	23911.788217
694.357251	23224.305903
694.693786	23236.765115
695.030272	23007.974868
695.366707	22504.199761
695.703093	22231.405282
696.039429	22309.560811
696.375716	22062.453532
696.711952	22077.163619
697.048139	21927.978233
697.384276	21759.747367
697.720363	21887.381821
698.056400	21780.020367
698.392388	21623.638734
698.728326	21625.080504
699.064214	21451.495933
699.400053	21457.053805
699.735842	21068.562325
700.071581	20867.984896
700.407270	20609.567788
700.742910	20443.789443
701.078501	20190.400887
701.414042	19977.795264
701.749533	19680.914153
702.084974	19363.316419
702.420366	19594.909547
702.755709	19189.865439
703.091002	18880.484786
703.426246	18953.934398
703.761440	18882.271875
704.096584	18641.221542
704.431679	18578.756605
704.766725	18522.338532
705.101721	18455.253377
705.436668	18585.327749
705.771565	18309.251479
706.106413	18625.893914
706.441212	18707.215287
706.775961	18812.507347
707.110661	18889.969717
707.445311	19247.677391
707.779913	19142.009765
708.114465	19438.338871
708.448967	19750.633310
708.783421	20389.002183
709.117825	20765.715007
709.452180	20995.621870
709.786485	21450.331426
710.120742	22214.111604
710.454949	22324.860713
710.789107	22836.323579
711.123216	23557.874012
711.457275	23769.569706
711.791286	24317.099507
712.125247	24466.917558
712.459159	24190.964797
712.793023	24942.986484
713.126837	23902.068873
713.460602	24149.035000
713.794318	23811.928001
714.127985	23525.383775
714.461602	22625.671404
714.795171	22601.519236
715.128691	21613.344698
715.462162	21095.013259
715.795584	20663.316570
716.128957	20386.746267
716.462281	20013.990749
716.795556	19739.182329
717.128782	19252.589995
717.461960	18652.932143
717.795088	18624.515158
718.128167	18280.446326
718.461198	17815.979616
718.794180	17697.852779
719.127113	17345.413111
719.459997	17164.496181
719.792833	16791.423070
720.125619	16832.727764
720.458357	16495.958523
720.791046	16357.508274
721.123686	16213.611058
721.456278	15998.651217
721.788821	15979.784698
722.121315	15706.357555
722.453761	15829.323900
722.786158	15709.059613
723.118506	15788.409895
723.450805	15671.923953
723.783056	15855.550503
724.115259	15738.845271
724.447412	15737.476598
724.779518	15962.029754
725.111574	16018.959505
725.443582	16283.892304
725.775542	16241.080305
726.107453	16753.132986
726.439315	16682.750917
726.771129	17107.286647
727.102895	17524.573198
727.434612	17809.519378
727.766281	17968.164489
728.097901	18290.689951
728.429473	18364.563019
728.760996	18385.347696
729.092471	18515.578344
729.423897	18392.884221
729.755276	18267.901415
730.086606	18384.785608
730.417887	18965.322364
730.749120	19531.325474
731.080305	19744.213401
731.411442	20156.947790
731.742530	20271.399626
732.073570	20423.438305
732.404562	20748.020557
732.735506	20576.704506
733.066401	20361.222905
733.397249	19864.601196
733.728048	19233.708354
734.058798	18370.302373
734.389501	17599.961133
734.720156	17080.991988
735.050762	16501.218967
735.381320	16119.964063
735.711831	15853.518918
736.042293	15470.718901
736.372707	15520.006262
736.703073	15317.293904
737.033391	15514.370252
737.363661	15508.444375
737.693883	15638.682585
738.024056	15840.999212
738.354182	16070.618729
738.684260	16437.113134
739.014290	16727.070221
739.344272	16940.207685
739.674207	17301.822253
740.004093	17468.523129
740.333931	17524.469854
740.663722	17593.125328
740.993464	17628.569681
741.323159	17471.870455
741.652806	17153.491343
741.982405	17000.416706
742.311956	16637.219215
742.641460	16517.975762
742.970915	16190.041143
743.300323	15834.498644
743.629683	15618.407064
743.958996	15300.625329
744.288260	14989.644110
744.617477	14684.732440
744.946647	14648.524352
745.275768	14328.494262
745.604842	14130.011432
745.933869	13942.891363
746.262847	13925.307819
746.591778	13839.565353
746.920662	13731.533427
747.249498	13732.914703
747.578286	13904.286207
747.907027	14071.498760
748.235720	14341.487836
748.564365	14412.240430
748.892963	14334.541126
749.221514	14435.822948
749.550017	14298.358244
749.878473	14273.490233
750.206881	14039.467268
750.535242	13971.293224
750.863555	13891.695925
751.191821	13790.172128
751.520039	13805.479592
751.848210	13735.508376
752.176334	13781.826498
752.504411	13707.086351
752.832440	13531.225699
753.160421	13645.826249
753.488356	13532.715360
753.816243	13439.257409
754.144082	13278.079118
754.471875	13232.527251
754.799620	13189.359851
755.127318	13171.894773
755.454969	13150.852997
755.782572	13112.058798
756.110129	13136.631902
756.437638	13045.437429
756.765100	13058.355386
757.092515	13080.818768
757.419882	13114.249179
757.747203	13128.934060
758.074477	13223.281775
758.401703	13197.760934
758.728882	13404.039908
759.056014	13444.069190
759.383099	13611.400210
759.710138	13741.908121
760.037129	13858.550339
760.364073	13930.195217
760.690970	13947.806488
761.017820	13962.163694
761.344623	14200.799315
761.671379	14584.937758
761.998088	15293.547549
762.324751	17088.717557
762.651366	20546.576050
762.977935	25054.151488
763.304456	28054.565598
763.630931	29083.918802
763.957359	27849.461213
764.283740	25561.601596
764.610074	23269.149487
764.936362	20614.233376
765.262602	18721.716166
765.588796	16786.961649
765.914943	15485.900335
766.241044	14373.060583
766.567097	13583.008431
766.893104	12862.055376
767.219064	12389.943756
767.544978	11910.267886
767.870845	11521.317661
768.196665	11301.810699
768.522438	11064.102651
768.848165	10859.058759
769.173846	10659.050980
769.499479	10523.753973
769.825066	10361.073418
770.150607	10126.213622
770.476101	10042.646414
770.801548	9926.967057
771.126949	9758.700903
771.452303	9644.783429
771.777611	9448.478378
772.102872	9436.462788
772.428087	9294.327455
772.753256	9136.884659
773.078378	9039.915544
773.403453	8867.984472
773.728482	8751.445597
774.053465	8674.510028
774.378401	8568.552536
774.703291	8447.829504
775.028135	8330.589910
775.352932	8285.665667
775.677683	8184.603136
776.002388	8081.808967
776.327046	8091.518230
776.651658	7992.192376
776.976224	7893.811738
777.300743	7886.050881
777.625216	7803.282697
777.949643	7757.264524
778.274024	7775.397554
778.598359	7686.302722
778.922647	7706.570681
779.246889	7650.528174
779.571086	7661.207858
779.895236	7673.664549
780.219339	7684.387083
780.543397	7684.021600
780.867409	7765.577387
781.191374	7777.897967
781.515294	7741.475630
781.839167	7832.947367
782.162995	7804.989127
782.486776	7753.342506
782.810511	7705.456586
783.134201	7613.533666
783.457844	7611.701207
783.781441	7557.037455
784.104993	7487.396435
784.428498	7465.515307
784.751958	7447.868748
785.075372	7422.859584
785.398739	7362.786674
785.722061	7411.716113
786.045337	7414.327431
786.368568	7574.812563
786.691752	7604.141997
787.014891	7947.159748
787.337983	8313.409658
787.661030	8912.979290
787.984031	9539.998006
788.306987	9954.874885
788.629897	10159.321400
788.952760	10105.013049
789.275579	9867.705773
789.598351	9470.503179
789.921078	9120.752967
790.243759	8697.646404
790.566395	8400.845950
790.888984	8150.746746
791.211529	7941.528779
791.534027	7718.155253
791.856480	7513.348295
792.178888	7441.559744
792.501249	7337.313723
792.823566	7185.375867
793.145836	7188.829057
793.468062	7159.507186
793.790241	7109.972808
794.112375	7178.837491
794.434464	7336.383631
794.756507	7380.211422
795.078505	7542.009775
795.400457	7858.604319
795.722364	8212.833597
796.044226	8502.074840
796.366042	8776.676573
796.687812	8727.653872
797.009538	8804.037435
797.331218	8696.340745
797.652852	8608.707847
797.974442	8456.654044
798.295986	8366.873615
798.617484	8167.715270
798.938938	8022.104062
799.260346	7922.594206
799.581709	7720.711117
799.903026	7646.588512
800.224299	7535.675566
800.545526	7362.711057
800.866708	7270.213445
801.187845	7197.341046
801.508936	7092.961435
801.829983	7051.618932
802.150984	6894.440796
802.471940	6853.728438
802.792851	6842.186716
803.113717	6804.027702
803.434538	6774.965450
803.755314	6714.985802
804.076045	6717.813889
804.396731	6666.114336
804.717372	6698.937288
805.037967	6703.376024
805.358518	6741.875316
805.679024	6826.445713
805.999485	6840.097158
806.319901	6884.756740
806.640272	6902.236941
806.960598	6980.803323
807.280879	6984.649724
807.601115	7065.280459
807.921306	7009.873137
808.241453	7023.307812
808.561554	7045.680453
808.881611	7009.623600
809.201623	7014.853797
809.521590	6956.207534
809.841513	6938.616428
810.161390	6977.995401
810.481223	6845.534042
810.801011	6829.576270
811.120755	6805.875285
811.440453	6723.288582
811.760107	6699.237237
812.079716	6661.718450
812.399281	6600.637309
812.718801	6580.321459
813.038276	6540.256889
813.357707	6475.835984
813.677093	6520.276276
813.996434	6425.447131
814.315731	6466.053625
814.634983	6459.006092
814.954191	6477.179451
815.273354	6579.998825
815.592473	6645.475852
815.911547	6770.967815
816.230577	6851.250711
816.549562	7000.864595
816.868502	7108.629341
817.187399	7209.265895
817.506250	7356.021445
817.825058	7393.880511
818.143821	7659.614853
818.462539	7942.385776
818.781213	8311.113412
819.099843	8869.824493
819.418429	9878.519048
819.736970	10861.221414
820.055466	12057.164588
820.373919	13607.261422
820.692327	15983.885677
821.010691	20166.962042
821.329011	29237.857997
821.647286	42312.274499
821.965517	55730.273362
822.283704	61044.123384
822.601847	63014.884343
822.919945	60329.933037
823.237999	56170.565218
823.556010	50023.699811
823.873976	43266.605251
824.191897	36695.403239
824.509775	31832.071054
824.827609	27273.859746
825.145398	24674.086296
825.463144	23309.224139
825.780845	23627.005875
826.098502	25431.249960
826.416116	29249.210675
826.733685	32952.822898
827.051210	34145.978313
827.368692	32337.804649
827.686129	28341.891203
828.003522	24178.026676
828.320872	20411.722664
828.638177	17548.453143
828.955439	15364.169073
829.272656	13530.318291
829.589830	12042.104141
829.906960	10757.363563
830.224046	9800.913005
830.541088	9050.443994
830.858086	8593.604550
831.175041	8211.096920
831.491952	8098.064168
831.808819	8144.319275
832.125642	8556.350423
832.442421	9458.454822
832.759157	11274.482604
833.075849	14232.268717
833.392497	17504.090990
833.709101	19692.304640
834.025662	19532.868067
834.342179	17813.587589
834.658653	15585.110243
834.975083	13633.989620
835.291469	11996.264929
835.607811	10665.952320
835.924110	9749.001723
836.240366	8870.285758
836.556578	8054.979947
836.872746	7411.169148
837.188871	6902.811632
837.504952	6479.256407
837.820990	6163.047511
838.136984	5946.527433
838.452935	5852.330953
838.768842	5878.023193
839.084706	6312.633669
839.400526	7534.730349
839.716303	9130.154718
840.032037	10238.369212
840.347727	10167.331793
840.663373	9171.983693
840.978977	8123.932849
841.294537	7297.397867
841.610054	6697.712288
841.925527	6258.060658
842.240957	5894.079268
842.556344	5560.609462
842.871687	5270.856542
843.186987	4991.947143
843.502244	4764.074387
843.817458	4600.035241
844.132629	4461.161534
844.447756	4368.159808
844.762840	4285.200059
845.077881	4212.935119
845.392879	4150.056807
845.707833	4102.680043
846.022745	4054.451324
846.337613	4024.035523
846.652438	3984.217969
846.967221	3970.586689
847.281960	3932.810803
847.596656	3914.413112
847.911309	3894.810585
848.225919	3873.204200
848.540485	3854.130994
848.855009	3842.397708
849.169490	3822.291066
849.483928	3810.512410
849.798323	3802.038231
850.112675	3781.780354
850.426984	3790.279739
850.741251	3774.795835
851.055474	3768.880041
851.369654	3774.712656
851.683792	3770.067233
851.997887	3776.323305
852.311938	3776.104015
852.625947	3785.140283
852.939914	3771.750978
853.253837	3785.324285
853.567718	3778.329684
853.881555	3769.724435
854.195350	3785.639357
854.509103	3780.734315
854.822812	3778.755662
855.136479	3769.169908
855.450103	3778.309520
855.763685	3770.646966
856.077224	3770.780556
856.390720	3786.508956
856.704173	3808.642142
857.017584	3822.606138
857.330953	3831.239114
857.644278	3852.550592
857.957561	3859.048640
858.270802	3857.874051
858.584000	3865.370247
858.897155	3856.313814
859.210268	3840.189683
859.523339	3818.285870
859.836367	3817.514573
860.149352	3808.077533
860.462295	3799.694094
860.775195	3787.786889
861.088054	3784.885705
861.400869	3783.012916
861.713642	3786.463586
862.026373	3793.911891
862.339062	3802.925474
862.651708	3819.331909
862.964312	3856.485213
863.276873	3864.505689
863.589392	3921.629523
863.901869	3971.055516
864.214303	4017.794574
864.526696	4055.487282
864.839045	4095.776183
865.151353	4122.123774
865.463619	4132.380001
865.775842	4136.052482
866.088023	4155.004700
866.400162	4147.594203
866.712258	4158.294053
867.024313	4158.311697
867.336325	4154.712313
867.648296	4164.436698
867.960224	4160.653313
868.272110	4173.006660
868.583954	4175.252494
868.895755	4187.804967
869.207515	4185.191129
869.519233	4225.984146
869.830909	4244.785129
870.142542	4267.263634
870.454134	4283.551602
870.765684	4307.802073
871.077191	4345.850181
871.388657	4370.942525
871.700081	4410.175304
872.011463	4452.863795
872.322803	4487.473837
872.634101	4519.840565
872.945357	4562.221546
873.256571	4616.275318
873.567744	4647.142303
873.878874	4663.773069
874.189963	4702.579872
874.501010	4709.640007
874.812015	4709.352662
875.122979	4752.562912
875.433900	4753.316564
875.744780	4764.102113
876.055618	4793.239982
876.366415	4794.205363
876.677169	4812.240091
876.987882	4856.997976
877.298554	4914.920833
877.609183	4995.775900
877.919771	5103.880923
878.230317	5251.357359
878.540822	5474.171317
878.851285	5797.820956
879.161707	6265.352687
879.472087	7033.024636
879.782425	8280.261550
880.092722	10480.876439
880.402977	13821.177745
880.713191	17612.175849
881.023363	21357.725430
881.333494	23578.265479
881.643583	24805.529342
881.953631	24802.124042
882.263637	23954.267500
882.573602	22455.887863
882.883526	20876.970752
883.193408	19192.403660
883.503248	17488.065162
883.813048	15929.010197
884.122806	14477.488085
884.432522	12996.031601
884.742197	11721.713608
885.051831	10624.514035
885.361424	9609.039128
885.670975	8789.493706
885.980485	8086.966068
886.289954	7510.535331
886.599382	7039.764659
886.908768	6653.219064
887.218113	6287.500997
887.527417	5999.772100
887.836680	5728.918465
888.145901	5510.374364
888.455082	5344.696843
888.764221	5194.525911
889.073319	5058.240837
889.382376	4984.415660
889.691392	4923.891567
890.000366	4899.215118
890.309300	4883.096029
890.618193	4890.945106
890.927044	4873.031365
891.235855	4893.667329
891.544625	4922.958953
891.853353	4988.211648
892.162041	5106.071305
892.470687	5298.103978
892.779293	5546.143871
893.087858	5920.999030
893.396381	6507.227249
893.704864	7317.938049
894.013306	8491.153180
894.321707	9679.022946
894.630068	10515.952787
894.938387	10721.044570
895.246665	10482.078754
895.554903	9870.740548
895.863100	9157.192947
896.171256	8590.030372
896.479371	8078.877537
896.787446	7570.857778
897.095480	7139.733260
897.403473	6817.013714
897.711425	6496.963460
898.019336	6224.216872
898.327207	5949.516837
898.635038	5716.870108
898.942827	5472.359023
899.250576	5274.476090
899.558284	5073.268517
899.865952	4951.668324
900.173579	4803.491169
900.481165	4692.356412
900.788711	4600.095734
901.096216	4528.592008
901.403681	4464.387873
901.711105	4436.822844
902.018489	4423.935134
902.325832	4497.223428
902.633135	4615.635091
902.940397	4964.712310
903.247619	5772.529487
903.554800	7229.080150
903.861941	9162.314759
904.169041	10703.138391
904.476101	11332.299597
904.783121	10970.329628
905.090100	10221.977901
905.397039	9372.503148
905.703938	8608.465872
906.010796	7915.226559
906.317614	7354.078081
906.624391	6815.433313
906.931129	6384.575976
907.237826	5978.337114
907.544483	5601.319300
907.851099	5224.041867
908.157675	4867.271847
908.464211	4540.748751
908.770707	4305.183193
909.077163	4100.219960
909.383578	3951.969708
909.689954	3841.175229
909.996289	3769.563118
910.302584	3706.659600
910.608839	3671.331194
910.915054	3639.619816
911.221229	3624.329996
911.527363	3639.652583
911.833458	3651.516939
912.139513	3680.372503
912.445527	3709.061710
912.751502	3793.372487
913.057436	3896.915267
913.363331	4030.578940
913.669186	4239.625508
913.975000	4501.392463
914.280775	4923.672276
914.586510	5510.449981
914.892205	6317.079967
915.197859	7363.494956
915.503475	8603.235674
915.809050	9674.836268
916.114585	10331.958234
916.420081	10596.676784
916.725536	10560.120857
917.030952	10109.008164
917.336328	9696.737561
917.641665	9278.876319
917.946961	8795.722052
918.252218	8367.816310
918.557435	7850.417485
918.862612	7411.106133
919.167750	7035.835079
919.472848	6607.049657
919.777906	6229.948664
920.082925	5864.270926
920.387904	5494.116643
920.692843	5224.750149
920.997743	4978.343590
921.302603	4738.135130
921.607423	4578.411211
921.912204	4411.881735
922.216946	4290.422695
922.521647	4169.815610
922.826310	4065.262079
923.130932	3971.050475
923.435516	3872.516082
923.740059	3801.619815
924.044564	3717.853482
924.349028	3663.381294
924.653454	3595.996191
924.957840	3524.832742
925.262186	3478.610403
925.566493	3417.683018
925.870761	3360.254193
926.174989	3325.445026
926.479178	3287.321300
926.783328	3244.113570
927.087438	3217.967626
927.391509	3179.700227
927.695541	3151.023623
927.999533	3125.263327
928.303486	3105.207096
928.607400	3088.425095
928.911275	3075.686099
929.215110	3055.241700
929.518906	3049.857748
929.822663	3047.831204
930.126381	3047.869013
930.430060	3053.154662
930.733699	3054.475445
931.037299	3067.166549
931.340861	3064.270407
931.644383	3070.375244
931.947866	3071.315419
932.251309	3064.963565
932.554714	3066.911971
932.858080	3061.432237
933.161407	3052.073335
933.464694	3040.554298
933.767943	3034.507434
934.071153	3030.613143
934.374323	3020.961854
934.677455	3017.879188
934.980548	3007.754031
935.283602	2999.741117
935.586617	3000.305726
935.889593	3010.761079
936.192530	3014.985566
936.495428	3027.074253
936.798287	3050.999569
937.101108	3084.258582
937.403890	3139.025677
937.706632	3198.723021
938.009336	3282.315434
938.312002	3353.919983
938.614628	3422.494799
938.917216	3472.797953
939.219765	3502.896162
939.522275	3536.049310
939.824747	3542.469219
940.127179	3537.707849
940.429573	3532.770039
940.731929	3531.292981
941.034246	3515.950229
941.336524	3502.203003
941.638763	3487.871003
941.940964	3472.692088
942.243126	3425.917742
942.545250	3403.194741
942.847335	3367.394987
943.149381	3333.775532
943.451389	3298.305974
943.753359	3262.571755
944.055290	3234.815162
944.357182	3213.622151
944.659036	3195.920139
944.960851	3188.222297
945.262628	3176.239475
945.564367	3176.993127
945.866067	3170.961387
946.167729	3165.595078
946.469352	3163.840757
946.770937	3163.795386
947.072484	3144.865854
947.373992	3150.746360
947.675462	3139.615492
947.976893	3123.859366
948.278286	3115.223869
948.579641	3108.612396
948.880958	3099.782815
949.182236	3105.461675
949.483476	3097.176538
949.784678	3098.555294
950.085841	3098.290633
950.386967	3111.775720
950.688054	3126.319449
950.989103	3147.250319
951.290114	3168.266890
951.591087	3199.259904
951.892021	3227.641600
952.192917	3252.479365
952.493776	3279.683952
952.794596	3289.748615
953.095378	3290.582926
953.396122	3284.727626
953.696828	3280.510701
953.997496	3270.098198
954.298126	3242.911255
954.598718	3222.592884
954.899272	3197.349306
955.199788	3168.894513
955.500266	3137.110038
955.800706	3102.363886
956.101108	3062.901733
956.401472	3027.805220
956.701798	2997.835561
957.002087	2958.073460
957.302337	2926.457863
957.602550	2901.355438
957.902724	2870.690099
958.202861	2844.476099
958.502960	2823.520022
958.803022	2804.217444
959.103045	2784.352777
959.403031	2765.304778
959.702979	2750.148549
960.002889	2739.521796
960.302762	2725.356154
960.602596	2714.563044
960.902393	2707.049204
961.202153	2697.108048
961.501875	2690.962882
961.801559	2684.860565
962.101205	2674.483350
962.400814	2671.035201
962.700385	2663.470949
962.999918	2659.438026
963.299414	2647.619041
963.598873	2651.876296
963.898293	2642.482105
964.197677	2643.870943
964.497022	2642.366159
964.796331	2638.981024
965.095601	2633.856691
965.394835	2633.352576
965.694030	2633.637401
965.993189	2632.384674
966.292309	2629.619601
966.591393	2627.766977
966.890439	2627.724127
967.189447	2630.045579
967.488419	2630.476597
967.787353	2630.794190
968.086249	2631.857874
968.385108	2634.469191
968.683930	2633.065230
968.982714	2640.616878
969.281462	2641.715850
969.580172	2649.123826
969.878844	2655.155566
970.177480	2664.643018
970.476078	2669.076712
970.774639	2675.090809
971.073162	2683.116326
971.371649	2693.042358
971.670098	2697.569314
971.968510	2702.058462
972.266885	2706.681200
972.565223	2711.848382
972.863524	2713.761500
973.161788	2716.307283
973.460014	2719.946996
973.758204	2720.904815
974.056356	2724.015207
974.354471	2727.864128
974.652550	2723.349775
974.950591	2725.046123
975.248595	2723.022100
975.546563	2720.194012
975.844493	2717.229814
976.142386	2711.790409
976.440243	2706.141796
976.738062	2703.676672
977.035845	2694.642924
977.333590	2688.318797
977.631299	2684.603466
977.928971	2680.341171
978.226606	2668.383554
978.524204	2665.936074
978.821765	2663.486073
979.119290	2668.381033
979.416777	2669.429593
979.714228	2668.502021
980.011642	2674.117866
980.309020	2677.356808
980.606360	2695.409180
980.903664	2718.822819
981.200931	2755.756832
981.498162	2803.725932
981.795356	2880.951368
982.092513	2971.659369
982.389633	3077.223651
982.686717	3173.623116
982.983764	3249.046339
983.280775	3295.712300
983.577749	3303.929381
983.874686	3291.271044
984.171587	3258.790889
984.468451	3217.007286
984.765279	3173.660924
985.062070	3125.333903
985.358824	3078.862026
985.655543	3025.037627
985.952224	2970.303299
986.248869	2907.631674
986.545478	2845.756552
986.842050	2791.949796
987.138586	2743.872312
987.435086	2706.126673
987.731549	2677.109791
988.027975	2650.116933
988.324366	2632.072123
988.620719	2618.213991
988.917037	2610.889194
989.213318	2599.276896
989.509563	2590.449836
989.805772	2585.421285
990.101944	2581.007755
990.398080	2578.706468
990.694180	2578.963567
990.990244	2580.765779
991.286271	2577.662949
991.582262	2580.942220
991.878217	2581.305183
992.174136	2588.445977
992.470019	2588.148549
992.765865	2590.086873
993.061676	2598.949221
993.357450	2603.420725
993.653188	2612.898094
993.948890	2633.397946
994.244556	2647.666932
994.540186	2670.989830
994.835780	2701.473688
995.131337	2742.634709
995.426859	2782.185081
995.722345	2829.713080
996.017795	2879.791902
996.313208	2921.525094
996.608586	2947.965946
996.903928	2960.853656
997.199234	2959.792493
997.494504	2957.972637
997.789738	2940.439503
998.084936	2917.892943
998.380099	2887.900598
998.675225	2857.371370
998.970316	2825.735609
999.265371	2790.485341
999.560390	2754.252048
999.855373	2723.541339
1000.150320	2694.869776
1000.445232	2665.704181
1000.740108	2647.543424
1001.034948	2628.162708
1001.329752	2611.665532
1001.624521	2601.086671
1001.919254	2591.352202
1002.213951	2580.831314
1002.508613	2574.731518
1002.803239	2567.099211
1003.097829	2560.001267
1003.392384	2556.530432
1003.686903	2549.739998
1003.981386	2548.862837
1004.275834	2544.620706
1004.570246	2538.848585
1004.864623	2539.587114
1005.158964	2537.752134
1005.453270	2537.051414
1005.747540	2534.893800
1006.041775	2532.451361
1006.335974	2529.474560
1006.630138	2530.402132
1006.924266	2528.652852
1007.218359	2527.117820
1007.512416	2524.173786
1007.806438	2521.905267
1008.100425	2526.245701
1008.394376	2519.654392
1008.688292	2526.089425
1008.982172	2524.927439
1009.276017	2522.401821
1009.569827	2523.374763
1009.863602	2522.696728
1010.157341	2521.123888
1010.451045	2521.915349
1010.744714	2520.246728
1011.038347	2522.994156
1011.331945	2517.093486
1011.625508	2515.780265
1011.919036	2514.232631
1012.212528	2517.315297
1012.505986	2515.039216
1012.799408	2513.357991
1013.092795	2511.326406
1013.386147	2513.133659
1013.679464	2513.300018
1013.972745	2512.543844
1014.265992	2513.456293
1014.559204	2512.692558
1014.852380	2509.594769
1015.145521	2514.986283
1015.438628	2510.759276
1015.731699	2513.524349
1016.024736	2513.602487
1016.317737	2515.684483
1016.610703	2514.136849
1016.903635	2517.927797
1017.196531	2516.922087
1017.489393	2519.457787
1017.782219	2519.586336
1018.075011	2524.156142
1018.367768	2525.184538
1018.660490	2525.265196
1018.953177	2525.265196
1019.245829	2525.265196
