Dividing Wavelength (nm)	Counts (n)	Blue Motor Position (mm): 6.600000	Red Motor Position (mm): 0.000000	
326.493990	2141.083903
326.888308	2141.083903
327.282561	2141.083903
327.676750	2109.475868
328.070874	2107.940837
328.464933	2110.103492
328.858929	2119.472476
329.252859	2127.445061
329.646726	2138.918727
330.040528	2150.117650
330.434265	2169.344611
330.827938	2186.930676
331.221547	2202.538089
331.615091	2224.578013
332.008571	2242.895046
332.401986	2262.369023
332.795338	2281.381735
333.188625	2300.414611
333.581847	2320.004535
333.975006	2337.124293
334.368100	2353.961747
334.761129	2374.963194
335.154095	2392.148488
335.546996	2407.433266
335.939833	2421.719896
336.332606	2436.596341
336.725315	2450.693928
337.117960	2461.015690
337.510540	2466.813017
337.903056	2480.056128
338.295508	2485.863538
338.687896	2494.231853
339.080220	2502.824500
339.472480	2510.328257
339.864676	2515.281191
340.256807	2519.651871
340.648875	2519.949299
341.040879	2526.522964
341.432818	2525.587830
341.824694	2526.338962
342.216506	2531.153264
342.608253	2529.134282
342.999937	2530.084539
343.391557	2527.226205
343.783113	2525.164373
344.174605	2523.142870
344.566033	2528.259642
344.957397	2522.568179
345.348697	2518.850328
345.739934	2517.532066
346.131106	2519.689680
346.522215	2515.119874
346.913260	2512.485871
347.304241	2510.686179
347.695159	2510.119049
348.086012	2503.996568
348.476802	2506.605365
348.867528	2504.248626
349.258191	2504.624192
349.648789	2500.941629
350.039324	2500.283758
350.429796	2500.314005
350.820203	2499.346104
351.210548	2497.722852
351.600828	2496.263438
351.991045	2498.960455
352.381198	2494.143633
352.771288	2497.251504
353.161314	2494.998108
353.551276	2496.812924
353.941175	2497.274189
354.331010	2491.519712
354.720782	2493.223622
355.110490	2494.493993
355.500135	2495.184631
355.889717	2496.455002
356.279235	2492.477532
356.668689	2497.589262
357.058080	2496.190341
357.447408	2492.923674
357.836672	2491.749085
358.225873	2493.321925
358.615010	2489.087356
359.004084	2496.172697
359.393095	2498.237050
359.782043	2497.906854
360.170927	2498.594972
360.559748	2497.138078
360.948505	2500.140085
361.337199	2498.335352
361.725830	2501.344921
362.114398	2501.760816
362.502903	2499.996412
362.891344	2501.879283
363.279722	2502.690909
363.668037	2501.176042
364.056289	2502.529592
364.444478	2504.788029
364.832603	2502.645539
365.220665	2505.211486
365.608665	2503.192504
365.996601	2507.437156
366.384474	2505.808863
366.772284	2504.994717
367.160031	2504.127638
367.547715	2507.855571
367.935336	2504.218379
368.322893	2504.553616
368.710388	2506.423884
369.097820	2508.790705
369.485189	2506.446569
369.872495	2508.566374
370.259738	2507.749707
370.646918	2506.716271
371.034035	2509.065448
371.421090	2509.491426
371.808081	2505.153513
372.195010	2508.195849
372.581875	2511.114677
372.968678	2511.361694
373.355418	2511.686848
373.742096	2512.052332
374.128710	2510.870181
374.515262	2510.003103
374.901751	2508.974708
375.288177	2510.471930
375.674540	2512.458145
376.060841	2511.341529
376.447079	2513.030316
376.833254	2512.644667
377.219367	2508.039573
377.605417	2512.213649
377.991404	2511.238186
378.377329	2512.526200
378.763191	2508.147958
379.148991	2514.182219
379.534727	2511.855727
379.920402	2516.677591
380.306013	2515.787827
380.691563	2515.170286
381.077049	2515.560975
381.462474	2516.828825
381.847835	2515.629031
382.233134	2515.485358
382.618371	2513.360511
383.003545	2514.482168
383.388657	2515.941582
383.773706	2514.073835
384.158693	2515.364370
384.543618	2516.712879
384.928480	2517.700945
385.313280	2516.518794
385.698017	2514.799761
386.082692	2517.859741
386.467305	2518.328568
386.851856	2518.641120
387.236344	2516.233969
387.620770	2519.241017
388.005133	2518.242869
388.389435	2517.622807
388.773674	2516.682632
389.157851	2519.082221
389.541965	2518.164731
389.926018	2520.241686
390.310008	2521.086080
390.693936	2518.247910
391.077802	2521.650689
391.461606	2515.755059
391.845348	2520.705472
392.229027	2519.818229
392.612645	2520.823940
392.996200	2521.116327
393.379694	2521.658251
393.763125	2522.502644
394.146494	2522.903416
394.529801	2522.116996
394.913047	2524.690505
395.296230	2523.137829
395.679351	2523.856194
396.062410	2522.966430
396.445408	2520.561800
396.828343	2522.485000
397.211217	2519.046933
397.594028	2518.689011
397.976778	2517.912673
398.359466	2524.861904
398.742092	2520.826460
399.124656	2524.279651
399.507158	2523.523477
399.889598	2526.336441
400.271977	2523.533560
400.654294	2524.763601
401.036549	2523.377284
401.418742	2526.119672
401.800874	2524.761081
402.182944	2531.072605
402.564952	2524.198992
402.946898	2529.842564
403.328783	2526.767460
403.710606	2525.983561
404.092367	2527.533715
404.474067	2527.115300
404.855705	2527.170752
405.237282	2525.502130
405.618797	2527.783253
406.000250	2528.685619
406.381642	2527.664785
406.762972	2527.253931
407.144240	2531.128058
407.525447	2532.146371
407.906593	2528.539426
408.287677	2530.891124
408.668700	2526.026410
409.049661	2527.579086
409.430560	2528.486493
409.811399	2528.118489
410.192176	2528.806607
410.572891	2529.310722
410.953545	2527.483304
411.334138	2529.837523
411.714669	2530.019004
412.095139	2529.298119
412.475547	2530.800383
412.855894	2528.728469
413.236180	2530.601258
413.616405	2528.783922
413.996568	2529.976154
414.376670	2530.283665
414.756711	2530.482790
415.136691	2531.133099
415.516609	2529.905578
415.896466	2532.136289
416.276262	2530.518078
416.655997	2530.054292
417.035670	2526.948942
417.415283	2530.676875
417.794834	2526.611184
418.174324	2530.916330
418.553753	2531.075126
418.933121	2531.372554
419.312428	2530.891124
419.691674	2532.985723
420.070859	2531.428007
420.449983	2531.546474
420.829045	2532.837009
421.208047	2531.627132
421.586988	2532.617719
421.965867	2533.215096
422.344686	2534.714839
422.723444	2533.567977
423.102141	2534.122503
423.480777	2536.101156
423.859352	2531.465815
424.237866	2533.129396
424.616319	2533.048738
424.994712	2533.288193
425.373044	2533.754499
425.751314	2534.810621
426.129524	2535.896990
426.507673	2534.339273
426.885762	2531.596885
427.263789	2533.041176
427.641756	2532.847092
428.019662	2532.912627
428.397508	2535.110570
428.775292	2536.648122
429.153016	2537.215251
429.530679	2535.793646
429.908282	2531.402801
430.285824	2533.532688
430.663305	2537.311033
431.040726	2533.847761
431.418086	2535.922195
431.795385	2538.699871
432.172624	2535.665097
432.549802	2537.374048
432.926920	2534.664428
433.303977	2538.586445
433.680974	2536.985879
434.057910	2537.810108
434.434786	2536.025539
434.811601	2540.560057
435.188355	2536.953111
435.565050	2536.766589
435.941683	2537.459747
436.318257	2535.574356
436.694770	2534.261135
437.071222	2537.742052
437.447614	2532.683254
437.823946	2536.595189
438.200218	2537.462268
438.576429	2538.979655
438.952580	2537.232895
439.328670	2537.253060
439.704700	2538.886394
440.080670	2540.577701
440.456580	2537.734490
440.832429	2538.009233
441.208218	2539.498894
441.583947	2537.628626
441.959616	2537.852957
442.335224	2539.188863
442.710773	2537.560570
443.086261	2539.410674
443.461689	2538.604089
443.837057	2539.067875
444.212365	2539.259439
444.587612	2538.530992
444.962800	2537.570653
445.337927	2540.635674
445.712995	2538.848585
446.088002	2540.595345
446.462949	2537.996630
446.837837	2540.923020
447.212664	2539.448483
447.587431	2539.357742
447.962139	2539.685417
448.336786	2543.128525
448.711374	2539.377906
449.085901	2544.320758
449.460369	2538.674665
449.834776	2540.706250
450.209124	2543.468803
450.583412	2541.192722
450.957640	2541.318751
451.331808	2540.938143
451.705917	2542.763041
452.079965	2541.220448
452.453954	2540.272711
452.827883	2543.108360
453.201752	2541.109543
453.575562	2539.642567
453.949311	2541.331353
454.323001	2540.181970
454.696632	2540.703730
455.070202	2542.750438
455.443713	2541.843031
455.817164	2537.147196
456.190556	2536.610313
456.563888	2539.602238
456.937160	2539.667773
457.310373	2540.386137
457.683526	2541.979142
458.056619	2542.594163
458.429653	2542.974770
458.802628	2542.180788
459.175542	2540.103833
459.548398	2543.231868
459.921194	2540.552495
460.293930	2543.194060
460.666607	2542.747918
461.039224	2545.064328
461.411782	2542.309337
461.784280	2543.100798
462.156719	2543.567105
462.529099	2544.260264
462.901419	2541.469985
463.273680	2543.083154
463.645882	2544.988711
464.018024	2542.957126
464.390106	2542.410160
464.762130	2542.674821
465.134094	2543.574667
465.505999	2544.411498
465.877845	2543.587270
466.249631	2544.928217
466.621358	2545.417209
466.993026	2547.325285
467.364634	2547.224462
467.736184	2543.751107
468.107674	2544.356046
468.479105	2541.275901
468.850477	2543.998124
469.221790	2542.616848
469.593043	2544.676159
469.964238	2544.466951
470.335373	2546.498536
470.706449	2548.731767
471.077467	2544.625748
471.448425	2546.392672
471.819324	2546.455686
472.190164	2545.641540
472.560945	2542.619368
472.931667	2548.247817
473.302330	2547.741181
473.672934	2543.988042
474.043479	2542.284132
474.413965	2546.188505
474.784393	2539.922351
475.154761	2540.234902
475.525070	2539.887063
475.895321	2542.700027
476.265513	2542.873947
476.635645	2541.653987
477.005719	2545.515511
477.375734	2548.031047
477.745691	2544.913093
478.115588	2543.831766
478.485427	2543.126004
478.855207	2547.862168
479.224928	2544.111550
479.594591	2544.547610
479.964194	2546.077600
480.333739	2547.126160
480.703226	2546.173382
481.072653	2547.569781
481.442022	2545.749925
481.811333	2546.657332
482.180584	2546.861499
482.549777	2546.185985
482.918912	2547.060625
483.287988	2547.600028
483.657005	2546.488454
484.025964	2547.279915
484.394864	2544.378731
484.763706	2544.504760
485.132489	2548.966181
485.501213	2547.854607
485.869879	2545.891077
486.238487	2547.673125
486.607036	2547.647919
486.975527	2546.871582
487.343959	2546.526263
487.712333	2551.741336
488.080648	2545.349153
488.448905	2547.874771
488.817104	2543.758669
489.185244	2546.876623
489.553326	2548.076417
489.921350	2547.854607
490.289315	2547.670604
490.657222	2550.075235
491.025070	2549.392158
491.392861	2551.990873
491.760593	2547.199257
492.128267	2546.707744
492.495883	2548.812426
492.863440	2546.017106
493.230939	2548.089020
493.598380	2549.833259
493.965763	2543.942671
494.333088	2543.738504
494.700354	2546.009544
495.067563	2546.853937
495.434713	2542.362269
495.801805	2547.607590
496.168839	2548.615821
496.535815	2548.688917
496.902733	2546.864020
497.269593	2550.445760
497.636395	2549.563558
498.003139	2548.799823
498.369825	2548.361243
498.736453	2548.431819
499.103023	2547.597508
499.469535	2550.970040
499.835989	2547.927703
500.202385	2548.038609
500.568723	2548.290666
500.935003	2549.661860
501.301226	2545.359235
501.667390	2548.497354
502.033497	2550.367622
502.399546	2548.630944
502.765537	2550.302087
503.131470	2549.999617
503.497345	2551.448949
503.863163	2550.959957
504.228923	2546.934596
504.594625	2551.665719
504.960269	2547.983156
505.325856	2550.349978
505.691385	2547.196736
506.056856	2552.295863
506.422270	2548.310831
506.787625	2551.441388
507.152924	2547.368135
507.518164	2549.409803
507.883347	2551.968188
508.248472	2547.383259
508.613540	2548.976263
508.978550	2548.484751
509.343503	2548.860317
509.708398	2551.897612
510.073236	2551.267468
510.438016	2552.290822
510.802738	2548.973743
511.167403	2550.642365
511.532010	2548.096582
511.896561	2549.087169
512.261053	2550.717982
512.625488	2544.955943
512.989866	2545.785213
513.354186	2546.017106
513.718449	2545.684390
514.082655	2548.396531
514.446803	2550.362581
514.810894	2547.471479
515.174927	2550.382745
515.538904	2549.709751
515.902822	2549.500543
516.266684	2550.788558
516.630488	2549.528270
516.994235	2548.363763
517.357925	2549.336706
517.721558	2551.905174
518.085133	2552.094217
518.448651	2551.275029
518.812112	2548.479710
519.175516	2550.879299
519.538863	2550.717982
519.902152	2550.891902
520.265385	2550.244113
520.628560	2550.188661
520.991678	2549.926521
521.354739	2548.280584
521.717743	2550.518856
522.080690	2550.929710
522.443580	2548.913249
522.806413	2551.396017
523.169189	2550.067673
523.531908	2552.484906
523.894569	2548.668753
524.257174	2549.545914
524.619722	2550.849052
524.982213	2553.246121
525.344647	2551.222097
525.707025	2550.735626
526.069345	2550.541542
526.431608	2549.858465
526.793815	2552.242931
527.155964	2550.813764
527.518057	2553.120092
527.880093	2549.777807
528.242072	2551.756460
528.603995	2553.651933
528.965860	2550.362581
529.327669	2551.385935
529.689421	2548.628424
530.051117	2553.198230
530.412755	2549.898794
530.774337	2551.020451
531.135862	2550.450801
531.497331	2547.892415
531.858743	2545.853268
532.220098	2547.615152
532.581396	2548.512477
532.942638	2546.145655
533.303824	2551.572457
533.664953	2553.472973
534.026025	2547.206818
534.387040	2551.622869
534.747999	2550.949875
535.108902	2550.405430
535.469748	2550.057591
535.830537	2550.334854
536.191270	2552.250493
536.551947	2551.582540
536.912567	2550.526418
537.273131	2548.779658
537.633638	2551.406099
537.994089	2549.651778
538.354483	2551.075904
538.714821	2551.244782
539.075103	2549.921480
539.435328	2550.586912
539.795497	2551.378373
540.155609	2552.237890
540.515665	2548.948537
540.875665	2554.619835
541.235609	2551.015410
541.595496	2551.711089
541.955328	2554.455998
542.315102	2552.563044
542.674821	2550.710420
543.034483	2552.121943
543.394090	2551.743857
543.753640	2552.578168
544.113134	2550.365101
544.472571	2551.683363
544.831953	2550.067673
545.191278	2551.955585
545.550548	2551.554813
545.909761	2553.876265
546.268918	2549.077086
546.628019	2551.448949
546.987064	2552.530277
547.346053	2553.737633
547.704986	2550.871737
548.063863	2554.461039
548.422684	2550.339895
548.781449	2550.299566
549.140158	2553.604042
549.498811	2555.653272
549.857408	2552.701676
550.215949	2550.355019
550.574434	2551.038095
550.932864	2551.338044
551.291237	2550.886861
551.649555	2553.997253
552.007817	2554.057746
552.366022	2556.041440
552.724173	2550.672612
553.082267	2552.414330
553.440305	2550.886861
553.798288	2553.311656
554.156215	2552.391645
554.514086	2553.702345
554.871902	2554.670247
555.229661	2555.469269
555.587365	2552.570606
555.945014	2551.741336
556.302606	2551.816953
556.660143	2553.089845
557.017625	2553.112530
557.375050	2553.389793
557.732421	2553.558672
558.089735	2553.800647
558.446994	2552.807540
558.804197	2551.864844
559.161345	2556.180072
559.518437	2553.586398
559.875474	2552.631100
560.232455	2553.573796
560.589381	2554.682849
560.946251	2552.563044
561.303065	2551.829556
561.659825	2553.301573
562.016528	2552.207643
562.373177	2553.064639
562.729770	2552.757129
563.086307	2554.471121
563.442789	2551.567416
563.799216	2554.382901
564.155587	2554.123281
564.511904	2552.729402
564.868164	2552.694114
565.224370	2554.125802
565.580520	2554.140925
565.936615	2554.047664
566.292654	2552.928528
566.648638	2554.130843
567.004567	2554.887016
567.360441	2553.835936
567.716260	2552.356357
568.072023	2551.227138
568.427732	2548.325954
568.783385	2552.005997
569.138982	2548.192364
569.494525	2551.665719
569.850013	2550.337375
570.205445	2553.682180
570.560823	2555.698642
570.916145	2550.289484
571.271412	2555.708724
571.626625	2555.010524
571.981782	2551.459032
572.336884	2553.725030
572.691931	2553.087324
573.046923	2554.072870
573.401860	2555.184444
573.756743	2555.151677
574.111570	2552.852911
574.466342	2555.018086
574.821059	2553.664536
575.175722	2554.907181
575.530330	2552.668908
575.884882	2555.804506
576.239380	2553.324258
576.593823	2554.294681
576.948211	2551.706048
577.302544	2555.141594
577.656823	2551.711089
578.011047	2556.686708
578.365216	2555.537325
578.719330	2555.650751
579.073389	2552.084135
579.427394	2548.875440
579.781344	2553.903991
580.135239	2554.057746
580.489080	2551.995914
580.842866	2553.069680
581.196597	2556.326266
581.550273	2553.846018
581.903895	2550.556665
582.257463	2553.571275
582.610975	2552.053888
582.964434	2557.067315
583.317837	2554.876934
583.671186	2552.716799
584.024481	2551.811912
584.377721	2553.069680
584.730906	2550.990204
585.084037	2553.407437
585.437113	2553.014228
585.790135	2553.596481
586.143103	2553.558672
586.496016	2553.876265
586.848874	2548.762014
587.201679	2548.804864
587.554428	2551.053219
587.907124	2551.819474
588.259765	2549.619010
588.612352	2554.657644
588.964884	2553.450287
589.317362	2551.756460
589.669786	2552.278219
590.022155	2552.177396
590.374470	2554.340051
590.726731	2552.787376
591.078937	2554.503888
591.431090	2552.121943
591.783188	2551.910215
592.135232	2552.661347
592.487222	2552.081614
592.839157	2552.706717
593.191038	2554.458518
593.542866	2554.513971
593.894639	2554.151008
594.246358	2554.030020
594.598022	2551.857283
594.949633	2553.021789
595.301190	2551.741336
595.652692	2554.450956
596.004141	2552.958775
596.355535	2555.623025
596.706876	2550.735626
597.058162	2551.852242
597.409395	2553.611604
597.760573	2553.447767
598.111698	2553.326779
598.462768	2555.567572
598.813785	2553.583878
599.164748	2553.692263
599.515657	2551.978270
599.866511	2551.401058
600.217312	2552.638662
600.568060	2553.107489
600.918753	2554.314845
601.269392	2555.156718
601.619978	2552.726882
601.970510	2551.534649
602.320988	2552.961295
602.671412	2553.319217
603.021783	2554.176213
603.372100	2553.115051
603.722363	2551.557334
604.072572	2550.844011
604.422728	2554.196378
604.772830	2548.038609
605.122878	2550.894422
605.472872	2547.839483
605.822813	2548.270502
606.172701	2551.882488
606.522534	2551.968188
606.872314	2553.851059
607.222041	2552.275698
607.571714	2555.350802
607.921333	2553.838456
608.270899	2552.426933
608.620411	2552.069011
608.969870	2555.902809
609.319276	2552.842828
609.668627	2556.260731
610.017926	2558.897254
610.367171	2561.745506
610.716362	2560.674261
611.065500	2558.065464
611.414585	2555.615463
611.763616	2558.103272
612.112594	2556.724517
612.461518	2555.214691
612.810389	2555.799465
613.159207	2556.681667
613.507971	2555.607901
613.856682	2554.715617
614.205340	2554.927345
614.553945	2554.408107
614.902496	2554.211502
615.250994	2554.554300
615.599439	2553.321738
615.947830	2552.754608
616.296169	2553.979608
616.644454	2554.531615
616.992686	2552.343754
617.340864	2552.535318
617.688990	2553.470452
618.037063	2553.132695
618.385082	2556.250648
618.733048	2555.925494
619.080961	2553.818292
619.428821	2553.057077
619.776628	2552.184958
620.124382	2555.353323
620.472083	2552.240410
620.819731	2552.626059
621.167326	2552.578168
621.514868	2551.922818
621.862357	2551.161603
622.209793	2555.295350
622.557176	2553.314176
622.904506	2549.931562
623.251783	2550.090358
623.599007	2548.651109
623.946179	2550.768393
624.293297	2548.555327
624.640363	2552.494989
624.987376	2553.452808
625.334336	2547.342929
625.681243	2551.627910
626.028097	2553.641851
626.374899	2553.011707
626.721647	2552.961295
627.068343	2555.817109
627.414987	2554.297201
627.761577	2555.731409
628.108115	2551.080945
628.454600	2551.632951
628.801032	2552.918446
629.147412	2554.574465
629.493739	2555.176882
629.840014	2556.157387
630.186236	2556.308622
630.532405	2553.152859
630.878521	2552.898281
631.224585	2552.719320
631.570597	2554.362736
631.916556	2553.639331
632.262462	2551.547252
632.608316	2552.837787
632.954117	2551.275029
633.299866	2551.751418
633.645562	2549.974412
633.991206	2555.343241
634.336797	2553.346944
634.682336	2551.738816
635.027823	2553.677139
635.373257	2552.752087
635.718639	2554.168652
636.063968	2555.368446
636.409245	2555.567572
636.754470	2554.629917
637.099642	2551.393497
637.444762	2555.207129
637.789829	2554.786193
638.134845	2552.283260
638.479808	2553.694783
638.824719	2552.512633
639.169577	2553.314176
639.514383	2556.202757
639.859137	2551.290153
640.203839	2553.599001
640.548489	2556.721996
640.893086	2551.002807
641.237632	2548.076417
641.582125	2549.699669
641.926566	2547.534493
642.270955	2549.684545
642.615292	2550.120605
642.959576	2550.763352
643.303809	2553.137736
643.647990	2553.165462
643.992118	2551.819474
644.336195	2551.370811
644.680219	2553.861141
645.024192	2553.452808
645.368112	2551.937941
645.711981	2552.409289
646.055797	2550.924669
646.399562	2552.976419
646.743274	2550.670091
647.086935	2551.975750
647.430544	2555.247459
647.774101	2554.158569
648.117606	2553.409958
648.461059	2553.586398
648.804460	2554.274516
649.147810	2553.425082
649.491108	2554.352654
649.834354	2553.672098
650.177548	2552.817622
650.520690	2555.428940
650.863781	2550.067673
651.206820	2552.326110
651.549807	2552.333672
651.892742	2551.038095
652.235626	2553.520863
652.578458	2551.837118
652.921238	2553.533466
653.263967	2553.651933
653.606644	2550.488609
653.949269	2552.205122
654.291843	2554.337530
654.634365	2554.067829
654.976836	2553.588919
655.319255	2551.237221
655.661622	2552.293342
656.003938	2553.210832
656.346203	2552.764690
656.688416	2552.910884
657.030577	2552.124464
657.372687	2551.723692
657.714746	2553.014228
658.056753	2553.472972
658.398708	2544.749256
658.740612	2547.983156
659.082465	2548.484751
659.424266	2551.774104
659.766016	2548.273022
660.107715	2551.300235
660.449362	2551.877447
660.790958	2553.742674
661.132503	2551.295194
661.473996	2554.703014
661.815438	2552.936090
662.156829	2551.721172
662.498168	2551.663198
662.839456	2553.868703
663.180693	2554.196378
663.521879	2552.784855
663.863013	2550.304607
664.204097	2555.393652
664.545129	2552.217725
664.886110	2553.871224
665.227040	2553.568754
665.567918	2551.819474
665.908746	2552.615976
666.249522	2553.299053
666.590248	2553.558672
666.930922	2550.836449
667.271545	2552.545400
667.612118	2555.645710
667.952639	2549.077086
668.293109	2551.111192
668.633528	2551.519525
668.973896	2552.469783
669.314213	2552.295863
669.654480	2552.908363
669.994695	2551.413661
670.334859	2555.013045
670.674973	2550.596994
671.015035	2552.081614
671.355047	2551.645554
671.695008	2553.820812
672.034918	2553.866182
672.374777	2552.570606
672.714585	2553.435164
673.054342	2554.705535
673.394049	2553.777962
673.733705	2552.646223
674.073310	2553.999773
674.412864	2555.204609
674.752368	2550.160934
675.091820	2551.025492
675.431223	2553.767880
675.770574	2552.303425
676.109875	2548.653629
676.449125	2552.971378
676.788324	2551.065822
677.127473	2551.471634
677.466571	2547.353012
677.805619	2553.687222
678.144616	2553.019269
678.483562	2555.499516
678.822458	2552.855431
679.161303	2554.692932
679.500098	2550.884340
679.838842	2552.535318
680.177535	2553.951882
680.516179	2555.318035
680.854771	2552.419371
681.193314	2557.147974
681.531805	2550.435677
681.870247	2553.798127
682.208638	2551.045657
682.546978	2552.547921
682.885268	2553.883827
683.223508	2553.354505
683.561697	2552.782334
683.899836	2553.344423
684.237925	2556.255689
684.575963	2555.204609
684.913951	2555.817109
685.251889	2555.486913
685.589776	2553.344423
685.927614	2553.818292
686.265401	2554.619835
686.603137	2557.135371
686.940824	2558.060422
687.278460	2560.253324
687.616046	2557.079918
687.953582	2555.988508
688.291068	2557.578992
688.628504	2557.175700
688.965889	2557.203426
689.303224	2556.089331
689.640510	2556.719476
689.977745	2558.486400
690.314930	2556.424568
690.652065	2557.180741
690.989150	2556.860628
691.326185	2552.946172
691.663170	2555.348282
692.000105	2555.353323
692.336990	2557.808365
692.673825	2556.477500
693.010610	2555.658313
693.347345	2554.511450
693.684030	2551.348126
694.020665	2552.905843
694.357251	2550.292004
694.693786	2555.696121
695.030272	2555.875082
695.366707	2553.641851
695.703093	2557.299208
696.039429	2556.671585
696.375716	2558.551935
696.711952	2554.143446
697.048139	2555.207129
697.384276	2555.933056
697.720363	2558.675443
698.056400	2558.705690
698.392388	2557.359702
698.728326	2560.326421
699.064214	2556.790052
699.400053	2558.224260
699.735842	2557.934394
700.071581	2557.992367
700.407270	2556.694270
700.742910	2558.627552
701.078501	2555.716286
701.414042	2557.543704
701.749533	2556.469938
702.084974	2556.205278
702.420366	2555.834753
702.755709	2556.149825
703.091002	2557.820968
703.426246	2559.005639
703.761440	2555.164280
704.096584	2558.940104
704.431679	2556.855587
704.766725	2559.013201
705.101721	2557.377346
705.436668	2559.635783
705.771565	2555.255020
706.106413	2558.302398
706.441212	2559.000598
706.775961	2560.787687
707.110661	2560.409600
707.445311	2559.597974
707.779913	2560.903633
708.114465	2560.369271
708.448967	2559.582851
708.783421	2563.308264
709.117825	2560.432285
709.452180	2561.717780
709.786485	2563.058727
710.120742	2563.020918
710.454949	2560.278530
710.789107	2561.037224
711.123216	2560.989333
711.457275	2564.278686
711.791286	2560.843139
712.125247	2562.521844
712.459159	2568.145251
712.793023	2566.418656
713.126837	2566.247256
713.460602	2566.660631
713.794318	2563.467060
714.127985	2567.633574
714.461602	2568.714901
714.795171	2566.055692
715.128691	2569.435786
715.462162	2566.259859
715.795584	2561.385063
716.128957	2565.140723
716.462281	2564.593758
716.795556	2566.716084
717.128782	2564.634087
717.461960	2567.028635
717.795088	2565.707853
718.128167	2563.875393
718.461198	2564.601320
718.794180	2564.664334
719.127113	2561.957234
719.459997	2559.177038
719.792833	2564.515620
720.125619	2563.462019
720.458357	2559.877758
720.791046	2564.921433
721.123686	2563.454457
721.456278	2564.404715
721.788821	2564.714746
722.121315	2563.504869
722.453761	2560.016390
722.786158	2563.230126
723.118506	2563.383881
723.450805	2561.304405
723.783056	2564.624005
724.115259	2564.014025
724.447412	2563.177194
724.779518	2565.619633
725.111574	2564.671896
725.443582	2563.358675
725.775542	2565.788511
726.107453	2563.285578
726.439315	2567.482339
726.771129	2570.323029
727.102895	2569.196331
727.434612	2568.218347
727.766281	2567.076526
728.097901	2567.754561
728.429473	2567.467216
728.760996	2565.387740
729.092471	2565.780950
729.423897	2568.387226
729.755276	2571.137176
730.086606	2571.747155
730.417887	2568.513255
730.749120	2572.377299
731.080305	2576.989955
731.411442	2575.046590
731.742530	2573.652711
732.073570	2573.995510
732.404562	2575.447362
732.735506	2575.969122
733.066401	2576.339646
733.397249	2574.794533
733.728048	2572.894018
734.058798	2570.421332
734.389501	2571.182546
734.720156	2572.042063
735.050762	2571.048955
735.381320	2569.793708
735.711831	2567.343707
736.042293	2570.610375
736.372707	2572.004254
736.703073	2567.200034
737.033391	2568.601475
737.363661	2570.330591
737.693883	2569.294634
738.024056	2572.828483
738.354182	2571.074161
738.684260	2573.241857
739.014290	2570.817062
739.344272	2572.278997
739.674207	2573.093143
740.004093	2576.637074
740.333931	2576.750500
740.663722	2575.754872
740.993464	2574.124059
741.323159	2575.026426
741.652806	2576.420305
741.982405	2576.165727
742.311956	2573.718246
742.641460	2575.754872
742.970915	2572.425190
743.300323	2573.498956
743.629683	2571.137176
743.958996	2570.476784
744.288260	2571.389233
744.617477	2570.282700
744.946647	2568.072154
745.275768	2570.028122
745.604842	2569.730694
745.933869	2565.599468
746.262847	2565.458316
746.591778	2573.166240
746.920662	2568.677092
747.249498	2569.035014
747.578286	2574.608010
747.907027	2571.815211
748.235720	2571.721949
748.564365	2572.944429
748.892963	2572.808318
749.221514	2574.602969
749.550017	2575.260839
749.878473	2572.460478
750.206881	2572.762948
750.535242	2574.913000
750.863555	2573.756055
751.191821	2574.837382
751.520039	2573.103226
751.848210	2573.929975
752.176334	2571.255643
752.504411	2574.169430
752.832440	2572.064748
753.160421	2571.147258
753.488356	2572.417629
753.816243	2575.245716
754.144082	2573.521641
754.471875	2573.365366
754.799620	2571.795046
755.127318	2570.512072
755.454969	2573.377968
755.782572	2576.105233
756.110129	2572.888977
756.437638	2572.210941
756.765100	2575.482650
757.092515	2574.824780
757.419882	2573.483833
757.747203	2575.959039
758.074477	2572.591548
758.401703	2575.800243
758.728882	2578.091447
759.056014	2576.914338
759.383099	2575.119687
759.710138	2579.147569
760.037129	2573.801425
760.364073	2580.538928
760.690970	2577.725964
761.017820	2577.098340
761.344623	2579.266036
761.671379	2580.107909
761.998088	2579.555903
762.324751	2582.421798
762.651366	2586.497571
762.977935	2601.159767
763.304456	2614.828856
763.630931	2627.895527
763.957359	2611.789040
764.283740	2604.764192
764.610074	2603.198914
764.936362	2596.610126
765.262602	2592.655341
765.588796	2588.382963
765.914943	2580.082703
766.241044	2579.676890
766.567097	2579.704617
766.893104	2579.268557
767.219064	2574.449214
767.544978	2575.525500
767.870845	2572.389902
768.196665	2574.693710
768.522438	2575.412074
768.848165	2574.161868
769.173846	2574.776889
769.499479	2572.102557
769.825066	2571.474933
770.150607	2573.098184
770.476101	2568.293965
770.801548	2572.001733
771.126949	2568.540981
771.452303	2569.423183
771.777611	2569.365210
772.102872	2571.381672
772.428087	2571.230437
772.753256	2571.895869
773.078378	2568.394788
773.403453	2567.774726
773.728482	2564.689540
774.053465	2567.855384
774.378401	2566.602658
774.703291	2566.280024
775.028135	2566.711042
775.352932	2565.990157
775.677683	2565.753223
776.002388	2567.013512
776.327046	2566.388409
776.651658	2567.184911
776.976224	2562.055537
777.300743	2564.409756
777.625216	2562.516803
777.949643	2564.049313
778.274024	2563.986299
778.598359	2561.904302
778.922647	2561.314487
779.246889	2563.525033
779.571086	2559.446740
779.895236	2561.652245
780.219339	2564.492935
780.543397	2564.558470
780.867409	2566.151474
781.191374	2565.296999
781.515294	2566.353121
781.839167	2565.445713
782.162995	2564.470250
782.486776	2566.882442
782.810511	2566.605178
783.134201	2567.182390
783.457844	2563.885476
783.781441	2567.888152
784.104993	2565.934705
784.428498	2563.373799
784.751958	2566.698440
785.075372	2565.072667
785.398739	2563.593089
785.722061	2566.519479
786.045337	2568.480488
786.368568	2566.075857
786.691752	2564.286248
787.014891	2568.740107
787.337983	2567.943605
787.661030	2569.556774
787.984031	2574.161868
788.306987	2575.734708
788.629897	2572.959553
788.952760	2573.135993
789.275579	2573.201528
789.598351	2571.033832
789.921078	2570.141548
790.243759	2567.338666
790.566395	2567.063923
790.888984	2569.927299
791.211529	2566.983265
791.534027	2568.616599
791.856480	2565.317163
792.178888	2566.058213
792.501249	2562.920095
792.823566	2565.793552
793.145836	2565.992678
793.468062	2563.393963
793.790241	2565.367575
794.112375	2567.265569
794.434464	2565.722976
794.756507	2564.810527
795.078505	2565.717935
795.400457	2563.998902
795.722364	2562.458829
796.044226	2568.077195
796.366042	2564.956721
796.687812	2567.086608
797.009538	2569.158523
797.331218	2571.427042
797.652852	2566.630384
797.974442	2567.678944
798.295986	2566.605178
798.617484	2568.185580
798.938938	2568.329253
799.260346	2567.033676
799.581709	2569.017370
799.903026	2568.026784
800.224299	2566.814386
800.545526	2567.232802
800.866708	2564.744992
801.187845	2566.509396
801.508936	2563.073850
801.829983	2563.847667
802.150984	2564.051834
802.471940	2562.932698
802.792851	2562.027811
803.113717	2562.993192
803.434538	2562.549570
803.755314	2564.041752
804.076045	2562.466391
804.396731	2563.454457
804.717372	2563.373799
805.037967	2564.034190
805.358518	2563.767009
805.679024	2567.396639
805.999485	2562.605023
806.319901	2565.115517
806.640272	2564.243398
806.960598	2563.693912
807.280879	2564.729869
807.601115	2564.616443
807.921306	2566.128789
808.241453	2565.874211
808.561554	2565.579303
808.881611	2564.071998
809.201623	2565.284396
809.521590	2565.317163
809.841513	2567.101732
810.161390	2566.663152
810.481223	2565.402863
810.801011	2562.294992
811.120755	2562.269786
811.440453	2566.222051
811.760107	2565.324725
812.079716	2564.243398
812.399281	2560.255845
812.718801	2562.756257
813.038276	2558.307439
813.357707	2564.336659
813.677093	2562.809189
813.996434	2566.406053
814.315731	2565.672565
814.634983	2562.247101
814.954191	2562.675599
815.273354	2566.471588
815.592473	2564.928995
815.911547	2567.469736
816.230577	2570.847309
816.549562	2565.483522
816.868502	2567.323543
817.187399	2569.534089
817.506250	2567.459654
817.825058	2572.185736
818.143821	2570.396126
818.462539	2570.693554
818.781213	2573.025088
819.099843	2570.466702
819.418429	2578.346026
819.736970	2582.762076
820.055466	2585.847262
820.373919	2597.174735
820.692327	2605.311157
821.010691	2611.118567
821.329011	2632.651855
821.647286	2671.193997
821.965517	2721.119064
822.283704	2746.256778
822.601847	2757.521236
822.919945	2756.966709
823.237999	2753.574013
823.556010	2720.534290
823.873976	2693.700228
824.191897	2674.556447
824.509775	2654.157418
824.827609	2637.488842
825.145398	2630.005250
825.463144	2631.147071
825.780845	2632.977010
826.098502	2636.669655
826.416116	2654.318735
826.733685	2669.122083
827.051210	2677.699606
827.368692	2672.315654
827.686129	2661.956083
828.003522	2637.914820
828.320872	2619.854886
828.638177	2609.638988
828.955439	2597.381422
829.272656	2588.130905
829.589830	2582.222673
829.906960	2582.830132
830.224046	2577.368042
830.541088	2575.873340
830.858086	2575.727146
831.175041	2574.781930
831.491952	2572.853688
831.808819	2579.797878
832.125642	2573.728329
832.442421	2579.903742
832.759157	2588.415730
833.075849	2599.859150
833.392497	2613.064452
833.709101	2631.265538
834.025662	2630.312760
834.342179	2622.045268
834.658653	2608.769389
834.975083	2599.007195
835.291469	2594.780187
835.607811	2584.831470
835.924110	2579.369380
836.240366	2573.811508
836.556578	2569.897052
836.872746	2572.054666
837.188871	2567.585683
837.504952	2563.767009
837.820990	2562.615105
838.136984	2563.542677
838.452935	2563.285578
838.768842	2562.093346
839.084706	2561.737944
839.400526	2570.345714
839.716303	2578.310737
840.032037	2581.572364
840.347727	2582.739391
840.663373	2583.006572
840.978977	2578.348546
841.294537	2571.041394
841.610054	2565.349931
841.925527	2566.895045
842.240957	2564.891186
842.556344	2561.569066
842.871687	2561.977399
843.186987	2560.389436
843.502244	2561.634601
843.817458	2558.602347
844.132629	2556.444733
844.447756	2555.890206
844.762840	2553.825853
845.077881	2555.108827
845.392879	2551.325441
845.707833	2556.648899
846.022745	2552.850390
846.337613	2554.022458
846.652438	2554.730740
846.967221	2557.042109
847.281960	2551.965668
847.596656	2557.253838
847.911309	2552.767211
848.225919	2553.840977
848.540485	2554.022458
848.855009	2554.468600
849.169490	2554.040102
849.483928	2552.210163
849.798323	2553.200750
850.112675	2552.568085
850.426984	2553.057077
850.741251	2554.758467
851.055474	2551.718651
851.369654	2554.975236
851.683792	2551.446429
851.997887	2556.167469
852.311938	2553.624207
852.625947	2554.337530
852.939914	2554.655123
853.253837	2557.074877
853.567718	2554.244269
853.881555	2553.503219
854.195350	2552.063970
854.509103	2551.985832
854.822812	2554.448436
855.136479	2554.534135
855.450103	2551.701007
855.763685	2554.980278
856.077224	2551.859803
856.390720	2556.296019
856.704173	2554.592109
857.017584	2554.050185
857.330953	2554.428271
857.644278	2555.849877
857.957561	2556.966492
858.270802	2556.175031
858.584000	2555.481872
858.897155	2554.647561
859.210268	2555.718807
859.523339	2557.188303
859.836367	2553.752757
860.149352	2554.829043
860.462295	2554.476162
860.775195	2550.478527
861.088054	2548.676315
861.400869	2549.911397
861.713642	2548.542724
862.026373	2550.491130
862.339062	2555.474311
862.651708	2555.565051
862.964312	2554.602191
863.276873	2555.852397
863.589392	2554.846687
863.901869	2556.870710
864.214303	2560.712069
864.526696	2553.679660
864.839045	2557.687377
865.151353	2555.988508
865.463619	2558.365412
865.775842	2557.694939
866.088023	2557.173179
866.400162	2556.850546
866.712258	2556.729558
867.024313	2556.195196
867.336325	2553.798127
867.648296	2553.331820
867.960224	2558.438509
868.272110	2558.186451
868.583954	2559.812223
868.895755	2556.827860
869.207515	2556.447253
869.519233	2555.401214
869.830909	2553.498178
870.142542	2561.193500
870.454134	2554.849208
870.765684	2557.009342
871.077191	2559.313149
871.388657	2558.952707
871.700081	2557.649568
872.011463	2557.231153
872.322803	2557.702501
872.634101	2559.850032
872.945357	2560.704508
873.256571	2562.889848
873.567744	2560.056719
873.878874	2559.025803
874.189963	2562.380691
874.501010	2563.154508
874.812015	2563.008315
875.122979	2562.562173
875.433900	2561.821123
875.744780	2561.251473
876.055618	2560.885989
876.366415	2563.910682
876.677169	2562.360527
876.987882	2562.002605
877.298554	2558.917419
877.609183	2563.958572
877.919771	2563.456978
878.230317	2564.792883
878.540822	2567.827658
878.851285	2571.749676
879.161707	2575.580953
879.472087	2579.712178
879.782425	2586.742067
880.092722	2600.635487
880.402977	2609.850717
880.713191	2631.709160
881.023363	2647.387148
881.333494	2659.049857
881.643583	2667.360200
881.953631	2671.897238
882.263637	2669.913544
882.573602	2661.484735
882.883526	2652.551810
883.193408	2640.684934
883.503248	2635.459778
883.813048	2625.616925
884.122806	2613.331633
884.432522	2605.601024
884.742197	2594.114755
885.051831	2590.807758
885.361424	2587.949424
885.670975	2584.070256
885.980485	2579.124884
886.289954	2577.231931
886.599382	2574.940726
886.908768	2574.184553
887.218113	2570.280179
887.527417	2569.153482
887.836680	2567.378995
888.145901	2569.423183
888.455082	2566.627863
888.764221	2563.502348
889.073319	2560.447409
889.382376	2564.276165
889.691392	2565.486042
890.000366	2563.663665
890.309300	2561.080074
890.618193	2562.962945
890.927044	2564.576114
891.235855	2563.381360
891.544625	2562.252142
891.853353	2562.655434
892.162041	2564.714746
892.470687	2565.244067
892.779293	2566.872359
893.087858	2565.513768
893.396381	2570.862433
893.704864	2570.907803
894.013306	2574.648339
894.321707	2591.369847
894.630068	2597.182297
894.938387	2601.764706
895.246665	2606.810901
895.554903	2601.855447
895.863100	2598.288830
896.171256	2592.562079
896.479371	2582.222673
896.787446	2580.133115
897.095480	2577.133628
897.403473	2574.343349
897.711425	2570.791857
898.019336	2572.125242
898.327207	2565.755744
898.635038	2565.836402
898.942827	2567.159705
899.250576	2564.704663
899.558284	2560.616288
899.865952	2565.269272
900.173579	2563.358675
900.481165	2561.740465
900.788711	2559.469425
901.096216	2562.443706
901.403681	2558.990515
901.711105	2560.840619
902.018489	2561.662327
902.325832	2560.840619
902.633135	2558.146122
902.940397	2564.654252
903.247619	2567.119376
903.554800	2575.391909
903.861941	2588.604774
904.169041	2600.227154
904.476101	2607.032712
904.783121	2607.221755
905.090100	2606.097577
905.397039	2600.373347
905.703938	2594.313880
906.010796	2581.864751
906.317614	2577.529359
906.624391	2569.834037
906.931129	2566.930333
907.237826	2562.892368
907.544483	2561.362378
907.851099	2559.073694
908.157675	2556.316183
908.464211	2555.915412
908.770707	2552.472303
909.077163	2551.131357
909.383578	2549.828218
909.689954	2550.171017
909.996289	2548.598177
910.302584	2553.510781
910.608839	2551.600184
910.915054	2552.489948
911.221229	2553.024310
911.527363	2551.877447
911.833458	2552.777293
912.139513	2552.174875
912.445527	2553.110009
912.751502	2554.105637
913.057436	2557.163097
913.363331	2555.900288
913.669186	2555.862479
913.975000	2557.914229
914.280775	2561.488407
914.586510	2562.763819
914.892205	2568.238512
915.197859	2575.775037
915.503475	2584.954978
915.809050	2595.979982
916.114585	2591.437902
916.420081	2598.566094
916.725536	2601.374016
917.030952	2597.961155
917.336328	2594.008891
917.641665	2588.204002
917.946961	2582.878023
918.252218	2576.518607
918.557435	2574.930644
918.862612	2570.960735
919.167750	2565.753223
919.472848	2565.107956
919.777906	2563.948490
920.082925	2560.197872
920.387904	2560.707028
920.692843	2559.655948
920.997743	2556.084290
921.302603	2558.607388
921.607423	2556.364074
921.912204	2554.861810
922.216946	2555.527243
922.521647	2551.403579
922.826310	2554.337530
923.130932	2550.591953
923.435516	2552.684032
923.740059	2552.719320
924.044564	2551.554813
924.349028	2550.891902
924.653454	2547.632796
924.957840	2545.139945
925.262186	2543.912424
925.566493	2550.102961
925.870761	2545.669266
926.174989	2550.710420
926.479178	2547.874771
926.783328	2546.604400
927.087438	2548.888043
927.391509	2546.909390
927.695541	2547.647919
927.999533	2546.743032
928.303486	2544.724050
928.607400	2546.087682
928.911275	2543.045346
929.215110	2547.869730
929.518906	2545.031560
929.822663	2546.332178
930.126381	2547.980635
930.430060	2545.797816
930.733699	2547.219421
931.037299	2547.060625
931.340861	2545.253371
931.644383	2546.874102
931.947866	2546.143135
932.251309	2545.908721
932.554714	2544.749256
932.858080	2547.988197
933.161407	2545.767569
933.464694	2547.842004
933.767943	2547.448794
934.071153	2548.527601
934.374323	2547.063145
934.677455	2546.218752
934.980548	2548.542724
935.283602	2546.148176
935.586617	2548.149514
935.889593	2545.419729
936.192530	2547.302600
936.495428	2546.039791
936.798287	2544.925696
937.101108	2548.298228
937.403890	2545.389482
937.706632	2548.295708
938.009336	2545.591128
938.312002	2548.578012
938.614628	2548.459545
938.917216	2552.532797
939.219765	2549.087169
939.522275	2550.304607
939.824747	2550.869217
940.127179	2549.631613
940.429573	2546.070038
940.731929	2544.509801
941.034246	2545.165151
941.336524	2546.720347
941.638763	2546.175902
941.940964	2547.937786
942.243126	2547.078269
942.545250	2546.864020
942.847335	2551.484237
943.149381	2547.060625
943.451389	2546.685059
943.753359	2548.971222
944.055290	2544.416540
944.357182	2546.354863
944.659036	2546.760676
944.960851	2546.259081
945.262628	2545.457538
945.564367	2546.674977
945.866067	2546.851417
946.167729	2547.763866
946.469352	2545.500388
946.770937	2547.284956
947.072484	2544.724050
947.373992	2548.547765
947.675462	2548.530121
947.976893	2547.920142
948.278286	2546.122970
948.579641	2544.537527
948.880958	2544.502239
949.182236	2544.565254
949.483476	2545.533155
949.784678	2548.124308
950.085841	2548.714123
950.386967	2545.306303
950.688054	2546.657333
950.989103	2549.218239
951.290114	2546.012065
951.591087	2547.035419
951.892021	2546.856458
952.192917	2545.596170
952.493776	2549.525749
952.794596	2548.648588
953.095378	2547.451314
953.396122	2548.600697
953.696828	2548.328475
953.997496	2547.655481
954.298126	2544.638350
954.598718	2547.239586
954.899272	2544.729091
955.199788	2546.548948
955.500266	2544.361087
955.800706	2542.556354
956.101108	2541.021322
956.401472	2544.035933
956.701798	2541.901004
957.002087	2541.492670
957.302337	2545.001313
957.602550	2545.742363
957.902724	2544.774462
958.202861	2542.818494
958.502960	2544.046015
958.803022	2544.897970
959.103045	2542.984852
959.403031	2542.286652
959.702979	2544.361087
960.002889	2545.442414
960.302762	2543.501570
960.602596	2542.488298
960.902393	2544.230017
961.202153	2544.073741
961.501875	2542.266487
961.801559	2543.357897
962.101205	2541.512835
962.400814	2543.816642
962.700385	2544.146838
962.999918	2544.414019
963.299414	2545.349153
963.598873	2541.868236
963.898293	2543.375541
964.197677	2543.342774
964.497022	2543.478885
964.796331	2544.295552
965.095601	2543.037784
965.394835	2543.960315
965.694030	2540.081147
965.993189	2545.515511
966.292309	2543.471323
966.591393	2543.950233
966.890439	2542.193391
967.189447	2540.804553
967.488419	2542.407640
967.787353	2542.145500
968.086249	2541.996786
968.385108	2542.279090
968.683930	2545.238248
968.982714	2544.182126
969.281462	2542.614327
969.580172	2542.795809
969.878844	2539.783719
970.177480	2543.413350
970.476078	2543.998124
970.774639	2544.839997
971.073162	2544.716488
971.371649	2541.711961
971.670098	2535.808769
971.968510	2538.959491
972.266885	2539.733308
972.565223	2544.691283
972.863524	2543.065510
973.161788	2543.990562
973.460014	2542.536189
973.758204	2545.097095
974.056356	2543.463762
974.354471	2542.432846
974.652550	2543.148689
974.950591	2544.111550
975.248595	2542.604245
975.546563	2545.346632
975.844493	2543.632640
976.142386	2545.523073
976.440243	2545.744884
976.738062	2544.318237
977.035845	2542.730274
977.333590	2543.352856
977.631299	2543.365459
977.928971	2541.580891
978.226606	2541.369162
978.524204	2545.142466
978.821765	2543.229348
979.119290	2542.964687
979.416777	2539.882022
979.714228	2543.496529
980.011642	2544.434184
980.309020	2542.460572
980.606360	2543.718340
980.903664	2545.059287
981.200931	2543.425953
981.498162	2544.908052
981.795356	2542.067362
982.092513	2546.538865
982.389633	2544.058618
982.686717	2543.922507
982.983764	2544.633309
983.280775	2546.680018
983.577749	2544.557692
983.874686	2546.254040
984.171587	2546.916952
984.468451	2544.845038
984.765279	2544.797147
985.062070	2542.291693
985.358824	2544.517363
985.655543	2541.747249
985.952224	2544.313196
986.248869	2543.302445
986.545478	2538.707433
986.842050	2539.019984
987.138586	2539.289686
987.435086	2542.052238
987.731549	2534.392205
988.027975	2541.427135
988.324366	2542.780685
988.620719	2543.133566
988.917037	2543.597352
989.213318	2542.495860
989.509563	2540.791950
989.805772	2542.677342
990.101944	2542.737835
990.398080	2543.451159
990.694180	2543.468803
990.990244	2541.316230
991.286271	2544.507280
991.582262	2542.942002
991.878217	2542.047197
992.174136	2540.827238
992.470019	2542.072403
992.765865	2541.129707
993.061676	2540.650798
993.357450	2542.490819
993.653188	2541.744728
993.948890	2541.101981
994.244556	2541.835469
994.540186	2543.095757
994.835780	2539.524100
995.131337	2543.725902
995.426859	2544.333361
995.722345	2542.422763
996.017795	2542.926879
996.313208	2542.110212
996.608586	2541.553164
996.903928	2543.748587
997.199234	2543.075593
997.494504	2542.168185
997.789738	2543.809081
998.084936	2545.760007
998.380099	2542.410160
998.675225	2543.282280
998.970316	2540.602907
999.265371	2544.028371
999.560390	2543.231868
999.855373	2542.682383
1000.150320	2542.389996
1000.445232	2540.149203
1000.740108	2542.127856
1001.034948	2543.262115
1001.329752	2540.887732
1001.624521	2541.568288
1001.919254	2537.023688
1002.213951	2541.709440
1002.508613	2538.853626
1002.803239	2540.625592
1003.097829	2537.749614
1003.392384	2540.635674
1003.686903	2540.829759
1003.981386	2545.263453
1004.275834	2541.059131
1004.570246	2542.200953
1004.864623	2539.662732
1005.158964	2540.406302
1005.453270	2540.071065
1005.747540	2542.551313
1006.041775	2541.769934
1006.335974	2539.483771
1006.630138	2540.060983
1006.924266	2542.498381
1007.218359	2544.053577
1007.512416	2540.529810
1007.806438	2542.069882
1008.100425	2542.364790
1008.394376	2542.503422
1008.688292	2539.662732
1008.982172	2540.900335
1009.276017	2542.483257
1009.569827	2541.101981
1009.863602	2543.466282
1010.157341	2539.468647
1010.451045	2540.345808
1010.744714	2540.807073
1011.038347	2538.891435
1011.331945	2537.832793
1011.625508	2542.347146
1011.919036	2540.522248
1012.212528	2542.495860
1012.505986	2539.856816
1012.799408	2539.796322
1013.092795	2542.238761
1013.386147	2543.456200
1013.679464	2542.468134
1013.972745	2540.953267
1014.265992	2539.703061
1014.559204	2540.292876
1014.852380	2541.691796
1015.145521	2540.648277
1015.438628	2540.013092
1015.731699	2543.120963
1016.024736	2539.090561
1016.317737	2542.047197
1016.610703	2540.786909
1016.903635	2541.210366
1017.196531	2540.154244
1017.489393	2538.546116
1017.782219	2536.907741
1018.075011	2539.680376
1018.367768	2541.530479
1018.660490	2540.857485
1018.953177	2540.857485
1019.245829	2540.857485
