Dividing Wavelength (nm)	Counts (n)	Blue Motor Position (mm): 7.000000	Red Motor Position (mm): 0.000000	
326.493990	2159.670637
326.888308	2159.670637
327.282561	2159.670637
327.676750	2118.907867
328.070874	2112.893770
328.464933	2114.156579
328.858929	2118.421396
329.252859	2124.901799
329.646726	2131.152830
330.040528	2145.436939
330.434265	2157.898671
330.827938	2175.459531
331.221547	2191.843281
331.615091	2209.018492
332.008571	2226.539022
332.401986	2246.350757
332.795338	2263.815834
333.188625	2282.389966
333.581847	2298.793880
333.975006	2319.812971
334.368100	2336.267297
334.761129	2356.275637
335.154095	2373.171064
335.546996	2390.404248
335.939833	2404.630385
336.332606	2421.417427
336.725315	2434.960487
337.117960	2448.448094
337.510540	2457.892696
337.903056	2467.115487
338.295508	2477.674183
338.687896	2488.495020
339.080220	2498.226967
339.472480	2503.305930
339.864676	2510.219872
340.256807	2512.372445
340.648875	2519.727489
341.040879	2517.968126
341.432818	2522.558097
341.824694	2527.231246
342.216506	2523.919208
342.608253	2530.029087
342.999937	2528.756195
343.391557	2530.560928
343.783113	2528.337779
344.174605	2530.906247
344.566033	2525.940711
344.957397	2523.573889
345.348697	2524.773684
345.739934	2521.116327
346.131106	2518.134484
346.522215	2517.771521
346.913260	2517.791686
347.304241	2510.729029
347.695159	2511.051663
348.086012	2513.370594
348.476802	2509.015037
348.867528	2503.381547
349.258191	2499.371309
349.648789	2501.813748
350.039324	2497.601864
350.429796	2502.038080
350.820203	2501.629746
351.210548	2499.323418
351.600828	2496.311329
351.991045	2496.371823
352.381198	2495.141781
352.771288	2494.259579
353.161314	2495.534991
353.551276	2493.621873
353.941175	2493.372336
354.331010	2492.205309
354.720782	2490.254383
355.110490	2494.342758
355.500135	2495.908037
355.889717	2493.062305
356.279235	2489.140288
356.668689	2491.161790
357.058080	2492.684219
357.447408	2495.035917
357.836672	2493.314363
358.225873	2492.419558
358.615010	2497.611947
359.004084	2497.115393
359.393095	2493.841164
359.782043	2495.943325
360.170927	2495.950887
360.559748	2494.534322
360.948505	2497.450630
361.337199	2498.184118
361.725830	2497.382574
362.114398	2497.395177
362.502903	2499.000785
362.891344	2498.489108
363.279722	2499.782163
363.668037	2501.881804
364.056289	2500.465240
364.444478	2501.128152
364.832603	2502.171670
365.220665	2501.700323
365.608665	2506.184429
365.996601	2504.301558
366.384474	2506.355828
366.772284	2501.463388
367.160031	2501.435662
367.547715	2502.756444
367.935336	2503.184942
368.322893	2501.672596
368.710388	2501.949860
369.097820	2499.971207
369.485189	2499.862822
369.872495	2507.782475
370.259738	2506.053359
370.646918	2509.950171
371.034035	2508.800788
371.421090	2504.593945
371.808081	2506.116373
372.195010	2506.454131
372.581875	2509.390603
372.968678	2508.589059
373.355418	2510.426560
373.742096	2508.851199
374.128710	2510.262722
374.515262	2509.877074
374.901751	2507.537979
375.288177	2509.756086
375.674540	2509.841786
376.060841	2510.570233
376.447079	2511.913700
376.833254	2509.935047
377.219367	2511.260871
377.605417	2514.121726
377.991404	2510.943278
378.377329	2513.645337
378.763191	2510.507218
379.148991	2511.684328
379.534727	2511.749863
379.920402	2513.773886
380.306013	2511.550737
380.691563	2511.616272
381.077049	2513.047960
381.462474	2513.889832
381.847835	2512.359842
382.233134	2515.354288
382.618371	2511.452435
383.003545	2514.356139
383.388657	2516.934689
383.773706	2512.437980
384.158693	2513.418485
384.543618	2517.332941
384.928480	2513.882271
385.313280	2516.128105
385.698017	2513.216838
386.082692	2518.010976
386.467305	2516.589370
386.851856	2519.588857
387.236344	2514.724143
387.620770	2514.572909
388.005133	2514.497292
388.389435	2514.063752
388.773674	2511.465038
389.157851	2514.898063
389.541965	2517.607683
389.926018	2517.884947
390.310008	2517.605163
390.693936	2517.353105
391.077802	2516.803619
391.461606	2520.092972
391.845348	2516.223887
392.229027	2520.902077
392.612645	2519.634227
392.996200	2521.791841
393.379694	2521.118847
393.763125	2521.880061
394.146494	2523.800741
394.529801	2520.365195
394.913047	2516.768331
395.296230	2521.685977
395.679351	2519.029289
396.062410	2520.798734
396.445408	2521.060874
396.828343	2521.958199
397.211217	2520.211439
397.594028	2522.878210
397.976778	2522.472397
398.359466	2521.814526
398.742092	2521.806965
399.124656	2521.990967
399.507158	2521.330576
399.889598	2523.352078
400.271977	2521.302849
400.654294	2521.544825
401.036549	2520.541635
401.418742	2521.824609
401.800874	2522.316121
402.182944	2525.771832
402.564952	2521.340658
402.946898	2526.003725
403.328783	2523.415093
403.710606	2526.381812
404.092367	2526.016328
404.474067	2525.912984
404.855705	2524.604805
405.237282	2524.559435
405.618797	2524.829136
406.000250	2525.867614
406.381642	2523.722603
406.762972	2519.664474
407.144240	2521.648168
407.525447	2522.973992
407.906593	2521.388549
408.287677	2524.849301
408.668700	2527.042203
409.049661	2524.803931
409.430560	2526.906092
409.811399	2527.662265
410.192176	2525.003056
410.572891	2527.581606
410.953545	2529.711494
411.334138	2528.075639
411.714669	2525.897861
412.095139	2528.184024
412.475547	2527.087573
412.855894	2531.196114
413.236180	2527.516071
413.616405	2529.792152
413.996568	2528.602440
414.376670	2529.542615
414.756711	2528.229395
415.136691	2529.829961
415.516609	2528.673016
415.896466	2530.092101
416.276262	2528.854498
416.655997	2528.123530
417.035670	2528.809127
417.415283	2529.492204
417.794834	2529.756864
418.174324	2529.852646
418.553753	2527.899199
418.933121	2532.388347
419.312428	2528.746113
419.691674	2532.148892
420.070859	2529.953469
420.449983	2527.700073
420.829045	2530.054292
421.208047	2533.416742
421.586988	2533.076464
421.965867	2532.123686
422.344686	2534.195600
422.723444	2531.107893
423.102141	2530.815507
423.480777	2531.276772
423.859352	2531.357431
424.237866	2530.727286
424.616319	2531.034797
424.994712	2531.652338
425.373044	2530.792821
425.751314	2529.749303
426.129524	2527.105217
426.507673	2529.903058
426.885762	2528.874662
427.263789	2533.426824
427.641756	2532.960518
428.019662	2532.574869
428.397508	2534.399767
428.775292	2532.078316
429.153016	2533.081505
429.530679	2532.569828
429.908282	2533.847761
430.285824	2533.343645
430.663305	2533.978831
431.040726	2533.580579
431.418086	2534.603934
431.795385	2534.606454
432.172624	2535.037473
432.549802	2536.474202
432.926920	2534.359438
433.303977	2532.859694
433.680974	2532.932791
434.057910	2533.240302
434.434786	2534.198121
434.811601	2535.339942
435.188355	2536.358255
435.565050	2535.508821
435.941683	2533.711649
436.318257	2534.692154
436.694770	2536.416228
437.071222	2533.517565
437.447614	2535.198790
437.823946	2534.268697
438.200218	2536.491846
438.576429	2535.861702
438.952580	2535.566794
439.328670	2537.162319
439.704700	2538.709953
440.080670	2533.968748
440.456580	2536.199459
440.832429	2539.511497
441.208218	2534.682072
441.583947	2537.374048
441.959616	2537.432021
442.335224	2535.902031
442.710773	2535.123172
443.086261	2538.208359
443.461689	2535.773481
443.837057	2537.626105
444.212365	2536.688451
444.587612	2535.501259
444.962800	2534.475384
445.337927	2535.183666
445.712995	2532.718542
446.088002	2539.113246
446.462949	2537.121990
446.837837	2536.927906
447.212664	2538.606610
447.587431	2540.101312
447.962139	2536.391023
448.336786	2538.498225
448.711374	2538.236085
449.085901	2538.599048
449.460369	2538.283976
449.834776	2537.893287
450.209124	2538.031918
450.583412	2537.424459
450.957640	2536.070909
451.331808	2542.011909
451.705917	2537.956301
452.079965	2538.188194
452.453954	2538.949408
452.827883	2537.984027
453.201752	2539.647608
453.575562	2538.258770
453.949311	2538.462937
454.323001	2542.909235
454.696632	2538.480581
455.070202	2538.871270
455.443713	2540.980993
455.817164	2541.865716
456.190556	2538.364634
456.563888	2540.703730
456.937160	2540.560057
457.310373	2540.257588
457.683526	2541.464944
458.056619	2540.444110
458.429653	2539.428318
458.802628	2538.878832
459.175542	2540.890252
459.548398	2542.306817
459.921194	2539.226672
460.293930	2541.114584
460.666607	2542.175747
461.039224	2539.801363
461.411782	2539.362783
461.784280	2540.242464
462.156719	2540.086188
462.529099	2544.713968
462.901419	2541.593493
463.273680	2539.536703
463.645882	2535.894469
464.018024	2538.959491
464.390106	2533.625950
464.762130	2543.504091
465.134094	2540.802032
465.505999	2542.710109
465.877845	2540.560057
466.249631	2541.255736
466.621358	2540.839841
466.993026	2539.052752
467.364634	2544.202291
467.736184	2542.677342
468.107674	2540.786909
468.479105	2540.854964
468.850477	2544.240099
469.221790	2542.803370
469.593043	2542.911755
469.964238	2540.653318
470.335373	2539.408153
470.706449	2542.528628
471.077467	2541.447300
471.448425	2541.749769
471.819324	2543.113401
472.190164	2542.674821
472.560945	2541.243133
472.931667	2543.693134
473.302330	2541.570808
473.672934	2543.141128
474.043479	2543.115922
474.413965	2543.418391
474.784393	2544.199770
475.154761	2543.781354
475.525070	2542.841179
475.895321	2542.296734
476.265513	2544.759338
476.635645	2545.026519
477.005719	2543.705737
477.375734	2542.384955
477.745691	2546.690100
478.115588	2544.252702
478.485427	2543.189019
478.855207	2544.618186
479.224928	2544.393854
479.594591	2544.973587
479.964194	2544.300593
480.333739	2545.911242
480.703226	2541.071734
481.072653	2543.962836
481.442022	2543.972918
481.811333	2541.540561
482.180584	2541.621220
482.549777	2542.810932
482.918912	2536.133924
483.287988	2545.792775
483.657005	2546.536345
484.025964	2543.950233
484.394864	2542.924358
484.763706	2544.303114
485.132489	2547.146324
485.501213	2544.981149
485.869879	2544.804708
486.238487	2543.632640
486.607036	2544.328319
486.975527	2546.659853
487.343959	2545.737322
487.712333	2547.723537
488.080648	2545.152548
488.448905	2545.334030
488.817104	2543.246992
489.185244	2546.090203
489.553326	2544.847558
489.921350	2546.377548
490.289315	2544.676159
490.657222	2546.627086
491.025070	2545.442414
491.392861	2546.415357
491.760593	2547.814277
492.128267	2544.096426
492.495883	2546.367466
492.863440	2546.377548
493.230939	2547.642878
493.598380	2546.170861
493.965763	2545.371838
494.333088	2546.624565
494.700354	2545.064328
495.067563	2546.382590
495.434713	2547.731098
495.801805	2546.082641
496.168839	2545.792775
496.535815	2548.857796
496.902733	2548.010882
497.269593	2548.545245
497.636395	2547.801674
498.003139	2545.828063
498.369825	2545.805377
498.736453	2545.197918
499.103023	2544.529966
499.469535	2549.356870
499.835989	2546.783361
500.202385	2544.829914
500.568723	2542.069883
500.935003	2543.267157
501.301226	2543.557023
501.667390	2546.569112
502.033497	2548.502395
502.399546	2548.116747
502.765537	2545.946530
503.131470	2548.643547
503.497345	2548.885523
503.863163	2545.228165
504.228923	2548.656150
504.594625	2547.514329
504.960269	2548.809905
505.325856	2544.905532
505.691385	2547.484082
506.056856	2547.214380
506.422270	2545.724719
506.787625	2547.428629
507.152924	2547.922662
507.518164	2548.260419
507.883347	2549.550955
508.248472	2548.124308
508.613540	2546.979966
508.978550	2548.018444
509.343503	2547.947868
509.708398	2547.675646
510.073236	2546.546427
510.438016	2550.770914
510.802738	2547.756304
511.167403	2547.632796
511.532010	2548.058773
511.896561	2547.494164
512.261053	2548.451983
512.625488	2547.733619
512.989866	2547.796633
513.354186	2548.066335
513.718449	2546.881664
514.082655	2549.460214
514.446803	2548.905687
514.810894	2549.472817
515.174927	2549.893753
515.538904	2548.015923
515.902822	2550.778476
516.266684	2547.617672
516.630488	2549.714792
516.994235	2550.687735
517.357925	2549.598846
517.721558	2547.970553
518.085133	2549.089689
518.448651	2545.182795
518.812112	2546.967363
519.175516	2547.983156
519.538863	2543.902342
519.902152	2551.166645
520.265385	2549.571119
520.628560	2549.954247
520.991678	2547.395862
521.354739	2548.391489
521.717743	2549.407282
522.080690	2548.136911
522.443580	2548.925852
522.806413	2548.756973
523.169189	2547.970553
523.531908	2548.154555
523.894569	2549.356870
524.257174	2549.777807
524.619722	2551.292673
524.982213	2549.402241
525.344647	2553.369629
525.707025	2547.733619
526.069345	2550.627241
526.431608	2547.511808
526.793815	2552.840308
527.155964	2550.775955
527.518057	2550.385266
527.880093	2549.225800
528.242072	2549.901315
528.603995	2550.710420
528.965860	2549.987015
529.327669	2549.961809
529.689421	2550.755791
530.051117	2550.954916
530.412755	2548.343598
530.774337	2554.105637
531.135862	2550.914587
531.497331	2551.267468
531.858743	2548.066335
532.220098	2547.731098
532.581396	2550.508774
532.942638	2550.123126
533.303824	2549.863506
533.664953	2551.368291
534.026025	2550.118085
534.387040	2551.186809
534.747999	2551.983312
535.108902	2549.671942
535.469748	2552.941131
535.830537	2549.538352
536.191270	2552.605894
536.551947	2548.910728
536.912567	2548.111705
537.273131	2548.116747
537.633638	2545.954092
537.994089	2551.600184
538.354483	2550.274360
538.714821	2553.205791
539.075103	2552.653785
539.435328	2550.738147
539.795497	2552.431974
540.155609	2552.379042
540.515665	2551.390976
540.875665	2554.231666
541.235609	2554.065308
541.595496	2556.432130
541.955328	2554.256872
542.315102	2552.263096
542.674821	2553.515822
543.034483	2553.135215
543.394090	2552.502550
543.753640	2554.806358
544.113134	2553.369629
544.472571	2555.716286
544.831953	2556.535473
545.191278	2555.902809
545.550548	2556.139743
545.909761	2556.661502
546.268918	2556.157387
546.628019	2557.591595
546.987064	2555.381049
547.346053	2557.412634
547.704986	2559.366081
548.063863	2558.372974
548.422684	2557.465566
548.781449	2557.730227
549.140158	2560.611246
549.498811	2559.025803
549.857408	2556.444733
550.215949	2560.979251
550.574434	2559.265258
550.932864	2561.483366
551.291237	2559.708880
551.649555	2560.497820
552.007817	2559.920608
552.366022	2561.745506
552.724173	2560.260886
553.082267	2559.698797
553.440305	2562.151319
553.798288	2563.225085
554.156215	2564.886145
554.514086	2562.000084
554.871902	2556.928683
555.229661	2560.754919
555.587365	2556.212840
555.945014	2562.244580
556.302606	2564.563511
556.660143	2563.414128
557.017625	2562.080743
557.375050	2563.565363
557.732421	2561.485887
558.089735	2564.903789
558.446994	2561.034703
558.804197	2564.371947
559.161345	2567.162226
559.518437	2563.610733
559.875474	2562.710887
560.232455	2566.360682
560.589381	2564.616443
560.946251	2563.497307
561.303065	2567.386557
561.659825	2567.762123
562.016528	2566.491752
562.373177	2564.601320
562.729770	2561.748027
563.086307	2564.961762
563.442789	2565.281875
563.799216	2565.395301
564.155587	2565.128120
564.511904	2565.526371
564.868164	2566.973182
565.224370	2568.356979
565.580520	2563.383881
565.936615	2568.719942
566.292654	2566.123748
566.648638	2565.289437
567.004567	2564.238357
567.360441	2563.588048
567.716260	2565.657441
568.072023	2567.384037
568.427732	2565.823799
568.783385	2567.010991
569.138982	2565.218861
569.494525	2564.767678
569.850013	2566.002760
570.205445	2564.180383
570.560823	2565.614592
570.916145	2567.215158
571.271412	2564.071998
571.626625	2566.988306
571.981782	2568.760272
572.336884	2564.210630
572.691931	2562.559652
573.046923	2562.804148
573.401860	2558.209137
573.756743	2564.442523
574.111570	2567.111814
574.466342	2563.638459
574.821059	2564.389591
575.175722	2563.956052
575.530330	2563.940928
575.884882	2564.586196
576.239380	2564.805486
576.593823	2564.311453
576.948211	2562.945301
577.302544	2565.072668
577.656823	2561.067471
578.011047	2562.857080
578.365216	2562.756257
578.719330	2562.688202
579.073389	2562.239539
579.427394	2563.489745
579.781344	2563.903120
580.135239	2564.306412
580.489080	2562.168963
580.842866	2559.945814
581.196597	2570.501990
581.550273	2564.109807
581.903895	2562.148798
582.257463	2565.377657
582.610975	2563.545198
582.964434	2562.993192
583.317837	2563.577965
583.671186	2561.869014
584.024481	2562.839436
584.377721	2561.110321
584.730906	2560.908674
585.084037	2559.146791
585.437113	2559.981102
585.790135	2562.738613
586.143103	2563.938408
586.496016	2560.394477
586.848874	2560.938921
587.201679	2562.940259
587.554428	2560.961607
587.907124	2561.238870
588.259765	2559.529919
588.612352	2561.919426
588.964884	2559.746688
589.317362	2561.218705
589.669786	2561.349775
590.022155	2559.834909
590.374470	2556.772408
590.726731	2559.325752
591.078937	2556.439692
591.431090	2559.401369
591.783188	2559.350958
592.135232	2561.039744
592.487222	2560.147460
592.839157	2558.680484
593.191038	2558.788869
593.542866	2556.661502
593.894639	2558.438509
594.246358	2561.248952
594.598022	2557.856256
594.949633	2557.846173
595.301190	2558.080587
595.652692	2558.488921
596.004141	2558.519167
596.355535	2558.879610
596.706876	2557.624363
597.058162	2557.689898
597.409395	2557.442881
597.760573	2558.070505
598.111698	2558.461194
598.462768	2558.655279
598.813785	2558.574620
599.164748	2555.560010
599.515657	2557.836091
599.866511	2558.327604
600.217312	2558.481359
600.568060	2559.353478
600.918753	2558.231822
601.269392	2559.971020
601.619978	2557.271482
601.970510	2556.832902
602.320988	2555.708724
602.671412	2557.344579
603.021783	2555.842315
603.372100	2555.076059
603.722363	2558.831719
604.072572	2559.224929
604.422728	2555.857438
604.772830	2556.336348
605.122878	2560.013870
605.472872	2558.529250
605.822813	2560.069322
606.172701	2557.485731
606.522534	2558.788869
606.872314	2560.686864
607.222041	2557.092521
607.571714	2554.866852
607.921333	2554.027499
608.270899	2557.387428
608.620411	2554.861810
608.969870	2557.662171
609.319276	2562.352965
609.668627	2566.690878
610.017926	2571.606003
610.367171	2571.878225
610.716362	2571.021229
611.065500	2569.251784
611.414585	2566.607699
611.763616	2566.406053
612.112594	2563.673747
612.461518	2562.368088
612.810389	2564.271124
613.159207	2561.879097
613.507971	2558.448591
613.856682	2560.676781
614.205340	2561.180897
614.553945	2561.856411
614.902496	2559.282902
615.250994	2561.662327
615.599439	2559.207285
615.947830	2562.017728
616.296169	2558.814075
616.644454	2560.462532
616.992686	2557.331976
617.340864	2558.882131
617.688990	2560.830537
618.037063	2559.325752
618.385082	2561.334652
618.733048	2561.702656
619.080961	2558.010011
619.428821	2562.234498
619.776628	2560.112172
620.124382	2560.568397
620.472083	2560.812893
620.819731	2561.969837
621.167326	2561.367419
621.514868	2560.770043
621.862357	2562.930177
622.209793	2562.766340
622.557176	2561.105279
622.904506	2561.120403
623.251783	2562.592420
623.599007	2559.482028
623.946179	2559.691236
624.293297	2563.462019
624.640363	2561.185938
624.987376	2558.514126
625.334336	2555.562531
625.681243	2556.406924
626.028097	2553.583878
626.374899	2560.553273
626.721647	2559.076215
627.068343	2559.199723
627.414987	2559.537481
627.761577	2561.231308
628.108115	2561.687533
628.454600	2558.806513
628.801032	2562.743654
629.147412	2561.397666
629.493739	2561.437996
629.840014	2561.765671
630.186236	2562.854560
630.532405	2561.899261
630.878521	2564.190466
631.224585	2562.090825
631.570597	2561.155691
631.916556	2564.492935
632.262462	2561.138047
632.608316	2563.605692
632.954117	2561.879097
633.299866	2562.927657
633.645562	2561.102759
633.991206	2561.742985
634.336797	2562.622667
634.682336	2560.911195
635.027823	2561.715259
635.373257	2563.005794
635.718639	2560.777604
636.063968	2560.538150
636.409245	2560.124775
636.754470	2559.971020
637.099642	2559.035886
637.444762	2565.443192
637.789829	2562.136195
638.134845	2563.267934
638.479808	2561.712738
638.824719	2565.259190
639.169577	2558.201575
639.514383	2560.588561
639.859137	2562.116031
640.203839	2560.094528
640.548489	2561.624518
640.893086	2560.210475
641.237632	2559.618139
641.582125	2564.077040
641.926566	2563.772050
642.270955	2560.477656
642.615292	2560.298695
642.959576	2559.262738
643.303809	2558.307439
643.647990	2563.328428
643.992118	2562.002605
644.336195	2564.959242
644.680219	2560.865825
645.024192	2566.229612
645.368112	2563.328428
645.711981	2561.196020
646.055797	2563.835064
646.399562	2566.867318
646.743274	2565.659962
647.086935	2566.668193
647.430544	2564.865980
647.774101	2569.150961
648.117606	2566.680796
648.461059	2567.293296
648.804460	2571.787484
649.147810	2570.784295
649.491108	2567.870508
649.834354	2567.366392
650.177548	2567.426886
650.520690	2565.097873
650.863781	2567.068964
651.206820	2565.629715
651.549807	2567.028635
651.892742	2566.650549
652.235626	2565.919581
652.578458	2569.816393
652.921238	2566.711042
653.263967	2570.749007
653.606644	2568.790518
653.949269	2568.311609
654.291843	2570.002916
654.634365	2570.358317
654.976836	2568.588872
655.319255	2568.495611
655.661622	2570.234809
656.003938	2570.108780
656.346203	2569.365210
656.688416	2569.652556
657.030577	2569.957546
657.372687	2569.793708
657.714746	2569.455951
658.056753	2569.395457
658.398708	2571.250602
658.740612	2572.795715
659.082465	2570.126424
659.424266	2569.622309
659.766016	2568.026784
660.107715	2573.438462
660.449362	2568.170457
660.790958	2574.340829
661.132503	2572.049624
661.473996	2575.875860
661.815438	2575.278483
662.156829	2572.122721
662.498168	2575.777558
662.839456	2575.918710
663.180693	2576.480799
663.521879	2578.688824
663.863013	2578.230079
664.204097	2575.583473
664.545129	2576.765624
664.886110	2580.571695
665.227040	2580.289390
665.567918	2580.080182
665.908746	2581.010275
666.249522	2583.654361
666.590248	2584.034968
666.930922	2583.752663
667.271545	2583.702252
667.612118	2586.505133
667.952639	2588.773652
668.293109	2587.490679
668.633528	2586.966399
668.973896	2589.275247
669.314213	2591.102665
669.654480	2588.967737
669.994695	2587.399938
670.334859	2591.369847
670.674973	2592.002511
671.015035	2591.533684
671.355047	2592.945207
671.695008	2591.914291
672.034918	2592.642738
672.374777	2594.679364
672.714585	2593.197265
673.054342	2598.223295
673.394049	2599.803697
673.733705	2599.972576
674.073310	2599.634818
674.412864	2603.700509
674.752368	2602.427617
675.091820	2598.639190
675.431223	2604.572628
675.770574	2601.928543
676.109875	2605.724532
676.449125	2600.824531
676.788324	2600.572473
677.127473	2598.719849
677.466571	2600.338059
677.805619	2604.108842
678.144616	2603.670262
678.483562	2608.499687
678.822458	2605.119594
679.161303	2607.478854
679.500098	2608.842486
679.838842	2610.153186
680.177535	2610.649739
680.516179	2612.845162
680.854771	2612.756942
681.193314	2616.051336
681.531805	2619.358333
681.870247	2626.259672
682.208638	2629.854015
682.546978	2635.195117
682.885268	2641.499080
683.223508	2637.919861
683.561697	2636.304171
683.899836	2634.277627
684.237925	2636.236116
684.575963	2636.883904
684.913951	2646.759524
685.251889	2640.947074
685.589776	2645.829432
685.927614	2646.242806
686.265401	2644.017137
686.603137	2651.790596
686.940824	2655.362253
687.278460	2661.555311
687.616046	2669.588390
687.953582	2675.713392
688.291068	2671.738442
688.628504	2679.446366
688.965889	2685.785617
689.303224	2690.763756
689.640510	2690.312573
689.977745	2685.082376
690.314930	2683.224711
690.652065	2682.226562
690.989150	2676.318330
691.326185	2676.945954
691.663170	2673.550737
692.000105	2671.090653
692.336990	2676.262877
692.673825	2671.254491
693.010610	2668.688544
693.347345	2662.220743
693.684030	2659.818633
694.020665	2662.044303
694.357251	2658.628921
694.693786	2669.250632
695.030272	2661.847698
695.366707	2661.638490
695.703093	2661.724190
696.039429	2663.733089
696.375716	2666.493121
696.711952	2659.995074
697.048139	2668.315498
697.384276	2670.689882
697.720363	2673.240706
698.056400	2672.698782
698.392388	2674.546364
698.728326	2674.178360
699.064214	2672.633247
699.400053	2685.478107
699.735842	2677.122394
700.071581	2676.341015
700.407270	2674.198525
700.742910	2674.874039
701.078501	2679.264884
701.414042	2674.952177
701.749533	2676.416632
702.084974	2674.790860
702.420366	2675.461334
702.755709	2677.119873
703.091002	2675.985614
703.426246	2676.968639
703.761440	2679.559792
704.096584	2679.685821
704.431679	2675.300017
704.766725	2681.059535
705.101721	2679.194308
705.436668	2680.757066
705.771565	2681.782941
706.106413	2687.998683
706.441212	2692.192923
706.775961	2688.137315
707.110661	2690.564631
707.445311	2703.901003
707.779913	2697.816331
708.114465	2704.110211
708.448967	2708.274204
708.783421	2708.639688
709.117825	2724.945300
709.452180	2727.372616
709.786485	2725.519992
710.120742	2741.538258
710.454949	2742.357445
710.789107	2750.045205
711.123216	2761.322266
711.457275	2780.009823
711.791286	2789.275464
712.125247	2785.219856
712.459159	2802.899182
712.793023	2812.981490
713.126837	2797.056485
713.460602	2806.468319
713.794318	2788.668005
714.127985	2803.342804
714.461602	2797.865590
714.795171	2788.184054
715.128691	2786.492747
715.462162	2765.345107
715.795584	2778.429422
716.128957	2769.413318
716.462281	2749.687283
716.795556	2772.445572
717.128782	2756.606267
717.461960	2740.898031
717.795088	2751.983529
718.128167	2753.286667
718.461198	2747.249885
718.794180	2744.015985
719.127113	2756.805392
719.459997	2751.066039
719.792833	2730.820765
720.125619	2742.889287
720.458357	2731.574417
720.791046	2735.002402
721.123686	2745.220821
721.456278	2739.342835
721.788821	2736.169429
722.121315	2728.383367
722.453761	2736.275293
722.786158	2744.237796
723.118506	2743.390882
723.450805	2745.049422
723.783056	2746.002200
724.115259	2741.697054
724.447412	2747.441449
724.779518	2750.204001
725.111574	2753.342120
725.443582	2761.244128
725.775542	2758.569796
726.107453	2775.112342
726.439315	2770.824841
726.771129	2776.859102
727.102895	2782.618621
727.434612	2794.863583
727.766281	2794.258645
728.097901	2805.949081
728.429473	2800.575211
728.760996	2802.498411
729.092471	2805.661735
729.423897	2804.434214
729.755276	2812.769762
730.086606	2806.997641
730.417887	2809.445121
730.749120	2814.125832
731.080305	2846.366532
731.411442	2855.047398
731.742530	2845.723784
732.073570	2866.982330
732.404562	2874.717981
732.735506	2851.574043
733.066401	2878.864330
733.397249	2877.815770
733.728048	2858.689632
734.058798	2837.564677
734.389501	2834.575273
734.720156	2828.472956
735.050762	2799.667803
735.381320	2795.607153
735.711831	2802.800880
736.042293	2796.617905
736.372707	2803.632670
736.703073	2795.977678
737.033391	2796.053296
737.363661	2795.360137
737.693883	2799.846764
738.024056	2813.846048
738.354182	2822.403407
738.684260	2822.214363
739.014290	2834.353462
739.344272	2844.604648
739.674207	2844.788650
740.004093	2854.102182
740.333931	2858.535877
740.663722	2856.426154
740.993464	2873.021633
741.323159	2889.496123
741.652806	2848.118332
741.982405	2841.617765
742.311956	2877.457848
742.641460	2862.624253
742.970915	2834.764316
743.300323	2843.573732
743.629683	2837.131138
743.958996	2825.544046
744.288260	2818.529280
744.617477	2827.951197
744.946647	2838.207424
745.275768	2811.605255
745.604842	2814.604742
745.933869	2816.089362
746.262847	2806.067548
746.591778	2813.200780
746.920662	2811.738846
747.249498	2811.368321
747.578286	2815.315544
747.907027	2832.299192
748.235720	2839.944102
748.564365	2828.377174
748.892963	2830.975889
749.221514	2867.259594
749.550017	2849.018178
749.878473	2824.127481
750.206881	2842.719257
750.535242	2836.795901
750.863555	2825.047492
751.191821	2835.376816
751.520039	2843.488033
751.848210	2827.507575
752.176334	2824.155208
752.504411	2846.469875
752.832440	2837.506704
753.160421	2822.544559
753.488356	2839.316478
753.816243	2854.767614
754.144082	2834.847495
754.471875	2823.577996
754.799620	2841.958042
755.127318	2844.186232
755.454969	2838.051148
755.782572	2831.666527
756.110129	2842.487364
756.437638	2855.397759
756.765100	2839.916375
757.092515	2835.994357
757.419882	2845.196984
757.747203	2843.505677
758.074477	2862.460415
758.401703	2868.373689
758.728882	2841.837055
759.056014	2845.433918
759.383099	2882.446070
759.710138	2882.141080
760.037129	2868.923174
760.364073	2868.822351
760.690970	2890.305228
761.017820	2895.699263
761.344623	2876.515152
761.671379	2892.548542
761.998088	2907.419946
762.324751	2931.796445
762.651366	3002.465860
762.977935	3131.118627
763.304456	3289.821712
763.630931	3384.691186
763.957359	3349.017461
764.283740	3285.965229
764.610074	3228.206209
764.936362	3117.101699
765.262602	3046.147458
765.588796	2975.765389
765.914943	2930.483225
766.241044	2932.421548
766.567097	2920.000145
766.893104	2881.765514
767.219064	2849.212263
767.544978	2856.647965
767.870845	2853.431709
768.196665	2837.340346
768.522438	2828.752740
768.848165	2826.282575
769.173846	2820.712100
769.499479	2820.041626
769.825066	2805.477733
770.150607	2799.370375
770.476101	2797.237967
770.801548	2805.215593
771.126949	2800.214768
771.452303	2790.389559
771.777611	2786.344033
772.102872	2791.213788
772.428087	2783.215997
772.753256	2786.044085
773.078378	2783.770524
773.403453	2775.470264
773.728482	2776.057559
774.053465	2767.724532
774.378401	2768.238729
774.703291	2775.891201
775.028135	2767.046496
775.352932	2756.109713
775.677683	2751.333220
776.002388	2760.442585
776.327046	2766.870056
776.651658	2749.505802
776.976224	2738.354769
777.300743	2742.178484
777.625216	2754.075607
777.949643	2759.164652
778.274024	2745.818197
778.598359	2734.767988
778.922647	2739.400809
779.246889	2740.217476
779.571086	2743.809298
779.895236	2746.095461
780.219339	2738.024574
780.543397	2735.655231
780.867409	2742.957343
781.191374	2753.543766
781.515294	2742.627147
781.839167	2742.977507
782.162995	2747.244844
782.486776	2743.315265
782.810511	2747.673342
783.134201	2754.526791
783.457844	2747.542272
783.781441	2733.633729
784.104993	2735.438462
784.428498	2740.542630
784.751958	2745.213259
785.075372	2740.280490
785.398739	2729.043758
785.722061	2731.463512
786.045337	2746.216449
786.368568	2757.743047
786.691752	2736.330746
787.014891	2736.550036
787.337983	2760.581217
787.661030	2779.241047
787.984031	2805.560912
788.306987	2832.339521
788.629897	2840.483505
788.952760	2834.797083
789.275579	2828.528409
789.598351	2836.599296
789.921078	2820.034064
790.243759	2772.813576
790.566395	2778.061417
790.888984	2787.667336
791.211529	2764.546084
791.534027	2758.385794
791.856480	2762.582555
792.178888	2748.086717
792.501249	2730.540981
792.823566	2736.865108
793.145836	2750.612335
793.468062	2740.477095
793.790241	2728.093501
794.112375	2735.125910
794.434464	2746.002200
794.756507	2756.321442
795.078505	2748.873137
795.400457	2744.184864
795.722364	2767.394336
796.044226	2784.745987
796.366042	2796.322997
796.687812	2797.515230
797.009538	2800.852474
797.331218	2790.122378
797.652852	2788.998201
797.974442	2790.750002
798.295986	2799.821558
798.617484	2784.440998
798.938938	2765.914757
799.260346	2777.302724
799.581709	2784.640123
799.903026	2769.244439
800.224299	2758.705907
800.545526	2762.970723
800.866708	2759.094076
801.187845	2738.420304
801.508936	2754.360433
801.829983	2759.378901
802.150984	2737.754872
802.471940	2737.323853
802.792851	2739.385685
803.113717	2742.428022
803.434538	2748.777355
803.755314	2730.470405
804.076045	2716.703013
804.396731	2727.223902
804.717372	2736.497104
805.037967	2734.543657
805.358518	2728.453943
805.679024	2733.737072
805.999485	2735.176322
806.319901	2735.491394
806.640272	2744.179822
806.960598	2745.818197
807.280879	2737.331415
807.601115	2738.841241
807.921306	2743.458937
808.241453	2757.949734
808.561554	2754.844383
808.881611	2733.356465
809.201623	2742.080182
809.521590	2751.363467
809.841513	2745.583784
810.161390	2755.877820
810.481223	2758.564755
810.801011	2741.089595
811.120755	2734.876373
811.440453	2750.183837
811.760107	2757.755650
812.079716	2749.420102
812.399281	2735.380488
812.718801	2744.603279
813.038276	2734.702453
813.357707	2741.157651
813.677093	2749.941861
813.996434	2737.719584
814.315731	2736.151785
814.634983	2737.669172
814.954191	2742.070100
815.273354	2751.245000
815.592473	2753.148035
815.911547	2746.803743
816.230577	2755.232552
816.549562	2768.150509
816.868502	2782.371604
817.187399	2792.264868
817.506250	2786.984260
817.825058	2775.429935
818.143821	2799.922381
818.462539	2831.124603
818.781213	2845.328054
819.099843	2846.946264
819.418429	2894.411248
819.736970	2945.480657
820.055466	2984.839466
820.373919	3078.683065
820.692327	3170.648835
821.010691	3243.183477
821.329011	3481.819097
821.647286	3910.027308
821.965517	4495.872399
822.283704	4958.746104
822.601847	5241.426286
822.919945	5173.423641
823.237999	4958.851968
823.556010	4700.492834
823.873976	4462.976350
824.191897	4055.845203
824.509775	3782.342443
824.827609	3557.063360
825.145398	3435.737910
825.463144	3434.931325
825.780845	3453.646609
826.098502	3451.204170
826.416116	3578.694951
826.733685	3798.847180
827.051210	4024.637941
827.368692	4104.963686
827.686129	3915.943102
828.003522	3613.604941
828.320872	3426.270623
828.638177	3293.161476
828.955439	3179.765762
829.272656	3059.335117
829.589830	2985.325937
829.906960	2951.918211
830.224046	2902.131775
830.541088	2875.905172
830.858086	2869.023998
831.175041	2854.321472
831.491952	2844.924762
831.808819	2850.069259
832.125642	2870.594317
832.442421	2904.727970
832.759157	2963.853143
833.075849	3075.149217
833.392497	3239.334556
833.709101	3359.729913
834.025662	3454.548976
834.342179	3429.902774
834.658653	3312.143941
834.975083	3191.385621
835.291469	3060.194634
835.607811	2948.467541
835.924110	2929.013728
836.240366	2875.464072
836.556578	2815.759166
836.872746	2785.441667
837.188871	2781.370935
837.504952	2770.413987
837.820990	2745.001531
838.136984	2727.944787
838.452935	2738.931981
838.768842	2742.770820
839.084706	2748.885740
839.400526	2782.495112
839.716303	2837.438648
840.032037	2937.843309
840.347727	3017.720392
840.663373	2983.455669
840.978977	2906.182343
841.294537	2838.414111
841.610054	2770.756786
841.925527	2744.111767
842.240957	2725.782132
842.556344	2718.207798
842.871687	2702.108873
843.186987	2689.231246
843.502244	2676.600635
843.817458	2668.408760
844.132629	2657.560197
844.447756	2661.850218
844.762840	2659.410300
845.077881	2650.885709
845.392879	2643.137455
845.707833	2643.099647
846.022745	2641.826755
846.337613	2644.647281
846.652438	2640.516055
846.967221	2643.334060
847.281960	2636.573873
847.596656	2635.580766
847.911309	2637.841723
848.225919	2634.368368
848.540485	2630.516927
848.855009	2632.140178
849.169490	2632.866104
849.483928	2624.717079
849.798323	2627.146915
850.112675	2623.539970
850.426984	2631.298306
850.741251	2632.011629
851.055474	2626.257152
851.369654	2623.199692
851.683792	2624.202882
851.997887	2629.415435
852.311938	2629.546505
852.625947	2626.640279
852.939914	2628.800414
853.253837	2632.316619
853.567718	2622.219187
853.881555	2621.818416
854.195350	2630.587503
854.509103	2629.702780
854.822812	2625.984929
855.136479	2627.870321
855.450103	2627.522481
855.763685	2621.843622
856.077224	2618.632407
856.390720	2625.385032
856.704173	2628.848305
857.017584	2627.595578
857.330953	2623.539970
857.644278	2628.129940
857.957561	2633.866773
858.270802	2633.445837
858.584000	2634.688482
858.897155	2631.106742
859.210268	2632.959366
859.523339	2628.853346
859.836367	2629.793521
860.149352	2628.999539
860.462295	2629.501134
860.775195	2631.114303
861.088054	2634.496918
861.400869	2626.665485
861.713642	2622.980402
862.026373	2630.055661
862.339062	2631.323511
862.651708	2631.888121
862.964312	2634.922895
863.276873	2629.823768
863.589392	2632.951804
863.901869	2633.120683
864.214303	2643.838176
864.526696	2650.192550
864.839045	2646.247847
865.151353	2646.046201
865.463619	2644.866571
865.775842	2646.527631
866.088023	2652.647592
866.400162	2659.811072
866.712258	2646.804895
867.024313	2641.864564
867.336325	2643.230717
867.648296	2653.854948
867.960224	2655.258910
868.272110	2650.263126
868.583954	2651.019299
868.895755	2658.346617
869.207515	2650.926038
869.519233	2651.480565
869.830909	2654.205309
870.142542	2658.762512
870.454134	2659.879127
870.765684	2660.194199
871.077191	2660.080773
871.388657	2661.875424
871.700081	2662.591268
872.011463	2669.648883
872.322803	2669.253153
872.634101	2670.110149
872.945357	2674.435459
873.256571	2684.053981
873.567744	2680.331088
873.878874	2674.599297
874.189963	2684.283353
874.501010	2686.685463
874.812015	2685.533559
875.122979	2684.394258
875.433900	2686.352747
875.744780	2689.049764
876.055618	2691.857687
876.366415	2690.385670
876.677169	2698.416228
876.987882	2699.948739
877.298554	2698.247349
877.609183	2700.233564
877.919771	2712.339895
878.230317	2722.510423
878.540822	2746.145872
878.851285	2764.548605
879.161707	2774.562857
879.472087	2801.074285
879.782425	2866.790766
880.092722	3016.691997
880.402977	3153.143428
880.713191	3241.242633
881.023363	3398.249369
881.333494	3594.239349
881.643583	3666.592509
881.953631	3666.088394
882.263637	3632.453815
882.573602	3593.009307
882.883526	3516.303110
883.193408	3375.128117
883.503248	3259.907505
883.813048	3200.048844
884.122806	3134.682723
884.432522	3046.502860
884.742197	2975.273877
885.051831	2910.006058
885.361424	2865.752289
885.670975	2843.737570
885.980485	2815.723878
886.289954	2787.959723
886.599382	2771.749893
886.908768	2757.891761
887.218113	2744.807446
887.527417	2727.486042
887.836680	2704.899152
888.145901	2711.223279
888.455082	2712.586911
888.764221	2688.888447
889.073319	2678.760769
889.382376	2681.714885
889.691392	2683.474248
890.000366	2680.850327
890.309300	2674.324554
890.618193	2681.372087
890.927044	2689.498427
891.235855	2688.102027
891.544625	2680.033660
891.853353	2680.303362
892.162041	2688.840556
892.470687	2700.987216
892.779293	2716.332489
893.087858	2732.398646
893.396381	2753.931935
893.704864	2784.320010
894.013306	2852.723427
894.321707	2941.213321
894.630068	3002.037362
894.938387	3001.991992
895.246665	2999.020232
895.554903	2980.940133
895.863100	2924.098603
896.171256	2875.242261
896.479371	2836.248936
896.787446	2798.004222
897.095480	2758.942842
897.403473	2732.925447
897.711425	2715.268805
898.019336	2715.951882
898.327207	2706.300592
898.635038	2693.695187
898.942827	2689.024558
899.250576	2685.334434
899.558284	2672.023267
899.865952	2662.382060
900.173579	2659.674961
900.481165	2658.071874
900.788711	2657.290495
901.096216	2643.124852
901.403681	2638.408853
901.711105	2643.213073
902.018489	2642.320788
902.325832	2643.833135
902.633135	2642.378762
902.940397	2654.921152
903.247619	2680.119360
903.554800	2736.151785
903.861941	2826.070846
904.169041	2935.292485
904.476101	3023.240455
904.783121	3032.889224
905.090100	2989.537821
905.397039	2923.196237
905.703938	2840.702795
906.010796	2779.324227
906.317614	2747.922879
906.624391	2714.701675
906.931129	2688.805268
907.237826	2663.511279
907.544483	2646.257930
907.851099	2633.443317
908.157675	2626.352934
908.464211	2619.728857
908.770707	2615.388424
909.077163	2614.332302
909.383578	2605.669079
909.689954	2598.969386
909.996289	2597.605754
910.302584	2600.093563
910.608839	2600.698502
910.915054	2595.125506
911.221229	2595.095259
911.527363	2595.801021
911.833458	2598.364447
912.139513	2600.864860
912.445527	2599.811259
912.751502	2603.279572
913.057436	2604.630602
913.363331	2614.642333
913.669186	2618.521501
913.975000	2628.727317
914.280775	2650.719351
914.586510	2675.602486
914.892205	2699.346321
915.197859	2733.427041
915.503475	2783.500822
915.809050	2843.167919
916.114585	2881.800802
916.420081	2898.638256
916.725536	2892.543501
917.030952	2869.137423
917.336328	2831.449757
917.641665	2786.638941
917.946961	2754.519229
918.252218	2736.567680
918.557435	2710.434339
918.862612	2695.714169
919.167750	2675.025274
919.472848	2661.169663
919.777906	2653.623055
920.082925	2643.923875
920.387904	2633.864253
920.692843	2623.653396
920.997743	2621.997377
921.302603	2614.165944
921.607423	2610.871550
921.912204	2606.515993
922.216946	2603.027515
922.521647	2599.841506
922.826310	2597.961155
923.130932	2594.613829
923.435516	2589.602922
923.740059	2588.118302
924.044564	2583.843404
924.349028	2581.156469
924.653454	2579.364339
924.957840	2576.974832
925.262186	2575.507856
925.566493	2573.645150
925.870761	2570.842268
926.174989	2570.118862
926.479178	2567.381516
926.783328	2564.659293
927.087438	2564.195507
927.391509	2563.608212
927.695541	2563.278017
927.999533	2561.584189
928.303486	2559.366081
928.607400	2559.595454
928.911275	2561.488407
929.215110	2560.064281
929.518906	2560.034034
929.822663	2558.249466
930.126381	2558.955227
930.430060	2559.764333
930.733699	2558.378015
931.037299	2559.013201
931.340861	2560.495300
931.644383	2560.530588
931.947866	2557.379867
932.251309	2560.187789
932.554714	2557.858776
932.858080	2559.630742
933.161407	2555.741492
933.464694	2556.860628
933.767943	2553.041954
934.071153	2554.324928
934.374323	2557.205947
934.677455	2556.041440
934.980548	2556.033879
935.283602	2554.415668
935.586617	2553.208312
935.889593	2557.052192
936.192530	2558.723334
936.495428	2556.648899
936.798287	2558.420865
937.101108	2560.550752
937.403890	2561.180897
937.706632	2561.664848
938.009336	2565.090312
938.312002	2567.716753
938.614628	2571.084243
938.917216	2573.267063
939.219765	2576.584142
939.522275	2576.490881
939.824747	2573.872002
940.127179	2571.598441
940.429573	2573.554409
940.731929	2572.480643
941.034246	2571.449727
941.336524	2571.638770
941.638763	2568.886300
941.940964	2566.670713
942.243126	2568.906465
942.545250	2565.135682
942.847335	2565.365054
943.149381	2563.504869
943.451389	2561.236349
943.753359	2559.310629
944.055290	2558.360371
944.357182	2560.394477
944.659036	2557.324414
944.960851	2559.779456
945.262628	2558.141081
945.564367	2557.417675
945.866067	2559.424055
946.167729	2557.793241
946.469352	2559.580330
946.770937	2558.284754
947.072484	2555.519681
947.373992	2558.637635
947.675462	2556.936245
947.976893	2551.418702
948.278286	2552.069011
948.579641	2555.270144
948.880958	2550.531459
949.182236	2552.638662
949.483476	2553.873744
949.784678	2552.363919
950.085841	2556.764846
950.386967	2554.801317
950.688054	2558.262069
950.989103	2552.744526
951.290114	2556.747202
951.591087	2558.342727
951.892021	2558.385577
952.192917	2558.166287
952.493776	2558.609908
952.794596	2558.662840
953.095378	2559.862635
953.396122	2561.198541
953.696828	2556.560679
953.997496	2556.837943
954.298126	2555.943138
954.598718	2556.527912
954.899272	2553.515822
955.199788	2553.230997
955.500266	2552.124464
955.800706	2551.358208
956.101108	2548.746891
956.401472	2549.944165
956.701798	2547.297559
957.002087	2546.891746
957.302337	2547.683207
957.602550	2547.731098
957.902724	2544.572815
958.202861	2544.320758
958.502960	2544.658515
958.803022	2547.993238
959.103045	2545.696993
959.403031	2544.784544
959.702979	2541.540561
960.002889	2544.439225
960.302762	2541.986703
960.602596	2545.681869
960.902393	2545.724719
961.202153	2540.532331
961.501875	2542.425284
961.801559	2543.120963
962.101205	2542.982331
962.400814	2541.205325
962.700385	2543.088196
962.999918	2539.685417
963.299414	2538.606610
963.598873	2540.055942
963.898293	2538.475540
964.197677	2544.315717
964.497022	2540.645757
964.796331	2544.653474
965.095601	2539.887063
965.394835	2542.987373
965.694030	2542.117773
965.993189	2543.065510
966.292309	2541.280942
966.591393	2543.632640
966.890439	2539.975283
967.189447	2543.284801
967.488419	2539.763555
967.787353	2543.456200
968.086249	2539.662732
968.385108	2541.938812
968.683930	2539.803884
968.982714	2540.015612
969.281462	2539.599717
969.580172	2541.568288
969.878844	2539.695499
970.177480	2542.442928
970.476078	2544.280428
970.774639	2542.362269
971.073162	2542.339584
971.371649	2541.212886
971.670098	2540.083668
971.968510	2542.321940
972.266885	2542.087527
972.565223	2542.614327
972.863524	2542.649615
973.161788	2540.658359
973.460014	2542.712630
973.758204	2542.831097
974.056356	2543.047866
974.354471	2539.267001
974.652550	2542.085006
974.950591	2543.123484
975.248595	2539.438400
975.546563	2542.455531
975.844493	2541.180119
976.142386	2541.906045
976.440243	2541.938813
976.738062	2541.275901
977.035845	2542.137938
977.333590	2542.213555
977.631299	2541.228010
977.928971	2537.905889
978.226606	2535.705426
978.524204	2538.662063
978.821765	2538.984696
979.119290	2542.021992
979.416777	2542.500901
979.714228	2538.636857
980.011642	2539.680376
980.309020	2539.682896
980.606360	2540.953267
980.903664	2540.849923
981.200931	2543.357897
981.498162	2541.059131
981.795356	2538.352032
982.092513	2543.869574
982.389633	2542.846220
982.686717	2543.693134
982.983764	2544.585418
983.280775	2550.486089
983.577749	2548.318393
983.874686	2548.754452
984.171587	2547.705893
984.468451	2546.677497
984.765279	2545.001313
985.062070	2545.681869
985.358824	2544.340922
985.655543	2541.366642
985.952224	2542.689944
986.248869	2541.316230
986.545478	2541.706919
986.842050	2541.099460
987.138586	2540.406302
987.435086	2541.588452
987.731549	2540.071065
988.027975	2538.231044
988.324366	2538.223482
988.620719	2541.202804
988.917037	2541.157434
989.213318	2540.653318
989.509563	2537.248019
989.805772	2541.081816
990.101944	2539.125849
990.398080	2539.138452
990.694180	2537.981507
990.990244	2542.715150
991.286271	2540.169367
991.582262	2539.846734
991.878217	2540.386137
992.174136	2540.121477
992.470019	2538.520910
992.765865	2535.634850
993.061676	2535.899510
993.357450	2534.029242
993.653188	2532.461443
993.948890	2539.831610
994.244556	2541.285983
994.540186	2540.492001
994.835780	2540.154244
995.131337	2537.356404
995.426859	2540.129038
995.722345	2538.669624
996.017795	2539.277083
996.313208	2542.279090
996.608586	2542.011909
996.903928	2542.006868
997.199234	2545.984338
997.494504	2540.807073
997.789738	2542.271529
998.084936	2540.686086
998.380099	2537.918492
998.675225	2539.529141
998.970316	2541.835469
999.265371	2539.519059
999.560390	2541.661549
999.855373	2543.045346
1000.150320	2540.643236
1000.445232	2539.249357
1000.740108	2538.011754
1001.034948	2541.825387
1001.329752	2541.986703
1001.624521	2539.559388
1001.919254	2540.323123
1002.213951	2536.862371
1002.508613	2539.874460
1002.803239	2537.396733
1003.097829	2537.989068
1003.392384	2539.972763
1003.686903	2539.703061
1003.981386	2537.933616
1004.275834	2537.840354
1004.570246	2540.338246
1004.864623	2538.599048
1005.158964	2540.499563
1005.453270	2537.747093
1005.747540	2537.295910
1006.041775	2539.778678
1006.335974	2539.108205
1006.630138	2539.274563
1006.924266	2538.727598
1007.218359	2538.480581
1007.512416	2538.021836
1007.806438	2533.860363
1008.100425	2536.829603
1008.394376	2534.787936
1008.688292	2539.206507
1008.982172	2538.873791
1009.276017	2541.661549
1009.569827	2537.215251
1009.863602	2539.277083
1010.157341	2539.216589
1010.451045	2541.296065
1010.744714	2537.837834
1011.038347	2536.738862
1011.331945	2538.321785
1011.625508	2537.265663
1011.919036	2537.515200
1012.212528	2538.818338
1012.505986	2537.192566
1012.799408	2538.508307
1013.092795	2539.473688
1013.386147	2539.912269
1013.679464	2539.246836
1013.972745	2540.991076
1014.265992	2536.479243
1014.559204	2538.283976
1014.852380	2540.658359
1015.145521	2539.156096
1015.438628	2537.931095
1015.731699	2539.645087
1016.024736	2539.496373
1016.317737	2537.847916
1016.610703	2540.459234
1016.903635	2540.849923
1017.196531	2540.139121
1017.489393	2539.841692
1017.782219	2538.861188
1018.075011	2540.466796
1018.367768	2536.834644
1018.660490	2538.934285
1018.953177	2538.934285
1019.245829	2538.934285
